##TITLE=FKDZ0102
##FORMAT=SPECTACLE-ASCII V-1.2
##DATA TYPE=ULTRAVIOLET SPECTRUM
##SECOND TYPE=ULTRAVIOLET SPECTRUM
##DATE=04/30/18
##TIME=12:58:08
##SPECTROMETER/DATA SYSTEM=SPECTACLE
##XUNITS=NM EM
##YUNITS=ENERGY
##YFACTOR=1
##FIRSTX=220
##LASTX=410
##NPOINTS=96
##3DDATA=Equidistant
##ZUNITS=NM EX
##FIRSTZ=210
##LASTZ=400
##ZPOINTS=39
##XYDATA=(Y..Y)
##ZVALUE=210
2.121925
2.357960
3.038645
2.984405
2.761483
2.480745
2.979636
3.081560
2.602935
2.234578
2.258420
2.144575
2.413988
2.286434
2.103448
2.611876
2.644658
2.129674
2.515912
2.546906
2.898574
2.893806
2.957582
3.144741
4.252791
4.690886
5.868673
7.798672
8.228421
10.080934
12.767911
13.850927
14.533997
14.512539
14.673471
16.786456
14.629960
15.204549
14.495850
14.136434
14.858842
14.096498
13.777614
11.475682
12.272596
10.844469
10.725856
9.749532
9.076595
8.935928
9.185672
7.939935
9.026527
7.329583
6.884933
6.856918
6.374717
5.971789
5.978942
5.370975
5.445480
5.247593
5.632639
5.192757
6.118417
4.933476
5.916953
6.122589
6.740689
6.997585
8.553863
10.255575
10.902882
11.902452
12.567639
12.472868
13.070703
12.407899
11.848807
12.003779
9.573698
10.995865
9.149909
7.236600
6.784797
5.275607
4.904866
4.643798
4.075766
4.203916
4.378557
4.742742
4.886985
4.668832
6.139874
5.116463
##ZVALUE=215
9.127855
9.324551
7.335544
6.690621
6.620884
6.148815
5.516410
5.374551
5.714893
5.677938
5.556941
5.165935
3.491640
3.933907
2.911687
2.494454
2.816916
2.968907
2.153516
2.527833
3.311634
2.910495
3.226995
3.684759
4.979968
7.029772
8.707643
10.674000
15.139580
17.784834
19.941926
23.130774
24.270415
26.188493
26.931763
29.831529
27.601719
27.919412
28.598905
23.722649
25.041699
22.602677
24.147630
19.984841
19.765496
19.780993
17.714500
16.809702
16.222596
14.264584
12.780428
11.575818
10.876656
10.468960
10.015965
9.633899
9.408593
8.853674
8.595586
8.054972
7.935762
7.276535
6.540418
6.941557
7.535815
6.802678
6.148815
7.186532
7.558465
8.040667
8.605719
8.624792
10.803938
11.616945
11.413693
13.371706
12.503862
13.626814
12.281537
11.321902
10.899901
10.762811
8.751750
8.881688
7.998943
5.961657
5.400777
4.468560
4.648566
4.511476
4.762411
4.864931
4.494786
4.619956
5.470514
4.518628
##ZVALUE=220
24.949908
24.122000
27.843714
23.758411
23.603439
18.253922
14.690757
12.646914
12.146831
12.699962
12.174845
13.000965
12.704730
12.333989
9.454489
8.763671
5.929470
3.905892
3.653765
3.515482
3.160834
3.189445
3.249645
3.567934
4.515648
8.459687
10.014772
15.257597
19.206405
26.778579
30.015707
35.676956
41.509867
45.542717
44.678450
45.640469
44.931769
44.074655
43.472648
44.141412
40.648580
36.850572
35.929680
34.248829
31.591654
28.166771
25.824904
28.217435
25.914907
20.761490
20.620823
18.492937
18.577576
15.247464
14.584661
13.855696
12.032986
12.159944
11.135936
11.034608
9.997487
10.421872
9.712577
8.423924
8.627772
9.680986
8.142591
8.107424
8.817911
9.696484
10.472536
9.945631
10.030866
11.421442
12.421608
13.432503
11.499524
11.801720
12.816787
12.157559
11.648536
10.063648
10.159612
8.693933
6.438494
6.868839
6.286502
6.435513
5.846620
5.370975
4.907846
5.768538
5.206466
5.538464
5.319715
5.468726
##ZVALUE=225
39.990544
42.829514
53.890944
68.666935
71.039796
70.958734
61.771870
48.477650
39.163828
33.009648
25.646687
25.887489
24.635792
28.500557
26.635528
24.126768
21.490455
17.155409
12.213588
7.494688
5.933642
3.964901
3.031492
4.324913
5.116463
8.145571
11.557937
15.802979
21.957755
29.815435
33.328533
41.593909
43.190718
49.094558
52.578449
56.077838
54.393411
54.505467
51.549673
51.406622
45.538545
43.676496
41.596889
36.684871
36.504865
34.857988
31.995773
27.653575
29.531717
26.104450
23.361444
21.927953
21.934509
18.708706
17.851591
15.653968
15.367866
13.423562
13.467669
13.417602
11.903644
11.828542
10.435581
10.067821
9.637475
10.361671
9.572506
9.393692
9.624958
10.138750
9.596944
10.414720
11.565685
12.151599
12.606978
11.195540
11.571646
12.823939
12.253523
10.495782
10.648966
9.660721
8.945465
7.980466
8.387566
7.437468
8.480549
7.271767
7.120967
6.342530
7.321835
7.275939
6.831884
7.668734
7.519722
6.980896
##ZVALUE=230
35.564899
38.459897
59.395432
89.233518
117.246509
144.772530
162.215829
156.605840
141.403675
112.341642
85.147619
60.890913
48.981905
44.071674
43.273568
48.415661
48.590899
47.602654
43.086410
33.872724
24.697781
18.730760
11.602640
8.478761
6.108880
8.229613
9.853840
13.673902
16.140938
21.281838
25.691986
29.627681
34.042001
36.520958
39.118528
39.593577
40.966868
38.639903
39.130449
37.045479
35.868883
35.794973
34.171939
31.048656
28.435588
28.209686
26.562810
26.532412
23.275614
22.650957
20.119548
19.556880
16.750693
16.544461
16.682744
15.088916
14.377832
12.700558
13.636947
12.295842
12.444854
12.409687
12.010932
11.465549
12.236834
11.320710
11.413693
10.416508
11.024475
11.476874
12.314916
12.062788
13.077855
12.160540
13.687611
14.336705
13.956428
12.828708
13.758540
11.596680
12.429953
10.810494
10.707974
10.514855
10.379553
10.304451
10.709763
9.729862
10.264516
9.528995
10.203719
9.542704
8.875728
9.256601
9.805560
9.393692
##ZVALUE=235
10.809898
12.857914
28.808713
66.162944
101.409554
161.317587
208.505988
265.299678
288.369656
285.053849
258.387923
213.276744
154.063702
111.399889
79.762936
69.132447
70.171952
71.959496
78.826547
80.315471
75.189471
63.118935
50.149560
34.176707
23.201704
16.231537
12.012720
10.716915
10.865927
12.644529
15.171766
17.088652
20.070672
18.986464
21.330714
21.786690
22.476912
22.024512
23.359656
21.647811
21.375418
21.125674
20.353794
21.312833
19.812584
19.806623
18.481612
16.970634
17.039776
15.869737
16.116500
15.150905
15.114546
13.802648
13.944507
13.188720
14.367700
12.241602
12.773871
12.106895
12.319684
11.761785
12.126565
12.077689
12.274981
13.123751
14.036894
10.971427
12.419820
12.935996
13.741851
14.028549
16.138554
15.263557
15.643835
16.557574
16.095638
14.770627
15.753508
14.685988
15.557408
15.787482
14.090538
13.901591
13.389587
13.045669
13.159513
13.240576
11.998415
12.105703
12.298822
12.640953
13.086796
13.558865
14.166832
11.833906
##ZVALUE=240
2.013445
1.994967
5.910993
14.662743
40.696859
74.106455
156.061649
233.007669
334.189534
400.040746
454.527736
457.201004
419.587493
341.776013
260.270834
174.726844
135.172606
98.330975
93.172789
98.582506
106.719732
117.729902
111.048818
101.681948
81.344843
60.977936
45.661926
33.218861
21.018982
16.954541
14.086962
14.898777
14.166832
16.395450
16.580820
17.077923
18.545985
17.255545
18.250942
18.009543
19.930601
18.665791
17.113686
16.822815
19.248724
15.958548
16.487837
16.972423
16.660690
15.681982
14.830828
14.529824
14.387965
13.847947
13.372898
12.805462
13.454556
12.881756
11.853576
12.313724
13.254881
11.166930
11.830926
12.071729
12.241602
13.230443
12.432933
13.695955
13.839602
13.797879
14.214516
16.204715
17.348528
17.350912
17.421842
18.419623
16.812682
18.140674
16.550422
18.226504
17.410517
16.740561
15.300512
15.911460
16.363859
15.236735
15.052557
16.704798
15.543699
15.641451
16.216636
14.755726
14.335513
15.313625
14.708638
15.858412
##ZVALUE=245
1.553893
1.241565
1.626611
1.639724
3.338456
12.523532
29.455423
82.012415
141.124725
222.147703
356.462598
456.695557
543.255806
561.538935
532.838702
465.978980
344.389677
257.562995
185.693502
122.592449
92.815757
95.650554
106.427670
122.102499
127.801895
121.120811
113.622546
93.509555
74.971914
55.227876
43.233633
32.466650
25.827885
21.875501
21.913648
21.778941
22.407770
22.279620
22.557974
22.983551
22.146702
22.435784
21.393895
20.076632
20.424724
20.074844
19.000769
17.366409
17.213821
16.373992
17.386675
15.135407
15.489459
14.650822
13.328791
13.666749
12.372732
12.788773
12.927651
11.482835
11.836886
12.750626
11.253953
11.948943
11.103749
11.419654
12.715459
11.446476
11.680722
13.240576
13.749599
16.504526
16.064644
15.685558
16.037822
16.733408
15.600920
16.083717
16.717911
15.028715
15.437603
15.471578
14.437437
14.411807
14.691949
15.640855
14.065504
14.486909
15.008450
14.767647
15.405416
14.521480
14.872551
14.934540
13.669729
14.077425
##ZVALUE=250
1.081824
1.437664
1.332760
1.526475
1.330972
1.489520
2.179742
8.133650
21.925569
62.645674
120.556951
234.497786
342.018604
486.532450
577.174425
636.802912
627.857447
562.475920
473.482013
329.454541
230.299830
137.732625
104.285479
87.705851
102.260709
118.236542
133.042932
140.849948
140.484571
128.065944
112.743974
94.723701
72.849989
60.160756
46.832561
40.228963
35.707951
35.179853
33.059716
33.714771
33.523440
32.011867
30.591488
28.627515
27.824640
27.675629
25.276542
24.154782
23.260713
22.289753
20.791888
18.985868
18.840432
17.911792
17.349720
16.958714
15.540719
14.033914
13.577938
12.949705
13.460517
13.176799
12.077689
12.086630
11.516809
12.009740
12.674928
12.238622
11.975765
12.034774
13.719797
14.844537
14.687777
13.000965
15.542507
14.947653
15.858412
14.672875
15.065670
13.794899
13.933778
14.389753
13.885498
13.439655
14.131665
13.408661
13.276935
14.488697
13.711452
14.035702
13.320446
13.109446
13.521910
12.892485
13.571978
12.990832
##ZVALUE=255
0.954866
1.081824
0.927448
1.249909
1.307726
1.527667
1.392961
1.407862
2.087951
3.609657
18.412471
43.565631
89.243650
195.244551
304.985642
461.800694
576.647520
678.239465
724.161863
678.130984
590.816736
472.832918
297.665596
196.362734
113.627911
89.821815
91.905594
110.784769
137.669444
157.177448
165.853500
169.429779
161.423683
140.120983
125.527978
98.460913
84.143877
67.361593
60.627460
51.283836
48.377514
47.549605
47.660470
42.105913
41.225553
37.537813
36.783814
33.395886
31.533837
29.311776
28.092861
26.395917
24.822950
21.967888
21.319985
20.360947
18.532872
17.889738
17.171502
16.317964
14.717579
14.922619
14.135838
13.127923
12.819767
13.757944
12.949705
12.622476
12.456775
12.462735
12.979507
12.767911
13.300776
13.609529
13.429523
13.485551
14.599562
14.180541
13.817549
13.593435
12.754798
13.683438
12.947917
12.771487
12.389421
12.719631
12.662411
12.298822
12.763739
12.699962
12.062788
13.158917
12.421608
12.513995
12.626648
12.806654
##ZVALUE=260
1.072884
1.095533
1.075864
0.711679
1.019835
0.900626
1.094937
1.148582
1.143813
1.490712
1.417994
2.413988
6.823540
27.950406
64.474940
155.342817
255.235434
417.327881
547.425747
706.354976
783.601999
787.885785
699.211955
579.936504
391.088724
271.713734
168.911815
117.952824
99.442601
111.280680
136.114955
172.495842
191.840529
210.989714
208.690763
199.028850
178.105831
146.108866
124.482512
100.606680
88.409781
72.423816
67.536831
60.540438
58.233738
53.200722
50.536990
45.256615
42.829514
39.782524
37.374496
33.976436
32.046437
29.080510
27.196407
24.920702
22.401810
21.481514
20.529628
18.475652
18.449426
16.363859
16.144514
15.038848
14.181733
14.119744
13.617873
13.146996
12.520552
12.823939
13.085604
13.678670
13.793707
12.953877
12.761950
14.266968
13.648868
13.273954
13.121963
12.625456
12.665987
11.942983
12.442470
12.109876
12.039542
11.671782
12.040734
12.553930
12.165904
11.340976
12.028813
11.344552
11.353493
12.232661
11.887550
11.715889
##ZVALUE=265
0.936985
0.837445
1.047850
1.034737
0.898838
1.298785
1.130700
0.922680
1.076460
1.279712
1.058578
1.118779
1.480579
1.664758
3.489852
19.104481
46.849847
117.983818
206.956863
384.990573
542.411804
686.196685
829.618573
852.278471
787.811875
689.392686
514.629483
377.123952
235.555768
170.466900
131.908655
130.445957
147.292614
183.077455
209.371448
230.913758
241.306424
233.174562
218.430758
192.515850
163.912773
133.107901
112.152696
89.124441
77.625513
67.389607
60.923696
57.127476
51.811934
47.247410
44.528842
39.763451
36.846995
35.127997
31.404495
28.372407
27.397871
24.288893
23.223758
20.831823
20.116568
18.687844
17.430782
16.419888
16.059875
15.898943
14.960766
13.996959
14.769435
13.673902
13.574958
13.844967
13.463497
12.793541
13.261437
13.003945
12.449622
13.401508
12.962818
12.269616
12.836456
11.795759
12.587905
12.362599
11.661649
12.452602
11.402965
11.820793
10.890961
10.796785
11.022687
11.397600
11.337996
11.390448
11.364818
11.226535
##ZVALUE=270
0.940561
0.699759
0.800490
0.733733
0.702739
0.836849
0.889897
0.791550
1.339912
0.872612
1.014471
1.110435
1.028776
1.116991
1.385808
1.403689
2.037883
8.632541
25.795698
81.213713
162.920952
286.635756
494.205952
669.395924
846.427679
908.322930
901.880860
825.822949
661.796927
516.424775
376.930833
240.074992
173.181891
139.605999
143.236518
171.923637
194.176435
222.935677
237.223506
239.963531
235.621929
211.701989
188.109875
151.359439
127.668977
96.778870
80.865622
67.340732
58.286786
52.285790
47.570467
42.360425
39.321780
35.086870
32.988787
29.865503
28.074980
25.556684
24.504662
23.048520
20.841956
19.194484
17.501712
16.746521
16.354918
14.928579
15.296936
14.004707
13.837814
13.939738
13.560653
13.387799
14.061928
13.870597
13.054609
13.055801
13.022423
12.608767
12.282729
12.307763
11.252761
12.041926
11.598468
11.050701
11.391640
11.570454
10.582805
11.003613
10.840893
10.829568
10.619760
11.158586
11.329651
10.993481
10.719895
10.838509
##ZVALUE=275
0.729561
0.845790
0.607967
0.877976
0.764728
0.803471
0.728965
0.808835
0.881553
0.853539
0.754595
0.765920
0.815988
1.221895
1.069903
1.226664
1.227856
1.359582
1.527667
3.447533
15.544891
44.374466
128.082633
239.398479
445.667505
602.217913
795.018673
899.462700
959.438682
917.042494
774.247646
628.301501
472.885966
287.037492
194.113851
130.640864
117.799640
127.582550
146.049857
171.196461
188.534856
206.499696
208.570957
199.162960
181.025863
153.412819
128.697753
97.682476
79.883933
58.130622
48.283935
38.164854
34.826994
30.045509
27.307868
25.307536
23.177862
21.890998
21.104813
19.183755
18.529892
17.204881
17.265677
15.374422
14.883876
13.774633
13.919473
13.601780
13.572574
12.615919
12.671947
13.087988
12.747645
13.076663
12.726784
12.866855
11.665821
11.949539
11.482835
10.997653
11.632442
11.290908
11.100769
10.671616
11.010766
11.163950
11.007786
10.849833
11.077523
10.765791
10.609627
10.935664
10.391474
9.914637
10.280609
10.695457
##ZVALUE=280
0.782609
0.733733
0.696778
0.708699
0.660419
0.479817
0.707507
0.764728
0.639558
0.594854
0.831485
0.756979
0.825524
0.716448
0.794530
0.848770
1.031756
1.144409
0.984669
1.465678
1.573563
1.989603
9.749532
32.516718
104.456544
191.180706
359.143615
516.433716
731.076002
870.551467
965.363979
962.941647
879.148841
677.534938
508.337617
307.531953
195.495486
108.227730
76.660514
71.982741
83.854795
108.652711
129.079819
154.948831
167.399645
171.252489
165.738463
148.744583
126.702785
96.770525
76.557994
53.226948
39.869547
28.302670
22.570491
18.680692
17.414689
15.820861
15.066862
14.934540
13.789535
13.363957
13.903975
12.706518
12.196898
12.003779
12.235641
11.644959
11.592507
11.745691
11.854768
11.798739
11.787415
11.849999
11.707544
12.182593
11.782646
11.258721
11.328459
11.377931
10.948777
10.997653
10.905862
10.583997
10.291934
11.027455
10.662675
11.089444
10.556579
10.308623
10.286570
9.867549
10.379553
10.434985
10.451674
10.001659
##ZVALUE=285
0.438690
0.669956
0.602603
0.709891
0.634789
0.619888
0.688434
0.546575
0.575781
0.591874
0.578761
0.753999
0.917912
0.717640
0.890493
0.873804
0.848770
0.888705
1.156926
1.106858
1.068711
1.121759
1.355410
1.644492
4.757643
16.148686
57.046413
120.712519
259.159803
400.555730
619.502664
779.915452
906.250477
971.241593
923.317671
762.732625
604.291558
383.452773
245.692730
122.129917
67.956448
40.783882
43.211579
61.053634
80.077648
107.723475
127.197504
143.212676
149.279833
145.514607
135.435462
111.661553
90.848804
63.425899
46.195984
28.387904
20.934939
14.806986
12.210608
11.027455
10.825992
10.593534
9.910464
9.974837
9.791851
10.401607
10.456443
10.238886
10.502934
10.678768
10.859966
10.911822
10.967851
10.944605
11.110902
11.098981
10.958910
10.957718
10.657907
10.768771
11.006594
10.689497
10.774732
10.542870
10.111928
10.303855
10.722876
10.065436
10.129809
10.576844
9.873509
10.320544
9.720922
9.851456
9.789467
10.082722
##ZVALUE=290
0.333786
0.502467
0.570416
0.471473
0.503659
0.558496
0.465512
0.462532
0.470877
0.565648
0.477433
0.643730
0.720620
0.702739
0.704527
0.618696
0.774860
0.729561
0.774860
0.826716
0.871420
1.073480
1.058578
1.192689
1.146793
1.516938
2.005696
6.867647
32.671690
75.378418
176.855922
304.959416
474.780798
714.479685
865.286589
975.266695
969.774723
844.340920
693.042874
471.844673
314.971805
161.067843
84.698796
36.040545
27.199984
36.643744
49.808621
72.134733
92.386603
118.520856
132.957697
140.691996
140.147805
123.230815
108.636618
80.404878
61.577559
39.431453
27.890801
17.678738
12.555718
10.158420
9.200573
8.960962
8.501410
8.750558
9.125471
8.986592
9.464622
9.734631
9.920597
10.021925
10.362864
10.751486
10.358691
10.563731
10.667443
10.555983
10.337830
10.578632
10.345578
10.784864
10.276437
10.771751
10.330677
10.883808
10.330677
10.508895
10.000467
10.254979
10.491610
9.833574
9.296536
10.010600
10.013580
10.235906
##ZVALUE=295
0.371933
0.367761
0.421405
0.519753
0.513792
0.464916
0.573993
0.516772
0.409484
0.567436
0.456572
0.474453
0.481606
0.576973
0.429749
0.471473
0.669956
0.505447
0.802875
0.689626
0.865459
1.002550
0.928640
0.886917
1.007915
1.134872
1.360774
1.238585
1.284480
2.844930
10.398626
45.512915
103.769898
244.413614
390.220881
623.678565
786.229968
938.471556
975.397825
903.359652
777.603984
560.073853
394.325852
213.887691
117.573738
46.176910
25.302768
21.952987
28.406978
46.210885
63.121915
88.355541
123.184919
123.479962
132.994652
132.277608
118.510723
101.247430
78.677535
59.666634
39.114952
26.287436
17.214417
12.219548
9.341836
8.460879
7.978678
8.241534
8.251667
8.129478
8.899570
9.116530
9.432435
10.081530
9.924769
9.911656
10.291934
10.555983
10.202527
10.290742
9.873509
10.126829
10.188818
10.090470
9.943843
10.176897
10.452867
10.396838
10.450482
10.200739
9.776950
10.338426
9.852648
9.708405
9.890795
9.656549
##ZVALUE=300
0.367761
0.254512
0.436902
0.429749
0.396967
0.246763
0.356436
0.484586
0.388622
0.539422
0.624657
0.424981
0.539422
0.527501
0.475645
0.357628
0.462532
0.605583
0.613928
0.623465
0.560880
0.850558
0.771880
0.788569
0.765920
1.011491
0.891685
1.008511
1.166463
1.128912
1.193881
1.707673
6.640553
24.054646
80.263615
157.584548
321.331620
487.595797
718.486905
859.580636
962.094665
959.555507
834.280849
688.575506
460.812449
302.456617
153.989792
84.112883
33.054948
17.592907
17.538667
24.894476
40.148497
55.864453
79.388618
98.740458
118.173957
125.167966
124.417543
114.712715
97.236633
79.537630
55.386424
41.198730
25.362968
17.739534
11.615753
9.176731
8.002520
8.135438
8.052588
8.420944
9.116530
9.202957
9.144545
9.484887
9.537935
9.454489
10.249615
9.658933
10.515451
10.207891
10.254979
10.646582
10.342598
10.351539
10.051727
10.086894
10.622740
10.237694
10.022521
10.162592
9.847879
10.024905
10.036826
9.729862
##ZVALUE=305
0.508428
0.493526
0.466704
0.415444
0.400543
0.460744
0.386834
0.434518
0.438690
0.496507
0.453591
0.510812
0.630617
0.613928
0.551939
0.425577
0.497699
0.352859
0.351667
0.615716
0.546575
0.527501
0.731945
0.729561
0.671744
0.720620
0.744462
0.956655
0.916719
1.197457
1.158714
1.289845
1.387000
1.558661
2.654791
15.682578
43.733716
127.016902
230.709910
420.944691
593.019724
804.358721
919.025540
967.257619
902.580023
718.216896
558.384657
353.639722
220.744610
102.595687
51.601529
19.777417
12.490749
16.329885
22.815466
39.102435
53.755641
77.743530
93.221664
111.054778
117.982626
116.663575
109.622478
91.772676
73.954463
52.367449
38.527846
24.995804
17.309785
11.759996
9.322762
8.494854
8.146763
8.636713
8.820891
8.701682
9.014606
9.645820
9.652972
9.743571
9.799600
9.885430
10.215640
10.309815
10.178685
9.979606
10.593534
10.277629
10.322928
10.314584
10.183454
10.105968
9.907484
10.236502
9.808540
9.332895
##ZVALUE=310
0.436902
0.331998
0.217557
0.265837
0.220537
0.279546
0.397563
0.224710
0.308752
0.284910
0.446439
0.427961
0.485778
0.412464
0.386834
0.387430
0.614524
0.390410
0.651479
0.580549
0.421405
0.313520
0.498891
0.492930
0.498891
0.560880
0.732541
0.643730
0.787973
0.694990
0.832677
0.873804
1.009703
1.187921
1.321435
1.187921
1.458526
6.910563
22.529960
76.272488
152.819753
316.115618
477.338433
698.233843
846.707821
956.556797
946.545005
829.150677
690.597892
466.932654
309.466720
156.531930
82.460642
30.510426
13.927817
10.246634
13.263822
21.654963
30.736923
48.735738
64.996481
86.826682
99.617839
110.273957
111.448765
102.922916
92.394948
72.199702
55.957437
36.923885
26.647449
17.172694
12.904406
10.088682
8.948445
9.139776
8.953810
9.193420
8.933544
9.060502
9.578466
9.939671
9.786487
9.974837
10.069609
10.475516
10.794997
10.812879
10.073781
10.350943
10.117888
10.102987
10.348558
9.893775
9.531975
9.432435
##ZVALUE=315
0.224710
0.322461
0.402927
0.394583
0.306964
0.350475
0.264645
0.395775
0.431538
0.408888
0.339746
0.456572
0.346899
0.447631
0.544786
0.370741
0.440478
0.480413
0.286698
0.413656
0.382662
0.329614
0.473857
0.453591
0.536442
0.492930
0.639558
0.811815
0.658631
0.575781
0.681877
0.739694
0.717640
0.863671
0.725985
1.001954
1.005530
1.268983
1.226664
3.150702
11.635423
47.985911
105.165839
238.981843
387.605429
624.940991
776.708722
921.080709
958.209634
888.730884
767.495632
554.666519
394.563675
209.797621
113.207698
42.729974
19.134879
9.253621
9.222627
13.206601
19.043684
31.469464
43.494701
63.607693
79.728961
97.225904
105.544925
106.839538
101.081729
85.424781
71.533918
52.096844
38.149953
24.486780
18.169880
12.383461
10.347962
9.300709
9.149909
9.055734
9.169579
9.452701
9.342432
9.539723
10.111928
9.825826
10.304451
10.333657
10.326505
10.100603
10.239482
9.950995
9.999871
9.869933
9.551644
9.857416
##ZVALUE=320
0.328422
0.267625
0.535846
0.315905
0.321865
0.336766
0.512600
0.359416
0.232458
0.296831
0.294447
0.298619
0.305772
0.409484
0.302792
0.281930
0.484586
0.450611
0.280738
0.327826
0.487566
0.416636
0.626445
0.516772
0.314713
0.489950
0.568628
0.468493
0.472665
0.664592
0.591874
0.658631
0.683665
0.759959
0.861883
0.900626
0.799894
1.051426
1.064539
1.141429
1.212955
1.538992
6.494522
21.686554
77.101588
155.183673
313.865542
471.957922
693.647861
833.031535
937.225819
932.834744
811.716914
665.636659
451.132655
292.462707
138.880610
71.949959
27.072430
12.557507
8.550882
8.564591
11.739731
16.598701
27.724504
39.260983
58.549643
72.607994
90.797544
98.956823
100.726485
94.982982
82.298517
67.717433
50.034523
38.257837
25.440454
17.830729
12.896657
10.906458
9.638667
9.645820
9.307861
9.698868
9.790659
9.896755
9.980798
9.987950
9.970665
9.926558
9.873509
9.670854
9.462833
9.921789
9.781718
9.828806
##ZVALUE=325
0.176430
0.286698
0.098944
0.272989
0.250936
0.211596
0.235438
0.420809
0.261664
0.385642
0.227690
0.360608
0.382662
0.270605
0.478625
0.374913
0.344515
0.543594
0.388622
0.425577
0.356436
0.485778
0.274777
0.318885
0.569820
0.329614
0.453591
0.361800
0.561476
0.623465
0.620484
0.602603
0.591874
0.646710
0.549555
0.458956
0.625849
0.952482
0.626445
0.910759
0.993609
0.998974
1.214743
1.201630
3.221631
13.117790
51.049590
106.739402
238.441825
386.040807
609.122515
757.210851
900.992751
927.951932
855.329037
722.635984
497.094989
346.941948
183.186531
101.535916
39.007664
16.767979
8.105636
7.426739
8.743405
10.942817
17.156601
25.663972
41.042566
55.406690
74.581504
86.079836
94.531775
95.501542
88.846684
79.486966
62.158704
48.283935
33.227801
24.619699
16.364455
13.249516
11.087656
9.881854
9.757876
9.787679
9.693503
9.849668
9.747744
9.264946
9.478927
9.772778
9.596944
9.716749
9.358525
9.312630
##ZVALUE=330
0.134706
0.203848
0.387430
0.356436
0.333786
0.335574
0.167489
0.136495
0.200868
0.192523
0.369549
0.232458
0.332594
0.194907
0.203848
0.361800
0.207424
0.369549
0.304580
0.356436
0.463724
0.369549
0.339746
0.375509
0.519753
0.508428
0.501871
0.526905
0.585914
0.468493
0.341535
0.531673
0.550747
0.488758
0.571609
0.515580
0.651479
0.615716
0.662804
0.678897
0.891685
0.955462
0.930429
1.074672
1.042485
1.269579
1.724958
7.538795
24.872422
80.784559
155.928731
314.433575
464.853048
677.140951
815.636516
903.322697
879.305601
742.712021
597.465634
393.475890
256.669521
120.137930
60.638785
21.856427
10.373592
7.032752
7.042885
8.270741
10.772943
17.426610
24.495721
37.819743
51.212907
68.505406
80.081820
88.937879
89.354515
83.646774
73.568821
57.466626
45.231581
31.416416
24.083853
17.405748
13.986826
10.745525
9.845495
9.283423
9.492636
9.325743
9.339452
8.969903
9.169579
9.182692
9.375811
8.981824
##ZVALUE=335
0.229478
0.255704
0.340939
0.234842
0.226498
0.311732
0.313520
0.127554
0.144839
0.226498
0.271797
0.328422
0.189543
0.295639
0.365973
0.256896
0.174642
0.194907
0.203848
0.319481
0.226498
0.315905
0.345707
0.341535
0.261664
0.495911
0.381470
0.433922
0.395775
0.478625
0.622869
0.370741
0.418425
0.583529
0.564456
0.512600
0.495911
0.481606
0.657439
0.571609
0.644922
0.611544
0.902414
0.732541
0.848770
1.020432
0.945926
1.100898
1.079440
2.500415
15.338659
42.550564
120.009780
217.824578
399.471521
564.149618
760.648847
851.255655
876.841545
812.586546
646.916032
494.846702
300.330520
182.296634
78.914762
37.412643
12.691617
7.726550
6.860495
7.219911
8.309484
10.634661
16.077757
23.328662
36.576986
47.888756
64.099431
75.307488
83.522797
84.933639
78.059435
69.824457
56.513548
45.957565
32.724738
24.903417
16.995668
13.690591
10.717511
9.670854
9.156466
8.915663
8.758903
8.690953
8.583665
8.639693
##ZVALUE=340
0.239611
0.299811
0.175834
0.201464
0.233650
0.218749
0.160933
0.240803
0.133514
0.178814
0.018477
0.301600
0.218749
0.161529
0.254512
0.234842
0.374913
0.267625
0.180602
0.310540
0.159740
0.456572
0.204444
0.147820
0.208616
0.415444
0.181794
0.253916
0.301600
0.303984
0.042915
0.373721
0.346899
0.494719
0.547767
0.686646
0.497699
0.421405
0.528693
0.490546
0.489950
0.512600
0.588894
0.691414
0.679493
0.543594
0.731945
0.804663
0.864863
1.058578
1.176596
1.612902
5.859733
30.138493
74.553490
186.080933
310.142636
509.954691
662.497878
814.462900
866.263509
815.281868
716.399550
529.919863
376.281738
198.374987
111.611485
45.164824
19.299984
8.121729
6.780624
6.900430
6.902814
8.390546
10.521412
15.976429
22.473931
34.908652
46.630502
61.569810
72.413683
78.090429
79.949498
74.005723
67.151785
53.442717
43.779612
32.083988
24.867654
17.169714
13.217926
10.371804
9.162426
8.884668
8.511543
8.580685
##ZVALUE=345
0.134706
0.210404
0.152588
0.204444
0.292659
0.131726
0.130534
0.048876
0.149608
0.218749
0.189543
0.265837
0.188947
0.229478
0.190735
0.273585
0.160933
0.183582
0.196695
0.330806
0.241995
0.279546
0.258684
0.345707
0.423789
0.222921
0.308752
0.391603
0.259876
0.312924
0.303984
0.166893
0.494719
0.347495
0.423789
0.385642
0.409484
0.413656
0.420809
0.553727
0.530481
0.541806
0.305772
0.568628
0.640750
0.777841
0.809431
0.674725
0.703931
0.854731
0.860691
1.007915
0.906587
1.130700
3.097653
12.834668
54.173470
111.275911
237.006545
369.454026
569.190979
704.907775
821.803808
838.576555
746.595860
621.512532
426.500440
281.347632
132.909417
65.869689
22.319555
10.952950
7.080436
6.681681
6.769896
6.767511
7.694960
9.590983
14.905930
20.953417
32.211542
42.441487
55.064559
63.529611
70.792437
72.666407
70.409775
63.591599
52.243471
43.004751
31.203628
23.384690
16.396642
12.874603
10.035634
8.901954
##ZVALUE=350
0.251532
0.158548
0.127554
0.149608
0.249743
0.234842
0.232458
0.220537
0.196695
0.125766
0.084639
0.054836
0.154972
0.135899
0.223517
0.211596
0.295639
0.220537
0.225902
0.186563
0.211596
0.194907
0.257492
0.269413
0.306964
0.182986
0.336766
0.247955
0.278950
0.277758
0.335574
0.366569
0.408888
0.394583
0.074506
0.466704
0.379682
0.328422
0.342727
0.260472
0.501871
0.456572
0.413656
0.403523
0.422597
0.563860
0.581741
0.601411
0.547767
0.667572
0.685453
0.634789
0.541806
0.916719
1.022816
1.068711
1.547933
8.195639
26.256442
83.565712
159.777403
319.877863
462.569594
647.312999
759.779811
824.375749
786.302686
653.257966
502.265692
304.874778
187.146664
87.142587
39.538741
12.845993
7.347465
6.295443
6.158948
6.201863
6.282926
7.146597
9.061694
13.746619
19.140840
28.796792
37.429929
49.102902
56.981444
64.431429
66.146851
63.793659
58.844686
48.412681
40.834546
29.924512
23.149848
16.153455
##ZVALUE=355
0.219941
0.176430
0.187755
0.305772
0.252724
0.146627
0.245571
0.182986
0.295639
0.360608
0.338554
0.220537
0.192523
0.162721
0.238419
0.276566
0.379682
0.275970
0.255704
0.262856
0.231862
0.258684
0.225902
0.239611
0.352859
0.268817
0.217557
0.274777
0.448823
0.297427
0.308752
0.339746
0.164509
0.471473
0.329614
0.458956
0.382662
0.442863
0.288486
0.287890
0.407696
0.454783
0.428557
0.443459
0.520945
0.400543
0.544786
0.595450
0.530481
0.617504
0.449419
0.843406
0.699759
0.820756
0.736713
0.801682
0.921488
1.182556
1.396537
3.976822
13.513565
53.805709
112.557411
235.667825
372.853875
569.722652
695.408583
787.269473
785.794854
678.113699
542.937517
353.933573
221.557617
100.719929
49.887896
18.260479
8.472800
6.185770
5.957484
5.909801
6.176829
6.094575
6.943941
8.403659
10.724664
17.106533
23.371577
33.054948
41.189790
50.662756
56.555867
60.225725
59.618950
53.607821
47.461987
37.157536
##ZVALUE=360
0.195503
0.207424
0.174642
0.143647
0.220537
0.279546
0.231862
0.239611
0.292659
0.200868
0.318885
0.422597
0.311732
0.251532
0.271797
0.030994
0.137687
0.104904
0.161529
0.046492
0.195503
0.352859
0.215769
0.269413
0.299811
0.331998
0.356436
0.238419
0.358820
0.219941
0.337958
0.238419
0.286698
0.216961
0.370741
0.364780
0.374913
0.264645
0.480413
0.397563
0.413656
0.382662
0.296831
0.533462
0.489950
0.380874
0.368953
0.354648
0.514984
0.505447
0.648499
0.557899
0.620484
0.545979
0.632405
0.741482
0.701547
0.839829
0.892878
1.132488
1.287460
1.818538
6.231666
28.530955
69.387555
173.242688
284.755826
467.133522
608.940721
745.961666
775.974989
719.638467
609.269738
417.357683
280.779600
138.588548
73.074698
27.587414
11.721849
6.332994
5.650520
5.265474
5.571842
5.297661
5.476475
6.014705
7.045865
9.505749
13.069510
19.320846
26.142001
36.629438
43.285489
50.253868
54.212809
53.858757
##ZVALUE=365
0.132918
0.040531
0.145435
0.261664
0.039935
0.046492
0.124574
0.121593
0.129938
0.297427
0.236630
0.194907
0.321865
0.233650
0.307560
0.253916
0.109673
0.291467
0.214577
0.292659
0.338554
0.276566
0.263453
0.276566
0.310540
0.261664
0.116825
0.271797
0.409484
0.270605
0.306964
0.210404
0.195503
0.465512
0.427961
0.327826
0.341535
0.362992
0.418425
0.206828
0.364780
0.418425
0.462532
0.537634
0.432730
0.379682
0.352859
0.279546
0.387430
0.379682
0.489950
0.437498
0.566840
0.594854
0.515580
0.614524
0.696778
0.689626
0.663996
0.784993
0.888705
0.856519
1.068711
1.226664
2.595782
15.313625
41.750669
112.890601
208.243728
379.842520
519.060493
677.477717
743.139982
727.306008
644.775629
482.991934
346.425772
187.541842
103.455782
38.535595
16.505718
6.606579
5.520582
5.132556
4.720688
4.959702
4.911423
5.004406
5.132556
5.715489
7.744431
11.529922
15.927553
22.983551
29.478669
38.483739
##ZVALUE=370
0.243783
0.244975
0.076890
0.130534
0.217557
0.167489
0.157952
0.225902
0.029802
0.238419
0.116825
0.133514
0.150800
0.191927
0.252724
0.160933
0.107884
0.129938
0.135899
0.191927
0.145435
0.151992
0.118613
0.271797
0.130534
0.319481
0.146627
0.231862
0.169873
0.438690
0.305772
0.284910
0.356436
0.142455
0.340939
0.138879
0.208616
0.266433
0.320673
0.257492
0.349879
0.347495
0.403523
0.388622
0.376701
0.411868
0.360608
0.328422
0.417829
0.485778
0.350475
0.369549
0.335574
0.457764
0.421405
0.511408
0.424981
0.535846
0.501871
0.636578
0.544786
0.742674
0.835657
0.730753
1.063943
1.135468
1.496673
7.768869
25.952458
84.634423
159.006715
304.421782
446.962714
625.837445
712.630749
738.807917
679.370761
537.884831
396.772623
224.338770
127.981901
52.287579
24.328828
9.178519
5.479455
4.777908
4.663467
4.452467
4.439950
4.311800
4.228950
4.635453
5.199909
7.018447
9.515882
14.318824
##ZVALUE=375
0.155568
0.155568
-0.003576
0.104904
0.095963
0.246763
0.201464
0.298619
0.128746
0.182986
0.215769
0.314713
0.281930
0.100732
0.007749
0.328422
0.226498
0.022650
0.186563
0.303984
0.316501
0.167489
0.077486
0.177622
0.245571
0.227690
0.133514
0.180602
0.270605
0.207424
0.248551
0.240803
0.260472
0.218749
0.194907
0.378489
0.300407
0.168681
0.347495
0.253916
0.255704
0.211596
0.309944
0.279546
0.218749
0.304580
0.287890
0.225902
0.397563
0.400543
0.342727
0.364780
0.322461
0.336766
0.517964
0.319481
0.515580
0.469685
0.549555
0.528693
0.669956
0.575781
0.722408
0.718832
0.716448
0.759959
0.824928
0.885725
1.026988
3.984571
13.697743
49.811006
108.563900
239.838958
371.071696
552.672744
662.500858
730.286837
714.432597
593.639612
462.575555
286.939740
181.301832
89.971423
44.685602
15.057921
6.848574
4.433990
4.148483
4.074574
3.950000
4.053712
3.978610
4.025698
4.111528
4.613996
##ZVALUE=380
0.070930
0.138879
0.178814
0.290871
0.131726
0.091791
0.147820
0.186563
0.338554
0.185966
0.140667
0.082850
0.078678
0.081658
0.124574
0.107884
0.052452
0.169873
0.235438
0.136495
0.100732
0.142455
0.107884
0.169873
0.024438
0.228882
0.146627
0.264645
0.143647
0.157952
0.286698
0.335574
0.303984
0.373721
0.208616
0.354648
0.304580
0.127554
0.320673
0.287890
0.236630
0.334978
0.224710
0.350475
0.336766
0.343919
0.321865
0.392795
0.313520
0.333786
0.331998
0.223517
0.199676
0.373721
0.421405
0.346899
0.375509
0.264645
0.301600
0.428557
0.448823
0.513792
0.690818
0.503659
0.491738
0.533462
0.502467
0.616908
0.814795
0.763535
0.941753
1.598597
9.342432
29.254556
89.930892
168.026686
318.958759
463.194847
632.002950
709.033608
716.377497
651.045442
511.402488
383.422971
226.082802
134.821534
56.101680
26.406646
8.446574
4.707575
3.937483
3.802776
3.717542
3.685951
3.670454
3.629923
##ZVALUE=385
0.064969
0.202656
0.064969
0.173450
0.127554
0.207424
0.204444
0.123978
0.119805
0.219941
0.062585
0.220537
0.302792
0.217557
0.112653
0.107884
0.132918
0.210404
0.201464
0.103712
0.208616
0.069737
0.138879
0.100732
0.242591
0.191927
0.399947
0.343919
0.232458
0.319481
0.199676
0.373721
0.364780
0.250936
0.351667
0.375509
0.404716
0.239611
0.487566
0.449419
0.291467
0.423789
0.522733
0.356436
0.305772
0.355840
0.499487
0.205636
0.356436
0.289679
0.239611
0.283718
0.303984
0.319481
0.268817
0.273585
0.350475
0.406504
0.335574
0.401735
0.471473
0.402927
0.361800
0.251532
0.489950
0.509620
0.652671
0.395775
0.560880
0.716448
0.892878
0.968575
0.972748
1.171827
3.358722
19.320846
50.418973
130.526423
233.412981
410.080552
545.194745
677.235723
715.664029
682.281852
600.163937
440.687537
314.883590
173.139572
99.427700
40.892959
16.758442
5.442500
3.794432
3.590584
3.197789
3.320575
##ZVALUE=390
0.114441
0.091791
0.148416
0.187755
0.144839
0.181794
0.316501
0.170469
0.002980
0.183582
0.025630
0.022650
0.155568
0.058413
0.029802
0.291467
0.237823
0.053644
0.166893
0.135899
0.208616
0.180602
0.082850
0.237823
0.086427
0.049472
0.175834
0.214577
0.410676
0.297427
0.394583
0.404716
0.599623
0.450611
0.598431
0.541806
0.393987
0.512600
0.444651
0.490546
0.465512
0.374913
0.496507
0.430942
0.474453
0.424981
0.383854
0.367761
0.357628
0.362992
0.388622
0.392795
0.459552
0.435710
0.377893
0.455976
0.482798
0.495911
0.415444
0.401735
0.360608
0.347495
0.453591
0.536442
0.399947
0.493526
0.502467
0.553727
0.665784
0.721812
0.665784
0.810623
0.781417
0.919700
1.081824
1.121759
1.675487
10.316968
32.576919
100.609660
188.593864
349.265933
473.802686
615.546703
693.259835
713.512897
656.491518
519.770980
397.690535
242.768526
140.970945
58.701634
26.651621
7.633567
4.315972
3.483891
##ZVALUE=395
0.086427
0.058413
0.113845
0.151992
0.086427
0.149608
0.150800
0.200868
0.123978
0.017881
0.144839
0.165701
0.132918
0.173450
0.046492
0.127554
0.184774
0.231862
0.288486
0.271797
0.107884
0.209808
0.276566
0.125766
0.310540
0.220537
0.171661
0.204444
0.387430
0.488758
0.528693
0.627637
0.590682
0.550747
0.690818
0.657439
0.731945
0.644922
0.599623
0.617504
0.693798
0.513792
0.599623
0.536442
0.563860
0.518560
0.487566
0.503659
0.605583
0.311732
0.288486
0.517964
0.252724
0.251532
0.336766
0.323653
0.461936
0.453591
0.359416
0.408888
0.385642
0.406504
0.430942
0.470877
0.259876
0.512600
0.488758
0.592470
0.550747
0.489950
0.663996
0.712872
0.723600
0.812411
0.645518
0.694990
1.042485
0.856519
1.153946
5.162954
19.257665
68.436861
134.182572
267.991424
391.989946
561.803579
666.843653
728.511810
709.818602
600.282550
473.604798
295.575857
189.768672
88.984966
43.446422
14.295578
##ZVALUE=400
0.148416
0.076890
0.067949
0.161529
0.109673
0.075698
0.239611
0.077486
0.079870
0.047684
0.211596
0.108480
0.033975
0.088811
0.168681
0.205636
0.127554
0.022650
0.252724
0.142455
0.191927
0.158548
0.337958
0.099540
0.211596
0.111461
0.348687
0.269413
0.380874
0.491738
0.500679
0.577569
0.626445
0.548959
0.803471
0.956655
0.817776
0.930429
0.796914
0.719428
0.617504
0.623465
0.604987
0.623465
0.705719
0.474453
0.535846
0.567436
0.518560
0.486970
0.502467
0.366569
0.521541
0.411868
0.400543
0.354648
0.267625
0.258684
0.458956
0.386834
0.367761
0.144839
0.281930
0.315905
0.489950
0.405908
0.511408
0.496507
0.520945
0.406504
0.606775
0.757575
0.703931
0.529885
0.585914
0.575781
0.672936
0.678897
0.703931
0.833869
0.889897
2.686977
10.764599
42.545795
90.919733
200.697780
317.445993
489.659905
604.127645
697.633624
709.452033
625.873804
522.686839
360.731483
239.949822
120.855570
##END
