##TITLE=AAI0502
##FORMAT=SPECTACLE-ASCII V-1.2
##DATA TYPE=ULTRAVIOLET SPECTRUM
##SECOND TYPE=ULTRAVIOLET SPECTRUM
##DATE=12/26/17
##TIME=14:03:01
##SPECTROMETER/DATA SYSTEM=SPECTACLE
##XUNITS=NM EM
##YUNITS=ENERGY
##YFACTOR=1
##FIRSTX=220
##LASTX=410
##NPOINTS=96
##3DDATA=Equidistant
##ZUNITS=NM EX
##FIRSTZ=210
##LASTZ=400
##ZPOINTS=39
##XYDATA=(Y..Y)
##ZVALUE=210
4.135966
3.449917
3.473759
3.605485
3.931522
3.356934
3.725886
3.611445
3.763437
3.163815
3.096461
3.008842
2.615452
2.343655
2.986789
3.018975
3.545880
3.069639
3.315806
3.324747
3.735423
3.956556
3.818870
4.603863
4.343987
4.633665
4.061460
4.639626
4.604459
4.488826
4.572868
5.414486
5.242825
6.050467
5.946755
6.544590
6.157756
6.335974
6.194711
5.657673
5.918741
6.632805
7.075667
6.408691
7.022619
6.686449
7.435679
7.017851
6.897449
5.880594
6.025434
6.254911
6.724000
7.023811
6.483793
7.762909
7.079840
6.666780
6.917715
6.384850
7.903576
7.496476
8.482933
8.266568
7.065535
8.245707
8.436441
10.281801
10.179877
12.181997
14.649630
16.935468
19.533634
22.516847
21.584630
24.902821
24.544597
25.411844
25.611520
23.004413
22.147894
18.438697
16.234517
13.117790
12.926459
9.585619
9.306669
8.366704
7.429719
6.927848
6.617904
6.798506
6.558895
7.831454
8.629560
8.468628
##ZVALUE=215
12.215972
13.156533
12.481809
11.203885
9.792447
8.479953
7.884502
7.047653
7.105470
7.409453
7.376671
5.411506
5.495548
4.598498
3.999472
3.356934
3.639460
3.281832
3.630519
3.346801
3.618598
4.154444
4.432797
4.237890
4.714727
3.933907
4.251599
4.756451
5.434752
5.043745
5.868673
5.676746
4.938841
6.531477
5.450845
6.807446
6.583929
6.491542
6.511807
6.765723
6.733537
6.119609
6.629825
7.212758
7.607937
7.421970
7.900596
8.018613
7.106662
6.457567
6.557703
7.376671
7.608533
7.630587
8.026958
7.235408
8.520484
6.925464
8.557439
7.838607
6.571412
7.992983
8.116961
8.235574
7.884502
8.248687
9.804964
9.706616
10.008812
10.671616
14.339685
16.925931
19.255877
20.452738
23.051500
24.288893
22.490621
23.042560
23.241639
18.920898
17.913580
15.521646
15.807748
11.679530
11.171699
10.409951
8.526444
8.283854
7.626414
6.885529
7.372499
6.922483
6.568432
6.958842
6.684661
7.262826
##ZVALUE=220
34.686923
35.950541
36.439896
39.580464
34.165978
31.312704
24.012923
18.063784
16.068816
14.899969
16.095638
15.406609
14.223456
12.862682
9.796619
8.848906
6.474853
5.967617
4.123449
3.729463
3.617406
3.843904
4.344583
4.366636
4.670620
4.535913
4.780889
4.797578
6.176829
4.724860
5.663633
5.629659
5.320907
5.035996
5.503893
6.052852
6.764531
5.561709
6.351471
6.014705
5.532503
6.934404
6.283522
6.843805
6.900430
6.949902
7.254481
6.574988
7.360578
6.289482
6.456971
7.333755
7.520914
7.062554
6.612539
8.030534
8.163452
8.245707
7.223487
7.265806
7.745624
8.112788
7.156730
8.282661
8.305907
7.715821
8.552670
8.509755
8.054972
9.963512
10.672808
11.888742
14.693737
14.336705
15.705824
17.104745
17.764568
16.165972
14.364719
14.676452
13.518929
11.987686
11.921525
9.905696
8.800626
8.129478
7.876754
7.843971
6.024837
6.213784
6.729960
7.068515
6.304979
5.272627
5.695820
6.952882
##ZVALUE=225
48.727989
53.664446
67.187548
78.620911
82.414746
87.061524
73.267817
56.928992
48.375726
37.365556
27.941465
27.047992
29.133558
30.302405
27.975440
26.598573
23.040771
19.858479
13.783574
9.492636
7.464886
4.277825
4.467964
3.830791
4.090667
3.947616
4.390478
4.360676
4.836917
5.115867
5.404949
5.738735
5.672574
5.554557
6.063581
6.197691
6.212592
6.493926
6.192923
6.843805
6.501675
5.846620
6.413460
6.850958
6.775856
7.183552
6.639957
7.261634
6.370544
6.483793
6.772876
6.888509
7.259846
6.476641
7.942915
6.681681
7.339716
8.457899
7.614493
8.010864
8.278489
8.644462
8.536577
8.304715
8.585453
7.629991
8.790493
9.484887
9.431839
9.839535
12.160540
12.392998
14.591813
14.669895
14.314651
15.869737
15.121698
13.812780
13.459921
13.301969
11.517406
11.895895
11.812449
9.443760
9.122491
8.535981
7.891655
7.975698
7.656813
8.105636
7.516742
7.985830
6.814599
7.434487
7.320642
6.794930
##ZVALUE=230
41.438937
46.165586
75.655580
117.258430
145.073533
176.426768
187.502503
183.051825
167.680979
142.529607
97.097754
74.563622
51.530600
46.603680
46.639442
50.841570
51.467419
50.892830
46.675801
35.800934
29.632449
18.104911
13.909936
8.771420
6.785989
6.082654
5.739927
5.992651
5.018711
5.213618
6.873608
6.194711
6.752610
7.924438
6.770492
7.008910
8.284450
7.405877
7.836819
7.474422
7.509589
7.862449
7.441640
7.937551
8.112788
8.156896
7.545948
7.843971
8.471608
7.750988
8.028746
8.736849
9.037852
8.197427
9.707808
10.448694
10.630488
10.702610
10.719895
10.129809
11.053681
10.789633
11.021495
11.928678
11.077523
10.854602
11.544824
12.293458
12.738705
13.119578
14.849901
16.324520
17.742515
18.674731
20.792484
19.306540
19.856691
19.615889
16.836524
15.806556
15.866756
14.481544
13.526678
13.537407
11.901855
11.746883
11.197925
11.319518
11.049509
11.733770
11.098981
10.017753
11.215806
11.477470
10.938644
10.476708
##ZVALUE=235
15.054941
19.356608
39.361715
99.143982
160.790682
259.204507
332.111716
428.872705
459.408760
457.407832
393.732786
322.266817
212.831497
152.350664
100.594759
80.997944
73.769689
80.207586
83.890557
87.880492
77.812672
65.124631
53.577423
37.704706
26.571751
15.787482
11.214614
8.441806
7.208586
7.143617
7.996559
7.210970
8.076429
6.771684
8.602738
8.254647
8.336902
8.718967
8.096695
8.209944
8.724928
7.650852
9.076595
8.432865
9.435415
8.539557
9.271502
9.184480
9.441972
9.843707
9.543896
9.209514
10.538697
10.192990
10.925531
11.435747
10.827780
11.236668
11.791587
12.045503
13.653636
12.091994
13.489723
11.860728
12.342930
12.899637
13.361573
15.513897
14.968514
16.678572
18.561482
21.480918
22.974610
24.686456
24.535656
24.395585
24.559498
24.380684
21.249652
20.969510
20.777583
18.600821
19.786954
17.022491
16.702414
15.644431
16.396642
14.870763
15.303493
13.411641
14.936924
15.597939
14.644861
13.624430
12.701750
13.743639
##ZVALUE=240
2.327561
2.493858
8.282661
20.110607
58.991909
113.558769
240.601897
374.295712
559.979677
680.702925
795.306563
782.271028
727.627873
565.991998
422.998667
256.833434
178.613663
117.746592
103.073716
101.526976
114.529729
117.842555
116.979480
101.912618
84.039569
64.643621
45.536757
32.337904
19.773841
14.780760
10.872483
10.130405
9.338856
8.278489
9.657741
8.635521
8.866787
7.507801
8.614659
8.485913
8.521676
9.447932
8.880496
8.791685
8.904934
9.118915
9.250641
9.192824
9.131432
8.165836
9.089708
9.430647
8.934736
9.587407
10.462999
10.845661
9.759665
10.470748
11.074543
12.143850
12.310743
11.623502
11.767745
12.931824
12.760758
13.488531
12.899637
15.472770
15.397668
16.969442
16.638637
19.061565
22.126436
22.459626
24.086833
23.410916
24.837852
24.268627
21.638870
21.140575
19.474626
18.558502
19.705892
18.334985
17.081499
15.600920
17.368793
16.137958
16.947985
16.463995
16.198754
16.545653
16.596913
16.257763
14.808774
15.132427
##ZVALUE=245
1.641512
2.049804
1.759529
2.150536
5.127788
15.988946
61.325431
129.832625
297.856927
456.697941
699.415803
873.321891
965.777636
987.659693
903.453827
717.194676
552.487969
360.370874
240.814686
140.243769
104.283690
104.743838
110.975504
123.757720
131.796002
125.646591
113.116503
91.929436
72.459579
53.334832
37.174821
23.519993
15.997887
11.546612
8.784533
8.240938
8.957982
7.537603
7.992983
8.186698
7.704496
7.432699
8.841753
8.036494
8.190870
8.307695
7.597804
8.420944
8.356571
7.594824
7.802844
9.228587
9.009838
8.891821
8.414984
9.622574
10.249615
9.327531
9.260774
10.241866
10.506511
11.176467
10.153651
10.885596
11.144876
10.841489
12.933612
13.370514
15.192628
14.742613
18.177629
18.513799
20.589828
22.976995
22.887588
23.945570
23.368001
22.427440
22.656918
21.038651
21.031499
20.755529
19.365549
17.979741
18.057823
18.050671
16.452670
15.694499
17.142892
15.329719
16.676784
16.218424
16.480684
15.700459
16.434789
16.115904
##ZVALUE=250
1.645684
1.734495
2.030730
2.052784
2.012849
2.476573
2.726912
12.755990
42.975545
111.624002
278.744698
471.959710
747.414827
916.800499
1015.897989
1015.897989
1015.897989
906.942487
746.183991
478.816628
314.346552
172.293782
115.609765
99.326968
104.320645
121.835470
131.580830
140.451789
134.046674
120.520592
104.829669
77.914000
57.427883
36.692619
24.724603
15.199780
9.821653
7.583499
8.138418
7.784963
8.358955
7.623434
8.050799
8.049607
8.273721
7.290840
7.596612
8.096695
7.097721
7.278919
7.352829
7.709861
8.839965
8.642673
8.376837
8.676648
8.417964
8.176565
8.506775
8.408427
8.782744
8.826852
8.695722
9.260774
10.159612
9.405613
10.827780
12.011528
12.423992
14.114976
14.886856
16.143918
17.811656
18.205643
19.920468
19.563437
19.295812
18.691421
19.457936
18.606782
18.446445
17.456412
16.195774
15.331507
15.298724
14.133453
14.962554
14.857650
13.992786
13.691783
14.272928
13.374686
13.524890
13.312697
14.238954
13.384819
##ZVALUE=255
1.293421
1.500845
1.435876
1.366735
1.569986
1.776814
1.764894
1.820922
2.607703
6.904602
25.367737
94.760656
193.136930
395.964980
581.974983
824.284554
974.088907
1015.897989
1015.897989
931.703448
768.771768
597.286820
369.258523
232.572556
125.506520
94.304681
91.975927
102.325678
124.217868
137.917995
144.873857
143.184662
129.835606
105.610490
84.044933
54.170489
38.095713
22.038817
14.066696
8.732677
7.341504
6.885529
6.851554
6.868839
6.435513
7.156730
6.743670
6.451607
7.185936
6.831884
6.855726
7.140636
7.021427
7.304549
7.254481
6.820560
6.773472
7.257462
7.077456
7.564425
7.507801
8.337498
8.071661
7.593632
8.245707
9.284616
9.459853
9.880662
10.871887
12.106895
12.683868
12.510419
14.519691
14.933944
15.406609
15.889406
15.998483
14.909506
15.707612
14.876723
15.182495
13.329983
13.877749
13.839602
13.142824
12.932420
13.072491
12.847781
12.905598
12.488961
12.329817
11.848807
12.549758
12.625456
13.045669
12.567639
##ZVALUE=260
1.183748
1.245737
1.227856
1.484752
1.185536
1.321435
1.516938
1.431704
1.740456
1.977682
2.129674
2.915859
9.750724
42.128563
99.636912
244.063735
398.418903
632.880926
825.231671
1008.286476
1015.892625
1015.892625
892.608762
720.842481
469.505787
318.917632
184.488893
114.843845
80.155730
83.350539
98.072886
122.799873
141.201615
151.708722
146.729946
132.005811
112.775564
82.542896
61.953664
37.180781
24.623871
14.328957
9.819865
7.455945
6.965995
6.709695
7.414818
6.399751
6.802678
6.909966
6.427765
6.268620
6.388426
6.725788
6.019473
6.112456
6.668568
6.213784
6.846786
6.935596
6.820560
6.984472
6.873608
7.283688
7.981658
7.844567
7.830858
8.844733
9.324551
9.508729
10.137558
12.273788
11.704564
11.862516
12.630820
13.353825
13.519526
12.978911
12.509823
11.811852
11.910796
11.496544
12.277961
10.922551
11.488795
10.896921
11.109710
10.588765
11.525750
10.839701
10.952950
10.764599
10.264516
11.408925
11.117458
11.127591
##ZVALUE=265
1.259446
1.045465
1.081824
1.457930
1.176596
1.305938
1.432896
1.407862
1.434684
1.498461
1.517534
1.765490
1.853704
2.186894
5.356669
26.928782
70.044398
177.196860
304.800868
552.990437
750.283003
916.026831
1015.911698
1015.911698
974.915028
834.473968
610.842705
426.969528
238.796473
148.339868
86.411834
71.176887
78.465939
109.243989
129.874945
148.946643
155.475736
147.921443
133.261681
106.729865
86.133480
56.970716
37.700534
21.796823
14.226437
9.071827
7.177591
7.050633
6.991625
6.736517
6.587505
6.519556
6.706715
6.575584
6.770492
6.267428
6.405711
6.598830
6.588697
6.062984
6.376505
6.615520
6.931424
6.928444
7.388592
7.335544
7.144809
7.697940
8.563995
8.941889
9.243488
9.797812
10.016561
10.695457
11.246800
11.033416
10.627508
11.049509
11.157990
11.560917
10.898709
9.992719
10.036826
10.144711
10.196567
9.927750
9.785891
9.401441
9.795427
9.760857
10.056496
9.688735
10.077953
9.779930
9.870529
9.906888
##ZVALUE=270
0.924468
1.075864
1.105666
1.083612
1.173615
1.128912
1.022816
0.976920
1.263618
1.363754
1.146793
1.506805
1.362562
1.652837
1.550913
1.911521
2.213717
12.362599
39.181709
126.117468
239.422917
407.771468
684.728622
886.549950
1015.876532
1015.876532
1015.876532
1000.537872
785.089731
598.503947
414.753556
225.792527
135.225654
72.738528
63.801408
84.010959
105.074644
132.878423
147.962570
155.352950
151.066780
131.684542
111.263990
82.435608
59.675574
36.480427
25.273561
15.194416
9.788871
7.368922
6.871819
6.653666
6.963611
7.156730
6.941557
7.101893
7.033944
7.184744
7.114410
6.987453
6.636977
6.860495
7.184744
6.876588
7.776618
7.271767
7.824898
7.841587
8.560419
8.505583
8.976460
9.650588
9.904504
10.054708
9.764433
10.697842
10.776520
10.570884
10.540485
10.413527
9.339452
9.597540
9.900928
9.287000
9.814501
9.453893
9.257793
9.994507
9.435415
8.959770
9.526610
9.296536
9.093881
8.949637
10.150671
8.961558
##ZVALUE=275
0.968575
0.919700
0.992417
0.751615
1.041889
1.000762
1.247525
0.982881
1.095533
1.005530
1.316667
1.077652
1.314878
1.414418
1.364946
1.309514
1.686811
1.731515
1.859665
5.094409
22.434592
91.134906
186.543465
390.396714
597.585440
871.856809
1015.897989
1015.897989
1015.897989
1015.897989
971.698761
708.318949
514.513850
286.543965
173.452497
83.175898
55.048466
60.086846
77.882409
109.197497
128.779411
148.938894
154.748559
148.867965
132.454634
105.037689
85.296631
58.526993
40.558577
24.671555
16.874671
9.968877
8.138418
7.464886
6.980896
7.001758
7.254481
7.095933
7.047653
6.856918
6.893873
6.886721
7.185936
6.804466
7.714629
7.276535
7.358789
7.686615
8.203983
8.432865
8.837581
9.084940
9.514689
10.112524
10.188818
10.331869
10.651946
9.857416
9.456873
9.945631
9.206533
8.891821
8.822680
8.663535
9.289980
8.960962
8.582473
8.562803
8.575916
8.751750
8.068681
9.000897
8.587837
8.887649
9.295940
8.772612
##ZVALUE=280
0.853539
0.985861
0.894666
0.821948
0.822544
0.902414
0.910759
0.882745
0.980496
1.127720
1.201630
1.333952
1.294613
1.423955
1.306534
1.116991
1.255870
1.374483
1.343489
1.780987
1.940727
2.482533
15.194416
52.241683
154.648423
273.652673
494.819880
695.454478
954.726934
1015.883684
1015.883684
1015.883684
1015.883684
821.185708
618.118644
360.878706
219.090581
100.610852
55.580735
43.179989
53.840876
80.029964
103.062987
128.153563
141.539574
150.268674
144.533515
128.070712
108.218789
80.485940
61.244965
37.087798
26.371479
15.111566
11.060834
7.769465
7.277727
7.218719
6.763935
7.256866
7.227659
6.827712
7.264614
7.128716
7.233620
7.071495
7.959604
7.523894
7.912517
8.176565
8.165836
9.042621
8.887649
9.374619
9.015799
9.455681
9.287596
9.442568
9.529591
9.150505
9.259582
9.309649
8.361936
8.628964
8.321404
8.737445
8.750558
9.238720
8.333921
8.035898
8.145571
8.001924
8.405447
8.422732
8.634925
8.453727
##ZVALUE=285
0.782609
0.708699
0.960827
0.901818
0.903606
0.732541
0.722408
0.888705
1.035929
1.070499
0.969768
0.995994
1.010895
1.088977
1.315475
1.032948
1.229644
1.221895
1.348853
1.189709
1.493692
1.531839
1.807809
1.940727
5.468726
32.090545
78.457594
193.234682
329.617858
574.162006
778.417587
1010.806561
1015.897989
1015.897989
1015.897989
953.536630
753.491521
474.215746
297.961831
141.244531
74.554682
36.255717
34.906864
53.682923
72.528720
101.566911
120.211840
139.699578
146.679878
142.538548
130.190849
107.834935
86.521506
60.004592
42.064786
23.532510
16.096830
10.468960
8.097887
6.960630
6.897449
6.763935
6.961823
6.935596
7.059574
7.230639
7.631779
7.794499
8.020997
8.247495
8.306503
8.301735
8.403659
9.260774
9.101629
9.240508
9.205937
9.037852
8.576512
8.461475
9.275675
8.464456
8.941889
8.024573
8.065701
8.305907
8.506775
8.301735
8.070469
8.520484
8.504987
8.226633
8.140802
8.399487
8.353591
8.708835
##ZVALUE=290
0.890493
0.852942
0.735521
0.836849
0.878572
0.824928
0.877976
1.098514
0.971556
0.889897
1.003742
0.898838
0.805855
1.004934
1.000762
1.146793
1.117587
1.027584
1.156926
1.249909
1.344681
1.193881
1.584888
1.562834
1.774430
1.930594
2.834797
9.592772
47.835708
111.779571
210.904479
424.002409
638.998747
932.638645
1015.928984
1015.928984
1015.928984
1015.928984
861.887932
589.704514
394.365788
197.718740
102.242827
41.311979
26.335716
33.323765
47.718883
71.307421
90.916753
118.553638
132.658482
141.571760
140.641928
125.940442
108.719468
80.017447
60.616732
38.962960
25.706887
15.160441
10.508895
7.896423
7.328987
7.000566
6.577969
7.123947
6.894469
7.225871
7.497668
7.978678
8.079410
9.026527
8.587837
8.888841
8.741617
8.795857
9.103417
8.609891
8.324981
8.706450
8.716583
8.274913
8.530617
7.782578
7.989407
8.554459
8.108616
8.228421
7.962584
8.351803
7.870793
7.791519
7.760525
7.800460
7.704496
7.867813
##ZVALUE=295
0.584722
0.727773
0.708699
0.634789
0.502467
0.738502
0.711679
0.714660
0.933409
0.931621
0.850558
0.784993
0.798702
0.890493
0.733733
0.997782
0.915527
0.964999
1.028776
1.229644
1.073480
1.167655
1.217723
1.307726
1.306534
1.426935
1.764894
1.624823
2.207756
3.750920
22.560954
61.986446
168.519616
306.430459
559.916496
768.970847
1007.961631
1015.897989
1015.897989
1015.897989
949.672461
749.287605
465.170741
290.079713
131.604671
64.402819
26.317835
20.376444
30.320883
44.094920
65.932870
86.791515
110.567808
126.433969
136.399865
134.553909
119.042993
102.666616
78.583956
60.231686
39.107800
26.542544
15.756488
10.999441
7.960796
7.520914
7.007718
7.132888
7.040501
7.922649
7.587671
8.169413
8.260608
8.541942
8.284450
8.530617
8.411407
8.244514
8.052588
8.128881
8.167624
8.395910
8.105636
8.146763
8.182526
8.203983
8.012652
8.296967
8.342862
7.998943
7.853508
7.833838
7.961988
7.895827
7.784963
7.853508
##ZVALUE=300
0.665784
0.774860
0.576973
0.742674
0.804663
0.476837
0.700951
0.664592
0.680685
0.856519
0.774860
0.866652
0.751615
0.845790
0.958443
0.871420
0.866652
0.703931
0.751615
0.919700
0.820756
0.954866
1.173615
1.068711
1.024604
1.065731
1.409650
1.329780
1.450777
1.738667
1.774430
1.961589
9.011626
32.806993
108.307600
209.735632
420.032740
629.823804
916.519761
1015.897989
1015.897989
1015.897989
1015.897989
870.657563
583.463907
387.134552
194.956660
103.110671
37.053823
18.627644
18.298626
24.866462
40.003657
56.573749
80.359578
99.544525
118.657947
127.068758
124.340653
117.177963
98.690987
80.210567
57.125688
41.103959
25.888681
17.530918
11.337996
8.954406
7.567406
7.598996
7.478595
7.805824
7.753968
7.968545
8.109808
8.224845
8.356571
8.240938
8.503795
8.359551
8.391738
8.215904
8.347631
8.229613
7.977486
7.960796
8.473992
8.270741
8.066893
8.088946
8.016825
7.865429
8.084774
7.417798
7.961988
7.897615
##ZVALUE=305
0.720620
0.733733
0.687838
0.694990
0.707507
0.685453
0.666976
0.690818
0.691414
0.730753
0.545979
0.805855
0.755787
0.652671
0.784993
0.749826
0.753999
0.593662
0.805855
0.900626
0.901818
0.853539
0.870824
0.911951
1.021624
1.354814
1.325607
1.299977
1.281500
1.279712
1.507998
1.301765
1.585484
1.797676
4.731417
17.845631
72.968006
156.027675
341.662765
527.833700
799.111724
994.372964
1015.897989
1015.897989
1015.897989
977.170467
706.285834
496.371984
260.705948
145.242810
57.489872
25.231838
13.761520
16.286969
24.957657
36.547780
56.711435
75.199604
97.353458
110.602975
121.654868
121.507645
111.111999
96.612573
73.864460
56.840777
38.425922
26.035905
15.954971
11.468530
8.984804
8.285642
8.095503
8.445978
7.741451
8.369684
8.178949
7.659793
7.883906
8.398890
8.329749
8.305907
8.274913
8.226633
8.320808
8.093715
7.828474
8.268952
8.176565
8.417964
7.744431
7.603765
7.517934
7.723570
8.138418
7.677674
##ZVALUE=310
0.653863
0.517964
0.761747
0.651479
0.598431
0.566840
0.686646
0.586510
0.580549
0.691414
0.645518
0.704527
0.751615
0.888705
0.650883
0.515580
0.677705
0.702739
0.757575
0.844598
0.801682
0.824928
0.840425
0.889897
0.994802
0.830889
1.117587
1.082420
1.121759
1.202822
1.310706
1.263618
1.368523
1.513958
1.757741
1.869798
2.232790
9.101629
31.391978
105.497837
207.236409
421.493649
631.038547
922.417641
1015.897989
1015.897989
1015.897989
1015.897989
888.662934
598.174930
401.634574
203.223825
108.096600
38.991570
16.295910
11.340976
14.663935
22.316575
31.700730
51.092505
67.454576
89.578629
102.421641
114.051700
116.602778
108.425617
95.004439
73.683858
56.839585
38.322806
26.774406
17.278790
13.053417
9.466410
8.531809
8.047819
7.686615
7.837415
7.916689
7.813573
7.800460
7.836819
7.925630
8.059740
8.389950
8.322597
8.521676
8.330941
8.349419
8.115768
8.167624
8.336902
8.029938
7.849932
7.606745
7.805824
##ZVALUE=315
0.502467
0.526905
0.521541
0.637770
0.780821
0.663996
0.653863
0.540614
0.648499
0.691414
0.673532
0.693798
0.742674
0.714660
0.681877
0.790954
0.694990
0.630617
0.646710
0.584722
0.701547
0.856519
0.752807
0.742674
0.688434
0.802875
0.895858
1.073480
1.068711
1.013875
1.207590
1.089573
1.033545
1.061559
1.213551
1.424551
1.542568
1.749992
1.835823
4.410744
15.190840
65.976977
148.852468
339.998603
537.453890
833.703876
1010.868549
1015.897989
1015.897989
1015.897989
993.866920
731.604695
518.978834
277.679563
151.988864
56.261420
23.575425
10.253787
10.156631
13.491511
19.071698
31.941533
45.452714
64.640641
80.348849
98.896623
107.766986
108.601451
102.897882
86.908937
71.358681
51.634908
37.746429
24.235845
17.637610
12.245774
9.751916
8.565784
7.918477
7.759929
8.051991
8.351803
8.134842
8.039474
8.047819
7.839799
8.244514
8.423924
8.571744
8.365512
8.419752
8.068681
7.951856
8.059740
8.065701
8.256435
##ZVALUE=320
0.528693
0.596642
0.548959
0.580549
0.654459
0.551939
0.521541
0.412464
0.559688
0.549555
0.597835
0.587702
0.640750
0.657439
0.623465
0.606775
0.657439
0.809431
0.837445
0.662804
0.589490
0.760555
0.739694
0.656843
0.753999
0.811815
0.854731
0.838637
0.772476
0.903606
0.950694
0.986457
1.047850
1.058578
1.295805
1.208782
1.268983
1.364946
1.487732
1.541972
1.801848
2.198815
6.756783
38.682818
101.592541
262.360573
428.498983
707.618594
932.748914
1015.897989
1015.897989
1015.897989
1015.897989
883.599520
650.998950
365.914702
212.119818
89.943409
40.893555
13.311505
9.123683
9.752512
11.772513
18.134713
26.285648
43.205619
56.681633
76.788664
90.863705
101.416707
103.378892
97.489953
86.101890
67.217946
52.948594
34.814477
25.047660
16.699433
12.603998
9.784698
8.588433
8.274913
8.127689
8.402467
8.107424
8.340478
8.118749
8.149743
7.954836
7.980466
8.078814
8.256435
8.077621
7.926822
8.092523
7.620454
##ZVALUE=325
0.454783
0.585914
0.504851
0.432730
0.495911
0.685453
0.505447
0.504851
0.511408
0.466704
0.607967
0.654459
0.704527
0.789762
0.603795
0.631809
0.587702
0.477433
0.650883
0.645518
0.544786
0.702739
0.585914
0.562668
0.649691
0.763535
0.801682
0.854731
0.798702
0.827909
0.857711
0.937581
0.870824
0.942945
1.064539
1.095533
1.085997
1.182556
1.217723
1.147985
1.409650
1.435876
1.731515
1.927614
4.456639
18.716455
72.929859
155.738592
345.157981
540.863872
839.812756
1015.897989
1015.897989
1015.897989
1015.897989
1007.548571
728.876591
509.628654
279.902816
153.032541
54.908991
22.822618
8.890629
8.450747
9.179711
11.153817
17.276406
25.369525
41.745901
55.561662
75.604916
86.997747
95.836520
97.182989
91.401935
80.401897
63.422918
49.388409
33.583641
24.343729
15.501976
11.835694
9.777546
8.958578
8.609891
7.933974
7.958412
8.005500
8.047819
7.977486
7.909536
8.136630
8.232594
8.000731
7.891655
7.994771
##ZVALUE=330
0.528693
0.589490
0.382662
0.412464
0.534654
0.334978
0.595450
0.668764
0.470877
0.638962
0.548959
0.553727
0.599623
0.591874
0.684857
0.464916
0.405908
0.474453
0.588894
0.519753
0.585914
0.685453
0.585914
0.447631
0.694990
0.624657
0.715852
0.656843
0.960827
0.702739
0.861883
0.767708
0.879765
0.881553
0.864863
0.910759
0.924468
0.888705
0.970960
1.014471
1.276731
1.025796
1.319647
1.401901
1.525879
1.776814
2.396703
7.101893
40.072799
101.294518
250.445008
414.866805
701.797009
928.760767
1015.897989
1015.897989
1015.897989
1015.897989
890.023708
664.593577
376.510620
217.476487
88.800788
37.798882
11.653900
7.836819
7.723570
8.390546
11.748672
16.755462
27.415752
37.404895
54.366589
67.478418
82.934499
89.319944
91.204643
86.629987
72.884560
60.570836
43.616891
33.644438
23.412704
17.256737
12.408495
10.004640
8.916855
8.274913
8.037686
7.800460
8.011460
7.918477
7.479787
7.450581
7.962584
7.440448
##ZVALUE=335
0.410676
0.290871
0.457764
0.465512
0.505447
0.575781
0.318885
0.529885
0.509620
0.513792
0.552535
0.512600
0.607967
0.670552
0.647902
0.505447
0.518560
0.627637
0.540614
0.423789
0.495911
0.427961
0.722408
0.559688
0.586510
0.645518
0.761747
0.671744
0.586510
0.539422
0.665784
0.814795
0.707507
0.635982
0.779629
0.899434
0.837445
0.909567
0.919700
1.003742
1.054406
1.097918
1.214743
1.196861
1.154542
1.421571
1.277924
1.707673
1.906753
4.486442
16.999841
70.156455
148.465633
326.803923
525.033474
827.388763
1010.972857
1015.889645
1015.889645
1015.889645
1000.701785
717.263818
492.540598
259.071589
136.446953
45.353770
18.329620
8.529425
7.589459
7.918477
8.727908
11.324883
15.478730
25.926828
35.469532
51.687956
63.572526
77.378750
83.567500
84.875822
80.843568
67.248940
57.848692
43.920875
34.153461
23.886561
16.955733
12.296438
10.178685
8.387566
7.939935
7.758737
7.439852
7.581711
7.593632
7.789731
##ZVALUE=340
0.491738
0.332594
0.502467
0.672936
0.505447
0.459552
0.350475
0.512600
0.425577
0.460744
0.552535
0.501871
0.387430
0.668764
0.659823
0.621676
0.652671
0.658631
0.583529
0.441670
0.462532
0.656843
0.616908
0.616908
0.644922
0.525713
0.675917
0.542998
0.633597
0.739694
0.681877
0.645518
0.821948
0.718832
0.912547
0.852942
0.898838
0.893474
0.839829
0.918508
0.866652
1.022816
0.953674
0.961423
0.965595
1.094937
1.172423
1.178980
1.186728
1.470447
1.767874
2.264977
8.002520
41.561723
104.132891
256.391764
427.916646
700.129867
916.231871
1015.895009
1015.895009
1015.895009
1015.895009
843.296647
607.586503
322.613716
177.793503
70.622563
27.813911
9.571910
7.578731
7.677674
7.633567
8.841753
10.687709
16.357899
22.907853
35.197735
46.452880
62.493682
72.579980
79.689622
80.063939
74.401498
68.158507
54.693818
44.201612
31.159520
23.906827
16.796589
12.576580
9.206533
8.427501
7.527471
7.202625
7.473826
##ZVALUE=345
0.480413
0.383854
0.537634
0.411868
0.523925
0.467896
0.467896
0.470877
0.440478
0.498891
0.593662
0.471473
0.395775
0.519753
0.399947
0.562668
0.619888
0.605583
0.549555
0.547767
0.526905
0.529885
0.558496
0.558496
0.576973
0.505447
0.613928
0.542998
0.630617
0.726581
0.628829
0.724792
0.742674
0.658631
0.776649
0.717640
0.929832
0.743866
0.702739
0.649691
0.699759
0.849962
0.994802
0.921488
1.106858
0.991821
0.995994
1.189709
1.183748
1.116991
1.280904
1.546741
1.613498
1.713634
3.717542
22.963881
65.486431
172.031522
307.711959
558.964014
772.963762
1011.659503
1015.902758
1015.902758
1015.902758
931.939483
712.459683
431.254506
249.122977
96.810460
41.633844
13.899803
8.285642
7.357597
7.318854
7.317662
8.252859
10.166764
13.883710
22.098422
31.507611
45.176744
54.981709
64.855814
70.661902
74.519515
71.668625
63.617826
54.163933
42.186975
32.567978
22.247434
16.398430
11.887550
9.556413
7.799864
##ZVALUE=350
0.440478
0.361800
0.564456
0.577569
0.605583
0.390410
0.609756
0.448823
0.348687
0.509620
0.535846
0.525713
0.541806
0.634789
0.488758
0.602603
0.622869
0.591874
0.523925
0.660419
0.672936
0.490546
0.537634
0.639558
0.562668
0.507832
0.566840
0.612736
0.709891
0.601411
0.695586
0.627637
0.487566
0.581741
0.854731
0.660419
0.606775
0.556707
0.779629
0.706911
0.643730
0.781417
0.707507
0.665784
0.795722
0.971556
0.924468
1.030564
0.982881
1.116991
1.221895
1.288652
1.277924
1.396537
1.569986
1.751781
2.616644
9.195805
43.415427
100.264549
242.602825
404.427648
671.978593
889.706016
1015.897989
1015.897989
1015.897989
1015.897989
792.177916
548.453927
281.384587
152.916908
55.822730
21.498799
8.747578
7.084608
7.039905
6.808639
6.696582
7.418990
9.896755
13.092756
19.322634
26.460886
38.284659
47.358871
58.822632
64.947605
68.076849
66.145658
59.396625
51.271915
39.362907
31.199455
21.312833
16.507506
##ZVALUE=355
0.435710
0.505447
0.534654
0.371933
0.438690
0.643730
0.484586
0.488758
0.434518
0.448823
0.462532
0.533462
0.569820
0.479817
0.429749
0.542998
0.634789
0.447631
0.532866
0.450611
0.702739
0.427961
0.661612
0.548959
0.560880
0.575781
0.523925
0.499487
0.776649
0.625849
0.627637
0.587702
0.685453
0.579953
0.654459
0.476837
0.767708
0.774860
0.558496
0.728965
0.685453
0.876784
0.654459
0.719428
0.808835
0.839829
0.777841
0.971556
0.970960
1.018643
0.923872
1.014471
1.289845
1.252890
1.335740
1.377463
1.437664
1.569986
1.841784
5.698800
21.514893
86.104870
176.992416
363.236666
557.985902
846.219659
1009.391546
1015.892625
1015.892625
1015.892625
939.781666
648.735762
417.846441
183.070898
84.844828
24.301410
10.545850
7.078648
6.979704
6.553531
6.495714
6.473660
7.313490
8.827448
11.331439
17.257929
23.550987
34.140944
41.772723
51.893592
58.085918
60.969591
60.109496
54.266453
46.906471
37.672520
##ZVALUE=360
0.453591
0.499487
0.478625
0.563860
0.442863
0.538826
0.494719
0.513792
0.403523
0.552535
0.541806
0.479817
0.705719
0.551939
0.419617
0.670552
0.432730
0.555515
0.697970
0.368953
0.642538
0.630617
0.543594
0.534654
0.589490
0.674725
0.515580
0.593662
0.829697
0.663996
0.581741
0.540614
0.565648
0.657439
0.654459
0.561476
0.865459
0.611544
0.721812
0.674725
0.601411
0.664592
0.615716
0.749826
0.805855
0.796914
0.791550
0.760555
0.831485
1.128912
1.046658
1.035929
1.146793
1.111627
1.169443
1.338720
1.283884
1.367927
1.366735
1.672506
1.889467
2.925992
8.386970
43.570995
105.284452
258.823633
433.769822
709.053874
917.295814
1015.892029
1015.892029
1015.892029
1015.892029
783.034563
533.793569
258.982778
129.153728
43.360591
16.502738
7.356405
6.375909
6.290674
6.141663
5.893707
5.809665
6.449819
7.279515
10.030866
13.360977
19.655824
26.472807
36.838651
44.363737
51.516891
55.378675
55.276752
##ZVALUE=365
0.444651
0.320673
0.295639
0.456572
0.540614
0.521541
0.344515
0.549555
0.572801
0.483990
0.584722
0.454783
0.521541
0.444651
0.600815
0.523925
0.604987
0.454783
0.591874
0.613928
0.630617
0.444651
0.503659
0.591874
0.427961
0.786781
0.455976
0.691414
0.592470
0.595450
0.755787
0.594854
0.554919
0.622869
0.589490
0.653863
0.767708
0.730753
0.675917
0.616908
0.697970
0.751615
0.733733
0.852942
0.691414
0.791550
0.911951
0.863671
0.862479
0.985861
0.814795
0.923872
0.897646
0.808835
0.886917
0.958443
0.926852
1.222491
1.194477
1.312494
1.431704
1.591444
1.806617
2.190471
3.875494
22.513866
62.337518
167.951584
307.336450
561.314821
758.629441
990.700722
1015.900970
1015.900970
1015.900970
834.124684
610.520840
338.868499
182.101727
63.164830
23.954511
7.924438
6.280541
5.798936
5.630851
5.618930
5.272627
5.300641
5.635619
6.110668
7.664561
11.478662
15.873909
24.073720
31.114817
39.021969
##ZVALUE=370
0.406504
0.231862
0.423789
0.502467
0.500679
0.510812
0.604987
0.637770
0.447631
0.496507
0.349879
0.415444
0.537634
0.454783
0.422597
0.501871
0.749826
0.576973
0.602603
0.552535
0.446439
0.617504
0.527501
0.475645
0.421405
0.527501
0.412464
0.482798
0.580549
0.468493
0.257492
0.489950
0.550747
0.696778
0.548959
0.626445
0.643730
0.466704
0.551939
0.746846
0.607967
0.587702
0.701547
0.687838
0.769496
0.764728
0.729561
0.704527
0.616908
0.936985
0.710487
0.640750
0.915527
0.977516
0.971556
0.960827
1.060963
0.977516
1.037717
1.061559
0.990629
1.227856
1.412630
1.254678
1.599789
1.888871
2.479553
11.803508
40.095448
131.313801
244.419575
459.383726
671.656728
960.788727
1015.879512
1015.879512
1015.879512
915.669799
692.257881
389.396548
218.807459
84.519982
37.358999
12.870431
6.881952
5.583763
5.388856
4.967451
4.734993
4.835725
4.702806
4.901886
5.644560
7.318854
9.709597
14.430881
##ZVALUE=375
0.470877
0.251532
0.307560
0.447631
0.244975
0.487566
0.366569
0.384450
0.358820
0.325441
0.308752
0.439882
0.372529
0.305772
0.410676
0.452995
0.288486
0.423789
0.526905
0.493526
0.303984
0.449419
0.390410
0.441670
0.398755
0.599623
0.461936
0.447631
0.358820
0.279546
0.469685
0.430942
0.550747
0.529885
0.427961
0.341535
0.608563
0.457764
0.517964
0.509620
0.672936
0.498891
0.594854
0.451803
0.531673
0.483990
0.387430
0.524521
0.576973
0.582933
0.534654
0.516772
0.558496
0.595450
0.640750
0.661612
0.667572
0.880957
0.860691
0.872612
0.877976
1.003742
0.875592
1.119971
1.166463
1.113415
1.358986
1.455545
1.715422
5.518794
19.605756
74.451566
160.748959
360.737443
556.065440
835.767984
1002.112627
1015.800834
1015.800834
942.630768
743.122697
457.361937
291.640759
146.951675
74.391961
23.375750
9.321570
5.285740
5.029440
4.510880
4.540682
4.206896
4.158616
4.251599
4.395843
4.639626
##ZVALUE=380
0.443459
0.416636
0.381470
0.325441
0.354648
0.326633
0.316501
0.461936
0.464916
0.363588
0.504851
0.393987
0.351667
0.495911
0.428557
0.439882
0.415444
0.513792
0.485778
0.479817
0.376701
0.260472
0.440478
0.407696
0.311732
0.403523
0.537634
0.564456
0.420809
0.598431
0.452995
0.637770
0.548959
0.485778
0.531673
0.453591
0.589490
0.624657
0.534654
0.592470
0.498891
0.554919
0.559688
0.561476
0.419617
0.461936
0.597835
0.531673
0.684857
0.600815
0.640750
0.531673
0.611544
0.568628
0.661612
0.836849
0.706911
0.770688
0.646710
0.758767
0.918508
0.852942
0.876784
0.999570
1.048446
0.956655
1.176596
1.339912
1.439452
1.619458
1.947880
2.769828
13.542771
43.703914
137.106776
252.917409
481.014848
695.099831
961.308479
1015.897989
1015.897989
1006.830931
803.866982
603.613853
354.909897
207.755566
85.580945
38.653612
10.974407
5.889535
4.656911
4.399419
4.179478
4.099607
4.144907
4.194975
##ZVALUE=385
0.421405
0.478625
0.325441
0.317693
0.464916
0.430942
0.290871
0.362992
0.369549
0.557899
0.361800
0.513792
0.409484
0.430942
0.405908
0.268817
0.342727
0.482798
0.395775
0.411868
0.446439
0.437498
0.522733
0.382662
0.388622
0.481606
0.532866
0.567436
0.469685
0.367761
0.539422
0.461936
0.301600
0.318885
0.484586
0.459552
0.401735
0.714660
0.586510
0.567436
0.542998
0.591874
0.579953
0.474453
0.486970
0.659823
0.603795
0.492930
0.509620
0.606775
0.557899
0.562668
0.601411
0.728965
0.522733
0.674725
0.646710
0.610948
0.634789
0.678897
0.672936
0.649691
0.679493
0.767708
0.883937
0.851750
0.931621
1.012683
1.020432
1.278520
1.334548
1.620650
1.628995
2.008677
5.171895
30.204654
80.804825
203.797817
355.739594
614.492893
813.295841
1007.696986
1015.897989
1015.707850
898.766518
664.287806
483.495593
277.791619
154.472589
57.224631
22.542477
6.926656
4.536510
4.066825
4.098415
3.905892
##ZVALUE=390
0.475645
0.419617
0.377893
0.357628
0.455976
0.342727
0.498891
0.419617
0.484586
0.425577
0.447631
0.460744
0.498891
0.356436
0.481606
0.462532
0.434518
0.370741
0.398755
0.355840
0.448823
0.383854
0.420809
0.370741
0.455976
0.484586
0.460744
0.437498
0.494719
0.454783
0.534654
0.445843
0.613928
0.456572
0.474453
0.486970
0.557899
0.591874
0.572801
0.465512
0.529885
0.575781
0.285506
0.541806
0.711679
0.541806
0.429749
0.569820
0.621676
0.530481
0.529885
0.636578
0.562668
0.629425
0.583529
0.554919
0.602603
0.742674
0.646710
0.632405
0.610948
0.616908
0.631809
0.625849
0.856519
0.822544
1.050830
0.986457
1.052618
1.279712
1.178980
1.372695
1.392961
1.574755
1.613498
1.559854
3.072619
12.561679
59.521794
139.590502
320.945978
501.163006
757.199526
942.168832
1015.897989
1015.897989
1002.031565
846.756697
580.181479
390.474796
203.359723
104.426742
36.107898
13.872981
4.865527
4.047751
##ZVALUE=395
0.482798
0.325441
0.398755
0.470877
0.348687
0.364780
0.434518
0.350475
0.373721
0.419617
0.519753
0.335574
0.445843
0.455976
0.262856
0.406504
0.342727
0.436902
0.472665
0.433922
0.427961
0.495911
0.430942
0.486970
0.565648
0.555515
0.383854
0.446439
0.274777
0.394583
0.618696
0.431538
0.462532
0.388622
0.494719
0.426769
0.492930
0.328422
0.559688
0.647902
0.487566
0.430942
0.626445
0.413656
0.410676
0.564456
0.493526
0.513792
0.498891
0.541806
0.429749
0.592470
0.566840
0.590682
0.557899
0.644922
0.629425
0.742674
0.636578
0.689626
0.740886
0.761747
0.813603
0.783801
0.801682
0.811815
0.902414
1.016855
0.933409
1.082420
1.063943
1.319647
1.421571
1.299977
1.234412
1.502633
1.701713
1.480579
2.096891
8.339882
30.695796
108.089447
211.915970
426.477790
641.958714
957.740545
1015.895605
1015.895605
1015.895605
1006.330848
796.463490
477.777719
295.814872
137.268901
65.080523
21.089911
##ZVALUE=400
0.433922
0.533462
0.428557
0.472665
0.494719
0.572801
0.281930
0.421405
0.401735
0.303984
0.379682
0.295639
0.307560
0.467896
0.361800
0.363588
0.450611
0.498891
0.543594
0.420809
0.480413
0.295639
0.512600
0.529885
0.400543
0.410676
0.437498
0.424981
0.438690
0.482798
0.443459
0.419617
0.467896
0.401735
0.438690
0.554919
0.591874
0.450611
0.464916
0.715852
0.530481
0.531673
0.469685
0.307560
0.604987
0.398755
0.465512
0.774860
0.554919
0.474453
0.564456
0.539422
0.765920
0.697970
0.699759
0.448823
0.563860
0.672936
0.658631
0.615716
0.627637
0.631809
0.587702
0.653863
0.800490
0.770688
0.826716
0.752807
0.988841
1.028776
1.007915
1.216531
1.190901
1.123548
1.131892
1.116991
1.335740
1.262426
1.152754
1.568794
1.697540
4.249811
16.219616
61.194897
132.815838
299.560428
479.167700
742.516518
921.855569
1015.898585
1015.898585
989.262462
818.590522
545.790792
359.518528
181.423426
##END
