##TITLE=DDW1
##FORMAT=SPECTACLE-ASCII V-1.2
##DATA TYPE=ULTRAVIOLET SPECTRUM
##SECOND TYPE=ULTRAVIOLET SPECTRUM
##DATE=12/26/17
##TIME=12:25:19
##SPECTROMETER/DATA SYSTEM=SPECTACLE
##XUNITS=NM EM
##YUNITS=ENERGY
##YFACTOR=1
##FIRSTX=220
##LASTX=410
##NPOINTS=96
##3DDATA=Equidistant
##ZUNITS=NM EX
##FIRSTZ=210
##LASTZ=400
##ZPOINTS=39
##XYDATA=(Y..Y)
##ZVALUE=210
13.237596
13.973713
10.859966
10.032654
9.652972
7.997751
8.359551
7.226467
5.006790
5.133748
2.964735
2.396703
1.475811
1.535416
1.867414
1.324415
2.319813
1.861453
1.987815
1.857877
1.777411
2.184510
1.959801
2.919436
2.126694
2.723932
2.792478
2.881885
2.490878
3.462434
3.263950
3.723502
3.827810
3.257990
3.714561
4.125834
3.931522
3.947616
4.527569
3.795624
4.656911
3.912449
3.747940
3.887415
4.350543
4.671812
3.760457
3.801584
3.853440
4.170537
4.049540
4.216433
4.148483
3.689528
3.998876
4.635453
4.462600
4.035830
5.326867
4.303455
3.680587
3.875494
4.736781
3.759861
4.488826
4.581809
4.306436
4.765987
5.418658
6.632805
7.054806
8.199811
8.389950
8.628964
8.535981
9.913445
9.322762
9.492636
9.316802
8.496642
8.034706
7.445812
6.540418
5.544424
5.125999
3.773570
3.864765
4.512668
4.386902
5.315542
6.702542
10.441542
13.381839
16.835928
22.842884
27.475953
##ZVALUE=215
36.453605
35.432577
30.154586
22.122860
18.030405
17.143488
15.467405
13.049841
14.196634
13.379455
10.552406
9.492636
6.576777
4.179478
3.077984
2.295971
2.375841
1.796484
1.954436
1.916885
2.371669
2.238750
2.995729
2.923608
2.775788
2.887845
2.848506
2.979636
3.508925
3.560781
3.331900
3.606677
4.559755
4.384518
4.339814
5.009770
4.917979
4.272461
4.771948
5.119443
5.044937
4.591942
4.680753
5.383492
4.625916
4.336834
4.134774
5.340576
4.209876
4.723668
5.277991
4.368424
4.271865
5.448461
4.560947
5.623698
4.038811
4.967451
4.795790
5.105734
5.234480
4.644990
4.682541
4.314780
4.874468
4.379749
4.847646
5.575418
5.799532
6.234646
6.676912
7.662773
8.124709
9.436607
9.865761
9.873509
10.066628
9.650588
9.309649
8.268952
7.892847
6.874800
6.810427
5.319715
5.838871
4.263520
4.783869
4.074574
3.605485
3.756881
4.064441
3.469586
3.899932
5.464554
6.715655
10.293722
##ZVALUE=220
80.511570
79.445839
77.316761
69.804788
59.105754
46.741962
37.705898
27.615428
26.577711
24.305582
25.015473
22.722483
22.256970
16.937852
14.379621
10.179877
7.701516
4.290938
3.710985
3.382564
3.417730
2.718568
3.357530
3.541708
3.627539
3.417730
3.565550
4.511476
4.795790
4.982948
4.518628
5.034804
6.282926
4.655719
5.819798
5.600452
6.313920
6.568432
5.914569
5.925894
5.441904
5.437732
6.871819
5.503893
5.918741
6.143451
6.673932
5.393624
6.106496
5.264878
6.145835
6.510615
6.168485
6.159544
6.279945
6.032586
6.792545
6.293654
6.298423
6.360412
6.917715
7.689595
6.284714
6.379485
6.324649
5.920529
6.948709
7.033944
7.035732
7.941723
8.479953
9.749532
9.667873
11.257529
10.340810
10.821819
9.983778
10.422468
11.866689
11.051893
9.452701
8.885860
8.094907
6.557703
5.774498
5.945563
5.646944
4.663467
4.609823
4.759431
4.565716
4.755855
4.005432
5.065799
4.368424
4.932880
##ZVALUE=225
98.711848
102.893710
125.105977
136.774778
137.328506
120.118856
107.923746
80.907941
61.095953
48.389435
39.157867
36.489964
36.764741
37.817955
34.489632
31.026602
26.903749
19.122958
12.899637
8.558631
5.825758
3.637671
3.702641
3.010631
2.935529
3.680587
3.731847
3.893971
4.764795
3.878474
4.543662
4.197955
5.048513
5.551577
6.102920
5.962849
6.983876
5.848408
5.178452
5.653501
5.943775
6.007552
6.551743
5.112886
6.004572
5.687475
6.775856
6.478429
6.108880
6.336570
6.243587
7.045865
6.846786
6.864667
6.267428
6.937981
7.495880
6.958842
7.924438
7.342696
7.298589
7.326603
6.971955
6.921887
7.711649
7.672906
6.537437
7.961988
7.680655
7.208586
8.190870
9.404421
10.415912
10.401607
9.749532
10.251999
11.069775
11.243820
9.321570
9.204745
7.993579
7.566810
6.735921
6.420612
5.590916
5.266666
5.391836
4.791617
5.427599
4.492998
4.275441
4.102588
4.091859
4.230738
4.091859
4.175901
##ZVALUE=230
70.660710
73.421001
111.774802
169.027448
201.393962
226.461887
227.056742
221.692920
190.466642
150.263906
105.905533
76.482892
59.582591
54.945946
57.092905
57.817698
62.020421
57.427883
51.081777
37.843585
29.043555
17.954707
13.094544
7.789731
5.166531
4.566908
4.993677
4.715919
4.813671
5.559921
5.122423
5.069971
5.931854
5.704761
5.700588
5.672574
5.739927
6.972551
6.592870
6.976724
6.358624
6.134510
7.119775
6.086826
6.274581
6.424785
6.136894
5.878806
6.327629
6.402731
6.360412
6.366968
6.802678
7.663965
7.340908
7.580519
7.096529
8.204579
7.444620
7.559657
7.971525
7.460713
7.971525
7.983446
8.011460
8.294582
8.239746
8.363724
9.441972
8.762479
9.511709
9.470582
10.048747
10.428429
11.819601
12.064576
9.801984
10.119677
9.668469
9.419918
8.626580
7.344484
6.778836
7.214546
6.310940
5.818605
6.500483
5.666614
5.906820
5.180836
5.216599
4.402995
5.087852
4.698634
4.697442
4.259944
##ZVALUE=235
20.619631
23.092628
46.197772
96.509457
150.919557
228.799582
280.920863
348.781943
372.457504
365.293622
309.771895
249.452591
172.588825
125.004649
91.649890
81.947446
78.826547
84.138513
85.895658
86.793900
83.310604
66.606998
52.340627
35.909414
23.985505
15.796423
9.872913
6.741881
5.346537
5.519986
5.081892
4.305840
5.454421
4.929900
5.418658
7.309914
6.295443
6.509423
6.075501
6.322861
6.416440
6.346703
6.318688
6.345510
6.633997
6.554723
6.203651
6.708503
6.117821
6.103516
6.553531
6.494522
6.486773
7.815957
7.242560
6.879568
6.980896
7.554889
8.063912
8.335710
8.540750
8.099675
8.025765
7.934570
8.012652
7.998943
8.401871
7.999539
9.025931
9.967685
10.564923
10.025501
11.650920
12.141466
12.008548
13.196468
12.316704
11.525750
11.139512
9.516478
10.147691
9.673834
8.100867
7.483959
7.543564
6.767511
5.805492
6.351471
5.757809
5.669594
6.276965
6.434917
4.754663
5.443692
5.261898
5.505681
##ZVALUE=240
1.440644
1.345873
6.850958
17.418861
48.121810
89.965463
166.327953
252.301693
364.227891
431.849957
486.207604
486.775637
438.671708
353.670716
273.100734
171.800852
130.351782
98.559856
90.508461
96.694827
103.339553
108.118653
108.812451
92.529655
74.663758
60.398579
41.912794
27.711987
17.170906
11.529922
7.563829
5.937815
5.493760
6.043911
6.054640
5.529523
5.470514
4.881620
5.484819
5.924702
6.200671
5.763769
6.028414
5.658865
5.989671
5.542636
6.335974
5.812645
5.889535
5.797744
6.183982
6.666780
6.379485
6.973743
6.282926
6.628633
6.546974
6.406903
6.304979
6.476641
6.851554
7.663965
7.192492
7.576942
7.791519
6.472468
6.478429
7.765889
8.568764
8.860826
8.919835
9.060502
10.930896
11.808872
11.307597
11.788607
10.353923
10.421872
10.409951
9.031892
8.664727
9.271502
7.670522
6.986856
7.186532
6.771684
6.424785
6.483793
5.429983
6.136894
5.999804
5.132556
5.204678
5.065799
5.090833
5.003810
##ZVALUE=245
1.306534
0.983477
1.124740
0.960827
3.512502
11.811852
38.487911
76.809525
164.231658
245.826840
387.776494
471.275449
538.645983
568.159819
544.469953
444.991589
364.326835
241.212845
172.828436
110.512972
92.429519
91.104507
103.711486
113.129616
116.097927
114.287734
104.949474
85.201859
64.877868
45.709610
33.003688
19.387603
13.284683
7.446408
6.834865
5.920529
5.523562
6.594658
5.607605
6.286502
5.810857
6.006956
5.113482
6.028414
5.999804
5.778670
5.898476
5.403757
5.875826
5.458593
5.119443
5.279779
5.182624
5.511642
5.085468
5.588531
5.849600
5.678535
6.252527
5.243421
6.222725
6.491542
6.763935
6.123781
5.964637
5.738735
6.864667
6.443858
6.865859
7.628798
7.233620
8.372664
9.174943
8.702874
9.888411
8.765459
9.091496
8.654594
8.770823
8.380413
8.016825
7.671714
6.797910
6.145835
5.748868
5.568862
5.340576
6.165504
5.730987
5.522966
4.917979
5.209446
5.118847
4.292727
4.509687
4.893541
##ZVALUE=250
0.995994
0.956655
1.078844
1.107454
1.081824
0.759959
1.903772
6.071925
27.740598
61.058998
141.859651
227.964520
330.336690
473.498702
559.152961
624.595881
625.121593
556.058884
471.607447
324.394703
225.641727
149.084926
95.171928
83.443522
94.573498
107.505918
121.718645
124.169588
122.390985
110.719800
87.525845
68.365932
51.741600
31.079650
20.001531
11.094809
6.934404
6.266832
5.590916
6.357431
5.738735
5.339980
5.524755
5.673766
5.313754
6.128550
5.595684
4.987717
5.118847
4.392862
5.042553
4.680753
4.999638
4.665852
5.013943
4.793406
4.485846
4.951954
4.414916
5.044937
5.154610
4.736781
4.888773
5.515814
5.143881
5.170703
6.167889
5.628467
5.917549
6.738901
6.449819
6.909966
7.044673
7.781982
8.776784
9.107590
7.711649
7.686615
7.993579
6.896853
6.020665
5.497932
4.663467
5.053878
5.768538
4.660487
4.702806
4.286766
4.394650
4.164577
3.845692
4.042983
4.796982
4.487634
3.800988
4.112720
##ZVALUE=255
0.773668
0.509620
0.808835
0.733733
0.732541
0.921488
0.884533
0.802875
1.287460
3.644824
13.394952
48.324466
96.134543
205.586553
308.018923
460.948944
564.278960
674.645901
704.693794
662.842989
569.432974
470.953584
294.051766
192.602873
107.217431
81.350803
79.313517
92.173815
114.175677
124.295950
131.249428
129.574537
112.405419
94.794631
71.926713
52.665472
30.833483
20.665526
11.570454
8.480549
5.938411
5.464554
5.061626
5.424619
5.798936
5.268455
5.497932
5.306602
5.116463
4.616976
4.915595
4.915595
4.954934
4.294515
4.940629
4.610419
4.606843
4.518628
4.198551
4.655719
4.735589
4.780889
4.781485
4.426837
4.517436
4.509687
4.622936
4.345775
5.402565
5.628467
5.527735
5.748868
6.238818
6.164908
6.555915
6.294847
6.176829
6.207824
4.883409
5.564690
5.308986
4.522800
4.408956
4.246831
3.928542
3.637671
4.038811
3.471971
3.629923
3.327727
3.004670
3.682971
3.237724
3.247857
2.902746
3.359914
##ZVALUE=260
0.467896
0.879765
0.801682
0.732541
0.986457
0.838637
0.680685
0.837445
1.076460
0.891685
1.264811
1.667738
5.949736
27.108788
62.949657
148.717761
247.975588
408.972502
535.878539
703.628659
761.767030
765.824914
684.043765
563.488603
373.017788
259.985924
150.782466
96.148849
69.242716
73.142648
87.733865
110.017657
127.374530
137.047768
132.602453
114.941001
100.084543
74.239969
54.383874
32.560825
21.637678
12.018681
8.347631
6.322861
5.233884
5.865693
5.793571
5.782843
5.312562
5.341768
4.909635
4.739761
5.115867
4.719496
4.833937
4.611611
4.206896
4.403591
4.414916
4.456639
4.315972
4.154444
4.182458
4.688501
4.271865
4.656911
4.329681
4.080534
5.335808
4.587770
4.930496
5.424619
5.247593
5.616546
5.278587
5.386472
5.045533
5.410910
5.262494
4.631877
4.381537
4.312992
3.775954
3.660917
3.549457
2.803802
2.949834
3.523827
3.142953
2.980828
2.929568
2.863407
2.799630
2.605915
2.637506
2.599955
##ZVALUE=265
0.675917
0.374913
0.674725
0.486970
0.529885
0.846982
0.725985
0.564456
0.579953
0.749826
0.942945
0.802875
1.024604
1.381636
3.126860
18.847585
47.145486
117.747784
206.854939
382.310748
528.957844
657.117963
804.055929
834.126472
767.212510
652.871728
490.522981
346.282721
188.409686
117.819905
71.325898
61.285496
70.614815
96.122622
116.082430
133.757591
139.863491
133.858919
120.302439
94.922781
76.666474
51.941872
35.687685
19.219518
12.828708
7.714629
6.068945
5.474687
4.781485
5.259514
5.478859
5.139709
5.154610
4.539490
5.214810
4.972816
4.695654
4.492998
4.111528
3.960729
4.262924
4.275441
4.217625
4.496574
3.928542
4.275441
4.452467
4.319549
4.281998
4.310608
4.897714
4.765987
4.810691
4.759431
4.530549
4.815459
4.503727
4.839897
3.948808
4.021525
3.914833
3.710985
3.029704
3.192425
3.302693
2.888441
2.757907
2.836585
2.566576
2.634525
2.427697
2.770424
2.899766
2.062917
2.483726
2.364516
##ZVALUE=270
0.625849
0.685453
0.567436
0.741482
0.444651
0.594854
0.364780
0.582933
0.642538
0.682473
0.921488
0.643730
0.840425
0.996590
0.813603
1.135468
1.346469
7.689595
25.473833
80.140829
158.015490
277.189612
478.573442
641.315579
811.378956
875.356793
855.814815
777.103901
606.977940
454.968810
314.146876
167.659521
100.193620
54.414868
53.503513
72.952509
93.497634
119.807720
129.802823
139.066577
134.680867
118.902922
100.142956
73.426962
53.463578
32.801628
22.222996
12.470484
8.514524
5.995631
5.403757
5.159974
5.312562
4.785657
4.713535
4.530549
4.509687
4.502535
4.639626
4.376769
4.256964
4.269481
4.227757
4.323721
4.210472
3.916621
4.415512
4.156828
4.078746
4.200935
4.202724
4.485846
4.602671
4.527569
4.734993
4.979968
4.574656
3.892779
3.790855
3.805757
3.281832
3.300905
3.012419
2.786517
2.720952
2.624989
2.640486
2.614856
2.556443
2.378821
2.448559
2.024770
2.307892
2.397895
2.293587
2.179742
##ZVALUE=275
0.516772
0.476837
0.426769
0.560880
0.530481
0.476837
0.491738
0.293851
0.661612
0.777841
0.508428
0.730753
0.922680
0.804663
0.863671
0.864863
0.992417
0.901818
1.317859
3.338456
14.531612
43.259859
124.212503
233.169794
421.328545
571.999550
750.550628
857.753754
900.272727
858.307481
753.460526
561.265945
398.544669
212.215781
123.778582
59.216619
44.072866
51.694512
68.056583
94.547868
113.770962
130.683780
136.005878
130.261779
121.111870
95.963478
75.365901
52.130818
36.753416
20.482540
13.917685
7.845759
6.635785
5.642772
4.899502
4.913807
4.893541
4.525781
4.808903
4.464984
4.449487
4.374981
4.413724
4.145503
4.655719
4.405975
4.031658
3.903508
4.552603
4.220605
4.452467
4.590750
3.854632
4.276633
4.540682
4.328489
4.445910
4.164577
3.890991
3.739595
3.527999
2.948642
3.452897
2.964735
2.691746
2.638698
2.381802
2.718568
2.653599
2.226830
2.305508
2.252460
2.351999
2.188683
2.431870
2.022982
##ZVALUE=280
0.500679
0.539422
0.431538
0.334978
0.356436
0.452995
0.490546
0.485778
0.471473
0.588894
0.798702
0.585914
0.436902
0.642538
0.637770
0.783801
0.523925
0.970960
0.955462
1.053810
1.156926
1.668930
9.285808
30.984879
99.586844
179.340839
334.402919
488.867760
693.787932
824.159980
901.267529
904.422998
820.319653
624.253750
465.377569
267.996788
160.206556
76.355934
43.841600
36.592484
47.228932
71.142912
90.287924
112.918615
126.006603
130.734444
128.585696
114.044547
97.465515
70.799589
53.308606
33.273697
21.840930
12.277961
8.369684
5.656481
4.898906
4.539490
4.295707
4.087687
4.067421
4.274845
4.088879
4.059672
4.270673
4.247427
4.073977
4.109740
4.101992
4.249811
4.133582
4.183650
4.441738
4.193783
3.994703
4.070997
4.145503
3.686547
3.253818
3.294945
3.106594
2.925992
2.758503
2.584457
2.592802
2.592802
2.407432
2.481937
2.220869
2.563596
2.222657
2.073646
2.232790
1.975894
2.221465
2.082586
##ZVALUE=285
0.228882
0.334978
0.391603
0.278950
0.247955
0.349879
0.601411
0.381470
0.431538
0.495911
0.539422
0.473857
0.622869
0.396967
0.396967
0.575781
0.625849
0.642538
0.620484
0.875592
0.763535
1.000762
1.101494
1.287460
4.261732
15.002489
53.532720
113.183856
247.480869
379.972458
535.497665
743.518472
870.891809
933.581591
887.804627
731.241703
576.645732
362.089872
230.242610
109.636784
57.121515
29.335618
29.966831
45.179725
63.232780
88.806748
104.613900
120.721459
127.893686
125.397444
115.803480
95.250607
76.100826
52.158833
37.053823
20.835996
12.917519
7.586479
5.572438
4.485846
4.216433
4.118681
4.039407
3.871918
4.027486
3.813505
3.889799
3.783703
4.151464
3.738999
4.049540
3.723502
3.872514
3.908873
3.900528
3.697872
3.747940
3.650784
3.640652
3.403425
3.081560
2.886653
2.818704
2.623796
2.595782
2.659559
2.303720
2.202988
2.430677
2.177954
2.157688
2.117753
1.919866
2.262592
2.002716
2.042651
##ZVALUE=290
0.340939
0.174642
0.354648
0.435710
0.342727
0.341535
0.366569
0.469685
0.430942
0.350475
0.350475
0.280738
0.383854
0.616908
0.532866
0.456572
0.548959
0.532866
0.675917
0.530481
0.538826
0.668764
0.874996
0.968575
0.886917
1.103878
1.935959
6.526709
31.608939
71.862936
172.045827
290.575624
451.411605
680.491924
824.585557
937.253833
937.279463
812.470913
672.012568
456.059575
303.236842
153.169632
79.437494
31.229854
21.503568
28.468966
39.718747
61.243773
78.632832
101.536512
115.496516
123.884678
121.441483
109.560490
95.355511
70.309639
52.149892
31.477809
21.339655
12.063980
8.238554
5.370975
4.363656
3.763437
3.927946
3.595948
3.354549
3.729463
3.792644
3.914833
3.740788
3.980994
4.081726
3.824830
3.653765
3.391504
3.409982
3.262758
3.089905
3.119707
3.165603
2.859831
2.587438
2.613664
2.547503
2.456903
2.301931
2.208948
2.301931
2.262592
2.205968
2.157688
1.913905
1.954436
1.886487
1.838803
##ZVALUE=295
0.344515
0.262856
0.336766
0.321865
0.178814
0.341535
0.376701
0.450611
0.459552
0.236630
0.352859
0.440478
0.275970
0.378489
0.456572
0.613928
0.445843
0.403523
0.476837
0.569820
0.516772
0.632405
0.529885
0.749826
0.783801
0.901818
0.948906
1.139641
1.291633
2.679825
14.690757
40.444732
115.859509
218.496919
411.006808
575.338602
775.277615
894.790888
942.296982
894.787908
735.282898
574.663877
354.717970
222.495794
101.539493
50.937533
21.756887
17.354488
24.844408
36.676526
57.320595
73.028803
96.090436
108.423829
118.836761
116.217732
103.858709
90.342760
69.653988
52.106977
33.303499
23.022890
12.871623
7.986426
4.883409
4.237890
3.540516
3.607869
3.523827
3.491640
3.644824
3.618598
3.546476
3.765821
3.549457
3.427863
3.192425
3.629923
3.010631
2.796650
2.538562
2.473593
2.490878
2.522469
2.514720
2.399683
2.357960
2.083778
2.183914
1.854897
2.054572
1.915693
1.630783
1.794696
1.960993
2.008677
##ZVALUE=300
0.205636
0.257492
0.132918
0.227690
0.223517
0.372529
0.288486
0.239611
0.454783
0.380874
0.169873
0.429749
0.250936
0.290871
0.489950
0.428557
0.468493
0.518560
0.484586
0.551939
0.500679
0.277758
0.655651
0.614524
0.539422
0.598431
0.900626
0.731945
0.746846
0.981688
1.301765
1.459718
6.098747
22.883415
78.376532
153.007507
314.030647
475.894809
695.922971
830.175877
930.584669
925.195813
810.675621
668.622851
446.973443
293.635726
147.559643
79.173446
30.274987
15.713573
15.574694
21.855831
35.081506
49.313903
71.004629
88.124871
105.002522
112.477541
111.631751
102.756619
84.799528
69.933534
48.278570
34.868717
20.834804
12.874603
7.480979
5.174875
4.011989
3.447533
3.559589
3.703833
3.285408
3.504753
3.474951
3.191829
3.069639
2.919436
3.097653
2.783537
2.650619
2.629757
2.456903
2.294779
2.239943
2.323985
2.238750
2.281666
2.169609
1.972914
1.947880
2.076626
1.974702
1.899600
1.800656
1.719594
##ZVALUE=305
0.375509
0.317693
0.328422
0.231862
0.530481
0.323653
0.241995
0.238419
0.269413
0.312924
0.412464
0.313520
0.337958
0.424981
0.286698
0.451803
0.311732
0.547767
0.414848
0.426769
0.487566
0.512600
0.525713
0.648499
0.545979
0.608563
0.568628
0.807643
0.905991
0.859499
0.896454
0.885725
1.180768
1.340508
2.370477
14.650822
41.777492
120.047927
219.819546
407.444835
573.011637
777.187943
896.044970
939.151645
878.751874
707.126856
551.208854
347.203612
219.850540
102.340579
50.975680
18.434525
11.820793
14.190674
19.646883
33.319592
47.476888
67.944527
82.514882
98.977685
104.798675
105.133653
97.605586
82.081556
66.934824
45.053959
32.636523
19.603968
12.527704
6.968975
5.058646
3.870726
3.477931
3.354549
2.915859
3.120899
2.795458
2.751946
2.510548
2.597570
2.696514
2.271533
2.336502
2.250671
2.173781
2.300739
2.013445
2.065897
2.083778
2.002716
1.776814
1.911521
1.758933
1.933575
1.727939
1.594424
##ZVALUE=310
0.218749
0.216961
0.279546
0.344515
0.204444
0.175834
0.332594
0.357628
0.229478
0.210404
0.250936
0.244975
0.313520
0.239611
0.277758
0.164509
0.315905
0.357628
0.412464
0.264645
0.478625
0.354648
0.425577
0.417829
0.503659
0.560880
0.527501
0.695586
0.610948
0.621676
0.630617
0.816584
0.754595
0.875592
1.040697
1.107454
1.487732
4.584789
26.205778
63.680410
159.852505
277.301669
486.354828
653.515458
842.628479
921.539664
913.397670
835.332870
651.515722
482.952595
277.862549
167.187452
71.562529
32.532811
12.324452
9.275675
12.239814
16.653538
29.081702
40.083528
58.469772
73.478818
89.152455
97.164512
99.906921
93.598962
79.870820
66.131949
45.061707
32.638907
18.964410
12.446642
7.544756
5.127788
3.335476
3.112555
2.837777
2.728701
2.228618
2.125502
2.166629
2.082586
2.378821
2.232790
2.177954
2.250671
2.213717
2.290606
2.235770
2.023578
1.848936
1.861453
1.979470
1.643896
1.768470
1.634955
##ZVALUE=315
0.124574
0.315905
0.062585
0.307560
0.374913
0.375509
0.226498
0.278950
0.135899
0.342727
0.139475
0.312924
0.310540
0.394583
0.320673
0.276566
0.335574
0.325441
0.313520
0.398755
0.549555
0.294447
0.433922
0.446439
0.349879
0.364780
0.347495
0.499487
0.605583
0.516772
0.554919
0.563860
0.644922
0.852942
0.777841
0.844598
0.935793
1.181960
1.167655
2.639890
10.456443
44.441819
101.041794
229.652524
374.040604
605.875850
751.093626
887.222886
928.739905
863.318443
747.102499
541.545749
381.906629
205.183625
111.301541
41.530728
17.753839
8.302927
8.034706
10.669827
15.705824
26.139617
37.788749
55.593848
68.611503
86.171627
92.325807
93.596578
88.207722
73.632598
61.345696
44.171810
31.501651
18.202662
11.611581
6.403923
4.246831
3.151894
2.551675
2.305508
2.029538
2.291799
2.137423
1.890659
1.907945
1.738667
1.811981
1.919866
1.906753
1.762509
1.727939
1.826882
1.688600
1.745820
1.558661
1.670718
##ZVALUE=320
0.195503
0.254512
0.148416
0.226498
0.169873
0.323653
0.164509
0.217557
0.332594
0.050664
0.255704
0.255704
0.102520
0.196695
0.192523
0.115633
0.171661
0.369549
0.363588
0.360608
0.446439
0.470877
0.336766
0.242591
0.309944
0.261664
0.424981
0.374913
0.326633
0.365973
0.618696
0.463724
0.660419
0.610948
0.738502
0.722408
0.696778
0.772476
0.947714
0.871420
1.126528
1.330972
3.978610
23.722649
62.324405
166.328549
283.566713
484.790802
641.651750
780.867934
902.245641
909.402966
801.772475
665.857792
444.551706
288.833976
136.016607
71.032643
26.784539
11.998415
6.868839
7.030964
9.368658
13.607740
23.140907
33.583641
49.284697
62.423944
79.337955
86.496472
87.378621
83.279610
71.200728
58.752894
41.905642
30.011535
18.116832
11.783838
6.143451
3.994703
2.682805
2.385974
2.103448
1.957417
1.885891
1.833439
1.578927
1.739860
1.627803
1.605749
1.574755
1.550913
1.532435
1.622438
1.618862
1.548529
##ZVALUE=325
0.211596
0.132918
0.136495
0.182986
0.167489
0.223517
0.204444
0.099540
0.278950
0.285506
0.349879
0.206828
0.074506
0.163913
0.272989
0.380874
0.303984
0.387430
0.253916
0.368953
0.252724
0.377893
0.454783
0.385642
0.496507
0.365973
0.343919
0.322461
0.498891
0.438690
0.275970
0.191927
0.477433
0.518560
0.540614
0.528693
0.548959
0.533462
0.751615
0.814795
0.798702
0.927448
1.007915
1.192689
2.781749
11.364818
47.378540
100.351572
223.739743
363.488793
576.694608
722.837448
861.748457
895.525813
826.389790
699.225664
484.855771
336.814523
182.771683
101.719499
37.826896
16.119480
6.551743
6.024837
6.117821
8.226633
13.570786
20.148754
34.700632
47.297478
63.996911
73.127747
80.884695
82.037449
76.765418
67.542791
52.413940
39.464831
25.070906
16.687512
9.141564
5.794764
3.372431
2.656579
2.047420
1.913905
1.724958
1.723766
1.732707
1.466870
1.423955
1.513958
1.459718
1.584888
1.509786
1.518726
##ZVALUE=330
0.232458
0.139475
0.165701
0.051856
0.149608
0.252724
0.287890
0.257492
0.154972
0.270605
0.392795
0.297427
0.245571
0.115633
0.299811
0.248551
0.131726
0.210404
0.300407
0.211596
0.340939
0.413656
0.267625
0.415444
0.372529
0.273585
0.220537
0.396967
0.249743
0.414848
0.388622
0.424981
0.414848
0.585914
0.486970
0.603795
0.469685
0.523925
0.573993
0.433922
0.430942
0.498891
0.631809
0.696778
0.938773
1.111627
1.259446
6.315708
21.757483
76.055527
148.045421
300.140977
445.065498
650.549531
783.111453
874.692798
858.006477
731.467009
591.247678
385.634899
249.533653
117.209554
59.623718
21.353960
9.316802
5.055666
5.234480
6.243587
7.823706
12.987852
18.883944
30.763745
42.591691
58.041811
68.333745
75.891614
76.781511
70.893764
62.525868
47.692657
35.894513
22.888780
15.988946
9.651780
6.159544
3.638864
2.380610
1.974702
1.684427
1.638532
1.453757
1.494884
1.477599
1.314878
1.425743
1.518726
##ZVALUE=335
0.026822
0.121593
0.157952
0.297427
0.236630
0.103712
0.168681
0.144839
0.184774
0.286698
0.048876
0.163913
0.051856
0.137687
0.192523
0.264645
0.190735
0.117421
0.278950
0.104904
0.154972
0.217557
0.234842
0.302792
0.307560
0.274777
0.438690
0.391603
0.430942
0.420809
0.411868
0.292659
0.391603
0.420809
0.390410
0.514984
0.395775
0.405908
0.394583
0.585914
0.502467
0.666976
0.594854
0.647902
0.707507
0.771880
0.767708
1.022816
1.049638
2.870560
10.936856
45.810938
100.122690
223.525763
361.752510
570.122600
709.508657
828.507543
848.912001
765.880942
644.622445
443.877578
305.759907
159.568787
84.301829
29.461980
12.044907
5.589724
5.003810
4.540682
5.289912
7.389784
10.645986
19.505620
27.713776
42.403936
52.115917
64.761639
69.606900
71.674585
66.851974
55.181980
46.461821
34.356713
25.854707
15.767813
10.329485
5.935431
3.600717
2.337694
1.903772
1.573563
1.472831
1.530647
1.387596
1.317859
##ZVALUE=340
0.224710
0.284910
0.215769
0.177622
0.131726
0.110865
0.161529
0.162721
0.096560
0.076890
0.115633
0.189543
0.320673
0.298619
0.294447
0.157952
0.093579
0.067949
0.149608
0.140667
0.324845
0.107884
0.197887
0.400543
0.504851
0.296831
0.371933
0.296831
0.218749
0.318885
0.148416
0.247955
0.251532
0.265837
0.285506
0.427961
0.347495
0.534654
0.358820
0.461936
0.612736
0.458956
0.620484
0.471473
0.583529
0.748634
0.731945
0.723600
0.760555
0.929832
1.021624
1.488924
5.064607
27.427673
68.875551
172.358751
290.622711
480.820537
632.153749
778.977871
828.590989
788.065791
690.379739
514.803529
365.167856
191.272497
106.531978
43.165684
17.473698
6.079674
4.806519
4.396439
4.631877
5.038977
6.658435
11.427999
16.909838
27.258992
37.306547
51.490664
60.005784
66.107512
66.739917
62.292814
56.376457
44.180751
34.942627
23.486614
16.352534
9.842515
6.061792
3.430843
2.458692
1.816750
1.565814
1.577735
##ZVALUE=345
0.228882
0.189543
0.053644
0.105500
0.118613
0.128746
-0.039935
0.198483
0.143647
0.279546
0.065565
0.100732
0.188947
0.238419
0.210404
0.317693
0.215769
0.248551
0.276566
0.143647
0.135899
0.335574
0.263453
0.215769
0.435710
0.398755
0.283718
0.238419
0.336766
0.245571
0.314713
0.296831
0.355840
0.337958
0.267625
0.271797
0.306964
0.191927
0.143647
0.275970
0.318885
0.562668
0.631809
0.624657
0.507832
0.614524
0.551939
0.717640
0.668764
0.699759
0.642538
0.836849
0.765920
1.058578
2.313852
14.561415
43.928623
121.297836
212.173462
382.974744
524.922013
700.141788
784.677863
798.071623
734.023452
569.892526
427.358747
253.735781
144.765973
57.218671
25.247931
8.206964
4.818439
4.339814
4.171729
4.002452
4.373789
6.261468
9.599924
16.346574
23.753643
36.246777
44.756532
53.817630
59.047937
61.379671
59.154630
51.984787
44.220686
33.473969
24.701953
15.173554
10.200739
5.503893
3.705621
2.289414
##ZVALUE=350
0.133514
0.160933
0.191927
0.189543
0.180602
0.148416
0.163913
0.047684
0.139475
0.180602
0.278950
0.160933
0.083447
0.189543
0.114441
0.235438
0.285506
0.298619
0.249743
0.189543
0.113845
0.185966
0.139475
0.312924
0.241995
0.286698
0.263453
0.220537
0.158548
0.335574
0.363588
0.256896
0.347495
0.228882
0.365973
0.436902
0.267625
0.314713
0.185966
0.341535
0.490546
0.358820
0.472665
0.361800
0.441670
0.566840
0.643730
0.593662
0.515580
0.589490
0.658631
0.697970
0.697970
0.607967
0.778437
0.943542
1.405478
5.432963
26.874542
63.904524
157.818794
265.965462
445.326567
584.872961
736.410618
786.386728
748.665929
648.384690
455.188751
308.616757
157.811642
86.581707
33.471584
13.630986
5.402565
4.391670
3.780723
3.633499
3.280640
4.037619
5.675554
8.605719
14.081597
19.960999
30.180812
38.533807
47.905445
53.438544
55.953860
54.398775
48.565865
41.407943
31.241775
23.351908
15.021563
10.408759
##ZVALUE=355
0.255704
0.259876
0.201464
0.241995
0.157952
0.179410
0.279546
0.140667
0.184774
0.156760
0.310540
0.169873
0.269413
0.150800
0.095963
0.233650
0.168681
0.279546
0.049472
0.228882
0.255704
0.212789
0.195503
0.362992
0.260472
0.195503
0.245571
0.225902
0.206828
0.164509
0.295639
0.291467
0.241995
0.397563
0.352859
0.396967
0.224710
0.293851
0.295639
0.282526
0.304580
0.415444
0.152588
0.499487
0.517964
0.444651
0.411868
0.396967
0.548959
0.557899
0.371933
0.655651
0.638962
0.598431
0.759959
0.715852
0.628829
0.839829
1.227856
2.444983
14.785528
40.932894
110.409856
199.585557
368.934870
508.792996
671.452880
749.094486
749.085546
667.828918
499.025583
364.146829
207.022429
115.679502
44.897795
19.369721
6.433725
3.982782
3.460646
3.433824
3.125668
3.253818
3.557801
4.704595
7.589459
11.131763
18.149614
25.059581
35.123825
42.001605
48.377514
50.280690
49.738884
46.271682
38.248897
31.657815
##ZVALUE=360
0.137687
0.171661
0.116825
0.164509
0.112653
0.123978
0.121593
0.208616
0.098944
0.105500
0.170469
0.148416
0.114441
0.204444
0.198483
0.134706
0.177622
0.268817
0.204444
0.121593
0.191927
0.121593
0.140667
0.132918
0.357628
0.308752
0.292659
0.118613
0.275970
0.252724
0.314713
0.216961
0.150800
0.189543
0.315905
0.230670
0.334978
0.437498
0.463724
0.355840
0.396967
0.242591
0.339746
0.334978
0.465512
0.349879
0.388622
0.402927
0.499487
0.401735
0.540614
0.626445
0.393987
0.520945
0.462532
0.484586
0.799894
0.772476
0.806451
0.824928
1.051426
1.568794
5.311966
25.793910
61.651468
153.780580
264.273882
444.422960
578.132868
703.654885
739.817619
688.474774
587.876439
406.722426
274.129510
135.885477
71.457624
25.726557
10.477901
4.448891
3.565550
3.330708
3.149509
2.728701
2.767444
3.034472
3.717542
6.211996
8.842945
14.551878
20.623803
29.690862
35.873652
42.405725
46.145916
46.063662
##ZVALUE=365
0.135899
0.187755
0.176430
0.112653
-0.044703
0.027418
-0.015497
0.212789
0.237823
0.128746
0.122786
0.221729
0.323653
0.301600
0.255704
0.151992
0.118613
0.289679
0.298619
0.227690
0.251532
0.305772
0.138879
0.292659
0.212789
0.316501
0.496507
0.282526
0.274777
0.315905
0.120997
0.233650
0.285506
0.409484
0.217557
0.291467
0.282526
0.316501
0.203848
0.306964
0.347495
0.381470
0.366569
0.227690
0.525713
0.304580
0.435710
0.430942
0.500679
0.422597
0.425577
0.364780
0.391603
0.488758
0.518560
0.532866
0.598431
0.602603
0.636578
0.624657
0.751615
1.001954
1.122952
1.163483
2.346635
14.142990
38.949847
104.628801
195.462704
362.117887
490.451455
635.404587
706.566572
702.906847
623.076558
460.532904
329.423547
181.899667
100.319982
36.639571
14.986992
5.109906
3.684759
3.174543
3.103614
2.781749
2.582669
2.372861
2.476573
3.265738
4.296899
7.800460
11.467934
18.545985
24.314523
31.911731
##ZVALUE=370
0.100732
0.202656
0.214577
0.258684
0.206828
0.228882
0.136495
0.039935
0.129938
0.225902
0.053644
0.153780
0.067949
0.202656
0.063777
0.115633
0.256896
0.287890
0.207424
0.244975
0.107884
0.226498
0.081658
0.249743
0.341535
0.181794
0.209808
0.196695
0.099540
0.159740
0.341535
0.311732
0.448823
0.154972
0.151992
0.333786
0.227690
0.317693
0.305772
0.191927
0.509620
0.085831
0.488758
0.286698
0.258684
0.428557
0.295639
0.285506
0.523925
0.478625
0.317693
0.492930
0.329614
0.364780
0.447631
0.605583
0.597835
0.517964
0.293851
0.665784
0.760555
0.711679
0.633597
0.750422
0.859499
0.917912
1.375675
6.752610
23.524761
78.287721
148.897767
282.463431
414.843559
586.851835
673.717856
703.982711
652.827024
519.691706
387.921929
221.126676
124.937892
49.668550
22.730827
7.891655
4.187822
3.243685
2.895594
2.677441
2.584457
2.280474
2.199411
2.097487
2.558827
3.934503
6.345510
10.417700
##ZVALUE=375
0.121593
0.260472
0.125766
0.123978
0.101924
0.139475
0.137687
0.108480
0.202656
0.169873
0.250936
0.326633
0.133514
0.190735
0.158548
0.050664
0.273585
0.125766
0.033975
0.157952
0.151992
0.259876
0.094771
0.058413
0.247955
0.339746
0.170469
0.247955
0.238419
0.277758
0.219941
0.218749
0.197887
0.251532
0.476837
0.254512
0.242591
0.314713
0.354648
0.146627
0.094771
0.164509
0.284910
0.295639
0.319481
0.330806
0.280738
0.433922
0.254512
0.301600
0.341535
0.236630
0.333786
0.473857
0.487566
0.372529
0.352859
0.442863
0.372529
0.314713
0.461936
0.365973
0.443459
0.652671
0.742674
0.696778
0.766516
0.847578
1.015663
2.801418
16.153455
41.664839
111.270547
199.589729
360.034704
488.097668
630.610585
692.991018
674.218535
588.147044
425.306559
303.410888
171.779990
96.602440
38.089752
16.218424
5.334616
3.191829
2.851486
2.666712
2.385974
2.400875
2.114773
2.040863
2.084970
2.165437
##ZVALUE=380
0.090599
0.088811
0.074506
0.136495
0.161529
0.010729
0.019670
0.154972
0.084639
0.149608
0.220537
0.103712
0.181794
0.154972
0.108480
0.179410
0.177622
0.094771
0.403523
0.296831
0.249743
0.194907
0.321865
0.273585
0.351667
0.066757
0.198483
0.133514
0.095963
0.205636
0.086427
0.228882
0.132918
0.090599
0.261664
0.252724
0.144839
0.265837
0.124574
0.173450
0.142455
0.214577
0.191927
0.349879
0.289679
0.168681
0.227690
0.313520
0.311732
0.234842
0.296831
0.298619
0.321865
0.304580
0.166893
0.330806
0.154972
0.387430
0.369549
0.398755
0.238419
0.541806
0.410676
0.635982
0.582933
0.651479
0.411868
0.657439
0.833869
0.906587
1.009703
1.429915
8.339882
26.274920
81.707835
154.877901
299.654603
433.567762
595.710874
676.484704
688.472986
628.961921
496.267676
375.185013
222.631693
133.033991
56.154728
25.552511
7.165670
3.525615
2.775788
2.529621
2.450943
2.222657
2.104640
2.081990
##ZVALUE=385
0.306964
0.225902
0.320673
0.133514
0.177622
0.178814
0.177622
0.324845
0.272989
0.196695
0.284910
0.222921
0.081658
0.359416
0.291467
0.254512
0.152588
0.196695
0.110865
0.096560
0.195503
0.235438
0.336766
0.389814
0.251532
0.298619
0.285506
0.394583
0.400543
0.371933
0.178814
0.243783
0.335574
0.170469
0.335574
0.413656
0.386834
0.464916
0.414848
0.488758
0.357628
0.363588
0.546575
0.337958
0.531673
0.367761
0.440478
0.426769
0.362992
0.398755
0.409484
0.458956
0.533462
0.431538
0.313520
0.490546
0.351667
0.449419
0.481606
0.433922
0.469685
0.361800
0.530481
0.614524
0.493526
0.631809
0.632405
0.677705
0.818968
0.898838
0.910759
0.933409
1.149774
1.231432
3.053546
17.514825
46.289563
119.472742
215.331912
382.533669
511.263013
641.247630
678.755641
654.205680
579.246879
430.274606
307.098627
169.880986
97.374916
39.929748
16.383529
4.878640
3.049970
2.708435
2.549887
2.309680
##ZVALUE=390
0.156760
0.106692
0.237823
0.230670
0.231862
0.315905
0.265837
0.159740
0.140667
0.214577
0.234842
0.259876
0.242591
0.291467
0.229478
0.177622
0.193715
0.234842
0.112653
0.191927
0.283718
0.358820
0.261664
0.326633
0.280738
0.221729
0.389814
0.360608
0.326633
0.279546
0.417829
0.423789
0.459552
0.235438
0.391603
0.400543
0.517964
0.431538
0.368953
0.424981
0.354648
0.385642
0.293851
0.474453
0.296831
0.483990
0.423789
0.308752
0.427961
0.271797
0.308752
0.550747
0.452995
0.394583
0.518560
0.351667
0.377893
0.453591
0.473857
0.492930
0.368953
0.415444
0.413656
0.355840
0.422597
0.646710
0.747442
0.651479
0.853539
0.715852
0.706911
0.841618
0.907779
0.927448
1.056790
0.963807
1.537800
9.411573
29.832721
91.969967
173.439980
326.073766
445.922613
579.769015
655.758977
682.711601
635.669827
504.425764
388.175845
239.063501
140.817761
57.622790
26.245713
7.383823
3.598928
2.773404
##ZVALUE=395
0.235438
0.068545
0.231862
0.073910
0.140667
0.136495
0.145435
0.066757
0.100732
0.021458
0.172853
0.080466
0.083447
0.150800
0.056624
0.131726
0.094771
0.189543
0.225902
0.117421
0.136495
0.131726
0.035763
0.037551
0.172853
0.142455
0.337958
0.078678
0.087619
0.088811
0.246763
0.285506
0.191927
0.273585
0.263453
0.233650
0.167489
0.316501
0.400543
0.322461
0.264645
0.158548
0.285506
0.199676
0.155568
0.444651
0.362992
0.222921
0.245571
0.235438
0.302792
0.275970
0.203848
0.302792
0.199676
0.265837
0.417829
0.290871
0.116825
0.217557
0.449419
0.351667
0.334978
0.332594
0.485778
0.649691
0.396967
0.383854
0.566840
0.561476
0.747442
0.595450
0.684857
0.643730
0.747442
0.672936
0.803471
0.694990
1.030564
3.789663
21.615624
53.955913
129.209757
219.867826
377.903581
502.740741
637.384653
686.751008
664.848685
586.025715
434.690714
309.842825
165.828466
90.070963
33.813715
14.465451
##ZVALUE=400
0.305772
0.497699
0.205636
0.103712
0.136495
0.321865
0.205636
0.228882
0.107884
0.174642
0.184774
0.203848
0.266433
0.063777
0.138879
0.120997
0.218749
0.125766
0.105500
0.111461
0.170469
0.187755
0.183582
0.295639
0.184774
0.342727
0.163913
0.273585
0.097752
0.364780
0.291467
0.150800
0.196695
0.371933
0.299811
0.269413
0.209808
0.262856
0.225902
0.261664
0.229478
0.123978
0.242591
0.287890
0.349879
0.420809
0.228882
0.293851
0.372529
0.378489
0.320673
0.177622
0.320673
0.168681
0.196695
0.515580
0.459552
0.262856
0.423789
0.271797
0.351667
0.443459
0.421405
0.449419
0.419617
0.480413
0.477433
0.585914
0.566840
0.659823
0.710487
0.870824
0.798702
0.581741
0.601411
0.698566
0.699759
0.846982
0.655651
1.006722
1.169443
2.667904
9.681582
36.451817
79.910755
181.244612
290.267467
451.676846
562.122464
657.158494
671.546459
600.735545
495.012999
331.819654
219.395757
111.591816
##END
