##TITLE=DDW2
##FORMAT=SPECTACLE-ASCII V-1.2
##DATA TYPE=ULTRAVIOLET SPECTRUM
##SECOND TYPE=ULTRAVIOLET SPECTRUM
##DATE=12/26/17
##TIME=12:32:22
##SPECTROMETER/DATA SYSTEM=SPECTACLE
##XUNITS=NM EM
##YUNITS=ENERGY
##YFACTOR=1
##FIRSTX=220
##LASTX=410
##NPOINTS=96
##3DDATA=Equidistant
##ZUNITS=NM EX
##FIRSTZ=210
##LASTZ=400
##ZPOINTS=39
##XYDATA=(Y..Y)
##ZVALUE=210
22.574663
19.754767
15.564561
12.088418
11.618733
9.412766
9.402633
7.388592
6.469488
5.787611
4.272461
3.494620
3.536940
2.502799
2.159476
2.833605
2.924800
3.518462
3.734827
3.878474
3.983974
4.841685
4.483461
4.668832
4.714727
5.160570
5.661845
6.219745
6.183982
6.515980
5.809665
5.894899
7.265806
7.428527
7.466674
6.948709
8.649826
6.845593
7.917881
7.452965
7.854700
8.341670
7.994771
7.171631
7.999539
7.967949
8.776784
8.632541
8.365512
9.590983
8.078814
7.779598
9.493828
9.032488
8.861423
9.535551
9.701848
9.488463
9.209514
9.582639
9.326935
9.753704
8.810759
10.228753
9.165406
9.825826
11.250973
11.623502
14.329553
16.427636
17.747879
19.437671
24.605989
28.238893
29.264688
36.120415
33.603907
36.112666
37.195683
34.892559
34.752488
29.292703
27.791858
24.405718
18.605590
14.250875
11.786819
10.009408
10.376573
12.706518
16.717911
21.399856
27.313828
34.796596
40.113926
48.461556
##ZVALUE=215
57.173967
55.876970
46.134591
31.338930
25.453568
18.459558
16.461611
16.269684
17.048717
14.279485
11.550784
9.983778
6.801486
5.574822
3.619790
3.395677
3.661513
3.072619
3.076792
3.856421
3.631711
4.247427
4.186630
4.010797
4.194975
5.459785
4.364848
5.907416
5.428791
5.424619
6.062984
5.719662
5.403757
6.548762
6.934404
7.141829
6.556511
7.323623
7.232428
6.534457
6.653666
6.717443
6.472468
6.824732
6.444454
7.297993
7.246733
6.803870
6.499887
6.469488
7.190704
6.054640
7.288456
6.482601
5.903840
6.757975
7.446408
7.005930
7.329583
7.179976
6.620884
7.638931
7.055998
7.705688
7.605553
8.009672
8.686781
8.417964
8.233786
10.734797
11.977553
14.243722
14.713407
17.544627
18.683672
18.297434
20.814538
20.518899
19.371510
18.763542
17.510653
16.309619
14.936924
11.067986
9.575486
9.353757
7.527471
6.648898
6.659627
5.524755
5.883574
6.597638
7.144809
7.693768
10.333657
15.561581
##ZVALUE=220
112.003684
114.914775
110.298991
89.077950
70.121884
53.105950
39.908886
30.576587
25.707483
25.450587
25.567412
24.737716
22.054911
17.896891
12.996793
10.643601
7.618666
4.544854
3.738999
3.274679
3.273487
3.232956
2.782941
3.472567
3.325939
4.128814
4.027486
3.848672
4.057884
4.537702
4.041791
5.558729
4.517436
5.324483
5.786419
5.025864
5.105734
5.607605
5.427599
6.086826
5.653501
6.086826
6.130934
6.083846
5.370975
6.397963
5.245805
6.088614
6.360412
6.623864
6.335974
6.318688
6.035566
6.784797
7.268786
6.391406
7.286668
6.003976
6.436706
7.442832
7.651448
7.089972
7.511973
7.575750
6.064773
7.483959
8.029938
7.880926
8.613467
9.722710
11.017919
13.249516
14.212728
14.802814
14.948845
16.153455
16.840696
16.982555
15.103817
14.768839
14.167428
11.896491
11.234879
9.355545
7.391572
7.335544
6.832480
5.322695
5.048513
5.619526
5.008578
4.648566
4.885793
5.758405
5.525947
4.369617
##ZVALUE=225
178.049803
187.735558
209.431648
215.732455
206.963420
168.885589
139.961839
97.998977
71.585774
55.048466
40.852427
37.435889
38.625598
39.546490
40.031672
32.650828
26.902556
21.355748
14.409423
9.948611
6.836653
4.710555
3.797412
4.224777
4.032850
4.574656
4.593730
5.834699
5.294681
5.533695
4.996657
5.631447
5.527735
6.277561
4.907846
5.908608
6.992817
6.248951
6.924868
6.802678
6.498694
7.592440
6.624460
7.232428
7.173419
6.287694
6.859899
6.611943
7.875562
7.052422
6.836653
6.412864
7.660985
8.032918
7.889867
7.836819
7.692575
9.248853
8.662939
9.473562
8.135438
8.737445
9.066463
8.351803
9.065866
9.119511
8.779764
9.691715
8.757710
9.857416
11.886954
11.181831
12.160540
14.379621
15.092492
15.389919
16.200542
14.098883
14.009476
13.457537
11.990666
11.118650
9.022951
9.591579
7.913709
6.814599
6.555915
5.768538
5.402565
5.970597
6.011724
5.681515
4.980564
4.783869
5.498528
5.926490
##ZVALUE=230
99.595785
108.299851
151.049495
212.240815
248.852968
269.998908
267.647505
244.828463
208.480954
170.026422
119.489431
84.528923
65.331459
57.567954
57.513714
61.543584
63.377619
59.606433
53.517818
39.490461
29.311776
18.742681
12.710690
7.390976
6.247759
4.692674
4.965663
4.286766
5.050898
5.758405
5.883574
6.241798
5.873442
6.332994
6.110668
5.236864
5.613565
6.624460
7.187724
7.062554
7.040501
6.840825
7.231832
6.988645
7.024407
7.743835
7.442832
7.595420
7.163882
7.231832
7.293820
7.177591
7.782578
8.043647
8.690953
8.915663
8.938909
8.038878
9.535551
8.768439
8.532405
8.801818
8.371472
8.971691
9.336472
9.195805
10.006428
10.170937
10.197759
10.941625
12.620687
13.336539
12.823939
14.894605
14.437437
13.600588
14.268756
16.004443
14.301538
12.998581
12.922883
12.093782
10.553598
10.932684
10.239482
10.444522
8.723736
7.089972
7.273555
6.413460
6.886721
6.806850
6.212592
5.602837
5.936623
7.718801
##ZVALUE=235
26.513934
29.106736
61.581731
129.620433
189.141631
284.139514
353.218913
430.288911
467.693806
457.195640
396.182537
323.885679
225.577950
158.696771
110.673904
91.187954
83.212852
87.672472
92.955828
94.441772
81.765652
71.647763
53.620934
40.533543
26.485920
15.261769
9.921789
7.377863
6.379485
6.751418
5.504489
6.313920
6.471872
6.684661
6.712675
6.792545
6.111860
6.618500
6.629825
6.474853
7.832646
7.162690
7.010698
7.011890
7.222891
6.956458
7.459521
8.100867
6.996989
7.468462
7.323623
8.068681
7.997751
7.621646
8.562803
8.577704
8.270741
8.654594
9.652972
8.101463
9.843707
8.813739
9.499788
9.567738
9.280443
9.227991
9.975433
10.068417
10.155439
10.116696
12.667775
12.783408
14.791489
15.097857
14.662743
14.709830
15.391707
14.508963
12.465715
12.919903
11.370778
10.818839
10.430813
9.798408
9.854436
9.231567
8.041859
7.838607
7.761717
6.956458
7.708669
7.337928
6.893873
6.874800
6.907582
7.541776
##ZVALUE=240
1.724958
2.186894
9.421706
27.315617
56.940913
126.951933
211.263895
343.539715
455.183983
578.093529
640.977621
631.857514
581.858754
450.924635
349.341631
217.267871
154.672861
103.760958
91.791749
97.499490
105.955601
109.933615
107.463598
98.723769
75.736642
63.381791
44.819713
29.148459
18.010736
12.664795
8.660555
6.439686
5.927682
6.394982
7.085800
6.474853
6.928444
6.279945
7.039905
6.510615
6.363988
6.471872
6.978512
6.405711
6.495714
6.619692
6.207824
7.172823
6.296635
6.990433
6.709695
6.828904
7.925630
7.640719
7.528663
8.069873
7.804632
7.703900
7.600784
8.740425
7.751584
7.434487
7.544756
8.271933
8.372664
8.427501
8.740425
8.748770
9.145737
9.772778
10.943413
11.623502
12.911558
13.821721
15.290976
13.936758
13.767481
14.442801
13.755560
12.523532
10.138750
10.516644
9.141564
8.961558
9.127855
8.617640
7.657409
8.331537
8.279681
7.844567
7.395744
7.355809
5.948544
6.884933
6.678700
6.879568
##ZVALUE=245
1.530647
1.378655
1.739860
1.585484
3.833771
17.313957
40.150881
108.779669
196.998715
304.127932
484.929681
619.446635
725.582838
755.097866
694.365501
599.380732
435.539484
314.098597
257.070661
132.566690
101.507902
94.035864
102.957487
120.809674
121.172667
115.299821
106.743574
85.427761
66.971779
46.026707
33.223629
19.217730
12.607574
8.144975
7.654428
7.106662
6.302595
5.715489
6.384850
6.524920
5.611777
6.513000
6.128550
6.586909
6.050467
6.049871
5.840659
6.921887
6.526709
6.280541
6.667972
6.010532
6.175637
6.267428
6.392598
6.163716
7.234812
6.566644
7.324815
6.702542
6.810427
6.734729
6.466508
6.225705
7.383823
7.040501
7.587671
7.586479
8.828640
9.372830
9.961724
11.752844
11.084676
12.543797
12.495518
12.426972
12.093782
12.471676
10.874867
11.118650
10.132790
9.040833
8.683801
7.165670
7.492900
7.464886
7.226467
6.481409
6.638765
6.073713
6.266832
5.749464
5.968809
6.298423
5.402565
6.070733
##ZVALUE=250
1.342893
1.318455
0.943542
1.190901
1.551509
1.403689
1.774430
9.999871
28.973818
92.340708
175.997615
350.978971
493.006706
678.538680
795.704722
859.669447
841.555595
734.830499
620.257854
425.492525
281.773806
186.058879
106.759667
89.408755
95.648766
110.313892
127.258897
128.287673
121.078491
111.348629
94.234943
75.182915
53.803921
32.875538
21.585822
12.812614
9.027719
6.934404
6.828904
6.234646
6.311536
6.131530
5.576611
6.133914
5.684495
6.621480
6.066561
5.786419
5.948544
5.574822
5.822778
5.558729
5.369782
5.785823
6.391406
6.019473
6.080866
5.907416
5.885959
6.057620
5.746484
5.648732
6.427765
6.557703
6.515980
6.362796
6.214976
7.057786
7.511973
7.767677
7.747412
9.063482
9.411573
10.425448
11.145473
11.143684
10.431409
10.012984
10.042787
7.753968
7.902980
6.986856
6.703734
6.622672
6.087422
5.796552
5.397797
5.164742
5.810857
5.257726
5.127788
4.856586
5.471706
4.561543
5.274415
5.190969
##ZVALUE=255
0.804663
0.810623
0.862479
1.053810
0.951886
1.117587
0.945926
1.388788
1.708865
4.121661
23.190975
55.161715
115.629435
252.484679
379.315615
578.299761
701.393485
807.221532
845.131874
766.899586
649.405718
514.903665
321.086645
207.446814
114.449859
85.487962
78.972578
94.780922
115.025640
128.362775
135.726929
133.631825
119.249821
94.037652
73.905587
50.622821
34.764409
20.756721
13.549924
8.308887
5.825758
5.563498
6.067753
5.521774
5.998611
5.566478
5.349517
5.609989
5.818605
5.207658
5.165935
5.436540
4.753470
5.379915
5.036592
4.796982
4.921556
5.317926
5.317926
5.004406
5.285740
5.281568
4.857779
5.203485
5.337000
5.604625
5.571842
5.828738
6.439686
5.985498
7.159710
6.470680
7.268786
7.482767
7.170439
7.643700
7.307529
7.254481
6.285906
5.992651
5.451441
5.499721
5.349517
5.067587
4.826784
4.451871
4.772544
3.665686
4.021525
3.971457
4.396439
3.955960
3.792644
4.144907
4.254580
4.115701
##ZVALUE=260
0.743866
0.851750
0.833869
0.943542
0.852942
0.927448
0.980496
0.864863
0.936985
1.227856
1.281500
2.089739
7.011890
32.821894
70.095658
165.679455
267.776847
430.871844
564.730763
729.311705
802.964568
814.664960
718.464851
590.526462
398.296714
274.472833
156.240463
100.709796
71.958899
73.370934
88.826418
113.523602
125.845671
135.889649
135.678649
119.899511
101.583004
73.899627
55.428743
34.660697
22.564530
13.004541
8.171797
6.166697
5.663633
4.767776
5.203485
5.723834
4.837513
4.900694
5.109906
4.980564
5.258918
4.940629
4.318953
4.972816
4.690886
4.628897
4.332662
4.937649
5.283952
4.674792
4.884601
4.932880
4.578829
4.525781
4.780889
5.141497
4.871488
5.158782
5.330443
5.516410
5.890727
6.729960
6.598830
6.520748
6.113648
6.218553
6.176829
5.632639
4.674792
4.760623
4.859567
4.433990
3.748536
3.945827
3.467798
3.290772
3.571510
3.455877
3.530979
3.432631
3.602505
3.527999
3.307462
3.231764
##ZVALUE=265
0.529885
0.673532
0.813603
0.688434
0.713468
0.869632
1.082420
1.222491
1.022816
0.911951
0.956655
1.225471
1.409650
1.666546
3.909469
20.599961
50.395727
126.204491
218.804479
403.996706
570.247769
728.040934
879.836679
915.060639
832.536817
716.400743
529.983640
378.845930
209.582448
127.296448
80.280900
63.423514
70.250630
96.222758
116.421580
136.189461
140.591860
135.395527
122.097731
99.192858
78.883767
52.203536
35.228729
19.451976
13.118982
7.126927
5.882978
5.709529
5.030632
5.453825
5.488992
5.451441
4.883409
5.135536
4.871488
4.578829
5.043745
5.077720
4.588962
5.063415
4.972816
4.666448
4.797578
4.535913
4.284978
4.981756
4.314780
5.005598
5.015731
5.062819
5.142689
5.164742
5.625486
5.986691
5.397797
5.772710
5.249977
5.167723
5.204678
4.708767
4.382730
4.243851
3.910661
3.508925
3.490448
3.094673
3.629923
3.491640
3.259778
2.934933
2.923608
3.022552
2.895594
3.330708
3.223419
2.914667
##ZVALUE=270
0.739694
0.803471
0.748634
0.829697
0.756979
0.689626
0.637770
0.737906
0.681877
0.743866
1.020432
1.010895
0.964999
0.907779
1.386404
1.334548
1.832843
8.694530
28.005838
88.938475
169.242620
291.229486
499.261618
658.882856
839.180946
906.595588
888.945460
804.308653
627.246499
479.291677
337.563753
183.000565
106.367469
58.431625
54.016709
74.668527
95.175505
120.343566
133.756995
142.005682
136.253834
121.089816
103.010535
74.428916
56.336522
33.338666
22.576451
13.307929
8.538961
6.332994
5.923510
4.973412
5.171895
5.178452
5.361438
5.147457
5.065799
4.533529
4.936457
5.031824
4.688501
5.077720
4.734993
4.390478
4.599690
4.538894
4.406571
4.334450
4.438758
4.999638
5.060434
5.273819
5.241632
5.232692
5.532503
5.052686
5.032420
4.248619
4.960895
4.509687
4.214644
4.082918
3.897548
3.475547
3.594756
3.467798
3.647804
3.455877
3.047585
2.858639
2.933741
2.960563
2.813935
2.996922
3.001690
3.049970
##ZVALUE=275
0.594854
0.660419
0.497699
0.538826
0.921488
0.582933
0.671744
0.820756
0.763535
0.866652
0.767708
0.768900
0.803471
1.043677
1.096725
1.068711
1.176000
1.322627
1.245737
4.288554
16.509891
44.881701
131.184459
242.276788
441.489816
600.705743
783.569813
894.581676
940.389037
891.041756
758.096576
596.332550
426.131487
231.773853
134.900808
63.079596
46.191812
52.672625
69.602728
96.298456
114.945769
132.608414
140.928626
134.334564
121.584535
96.693635
77.733994
51.787496
37.087798
22.287965
14.117956
8.688569
6.622672
5.388856
5.404949
5.196929
4.954934
4.814863
5.013943
5.099773
5.567670
5.184412
4.740953
4.763603
4.774928
4.769564
4.802942
4.654527
4.943609
4.691482
4.997849
5.087852
4.885793
5.060434
4.757643
5.037785
4.889965
4.796982
4.585981
4.205704
4.157424
3.743768
3.773570
3.601909
3.461838
3.374815
3.391504
3.104806
2.931952
3.155470
3.234744
3.041625
2.722740
2.664924
2.973676
2.685785
##ZVALUE=280
0.393987
0.540614
0.653863
0.531673
0.686646
0.406504
0.675917
0.627637
0.639558
0.695586
0.705719
0.776649
0.927448
0.833869
0.916719
0.682473
0.775456
1.010895
0.953674
1.126528
1.248717
1.835823
9.763837
34.412742
105.782747
189.669728
349.397659
518.305898
737.316608
869.571567
969.618559
967.805982
885.286927
685.935020
510.184765
296.354890
175.896883
80.014467
46.110749
37.229657
47.057867
71.002841
91.061592
116.537809
130.215883
135.761499
131.686926
116.590858
99.902749
74.104667
53.882599
34.518838
23.526549
13.518929
8.793473
6.324649
5.374551
4.998446
5.330443
5.159974
5.041957
5.159974
4.901886
5.337000
4.823804
4.974604
4.679561
5.060434
5.134940
4.711747
5.076528
4.858971
5.172491
5.331635
4.977584
4.770756
4.893541
4.410744
4.110932
4.154444
4.113913
3.732443
3.374815
3.491640
3.338456
3.349781
3.155470
3.512502
3.030896
3.236532
3.026724
2.885461
2.831817
2.583861
2.960563
2.816916
##ZVALUE=285
0.480413
0.629425
0.473857
0.513792
0.524521
0.544786
0.595450
0.621676
0.686646
0.478625
0.566840
0.648499
0.637770
0.708699
0.735521
0.692606
0.960827
0.836849
0.868440
1.010895
1.137853
1.181960
1.440644
1.515746
5.041957
16.985536
58.451891
122.119784
255.650878
400.917530
564.925671
796.546936
944.871902
1015.899777
1009.541750
849.012733
671.356916
417.814851
264.751911
122.220516
63.490868
31.249523
30.605793
46.640635
63.535571
91.585517
108.752847
124.921799
130.467415
128.336549
118.087530
97.391605
78.419447
53.887963
37.538409
21.470785
14.169812
8.534789
6.402731
5.174875
5.456805
5.106926
4.763603
4.821420
4.503727
4.812479
4.702806
4.793406
4.979968
4.537702
4.803538
4.853606
4.867911
4.716516
4.681945
4.661679
4.736781
4.287958
4.193783
3.988743
3.926754
3.747940
3.649592
3.273487
3.412962
3.370643
3.160834
3.210902
3.074408
3.087521
3.072619
3.051758
3.049970
2.842546
2.973676
2.935529
##ZVALUE=290
0.516772
0.538826
0.763535
0.517964
0.509620
0.507832
0.444651
0.358820
0.750422
0.627637
0.697970
0.602603
0.554919
0.744462
0.583529
0.648499
0.806451
0.732541
0.928640
0.832677
0.832677
0.982881
0.877976
1.158714
1.186728
1.302958
2.212524
6.982684
33.466816
77.519417
178.544521
308.826566
471.966863
738.535523
923.465490
1015.884876
1015.884876
1015.556455
874.944925
590.162873
392.730832
190.747976
92.596412
34.038424
22.888780
30.483603
41.218996
63.730478
81.576705
105.301738
118.419528
128.773451
127.662420
113.463998
97.913742
72.783828
54.667592
33.241510
22.673607
13.593435
8.921623
6.240606
5.454421
4.687905
4.569888
4.536510
4.582405
4.585981
4.542470
4.574656
4.552603
4.550815
5.103946
4.811883
4.625916
4.575849
4.134774
4.001856
3.778934
3.814697
3.695488
3.423691
3.525615
3.271699
3.402829
2.891421
3.254414
3.283620
3.271699
3.043413
2.894998
2.739429
2.884865
2.914667
2.960563
3.065467
##ZVALUE=295
0.545979
0.470877
0.494719
0.315905
0.434518
0.428557
0.529885
0.518560
0.525713
0.567436
0.530481
0.650883
0.572801
0.605583
0.647902
0.752807
0.613928
0.581741
0.694990
0.718832
0.835657
0.613928
0.968575
0.857711
0.987649
0.986457
1.269579
1.169443
1.808405
3.015399
16.397834
43.920875
124.424696
230.562687
433.501005
618.039966
898.912549
1015.892625
1015.892625
1015.892625
1015.892625
838.536024
514.493585
308.931470
132.017732
59.373975
23.139715
18.286705
25.820732
38.028955
59.189796
76.820850
98.537803
112.449527
121.785998
120.865703
107.732415
93.344450
71.083903
54.419637
34.320951
23.606420
13.329983
9.213686
6.166697
5.231500
4.669428
4.664660
4.409552
4.221797
4.339814
4.442930
4.536510
4.531741
4.708767
4.817843
4.453659
4.382730
4.087687
3.905892
3.739595
3.413558
3.452897
3.408790
3.203750
3.102422
3.050566
2.965927
3.187656
3.132820
3.009439
3.003478
2.934933
2.824664
2.856851
2.978444
##ZVALUE=300
0.395775
0.268817
0.393987
0.356436
0.274777
0.513792
0.448823
0.490546
0.545979
0.443459
0.499487
0.734925
0.505447
0.541806
0.684857
0.511408
0.530481
0.487566
0.583529
0.730753
0.856519
0.829697
0.819564
0.906587
0.928640
0.953674
1.162887
1.130700
1.356602
1.568794
1.675487
1.928806
6.835461
24.157763
81.329942
159.077644
331.362486
505.255461
772.520900
982.737541
1015.897989
1015.897989
1015.897989
1015.897989
716.956854
465.729833
226.529837
114.628673
38.513541
17.657876
16.945601
22.645593
36.124587
50.801635
73.309541
90.841651
108.606815
115.948915
114.320517
106.465816
89.591742
72.609782
51.667690
37.339926
22.018552
14.439821
8.513927
5.981922
4.523993
4.378557
4.366636
4.211664
4.224777
4.037619
4.225969
4.148483
3.985763
4.120469
3.692508
3.867745
3.330708
3.496408
3.306866
3.321767
3.233552
3.154874
3.125668
3.004670
3.030896
3.094673
2.888441
2.906919
3.013611
2.882481
2.859831
2.772808
##ZVALUE=305
0.334978
0.423789
0.288486
0.511408
0.484586
0.331998
0.336766
0.326633
0.426769
0.488758
0.450611
0.646710
0.536442
0.543594
0.698566
0.461936
0.469685
0.480413
0.674725
0.647902
0.518560
0.666976
0.521541
0.679493
0.869632
0.698566
0.931621
0.822544
0.880957
1.255870
1.241565
1.082420
1.467466
1.742840
3.608465
12.702942
52.056909
114.624500
256.136656
400.291681
640.280843
833.348036
1015.897989
1015.897989
1015.897989
1015.897989
801.685452
583.878756
314.631462
164.922476
58.342814
24.157763
12.474656
14.484525
22.495985
32.678843
52.145720
68.084598
86.320639
98.769665
110.078454
107.871890
99.350810
86.533427
66.054463
50.216913
32.305717
22.258759
12.370944
7.934570
5.294681
4.820824
4.012585
4.059672
3.578663
3.817677
3.564954
3.340840
3.663898
3.245473
3.197789
3.239512
2.984405
2.984405
2.969503
2.921820
2.668500
2.900958
2.802610
2.880692
2.851486
2.744794
2.926588
2.800822
2.680421
2.625585
##ZVALUE=310
0.377893
0.465512
0.455976
0.253916
0.341535
0.343919
0.442863
0.517964
0.394583
0.408888
0.290871
0.320673
0.525713
0.361800
0.498891
0.460744
0.520945
0.456572
0.406504
0.523925
0.463724
0.665784
0.593662
0.606775
0.404716
0.693798
0.593662
0.625849
0.641942
0.802875
0.863671
0.894666
0.933409
1.131892
1.085997
1.254678
1.586676
6.453991
21.677613
75.979829
151.681900
318.385959
482.729673
722.147822
886.263847
1011.056900
1008.841991
890.319943
742.084980
501.709580
336.633921
169.037580
89.964867
32.804608
14.327765
9.922981
12.316704
19.293427
27.903914
44.726729
59.892535
79.006553
92.380643
101.339817
103.344917
93.750954
83.959699
65.313578
49.744844
31.794906
21.233559
12.844801
8.261800
5.054474
4.366636
3.463626
3.472567
3.090501
2.939701
2.832413
2.705455
2.950430
2.753735
2.780557
2.687573
2.621412
2.780557
2.927780
2.417564
2.736449
2.530813
2.509952
2.506971
2.343655
2.465844
2.459884
##ZVALUE=315
0.471473
0.332594
0.208616
0.269413
0.239611
0.182986
0.311732
0.295639
0.273585
0.348687
0.377893
0.544786
0.374913
0.400543
0.474453
0.547767
0.499487
0.384450
0.446439
0.487566
0.555515
0.517964
0.634789
0.625849
0.603795
0.656843
0.533462
0.592470
0.531673
0.755787
0.786781
0.720620
0.785589
0.837445
0.949502
1.042485
1.212955
1.380444
1.510978
2.338886
13.205409
39.278865
116.532445
214.375854
414.880514
597.442985
829.684734
968.200564
1015.897989
1004.510522
836.646557
665.203929
422.882438
267.565846
123.122931
58.140755
17.765760
9.285808
8.898973
10.847449
16.981959
25.686622
41.399598
53.430796
71.772933
84.619522
95.005631
96.673965
88.167787
76.801777
59.777498
45.689940
31.108856
21.089911
11.681914
8.021593
4.938841
3.481507
3.207922
2.893806
2.751946
2.592802
2.610683
2.618432
2.550483
2.462864
2.620816
2.540946
2.358556
2.570748
2.345443
2.478957
2.199411
2.419949
2.102852
2.266765
##ZVALUE=320
0.216961
0.329614
0.284910
0.372529
0.353456
0.483990
0.415444
0.418425
0.336766
0.383854
0.339746
0.399947
0.404716
0.372529
0.374913
0.350475
0.306964
0.443459
0.485778
0.434518
0.462532
0.491738
0.439882
0.420809
0.500679
0.354648
0.642538
0.471473
0.667572
0.645518
0.603795
0.698566
0.813603
0.677705
0.773668
0.723600
0.831485
0.955462
1.087785
1.174808
1.226664
1.581907
6.278753
20.983815
75.974464
153.522491
314.402580
477.792621
713.691711
863.935947
976.794958
979.283452
855.583549
705.197453
481.563807
316.061974
148.768425
78.766942
29.419661
12.698770
7.266998
7.633567
9.863973
13.779998
23.424625
33.914447
51.079988
63.871741
81.066489
89.196563
89.677572
85.080862
73.243976
60.564876
43.234825
30.893683
18.895864
11.878610
6.591678
4.765987
3.380775
2.700686
2.405643
2.377629
2.189875
2.269745
2.308488
2.452731
2.087951
2.108812
2.243519
1.901984
2.074838
1.964569
2.091527
2.084970
##ZVALUE=325
0.353456
0.285506
0.365973
0.452995
0.416636
0.323653
0.274777
0.293851
0.373721
0.199676
0.202656
0.289679
0.193715
0.372529
0.307560
0.396967
0.544786
0.251532
0.473857
0.260472
0.298619
0.511408
0.364780
0.337958
0.352859
0.429749
0.542998
0.492930
0.452995
0.515580
0.507832
0.632405
0.713468
0.670552
0.780821
0.783801
0.785589
0.675917
0.794530
0.919700
0.991821
1.150966
1.147985
1.370907
2.488494
16.712546
44.150949
117.300749
214.295983
408.825874
576.707721
787.014961
903.015733
951.979756
893.739462
715.983510
545.050502
336.925983
206.788778
91.513991
43.987632
14.232993
7.400513
6.105900
6.476641
9.431839
13.292432
22.116899
32.874942
49.221516
62.770844
76.365471
82.472563
84.047914
79.786777
66.293478
54.286718
38.883686
27.857423
16.668439
10.674596
5.972981
4.136562
2.952814
2.509952
2.224445
2.082586
2.094507
2.176762
2.006888
1.977682
1.978874
1.876950
1.927614
2.029538
2.059937
##ZVALUE=330
0.302792
0.308752
0.283718
0.202656
0.368953
0.209808
0.182986
0.245571
0.286698
0.226498
0.295639
0.328422
0.334978
0.215769
0.442863
0.423789
0.351667
0.373721
0.368953
0.366569
0.314713
0.485778
0.476837
0.530481
0.458956
0.463724
0.489950
0.401735
0.513792
0.566840
0.449419
0.633597
0.422597
0.668764
0.441670
0.608563
0.540614
0.772476
0.756979
0.782609
0.786781
0.987649
0.923872
0.860691
1.060963
1.156926
1.697540
7.007718
22.978783
77.026486
150.609612
309.980512
466.715693
692.192912
840.700865
948.704481
928.562880
789.386630
633.552670
418.825746
271.460414
125.887990
64.550638
23.070574
9.781718
5.744696
5.405545
6.211996
8.194447
13.574958
19.195676
31.264424
42.614937
59.461594
69.951415
78.291893
78.511834
72.592497
64.466000
49.514771
37.493706
23.908615
16.626716
9.955764
6.803870
3.724694
2.896786
2.332926
2.025962
2.137423
1.870990
1.903772
2.011657
1.871586
1.766682
1.790524
##ZVALUE=335
0.187755
0.290871
0.250936
0.157952
0.310540
0.265837
0.278950
0.218749
0.283718
0.263453
0.202656
0.295639
0.234842
0.321865
0.319481
0.339746
0.385642
0.400543
0.127554
0.262856
0.470877
0.437498
0.395775
0.450611
0.390410
0.327826
0.367761
0.427961
0.304580
0.438690
0.375509
0.574589
0.608563
0.655651
0.509620
0.438690
0.542998
0.469685
0.664592
0.546575
0.594854
0.804663
0.819564
0.812411
1.054406
0.985861
1.012683
1.047850
1.304746
3.208518
11.940598
47.834516
103.435516
232.137442
378.233790
604.532957
757.560730
890.765786
916.947722
832.123756
706.876516
486.921668
332.172513
175.089836
90.857744
31.022429
13.041496
5.896688
5.291700
5.186796
5.907416
8.116961
11.455417
19.900799
29.055476
43.007731
54.057837
66.216588
71.859956
73.122978
69.212914
58.297515
47.788620
34.720898
25.829673
15.997887
10.488629
6.149411
4.293919
2.650619
2.299547
1.894832
1.700521
1.626611
1.757741
1.685619
##ZVALUE=340
0.073910
0.004768
0.111461
0.036955
0.246763
0.169873
0.199676
0.015497
0.182986
0.169873
0.160933
0.246763
0.200868
0.067949
-0.125766
0.101924
0.169873
0.177622
0.270605
0.292659
0.285506
0.256896
0.163913
0.175834
0.257492
0.231862
0.348687
0.294447
0.141859
0.290871
0.270605
0.300407
0.243783
0.284910
0.410676
0.415444
0.390410
0.489950
0.324845
0.247955
0.393987
0.445843
0.383854
0.461936
0.675917
0.584722
0.528693
0.679493
0.852942
0.802875
1.021624
1.598597
5.437732
28.842688
72.216988
181.463957
309.115648
510.571599
669.489503
837.944746
894.953609
854.296684
749.569535
556.922555
392.657518
205.877423
114.518404
46.353936
18.328428
6.359816
4.768968
4.690886
4.568696
5.353689
7.072687
11.726618
17.666817
28.092861
38.121939
52.946806
60.894489
67.755580
68.695545
64.300895
56.864619
45.468807
36.118627
24.114847
16.991496
10.056496
6.434917
3.631711
2.503991
1.874566
1.749992
1.666546
##ZVALUE=345
0.239611
0.359416
0.328422
0.396967
0.286698
0.277758
0.283718
0.400543
0.177622
0.271797
0.316501
0.236630
0.355840
0.121593
0.305772
0.190735
0.371933
0.141859
0.215769
0.190735
0.304580
0.288486
0.330806
0.460744
0.334978
0.237823
0.414848
0.267625
0.425577
0.363588
0.338554
0.393987
0.273585
0.460744
0.344515
0.437498
0.399947
0.521541
0.508428
0.505447
0.520945
0.553727
0.556707
0.442863
0.654459
0.474453
0.667572
0.759959
0.641942
0.845790
0.825524
0.999570
1.114607
1.178980
2.654791
15.436411
45.449734
126.296878
221.595764
399.863720
557.880998
753.548741
851.867795
878.520012
815.273523
633.080602
475.113988
281.800628
159.545541
62.734485
28.917789
9.393692
5.781651
4.850626
4.643798
4.296899
4.740953
6.538630
9.596944
16.980767
24.725795
36.899447
45.211911
54.696798
60.449839
62.875748
61.278939
53.768754
46.045780
34.311414
25.199652
15.825629
10.726452
6.044507
4.040599
2.776980
##ZVALUE=350
0.276566
0.260472
0.182986
0.320673
0.293851
0.220537
0.447631
0.359416
0.337958
0.220537
0.273585
0.259876
0.299811
0.370741
0.193715
0.328422
0.359416
0.246763
0.280738
0.339746
0.370741
0.312924
0.339746
0.268817
0.376701
0.235438
0.332594
0.293851
0.233650
0.404716
0.339746
0.457764
0.496507
0.515580
0.292659
0.489950
0.385642
0.345707
0.411868
0.459552
0.522733
0.494719
0.268817
0.515580
0.519753
0.589490
0.538826
0.561476
0.691414
0.516772
0.679493
0.837445
0.712872
0.775456
1.063943
0.950694
1.842976
6.701946
31.370521
72.789788
176.538825
294.575691
484.910011
637.449622
805.974007
869.644880
839.223862
728.086829
513.176918
342.201591
172.519684
95.333457
37.113428
14.619827
5.867481
4.668832
4.146695
3.904700
3.700852
4.194975
6.357431
8.635521
14.454722
20.994544
31.221509
39.160848
49.189925
54.884553
57.509542
55.704713
49.969554
42.932630
32.084584
24.256706
15.656948
11.204481
##ZVALUE=355
0.278950
0.225902
0.179410
0.081658
0.269413
0.316501
0.143647
0.337958
0.146627
0.147820
0.049472
0.061989
0.081658
0.292659
0.207424
0.077486
0.156760
0.169873
0.165701
0.244975
0.170469
0.308752
0.237823
0.189543
0.302792
0.096560
0.365973
0.242591
0.190735
0.305772
0.379682
0.384450
0.360608
0.259876
0.173450
0.297427
0.357628
0.294447
0.176430
0.323653
0.350475
0.439882
0.422597
0.484586
0.435710
0.421405
0.354648
0.418425
0.525713
0.502467
0.527501
0.588894
0.613928
0.767708
0.879765
0.840425
0.834465
1.033545
1.239777
4.951954
19.693971
68.650842
132.303834
260.060430
398.182869
599.156618
725.025535
825.738907
826.773643
715.992451
582.780838
391.350985
250.389576
110.539794
53.393841
16.686916
6.883740
4.728436
3.907681
3.484488
3.183484
3.377795
3.572702
5.181432
7.066727
12.626648
17.779469
26.762486
34.128428
42.992830
48.734546
52.336454
50.852895
45.149922
39.060712
30.554533
##ZVALUE=360
0.235438
0.317693
0.352859
0.334978
0.342727
0.410676
0.244975
0.260472
0.317693
0.093579
0.214577
0.213981
0.303984
0.240803
0.288486
0.252724
0.493526
0.366569
0.282526
0.300407
0.245571
0.286698
0.179410
0.215769
0.248551
0.371933
0.381470
0.226498
0.356436
0.332594
0.365973
0.313520
0.426769
0.404716
0.258684
0.261664
0.347495
0.288486
0.483990
0.354648
0.536442
0.592470
0.677705
0.510812
0.525713
0.510812
0.501871
0.538826
0.698566
0.590682
0.604987
0.684857
0.682473
0.573993
0.710487
0.812411
0.932813
0.876784
1.039505
1.105666
1.202822
2.083778
7.456541
38.781762
90.850592
209.233761
332.350731
518.056750
669.996738
809.616446
850.454569
796.906948
678.554773
470.409989
316.949487
155.749917
78.626871
28.524995
10.868907
4.540682
3.912449
3.785491
3.580451
3.185868
2.999902
3.318787
4.132986
6.166697
9.334683
14.686584
21.269917
30.710697
37.159920
43.745637
46.518445
46.889782
##ZVALUE=365
0.500679
0.246763
0.407696
0.422597
0.261664
0.345707
0.320673
0.402927
0.451803
0.307560
0.154972
0.318885
0.377893
0.307560
0.506639
0.365973
0.461936
0.478625
0.458956
0.574589
0.415444
0.497699
0.599623
0.431538
0.573993
0.501871
0.545979
0.526905
0.452995
0.461936
0.413656
0.353456
0.364780
0.399947
0.528693
0.541806
0.590682
0.452995
0.510812
0.679493
0.456572
0.657439
0.570416
0.611544
0.546575
0.569820
0.553727
0.659823
0.506639
0.611544
0.699759
0.515580
0.658631
0.816584
0.785589
0.820756
0.667572
0.875592
0.864863
1.190901
1.051426
1.261830
1.332760
1.446605
3.000498
17.909408
51.796436
135.878921
242.984891
430.805683
573.462844
733.955503
814.603567
817.288756
727.801919
539.933443
387.962461
210.596919
114.256740
41.143894
16.468763
5.404949
4.306436
3.725886
3.435612
3.196597
3.026724
2.975464
3.088713
3.519654
4.919767
8.376837
12.047887
18.966794
25.082827
32.914877
##ZVALUE=370
0.172853
0.272989
0.365973
0.266433
0.265837
0.222921
0.339746
0.246763
0.321865
0.328422
0.233650
0.233650
0.294447
0.286698
0.301600
0.261664
0.323653
0.282526
0.251532
0.206828
0.290871
0.132918
0.392795
0.294447
0.389814
0.276566
0.157952
0.343919
0.308752
0.358820
0.343919
0.294447
0.450611
0.271797
0.373721
0.333786
0.374913
0.212789
0.261664
0.442863
0.442863
0.402927
0.370741
0.540614
0.561476
0.350475
0.523925
0.339746
0.414848
0.420809
0.602603
0.405908
0.463724
0.414848
0.682473
0.681877
0.633597
0.599623
0.704527
0.712872
0.813603
0.880957
0.785589
1.006722
1.136661
1.381636
1.815557
8.591413
29.620528
96.461773
179.387927
332.071781
477.441549
666.892529
765.196681
795.616508
737.769008
585.456491
439.202785
252.847672
143.378973
56.967735
25.474429
8.934736
4.554987
3.620982
3.326535
2.973676
2.804995
2.692938
2.395511
2.785921
2.952814
4.273653
6.328821
10.288954
##ZVALUE=375
0.390410
0.167489
0.257492
0.233650
0.283718
0.201464
0.288486
0.377893
0.162721
0.291467
0.240803
0.323653
0.273585
0.301600
0.309944
0.319481
0.217557
0.382662
0.341535
0.194907
0.331998
0.238419
0.314713
0.462532
0.180602
0.365973
0.215769
0.365973
0.376701
0.408888
0.221729
0.336766
0.361800
0.384450
0.267625
0.359416
0.284910
0.208616
0.281930
0.281930
0.450611
0.323653
0.467896
0.311732
0.333786
0.285506
0.419617
0.497699
0.396967
0.557899
0.484586
0.469685
0.394583
0.477433
0.497699
0.492930
0.558496
0.524521
0.506639
0.560880
0.796914
0.794530
0.829697
0.679493
0.690818
0.994802
0.926852
1.126528
1.393557
3.554821
13.621449
50.926805
112.261772
255.103707
400.910974
603.264570
724.392533
802.533031
782.698989
651.172996
509.400964
312.990546
198.232532
97.822547
48.637986
15.351772
6.284714
3.593564
2.876520
2.959967
2.777576
2.599955
2.421737
2.264977
2.439618
2.627969
##ZVALUE=380
0.151992
0.132918
0.123978
0.199676
0.249743
0.134706
0.162721
0.283718
0.176430
0.194907
0.232458
0.358820
0.417829
0.217557
0.209808
0.311732
0.356436
0.296831
0.173450
0.446439
0.348687
0.204444
0.302792
0.188947
0.270605
0.306964
0.393987
0.268817
0.339746
0.225902
0.316501
0.334978
0.366569
0.299811
0.316501
0.173450
0.239611
0.312924
0.287890
0.374913
0.283718
0.209808
0.279546
0.427961
0.182986
0.403523
0.308752
0.369549
0.295639
0.448823
0.457764
0.320673
0.437498
0.373721
0.552535
0.471473
0.521541
0.427961
0.448823
0.384450
0.494719
0.702739
0.615716
0.531673
0.581741
0.539422
0.559688
0.835657
0.910759
1.086593
1.456738
2.064705
7.553697
34.916997
83.973408
207.780600
339.864492
537.915826
681.674480
802.202821
812.618732
717.400908
589.587688
406.969786
272.620916
133.571625
68.243742
23.568869
9.538531
3.935695
3.171563
2.971888
2.697706
2.590418
2.213717
2.182722
##ZVALUE=385
0.208616
0.223517
0.174642
0.207424
0.233650
0.189543
0.171661
0.310540
0.184774
0.193715
0.272989
0.181794
0.351667
0.132918
0.343919
0.240803
0.172853
0.275970
0.305772
0.087619
0.195503
0.219941
0.185966
0.284910
0.455976
0.264645
0.304580
0.362992
0.226498
0.325441
0.395775
0.156760
0.297427
0.481606
0.375509
0.444651
0.326633
0.348687
0.454783
0.255704
0.382662
0.326633
0.360608
0.311732
0.333786
0.312924
0.433922
0.387430
0.417829
0.350475
0.441670
0.371933
0.334978
0.422597
0.413656
0.310540
0.547767
0.415444
0.513792
0.488758
0.539422
0.545979
0.438690
0.433922
0.621676
0.548959
0.568628
0.736713
0.853539
0.921488
0.936985
1.005530
1.155734
1.321435
3.463626
20.445585
54.227710
143.326521
256.066918
456.570983
615.604520
773.336887
826.047659
783.830881
692.908764
511.031747
363.315940
197.446942
111.972690
45.806766
18.088818
5.086660
3.244877
2.552867
2.624989
2.466440
##ZVALUE=390
0.125766
0.241995
0.258684
0.146627
0.204444
0.119805
0.125766
0.103712
0.366569
0.236630
0.115633
0.168681
0.109673
0.066757
0.147820
0.072718
0.207424
0.103712
0.324845
0.265837
0.279546
0.220537
0.083447
0.084639
0.242591
0.287890
0.351667
0.242591
0.275970
0.185966
0.255704
0.272989
0.330806
0.349879
0.350475
0.439882
0.341535
0.207424
0.327826
0.310540
0.265837
0.381470
0.301600
0.386834
0.395775
0.347495
0.306964
0.319481
0.293851
0.445843
0.311732
0.550747
0.373721
0.463724
0.316501
0.442863
0.362992
0.515580
0.488758
0.408888
0.317693
0.460744
0.272989
0.511408
0.413656
0.637770
0.759959
0.624657
0.856519
0.859499
0.844598
0.713468
0.929832
1.004934
1.074672
1.204610
1.894832
10.129809
32.501817
103.495717
198.749900
382.142663
535.755754
716.840029
805.544853
824.445486
759.204030
595.933795
455.541611
277.244449
161.747932
65.634847
30.364990
9.381771
3.964901
2.835989
##ZVALUE=395
0.277758
0.106692
0.241995
0.210404
0.278950
0.228882
0.205636
0.394583
0.255704
0.306964
0.171661
0.319481
0.156760
0.209808
0.315905
0.371933
0.220537
0.261664
0.138879
0.268817
0.236630
0.296831
0.199676
0.286698
0.194907
0.252724
0.292659
0.282526
0.352859
0.263453
0.342727
0.318885
0.282526
0.414848
0.306964
0.321865
0.399947
0.500679
0.376701
0.381470
0.323653
0.242591
0.366569
0.388622
0.449419
0.336766
0.262856
0.287890
0.360608
0.341535
0.302792
0.339746
0.381470
0.370741
0.313520
0.302792
0.424981
0.306964
0.376701
0.444651
0.396967
0.512600
0.566840
0.648499
0.454783
0.451803
0.569820
0.618696
0.633597
0.691414
0.894666
0.972748
0.896454
0.946522
0.745654
0.905991
0.946522
1.016855
1.364946
5.822778
21.391511
77.479482
150.228739
294.107795
444.800854
657.364726
787.767768
865.200758
839.905739
710.185766
553.544760
343.401432
213.044882
92.522502
44.262409
14.077425
##ZVALUE=400
0.376701
0.311732
0.273585
0.266433
0.298619
0.169873
0.213981
0.165701
0.273585
0.266433
0.127554
0.213981
0.146627
0.319481
0.102520
0.412464
0.195503
0.321865
0.290871
0.351667
0.311732
0.123978
0.271797
0.355840
0.242591
0.222921
0.197887
0.246763
0.364780
0.211596
0.316501
0.100732
0.206828
0.393987
0.241995
0.175834
0.267625
0.122786
0.161529
0.340939
0.426769
0.504851
0.329614
0.323653
0.436902
0.369549
0.353456
0.402927
0.287890
0.400543
0.373721
0.532866
0.463724
0.461936
0.298619
0.265837
0.221729
0.362992
0.414848
0.500679
0.557899
0.390410
0.509620
0.618696
0.481606
0.406504
0.570416
0.457764
0.660419
0.708699
0.749826
0.931621
0.867844
0.826716
0.734925
0.674725
0.624657
0.930429
0.997782
1.129508
1.338720
3.349781
11.221766
41.634440
93.027949
218.977928
360.965729
577.901602
725.938678
857.296586
872.297883
763.572454
621.890426
406.277776
261.314511
131.140947
##END
