##TITLE=FAAI0552
##FORMAT=SPECTACLE-ASCII V-1.2
##DATA TYPE=ULTRAVIOLET SPECTRUM
##SECOND TYPE=ULTRAVIOLET SPECTRUM
##DATE=12/26/17
##TIME=14:25:25
##SPECTROMETER/DATA SYSTEM=SPECTACLE
##XUNITS=NM EM
##YUNITS=ENERGY
##YFACTOR=1
##FIRSTX=220
##LASTX=410
##NPOINTS=96
##3DDATA=Equidistant
##ZUNITS=NM EX
##FIRSTZ=210
##LASTZ=400
##ZPOINTS=39
##XYDATA=(Y..Y)
##ZVALUE=210
4.339814
3.948808
3.819466
4.031658
3.902912
4.097819
4.181862
3.028512
3.108978
3.175735
2.903938
3.023744
3.069639
3.088713
2.341866
2.793670
2.957582
3.044605
2.770424
3.613830
3.591776
3.914833
3.571510
4.243851
4.430413
4.632473
5.833507
7.428527
8.432865
9.438992
10.194778
10.492802
10.926723
12.111664
13.761520
12.469888
12.291670
13.231635
12.046695
11.033416
12.534857
11.975765
12.282729
10.728836
9.699464
9.075999
9.584427
9.086728
9.125471
8.370876
8.291602
7.731915
6.843805
8.389950
9.341836
8.113980
7.328987
7.700920
7.166862
6.750822
7.589459
6.806850
7.575750
8.282661
6.704926
7.003546
7.275939
8.264780
8.477569
10.066628
11.193752
13.288856
15.318990
17.071962
19.557476
22.835732
23.819804
24.876595
25.668740
23.256540
24.875998
20.472407
19.593835
16.299486
12.941957
11.022687
9.432435
6.654859
6.563663
6.905794
5.970597
6.892681
6.835461
7.066727
7.103682
7.083416
##ZVALUE=215
11.126995
12.135506
10.435581
9.335876
7.982850
7.234812
5.924702
7.584691
6.628633
6.808639
7.175803
6.205440
5.595684
4.299879
3.158450
3.416538
3.181696
3.080964
3.105998
2.680421
3.435612
3.675818
3.985763
4.840493
5.213618
6.390810
7.203817
8.239746
9.791851
12.177825
15.489459
15.369654
17.597675
19.205809
19.557476
19.606948
20.243526
20.416975
19.452572
16.775727
17.298460
16.207695
16.267896
14.436841
14.810562
14.133453
13.646483
13.044477
12.412667
11.150837
11.447668
9.136796
9.328723
9.071827
9.432435
9.211898
8.985996
8.377433
8.195639
8.477569
8.510947
7.475615
7.929802
8.002520
7.865429
7.851720
7.675886
7.795691
8.964539
10.283589
12.257695
12.902617
16.057491
16.531944
19.243956
18.552542
19.062757
20.144582
21.961927
20.695925
19.450784
16.395450
14.451742
13.195872
11.939406
10.674000
8.087754
6.763935
7.302761
6.025434
6.356835
6.701946
5.911589
5.512834
5.630851
5.457997
##ZVALUE=220
30.722618
31.905770
34.637451
31.944513
31.538606
25.795698
20.279884
16.603470
15.498996
13.380647
14.305711
16.674995
13.548732
12.182593
10.087490
9.443760
6.049871
5.433559
4.488826
4.039407
4.052520
3.755689
4.270673
5.012751
5.754828
6.990433
9.940863
11.575818
15.542507
16.366839
19.651651
23.062825
27.097464
26.408434
27.650595
29.975772
26.872754
28.401613
27.548671
25.842786
23.681521
24.853945
21.251440
20.716786
21.041632
19.301772
18.389821
16.309619
15.924573
14.991760
15.286803
12.649894
12.891889
12.904406
10.606647
12.272000
10.244846
9.287000
10.501742
9.904504
8.739829
8.525848
8.260608
8.788705
7.613897
7.686615
9.048581
7.796884
9.166598
10.153651
11.606812
11.724830
14.817715
14.748573
15.475750
17.658472
19.076467
18.259883
16.734600
16.090870
16.879439
15.564561
13.966560
13.540983
11.583567
10.816455
8.378625
7.545948
6.135702
6.173849
6.627440
5.607605
6.834865
5.523562
6.346703
5.566478
##ZVALUE=225
48.960447
52.322745
63.213706
78.373551
86.939931
83.833933
76.769590
59.193969
47.342777
38.644671
28.314590
26.703477
29.589534
29.328465
31.343699
26.308894
22.519827
18.494725
12.868643
10.493994
6.682873
4.369617
4.728436
4.549623
6.075501
7.569790
8.518696
12.352467
16.460419
19.538999
23.849607
27.082562
28.162599
31.298995
31.671524
31.571984
33.845901
33.974648
31.048656
29.419661
29.512644
25.980473
23.867488
23.480654
24.067760
21.472573
21.115541
20.531416
17.928481
17.980933
15.530586
15.040636
12.910962
13.267994
12.568831
12.356639
12.573600
10.989904
11.341572
10.597706
9.977818
11.304617
10.325909
9.676814
9.210706
9.849668
10.304451
9.135604
9.834766
11.125803
11.838675
12.071729
13.246536
13.864636
14.805794
14.354587
14.765859
13.582706
14.268756
12.773871
12.667775
13.391972
12.828708
10.530949
9.367466
8.716583
8.952618
6.686449
7.809997
6.407499
6.726980
6.897449
5.788803
6.338954
6.800890
6.327629
##ZVALUE=230
38.291812
44.023991
66.600442
106.264949
139.895678
166.304708
174.168944
176.676512
162.136555
126.529932
96.274614
70.965886
52.085519
47.074556
47.187805
49.759746
55.430532
50.440431
45.780540
35.354495
26.928782
19.537807
12.014508
8.096695
7.139444
7.468462
8.791685
10.539889
14.727712
14.711618
19.037724
21.656752
24.295449
26.525855
26.538968
27.410984
26.885867
26.619434
27.314425
25.050640
23.066998
23.077726
22.948980
19.393563
20.392537
20.043850
19.142628
17.729998
15.931726
15.872717
13.738871
15.140772
13.761520
13.879538
11.695623
11.691451
11.823773
11.824965
11.841655
10.917783
12.202859
10.478497
11.185408
10.815859
10.139942
10.040998
9.778738
10.160804
10.553598
12.496710
12.393594
11.228919
13.738871
12.871623
14.512539
13.773441
13.839602
12.800694
13.146996
13.582706
12.551546
12.063980
10.943413
9.907484
9.304881
10.291934
9.616613
7.888675
7.946491
9.326935
7.458925
7.949471
7.189512
7.679462
7.366538
7.256866
##ZVALUE=235
13.326406
16.356707
31.700730
73.428750
108.673573
175.132751
223.866701
286.206007
305.800438
313.493013
273.834467
223.454833
154.802799
112.179518
85.040927
70.312619
74.957609
76.827407
82.355738
85.537434
79.482794
66.223741
51.927567
33.831596
26.344657
14.651418
12.710690
10.264516
9.983778
11.073947
13.537407
13.767481
14.335513
16.733408
15.572906
18.445849
18.536448
19.996762
18.199682
17.282963
17.945766
17.427802
16.739964
17.251968
17.806888
15.797615
15.606880
14.751554
15.265942
13.923645
13.552904
12.529492
12.521744
12.776852
13.708472
11.574626
10.874867
13.304949
11.642575
11.874437
10.591745
10.838509
12.108684
11.305809
11.474490
12.165904
12.729764
12.560487
11.947751
13.923645
13.143420
14.598966
13.432503
16.115904
16.681552
16.098619
15.780926
16.024709
15.368462
14.316440
13.098717
12.832880
12.402534
13.199449
11.797547
12.340546
10.720491
10.626912
10.904670
10.957718
9.174943
10.222793
9.783506
9.218454
11.926889
9.312630
##ZVALUE=240
2.252460
2.439618
6.641746
15.858412
44.946671
81.655979
166.471601
238.150954
358.645916
423.191786
477.374792
467.173457
435.732007
340.434909
265.622735
174.199939
132.498741
99.448562
93.918443
99.988580
109.198689
116.937757
112.380981
99.788904
81.298947
67.936778
47.252774
35.480857
23.010969
15.876889
13.116598
12.437701
11.680722
12.708902
14.372468
15.128851
15.513897
17.210841
17.251968
15.893579
16.475916
16.692877
15.933514
16.952753
16.326904
16.548634
15.166998
15.639663
15.526414
15.869737
14.166832
12.610555
13.830662
13.960600
12.287498
12.808442
13.429523
12.272596
13.190508
12.652874
12.156963
11.890531
11.900663
13.144612
12.292862
11.660457
13.080835
13.040900
12.603998
14.792681
14.116764
15.594959
14.835596
15.769601
16.697645
16.816854
17.591715
17.306805
16.098619
16.728640
16.004443
14.338493
16.087890
13.576746
13.407469
13.458729
12.576580
12.449622
12.252927
12.836456
12.637973
12.303591
12.931824
11.688471
11.542439
11.051893
##ZVALUE=245
1.345873
1.602769
1.604557
2.197623
4.499555
10.810494
36.194921
73.962808
165.266991
252.078772
394.272804
474.732518
544.382930
579.784513
555.662513
451.966524
365.535617
246.979594
176.282525
117.676854
95.732808
95.500946
110.250711
123.019814
130.006671
125.992894
115.547776
94.820857
68.452954
55.661798
38.015842
27.554631
19.245744
15.925765
14.724731
15.284419
14.802814
16.531944
17.005801
17.425418
18.281937
17.118454
17.737746
18.314719
17.849803
16.236901
16.313791
15.945435
15.675426
14.420748
15.261769
14.523864
13.766885
14.602542
13.453960
11.597872
11.338592
11.704564
12.122989
11.187792
10.715723
10.825992
10.805726
10.452867
10.607839
11.150837
11.157990
11.247993
10.885000
12.062788
12.218952
13.730526
14.629960
14.077425
15.062690
14.342666
14.639497
14.801621
15.314817
15.246868
13.623834
14.168620
13.876557
13.282895
13.583899
13.651848
11.991858
12.209415
12.226701
12.773871
11.054873
11.764765
11.371970
11.823773
10.847449
11.965632
##ZVALUE=250
1.592636
1.562834
1.591444
1.501441
1.535416
1.769662
2.815723
7.959604
29.304624
61.386824
146.205425
236.701965
346.154571
498.965979
594.266653
662.796497
662.971735
576.631427
491.234660
333.910584
229.764581
154.577494
99.691749
91.383457
106.551647
119.063854
133.841634
142.414570
136.945844
126.943588
111.665726
85.655451
67.147613
46.339631
34.695864
26.597977
24.356842
21.985769
22.064447
21.722913
22.391677
21.612644
21.041632
20.454526
20.976663
20.886660
19.546747
18.366575
17.650723
17.855763
17.948747
16.315579
16.075969
13.990998
13.408661
13.414621
12.217760
12.067556
11.358857
10.820627
11.782646
10.159612
10.769963
10.896921
10.009408
10.794997
9.930730
10.333657
10.553598
10.624528
11.780858
12.570620
12.842417
13.099909
13.836622
13.806820
13.491511
12.901425
12.490749
12.734532
12.581944
11.774898
11.720657
12.342930
11.199713
11.341572
11.153817
11.403561
11.279583
11.529922
10.166764
10.963678
11.491776
11.055470
10.866523
10.342598
##ZVALUE=255
1.264811
1.561642
1.209974
1.200438
1.167655
1.561642
1.382828
1.614690
1.939535
4.359484
19.980669
47.494769
93.974471
204.093456
313.647985
491.494536
606.229901
708.733797
742.501020
702.015758
604.065657
479.681492
303.571820
195.489526
115.257502
91.149807
90.830922
107.115507
132.907629
149.326921
154.863000
156.342983
146.827698
119.544864
102.473497
75.427890
56.586862
43.617487
35.137534
29.198527
28.139949
27.539730
27.184486
26.623607
24.100542
24.193525
22.392869
21.539927
19.784570
19.078851
18.219948
16.661882
16.829967
15.635490
13.861656
12.980700
13.688803
12.876987
12.364984
11.067986
10.525584
11.365414
9.888411
10.642409
8.913875
8.732677
9.560585
10.021925
9.008646
10.578632
10.245442
10.696650
10.720491
10.949969
11.827946
11.801720
11.674762
11.770725
10.824800
11.064410
11.938810
10.482669
9.993911
9.651780
10.412931
10.082722
9.853840
9.810925
9.820461
10.125637
10.414720
10.569692
10.315776
9.701848
10.344982
10.560751
##ZVALUE=260
1.165867
1.270771
1.099706
1.189709
1.310706
1.402497
1.168847
1.433492
1.316667
1.580715
1.687407
2.267957
7.727742
31.391978
66.040754
160.166621
261.150599
433.462858
573.031902
747.134686
826.771855
829.077959
738.430619
602.588654
403.558016
281.114578
161.459446
111.677647
87.680817
97.234845
117.512941
147.803426
167.489648
178.663731
179.479718
160.431862
138.636827
112.238526
90.388656
66.236854
52.185655
42.316914
35.853982
30.723810
28.885603
27.731657
27.739406
24.562478
23.103952
22.345781
20.475984
19.376874
17.509460
17.503500
15.527606
14.574528
12.992620
12.599826
12.353659
12.726784
11.317730
10.396838
10.460615
9.746552
9.420514
8.835793
9.180903
9.117723
8.747578
8.738637
9.983778
10.230541
9.923577
10.324717
10.609627
10.651946
10.764599
10.585785
10.944605
10.546446
10.013580
10.095835
9.631515
9.626746
9.587407
9.260774
9.347796
9.573698
9.564757
9.455681
8.977652
8.964539
9.450912
9.066463
9.376407
9.905696
##ZVALUE=265
1.081824
1.125932
1.017451
1.047850
0.991821
1.124740
1.198649
1.276731
1.334548
1.515746
1.197457
1.444817
1.534820
1.967549
3.970861
19.919872
50.053000
122.155547
210.827589
399.170518
560.348630
723.755956
874.191523
917.330980
842.343569
725.007653
550.660491
397.132635
231.377482
149.847865
105.929971
95.904469
111.091733
143.545866
166.186690
188.374519
192.587972
185.467601
167.454481
143.444538
117.421746
86.396933
67.354441
51.076412
40.768981
33.114552
29.935837
27.137995
25.666952
24.173856
22.236705
20.599961
19.566417
17.759800
16.978979
15.173554
14.606714
12.715459
12.428761
12.023449
11.701584
10.472536
10.024905
9.653568
9.429455
8.928776
9.167790
9.112954
9.285808
9.194613
9.191632
9.303689
9.407997
10.474920
9.637475
9.647608
10.133982
10.032654
9.300709
9.184480
9.647608
8.796453
8.839965
9.241700
8.388758
8.935928
8.069873
8.462667
8.152723
8.328557
8.407831
7.943511
9.417534
8.515716
8.413792
7.927418
##ZVALUE=270
1.043677
1.148582
1.049638
1.123548
0.951886
1.152754
1.213551
1.081824
1.083612
1.274943
1.311898
1.435876
1.158714
1.495481
1.459718
1.657605
2.196431
9.109974
28.156638
88.227987
172.432661
296.792984
515.666008
694.400668
892.801881
967.615843
973.673463
890.584588
710.895658
540.970564
383.321643
217.642784
140.411854
94.875693
97.620487
120.955706
140.183568
170.485973
182.896852
190.053582
186.383724
163.211823
141.507983
110.648870
84.675550
59.832931
45.945644
34.408569
28.714538
24.126768
21.743774
19.565821
18.878579
17.409921
16.216636
14.495850
14.537573
12.785792
12.092590
12.004972
11.352897
10.517836
9.831786
9.740591
9.140968
8.834600
8.822680
8.684993
8.295774
9.257793
8.637905
9.303689
9.691715
9.309649
9.760857
9.377599
9.348989
9.571910
8.754730
8.906722
8.767843
8.400679
8.291602
8.713603
8.008480
7.907748
7.801652
7.481575
7.969737
8.053780
8.019805
7.505417
8.130670
8.186698
7.840991
8.130670
##ZVALUE=275
0.888705
0.869632
0.762939
1.062751
0.849962
1.025796
0.921488
0.972748
1.033545
1.150966
1.261830
1.210570
1.330972
1.421571
1.421571
1.339912
1.456738
1.691580
1.885891
4.589558
15.855432
46.854615
134.210587
248.767734
457.625985
621.050596
819.308758
944.348574
1015.897989
989.343524
893.554688
687.317848
499.190688
279.386640
175.969601
97.928643
75.710416
85.278749
103.138685
132.196546
149.926543
169.653893
175.751448
167.635679
152.832866
122.217536
101.369619
72.105527
54.173470
35.154819
26.489496
19.116998
16.646981
14.796853
13.448596
12.598634
12.235641
11.165738
11.362433
10.660887
10.067821
9.887815
9.538531
8.933544
8.759499
8.264780
8.424520
7.741451
8.213520
8.313656
8.657575
8.526444
8.923411
8.782744
8.783937
8.775592
8.462667
8.770823
8.192658
8.367896
8.219481
7.946491
8.128881
7.630587
7.747412
7.175803
7.739663
7.725954
7.289648
7.364750
7.342696
7.628798
7.689595
7.296801
7.544756
7.472634
##ZVALUE=280
0.641942
0.741482
0.794530
0.915527
0.936985
0.841618
1.025796
0.979900
1.041889
0.904799
0.896454
1.209974
0.985861
1.185536
1.325607
1.153946
0.995994
1.147985
1.501441
1.592636
1.697540
2.006888
11.081696
34.519434
106.185675
195.525885
362.024903
526.466966
749.842525
892.113447
1002.991796
1002.196670
927.711725
742.256641
571.422577
341.127515
212.603807
102.783442
60.803890
52.100420
63.674450
89.975595
112.470984
138.297677
152.192712
158.623457
152.235627
135.835409
114.828944
85.589886
65.240860
42.542815
29.681921
18.974543
13.496876
9.934902
9.160638
8.369684
8.457899
8.174777
8.417964
8.301735
8.016825
7.597804
7.673502
7.863641
7.786751
7.052422
7.209778
7.384419
7.629991
7.700920
7.998943
8.079410
8.233786
7.697940
7.624626
8.021593
7.565618
7.629991
7.072687
7.487535
7.255673
7.071495
7.018447
7.285476
7.243752
7.522702
7.083416
7.487535
7.087588
7.229447
7.304549
6.696582
7.487535
7.156730
##ZVALUE=285
0.880957
0.760555
0.888705
0.760555
0.832677
0.835657
0.866652
0.588894
0.809431
0.863671
1.046658
0.846982
0.860691
1.048446
1.119971
1.319647
1.023412
1.083612
1.275539
1.212955
1.238585
1.290441
1.524687
1.786947
5.107522
17.878413
59.390664
125.577450
271.806717
414.330959
562.977791
791.972876
926.577449
999.644995
952.204466
797.171593
638.460517
414.711833
267.302990
133.231878
72.577000
36.957860
36.136508
55.235624
74.698925
104.647875
122.940540
142.220855
148.763657
142.409801
131.733418
108.538866
87.335706
60.464740
42.200685
24.852753
16.680956
10.565519
8.433461
7.158518
6.928444
6.712675
7.144809
6.789565
7.060766
6.964803
6.769896
6.766915
7.161498
7.273555
7.562637
7.676482
7.175803
7.521510
7.955432
7.886887
7.740855
7.568598
7.814765
7.543564
7.331967
7.057786
7.162690
6.999969
7.070899
7.371902
6.806850
7.047653
7.057786
7.196665
6.966591
6.832480
6.790757
6.744862
6.920695
6.823540
##ZVALUE=290
0.686646
0.475645
0.660419
0.651479
0.735521
0.775456
0.969768
0.826716
0.752807
0.917912
0.866652
0.846982
0.933409
0.869632
0.670552
0.894666
1.108646
1.083612
0.935793
0.908971
1.214743
1.160502
1.430511
1.251698
1.486540
1.546741
2.170801
9.321570
27.686954
86.348653
166.405439
338.698626
501.033664
733.869672
879.557729
992.442966
992.705822
868.071914
721.094012
500.215888
344.347954
180.985928
100.537539
42.118430
26.851892
35.438538
48.391819
71.893930
92.112422
117.118955
132.325888
142.364502
138.168931
125.452876
109.407902
80.624819
60.504675
37.816763
25.749803
15.863776
10.848641
7.964969
6.843805
6.313920
6.349683
6.239414
6.303787
6.569624
6.526709
6.896853
7.010698
7.319450
7.479787
7.790923
7.440448
7.087588
7.441640
7.292628
7.316470
7.192492
6.895661
7.304549
7.119775
6.894469
7.127523
7.269979
6.753802
6.725788
7.032752
6.807446
6.691813
6.727576
6.464720
6.933808
6.354451
6.856918
##ZVALUE=295
0.530481
0.578761
0.674725
0.747442
0.790954
0.706911
0.778437
0.613928
0.648499
0.762939
0.787973
0.734925
0.849962
0.791550
0.740886
0.964999
0.881553
0.923872
0.890493
0.890493
0.865459
0.994802
1.103878
1.171827
1.322627
1.292825
1.547933
1.575947
1.658797
3.450513
11.896491
49.536824
110.538602
254.933834
410.448909
642.048717
812.713504
960.623026
1001.122594
926.786661
800.447464
575.456619
401.419997
216.637850
120.228529
46.281815
24.885535
21.199584
28.381944
46.190619
63.044429
88.378787
107.665658
126.648545
133.947730
131.868720
119.303465
100.186467
80.348849
55.014491
40.053725
23.361444
16.244650
10.019541
7.738471
6.233454
6.267428
6.389618
5.955696
6.243587
6.494522
7.105470
7.133484
7.268786
7.052422
6.912947
7.232428
7.084608
6.916523
6.901622
7.062554
6.954670
6.968975
6.792545
6.875992
6.580949
6.861687
6.904602
6.824732
6.760955
6.835461
6.891489
6.839633
6.487966
6.733537
6.531477
##ZVALUE=300
0.527501
0.659823
0.514984
0.530481
0.573993
0.787973
0.660419
0.722408
0.752807
0.648499
0.839829
0.804663
0.547767
0.727773
0.615716
0.686646
0.775456
0.723600
0.833869
0.734925
0.879765
1.018643
0.857711
0.925660
0.972748
1.013875
1.172423
1.079440
1.289845
1.411438
1.624823
1.828671
7.496476
25.877953
84.410906
164.330602
332.735777
506.329536
736.957788
881.236792
986.138582
977.241993
858.920813
707.594752
471.300483
307.679772
156.163573
82.874894
31.276941
17.727613
18.015504
24.792552
41.332841
56.418777
81.383586
99.707842
121.048689
128.242970
125.346780
117.902756
98.233819
79.187751
56.217909
40.402412
24.025440
16.255975
10.275841
8.001924
6.750822
6.136894
6.344914
6.272793
6.526709
6.846786
6.860495
6.726980
6.734729
6.801486
6.637573
6.652474
6.614923
6.587505
6.624460
6.837845
6.661415
6.550550
6.703734
6.900430
6.606579
6.400943
6.291866
6.171465
6.360412
6.291866
6.561875
6.537437
##ZVALUE=305
0.487566
0.560880
0.632405
0.636578
0.408888
0.595450
0.455976
0.462532
0.578761
0.645518
0.820756
0.753999
0.654459
0.766516
0.801682
0.650883
0.864863
0.885725
0.802875
0.785589
0.836849
0.936985
0.894666
1.095533
0.942945
1.006722
0.871420
0.946522
1.141429
1.169443
1.240969
1.318455
1.583695
1.646876
2.854466
17.354488
48.124790
135.372877
239.148736
439.983606
614.917874
832.981467
950.769782
1001.280546
935.133696
742.712021
583.877563
373.313427
232.870579
106.180906
51.833987
19.890666
13.149977
16.256571
23.149848
39.891601
54.497719
78.468919
96.321702
113.641620
119.225979
120.222569
112.096667
93.147755
76.064467
51.780939
37.727952
23.743510
15.945435
9.679794
8.001924
6.816983
6.568432
6.360412
6.773472
6.421804
6.419420
6.418824
6.300807
6.419420
6.227493
6.521940
6.591678
6.667972
6.794930
6.773472
6.814599
6.624460
6.404519
6.452799
6.537437
6.370544
6.311536
6.292462
6.363988
6.271601
##ZVALUE=310
0.590682
0.694990
0.592470
0.784993
0.585914
0.487566
0.442863
0.634789
0.719428
0.599623
0.781417
0.765920
0.745654
0.697970
0.699759
0.782609
0.743866
0.745654
0.880957
0.684857
0.804663
0.823736
0.793934
0.847578
0.739694
0.904799
0.999570
1.066923
1.066923
1.060963
1.232624
1.213551
1.186728
1.226664
1.508594
1.587868
1.810789
7.285476
23.939610
81.051588
160.099864
329.850912
497.313738
731.048584
881.327987
986.667871
974.020958
805.537701
643.882751
476.304889
203.984976
169.219971
35.869479
28.698444
14.564991
10.782480
14.089942
22.537708
33.100843
50.115585
66.444874
98.508000
104.499459
113.986731
115.167499
107.943416
90.962648
56.894422
52.013993
29.744506
23.428798
12.917519
9.138584
7.863641
6.633997
6.488562
6.167889
5.951524
6.089807
6.045699
6.158948
6.272793
6.332994
6.213784
6.541610
6.297827
6.506443
6.711483
6.108880
6.794930
6.326437
6.361604
6.301999
6.359816
6.060600
6.193519
##ZVALUE=315
0.522733
0.593662
0.672936
0.504851
0.518560
0.631809
0.691414
0.661612
0.487566
0.687838
0.532866
0.504851
0.464916
0.649691
0.633597
0.577569
0.697970
0.590682
0.759959
0.500679
0.638962
0.824928
0.838637
0.740886
0.739694
0.711679
0.774860
0.674725
0.786781
0.910759
0.981688
1.019835
1.056790
1.162887
1.010895
1.206994
1.202822
1.504421
1.633763
3.424883
11.916757
50.034523
110.962987
249.935985
408.734679
652.138591
808.641911
949.563980
992.875695
919.009447
793.868899
576.859713
405.730605
217.336416
118.922591
43.408871
18.818974
9.260774
9.754896
13.297796
18.929839
32.182932
44.276714
64.018965
79.739690
99.063516
107.389688
108.812451
102.248788
85.803866
71.816444
51.605701
37.072897
22.814870
15.611649
10.271668
8.100867
6.715655
6.318688
5.994439
6.046891
5.903840
6.044507
6.088614
6.098747
6.146431
6.207824
6.330609
5.803704
6.315708
6.027818
6.093979
6.107688
6.143451
5.897880
6.132722
##ZVALUE=320
0.580549
0.518560
0.449419
0.311732
0.381470
0.422597
0.654459
0.629425
0.564456
0.550747
0.397563
0.484586
0.517964
0.501871
0.708699
0.633597
0.565648
0.594854
0.570416
0.536442
0.570416
0.636578
0.675917
0.606775
0.679493
0.622869
0.628829
0.868440
0.876784
0.731945
0.829697
0.825524
0.909567
0.874996
0.843406
0.908971
1.210570
1.099706
1.290441
1.581907
1.479983
1.816750
6.781816
23.375750
81.431866
161.679983
327.009559
487.294793
711.342692
865.061879
977.283716
966.839790
846.342444
695.495009
470.573902
309.096575
143.979788
76.020956
28.998852
13.208985
7.929802
7.988811
11.644959
16.341805
27.211905
39.049983
58.604479
74.225664
92.605948
101.136565
101.563931
96.905828
82.676411
68.473816
49.242973
36.433935
22.759438
15.647411
10.298491
7.741451
6.295443
6.338954
5.936623
5.926490
6.107688
5.662441
5.864501
5.923510
5.973577
5.884767
5.925894
5.800724
5.971789
6.055832
6.054640
5.711913
##ZVALUE=325
0.407696
0.467896
0.414848
0.622869
0.520945
0.383854
0.611544
0.582933
0.460744
0.452995
0.461936
0.400543
0.481606
0.582933
0.488758
0.505447
0.650883
0.607967
0.675917
0.569820
0.676513
0.593662
0.694990
0.681877
0.611544
0.506639
0.649691
0.752807
0.747442
0.703931
0.798702
0.748634
0.831485
0.710487
0.853539
1.014471
0.998974
0.993609
0.950694
1.124740
1.057982
1.250505
1.420975
1.550913
2.881885
18.135905
48.116446
126.548409
227.085948
428.313613
597.874522
805.089474
921.309590
963.317752
899.890661
715.707541
543.339849
335.121751
206.045508
91.301799
43.724775
15.158653
8.263588
7.098913
7.994771
11.301637
15.893579
26.236773
38.402677
57.364702
70.963502
86.797476
94.501972
95.396638
89.213848
75.377822
62.340498
45.109987
33.434629
20.582676
14.168620
9.637475
7.661581
6.513000
6.096959
5.975962
5.697608
5.752444
5.840659
5.571842
5.332828
5.669594
5.742908
5.972981
5.632639
5.881786
##ZVALUE=330
0.465512
0.429749
0.375509
0.462532
0.677705
0.515580
0.398755
0.497699
0.537634
0.559688
0.514984
0.561476
0.574589
0.490546
0.636578
0.609756
0.710487
0.545979
0.537634
0.472665
0.641942
0.425577
0.597835
0.543594
0.698566
0.620484
0.613928
0.571609
0.709891
0.663996
0.691414
0.764728
0.648499
0.819564
0.634789
0.677705
0.963807
0.836849
0.797510
0.826716
0.962615
1.058578
1.080632
1.191497
1.281500
1.356602
1.984835
6.264448
30.961633
74.799657
182.307959
304.461718
517.465472
680.279732
859.892964
940.150619
908.555984
805.808902
614.648461
448.626876
250.759721
143.257976
58.800578
26.236773
9.676814
6.647706
6.817579
7.680655
10.703802
15.335679
26.304722
36.749840
52.269697
65.477490
81.145763
88.451505
88.960528
84.189773
70.405602
57.803988
41.512847
31.358600
20.770431
14.836788
9.670854
7.965565
6.552935
5.978942
5.696416
5.748868
5.573630
5.623698
5.580783
5.549788
5.477667
5.411506
##ZVALUE=335
0.507832
0.365973
0.343919
0.599623
0.432730
0.480413
0.520945
0.463724
0.249743
0.531673
0.438690
0.502467
0.463724
0.537634
0.477433
0.485778
0.506639
0.408888
0.458956
0.671744
0.540614
0.755787
0.733733
0.589490
0.569820
0.627637
0.591874
0.496507
0.794530
0.524521
0.520945
0.589490
0.539422
0.758767
0.666976
0.662804
0.713468
0.622869
0.823736
0.785589
0.931621
0.870824
0.980496
0.948906
0.992417
1.176000
1.406670
1.253486
1.523495
2.982616
16.087890
44.755936
124.156475
224.388838
413.336754
582.171679
797.029734
895.431638
920.545459
856.389999
679.780841
518.719554
313.079953
188.552737
80.158710
37.763715
13.118982
7.442832
6.279945
6.535649
7.708669
9.848475
15.754700
22.537708
35.559535
47.309995
63.692927
75.246692
82.884431
83.768964
77.205896
68.644881
55.280924
43.221712
30.088425
21.635890
14.611483
10.963678
7.630587
6.477833
5.820990
5.740523
5.675554
5.599856
5.691648
5.466938
##ZVALUE=340
0.390410
0.499487
0.527501
0.249743
0.433922
0.407696
0.523925
0.381470
0.491738
0.522733
0.342727
0.445843
0.500679
0.590682
0.329614
0.521541
0.458956
0.528693
0.536442
0.533462
0.488758
0.432730
0.615716
0.504851
0.540614
0.517964
0.620484
0.582933
0.420809
0.655651
0.632405
0.569820
0.676513
0.519753
0.685453
0.776649
0.735521
0.694990
0.655651
0.703931
0.856519
0.831485
0.827909
0.952482
1.094937
1.009703
0.974536
1.232624
1.057982
1.106858
1.420975
2.070665
6.408691
30.753613
76.970458
190.379620
318.999887
521.249771
677.704811
842.268467
898.050666
851.801634
744.042993
554.165840
396.191478
213.075876
115.546584
44.021606
18.770695
7.822514
6.468892
6.111860
6.284714
7.148981
9.301901
14.756918
21.463633
33.496618
44.464469
60.688853
69.914460
77.729821
78.058839
73.217750
65.134764
52.912831
41.591525
29.255748
21.421909
14.259815
10.202527
7.594824
6.207824
5.865693
5.476475
5.355477
##ZVALUE=345
0.494719
0.486970
0.501871
0.406504
0.347495
0.409484
0.586510
0.497699
0.471473
0.607967
0.560880
0.525713
0.515580
0.560880
0.335574
0.402927
0.596642
0.482798
0.516772
0.359416
0.491738
0.584722
0.469685
0.710487
0.441670
0.619888
0.325441
0.604987
0.405908
0.550747
0.617504
0.657439
0.544786
0.604987
0.618696
0.559688
0.681877
0.656843
0.656843
0.802875
0.666976
0.674725
0.667572
0.791550
0.742674
0.831485
0.852942
0.932813
0.973940
1.086593
1.005530
1.153946
1.344681
1.321435
2.839565
16.925931
48.832893
132.901669
232.041478
414.424539
572.310686
760.514736
849.281549
863.883495
792.851448
612.241626
459.211469
274.548531
157.747865
62.584877
28.733611
10.301471
6.736517
6.134510
5.848408
5.936623
6.433725
8.916855
12.380481
21.218657
29.801726
43.849945
53.971410
64.420700
71.086884
72.883964
69.545507
60.723424
52.803755
40.710568
30.564666
20.860434
14.918447
9.775758
7.558465
6.101727
##ZVALUE=350
0.520945
0.410676
0.352859
0.403523
0.493526
0.403523
0.443459
0.537634
0.551939
0.468493
0.435710
0.353456
0.454783
0.359416
0.559688
0.374913
0.362992
0.459552
0.461936
0.520945
0.632405
0.630617
0.562668
0.498891
0.456572
0.353456
0.646710
0.406504
0.582933
0.670552
0.593662
0.678897
0.642538
0.531673
0.418425
0.716448
0.622869
0.574589
0.686646
0.556707
0.681877
0.651479
0.622869
0.813603
0.810623
0.868440
0.789762
0.727773
0.849962
0.790954
0.728965
0.939965
1.027584
1.025796
1.268983
1.300573
1.667738
8.534789
26.872754
85.932612
164.539814
327.643752
475.377440
664.512515
781.134963
851.361752
812.263489
675.782561
521.875620
315.586925
194.187760
89.479685
42.343736
13.009906
7.347465
6.062984
5.612969
5.129576
5.450845
6.163716
7.775426
12.549758
18.246770
27.488470
36.238432
48.296452
57.092905
64.522624
65.953732
63.653588
58.752894
47.501922
38.978457
28.309822
21.217465
13.978481
##ZVALUE=355
0.445843
0.441670
0.266433
0.410676
0.354648
0.433922
0.471473
0.471473
0.528693
0.434518
0.475645
0.391603
0.499487
0.373721
0.534654
0.559688
0.473857
0.420809
0.472665
0.508428
0.553727
0.531673
0.530481
0.433922
0.512600
0.512600
0.420809
0.632405
0.542998
0.544786
0.486970
0.517964
0.593662
0.516772
0.625849
0.560880
0.628829
0.623465
0.547767
0.621676
0.595450
0.574589
0.690818
0.743866
0.692606
0.634789
0.717640
0.820756
0.749826
0.807643
0.774860
0.903606
0.848770
0.952482
0.912547
1.021624
1.283884
1.262426
1.453757
3.102422
16.616583
45.656562
125.544667
224.340558
407.745838
563.261509
730.279684
810.212493
806.888938
716.346502
533.898473
391.349792
225.139856
124.489665
48.659444
21.357536
7.698536
5.935431
5.457997
5.083680
5.081892
4.942417
6.032586
7.147789
10.480881
14.962554
23.407936
31.012893
42.216778
50.264001
57.624578
60.028434
58.462620
54.167509
44.637918
37.652850
##ZVALUE=360
0.415444
0.381470
0.398755
0.509620
0.442863
0.499487
0.353456
0.364780
0.531673
0.350475
0.375509
0.450611
0.315905
0.318885
0.510812
0.355840
0.445843
0.389814
0.387430
0.371933
0.521541
0.473857
0.353456
0.511408
0.431538
0.524521
0.492930
0.576973
0.552535
0.653863
0.609756
0.568628
0.658631
0.742674
0.586510
0.530481
0.384450
0.504851
0.631809
0.650883
0.688434
0.614524
0.711679
0.505447
0.592470
0.762939
0.680685
0.590682
0.728965
0.882745
0.744462
0.750422
0.817776
0.799894
0.847578
0.899434
0.946522
0.963807
1.144409
1.189709
1.446605
2.014637
6.047487
28.788447
70.480704
176.381469
293.058753
474.615693
624.946952
766.947865
805.068016
750.294924
637.536645
444.012880
297.485590
147.067904
77.580810
29.111505
11.728406
5.837679
5.267859
4.756451
4.838705
4.675984
4.924536
4.969835
6.245971
8.704662
12.023449
18.320680
25.147796
35.793781
42.323470
49.414635
53.388476
53.657889
##ZVALUE=365
0.360608
0.347495
0.402927
0.281930
0.443459
0.496507
0.521541
0.402927
0.543594
0.349879
0.382662
0.464916
0.503659
0.559688
0.276566
0.384450
0.409484
0.455976
0.392795
0.535846
0.437498
0.418425
0.397563
0.609756
0.498891
0.442863
0.469685
0.552535
0.622869
0.550747
0.524521
0.565648
0.547767
0.465512
0.490546
0.644922
0.492930
0.777841
0.688434
0.721812
0.654459
0.730753
0.646710
0.809431
0.791550
0.622869
0.460744
0.501871
0.692606
0.482798
0.763535
0.884533
0.859499
0.777841
0.848770
0.883937
0.808835
0.890493
0.846982
1.167655
1.108646
1.171827
1.333952
1.463890
2.906919
14.809966
42.661428
120.254755
215.987563
385.994911
533.104539
694.949627
768.698454
761.596560
673.604608
498.669744
357.363820
198.087692
109.480619
40.990710
17.409921
6.403923
5.056858
4.977584
4.759431
4.405975
4.226565
4.501939
4.314780
5.398989
6.709695
10.862947
14.850497
22.226572
28.576851
37.792921
##ZVALUE=370
0.519753
0.444651
0.551939
0.469685
0.521541
0.369549
0.765920
0.413656
0.407696
0.401735
0.464916
0.408888
0.531673
0.321865
0.471473
0.414848
0.391603
0.494719
0.424981
0.406504
0.447631
0.619888
0.466704
0.475645
0.338554
0.469685
0.444651
0.567436
0.570416
0.420809
0.489950
0.542998
0.483990
0.543594
0.539422
0.550747
0.518560
0.672936
0.613928
0.614524
0.488758
0.515580
0.573993
0.683665
0.675917
0.646710
0.612736
0.512600
0.399947
0.669956
0.615716
0.621676
0.687838
0.723600
0.797510
0.686646
0.690818
0.806451
0.730753
0.953674
0.935793
0.997782
1.000762
1.055598
1.106858
1.327991
1.843572
7.911921
26.898980
87.583661
163.943768
312.429667
455.340743
643.123984
737.728477
767.827034
708.037019
562.954545
417.763591
237.852931
134.595633
54.116845
25.361776
9.234548
5.359650
4.588962
4.548430
4.148483
3.962517
3.885627
3.897548
4.105568
4.642606
6.286502
8.448958
13.141632
##ZVALUE=375
0.412464
0.365973
0.413656
0.301600
0.428557
0.456572
0.341535
0.485778
0.424981
0.485778
0.433922
0.317693
0.477433
0.380874
0.435710
0.365973
0.523925
0.495911
0.313520
0.467896
0.500679
0.451803
0.482798
0.482798
0.357628
0.488758
0.430942
0.527501
0.420809
0.556707
0.473857
0.609756
0.455976
0.677705
0.516772
0.619888
0.662804
0.307560
0.412464
0.438690
0.515580
0.581741
0.497699
0.722408
0.490546
0.579953
0.495911
0.701547
0.507832
0.736713
0.481606
0.713468
0.607967
0.718832
0.600815
0.609756
0.590682
0.643730
0.590682
0.719428
0.739694
0.658631
0.876784
0.826716
0.790954
1.061559
1.210570
1.346469
1.421571
4.006624
14.108419
51.739812
112.863779
248.922706
385.592580
577.424765
688.232780
762.348771
745.658875
624.082685
492.239594
307.518840
193.383694
90.023875
44.449568
14.820695
6.730556
4.497766
3.995895
3.895760
3.684759
3.603697
3.468990
3.542900
3.599524
4.121661
##ZVALUE=380
0.397563
0.399947
0.462532
0.396967
0.344515
0.309944
0.417829
0.412464
0.427961
0.349879
0.343919
0.397563
0.474453
0.386834
0.348687
0.478625
0.618696
0.486970
0.407696
0.394583
0.364780
0.370741
0.313520
0.462532
0.553727
0.456572
0.362992
0.326633
0.546575
0.477433
0.546575
0.556707
0.568628
0.351667
0.470877
0.404716
0.492930
0.467896
0.504851
0.461936
0.495911
0.541806
0.559688
0.493526
0.466704
0.617504
0.462532
0.489950
0.500679
0.599623
0.616908
0.617504
0.503659
0.465512
0.565648
0.697970
0.611544
0.684857
0.790954
0.737906
0.676513
0.599623
0.850558
0.690818
0.775456
0.803471
0.905991
0.988841
1.045465
1.162887
1.320839
2.171993
9.819865
30.261874
92.115402
172.214508
331.040621
476.236939
656.755567
743.712783
754.595995
684.901476
541.235805
408.069491
243.079662
144.144893
60.220957
27.431846
8.540750
4.778504
4.075766
3.858805
3.401637
3.568530
3.275871
3.327727
##ZVALUE=385
0.331998
0.365973
0.388622
0.418425
0.346899
0.295639
0.345707
0.408888
0.374913
0.432730
0.469685
0.518560
0.380874
0.362992
0.245571
0.416636
0.272989
0.350475
0.357628
0.366569
0.402927
0.460744
0.355840
0.407696
0.405908
0.465512
0.470877
0.386834
0.343919
0.478625
0.455976
0.425577
0.535846
0.543594
0.537634
0.490546
0.632405
0.546575
0.601411
0.517964
0.529885
0.518560
0.625849
0.618696
0.578761
0.517964
0.577569
0.411868
0.398755
0.414848
0.484586
0.586510
0.617504
0.680685
0.657439
0.485778
0.566840
0.705719
0.563860
0.671744
0.552535
0.639558
0.502467
0.617504
0.705719
0.785589
0.763535
0.744462
0.885725
1.048446
0.930429
1.081824
1.303554
1.415610
3.681779
20.193458
53.107738
135.872960
238.742828
421.469808
564.857721
712.385774
759.895444
725.204945
640.592575
471.155643
335.282683
184.398890
104.930997
43.740869
18.011928
5.759597
4.126430
3.444552
3.658533
3.331900
##ZVALUE=390
0.290871
0.276566
0.446439
0.142455
0.361800
0.408888
0.422597
0.416636
0.433922
0.368953
0.403523
0.460744
0.393987
0.416636
0.350475
0.534654
0.350475
0.292659
0.331998
0.373721
0.302792
0.288486
0.487566
0.444651
0.368953
0.381470
0.390410
0.478625
0.434518
0.469685
0.739694
0.717640
0.810623
0.756979
0.683665
0.639558
0.750422
0.663996
0.650883
0.705719
0.519753
0.746846
0.581741
0.474453
0.538826
0.790954
0.530481
0.460744
0.552535
0.513792
0.463724
0.718832
0.469685
0.411868
0.705719
0.486970
0.628829
0.685453
0.678897
0.618696
0.590682
0.602603
0.597835
0.598431
0.571609
0.693798
0.851750
0.706911
0.836849
0.752807
0.833869
0.994802
1.018643
1.016855
1.165867
1.347661
2.079606
10.507703
33.155680
103.231668
193.868876
361.782908
494.160652
639.827847
722.935796
748.429894
691.883564
548.532605
419.863462
257.222652
150.642991
61.401725
28.002858
8.242726
4.296899
3.512502
##ZVALUE=395
0.446439
0.320673
0.400543
0.247955
0.380874
0.281930
0.371933
0.382662
0.209808
0.399947
0.330806
0.393987
0.410676
0.249743
0.283718
0.402927
0.341535
0.510812
0.264645
0.462532
0.374913
0.267625
0.363588
0.364780
0.402927
0.518560
0.463724
0.370741
0.583529
0.673532
0.643730
0.709891
0.986457
0.791550
0.831485
0.807643
0.691414
0.828505
0.802875
0.689626
0.564456
0.741482
0.647902
0.635982
0.645518
0.666976
0.701547
0.588894
0.708699
0.579953
0.587702
0.607967
0.589490
0.701547
0.716448
0.529885
0.504851
0.622869
0.637770
0.612736
0.623465
0.554919
0.592470
0.584722
0.486970
0.740886
0.595450
0.811815
0.902414
0.886917
0.924468
0.916719
0.911951
0.965595
0.910759
0.990629
1.133680
1.121759
1.479983
5.623698
20.798445
71.797967
141.626596
279.451609
410.264730
589.679480
697.706938
767.871737
748.353601
637.614727
501.280427
315.324664
196.614861
85.136890
40.691495
13.721585
##ZVALUE=400
0.380874
0.305772
0.360608
0.300407
0.309944
0.448823
0.277758
0.323653
0.253916
0.421405
0.286698
0.218749
0.310540
0.336766
0.206828
0.355840
0.203848
0.474453
0.298619
0.421405
0.425577
0.399947
0.307560
0.357628
0.306964
0.351667
0.443459
0.488758
0.673532
0.761747
0.752807
0.824928
0.850558
0.993609
0.837445
0.915527
0.883937
0.829697
0.932813
0.653863
0.947714
0.762939
0.684857
0.727773
0.751615
0.650883
0.622869
0.653863
0.667572
0.641942
0.591874
0.721812
0.515580
0.592470
0.502467
0.417829
0.659823
0.497699
0.583529
0.511408
0.641942
0.418425
0.556707
0.637770
0.572801
0.646710
0.648499
0.687838
0.678897
0.745654
0.923872
0.934601
0.895858
0.978708
0.906587
1.053810
1.018643
1.068711
0.916719
1.064539
1.240969
3.008842
11.323690
44.606924
94.801784
208.275914
329.684615
507.121682
628.474951
730.625987
746.971965
662.688613
549.919009
381.629467
252.841711
128.564835
##END
