##TITLE=FAAI0501
##FORMAT=SPECTACLE-ASCII V-1.2
##DATA TYPE=ULTRAVIOLET SPECTRUM
##SECOND TYPE=ULTRAVIOLET SPECTRUM
##DATE=12/26/17
##TIME=14:06:08
##SPECTROMETER/DATA SYSTEM=SPECTACLE
##XUNITS=NM EM
##YUNITS=ENERGY
##YFACTOR=1
##FIRSTX=220
##LASTX=410
##NPOINTS=96
##3DDATA=Equidistant
##ZUNITS=NM EX
##FIRSTZ=210
##LASTZ=400
##ZPOINTS=39
##XYDATA=(Y..Y)
##ZVALUE=210
4.274845
4.465580
3.859997
3.633499
3.399849
4.142523
4.533529
3.626943
3.215671
3.255606
2.930760
2.885461
3.136992
2.975464
2.735853
3.624558
3.343821
3.427863
3.461838
3.490448
4.393458
3.701448
3.568530
4.494786
4.992485
5.377531
5.546808
5.594492
6.538630
7.175803
7.543564
7.686615
8.157492
8.721948
8.183718
9.818673
8.956790
8.642673
9.328723
8.651614
9.061694
9.344816
8.207560
8.491874
7.225871
7.853508
8.933544
8.168817
8.947849
8.938909
8.460879
8.057952
8.494854
7.681847
7.094741
8.656979
7.993579
7.906556
8.620620
9.102821
8.111596
8.676648
7.595420
8.018613
7.923841
8.504987
8.281469
9.841919
12.207627
13.128519
14.967918
17.200708
19.394755
24.088621
26.157498
30.535460
29.289722
33.568740
34.015775
33.654571
34.138560
30.502677
26.354790
20.688772
17.403960
12.596846
10.537505
8.933544
7.794499
7.709861
6.940961
7.296801
7.961988
7.783771
7.996559
8.466840
##ZVALUE=215
13.211966
12.899637
11.511445
8.983612
8.171797
7.282495
7.402897
6.600618
6.830692
7.356405
6.662607
5.930662
4.626513
5.069971
3.474951
3.665686
3.751516
3.899932
3.225803
3.903508
4.255772
3.812909
5.042553
4.675984
4.904866
5.861521
6.485581
6.724596
7.744431
8.482933
9.250641
9.401441
10.268688
10.346770
10.400414
11.510849
11.070967
11.021495
11.714697
10.756850
10.478497
11.390448
10.266900
10.051727
10.030866
9.466410
11.114478
8.895993
9.803772
9.146929
8.655787
9.240508
7.960796
8.506775
8.235574
8.958578
8.006692
7.680655
7.807612
8.307695
8.090734
7.627606
7.939935
6.931424
8.036494
9.158850
8.104444
8.992553
10.603666
11.618733
13.291836
15.134811
18.573999
19.501448
21.625757
23.775697
24.105906
26.697516
27.593970
26.327968
24.080873
22.127628
18.573999
15.220642
12.902617
10.094643
9.691715
8.952618
7.633567
6.265640
7.076859
6.841421
6.590486
7.202625
7.062554
6.629825
##ZVALUE=220
34.416914
37.746429
39.404631
34.630895
29.981732
26.650429
19.686818
17.222762
13.822913
14.709830
17.395616
15.667677
14.939904
12.457967
10.986924
8.327961
6.176829
5.059838
3.977418
3.929734
3.221631
4.261732
3.897548
4.212856
4.860759
5.621910
6.818771
7.098913
8.437634
8.947849
11.416674
12.058616
11.999607
13.131499
13.833642
15.589595
14.164448
13.814569
14.178753
13.358593
12.813807
12.406707
12.723804
11.764765
12.315512
11.023879
10.899901
10.734797
9.639859
10.638833
9.890795
8.788705
7.888675
9.908676
8.176565
7.227659
7.708669
7.632971
7.349849
8.193851
7.086992
6.489754
6.929636
7.487535
7.604957
7.764697
6.757975
6.573796
7.965565
8.993745
10.672808
11.245608
12.224913
13.879538
13.415813
15.511513
15.996695
17.412901
16.425848
14.632940
15.109777
14.624596
12.274981
10.924935
9.811521
8.466840
7.478595
7.408857
6.587505
7.234812
6.551743
6.010532
6.382465
5.786419
5.808473
5.954504
##ZVALUE=225
53.932667
55.960417
68.464875
85.631609
87.266564
89.658499
79.540610
59.583783
44.887662
34.931898
27.824640
26.842952
27.529597
29.735565
29.167533
26.192665
21.011829
17.904639
13.368726
8.306503
7.025599
3.848672
3.800988
3.860593
4.867911
5.598664
6.285906
8.403659
8.954406
11.421442
12.004972
12.203455
14.495850
14.967918
15.477538
15.247464
16.240478
16.292930
15.917420
15.170574
14.479756
14.357567
14.248490
14.062524
13.126731
13.575554
10.313988
11.994839
10.081530
9.398460
9.949803
11.331439
11.482835
9.624958
8.444786
9.952784
9.410977
8.506775
8.106828
8.566976
8.434653
8.364916
8.038878
9.737611
7.926822
7.382631
7.976890
8.483529
8.108616
9.399652
10.715723
11.664629
11.848807
13.302565
12.993813
14.165640
12.369752
12.629628
13.214946
12.448430
11.382699
10.309815
9.954572
8.835793
8.194447
7.437468
7.913709
7.193685
7.703900
7.745624
7.575750
7.793903
6.250739
8.602738
8.164644
6.560683
##ZVALUE=230
43.797493
49.696565
77.978969
120.272636
152.804852
184.987783
200.012922
193.203688
171.721578
140.498877
98.883510
70.180893
49.923658
46.369433
48.799515
51.284432
53.414702
48.636794
46.303868
36.373734
28.337836
18.514991
13.569593
7.966757
6.602407
6.084442
5.708933
7.967949
7.263422
8.687973
10.521412
11.612773
11.739731
12.714863
13.329983
13.759732
14.272928
14.663935
14.673471
13.914704
14.291406
14.386773
12.770891
12.718439
12.874603
11.913776
12.639761
11.273623
10.446906
10.190606
11.080503
10.425448
10.821819
9.991527
10.233521
9.326935
10.309815
10.331869
10.122657
9.285808
10.168552
10.441542
10.035634
10.816455
9.965897
10.453463
10.618567
11.104941
11.774898
11.709929
13.008714
13.884902
13.825893
14.316440
16.905665
16.306639
16.163588
16.318560
15.240908
14.443994
13.341904
13.212562
12.367964
11.672974
11.122823
9.332895
9.659529
10.213852
10.061860
10.984540
10.052919
10.090470
9.476542
9.948611
9.202957
8.537769
##ZVALUE=235
14.926791
17.060637
36.863685
83.875656
131.163001
212.421417
280.895829
364.131927
391.241908
393.127799
344.518423
268.325806
179.404020
127.570629
88.533759
72.031617
72.344542
80.517530
83.581805
86.125731
77.784657
64.097643
51.687956
37.922859
25.337934
15.397668
12.399554
7.997751
7.952452
8.212924
7.640719
8.010864
10.458827
11.119843
10.223985
11.542439
11.006594
11.519790
10.704994
12.109876
12.798905
11.064410
11.026859
9.945631
10.078549
11.531711
11.011958
10.328889
9.693503
10.577440
9.972453
11.680722
9.929538
9.822845
10.909438
10.715723
10.639429
10.748506
11.123419
10.480881
10.678768
11.108518
11.565685
11.591911
12.292862
11.865497
11.707544
12.240410
12.591481
15.324950
15.650988
16.951561
17.425418
18.514991
18.629432
19.552708
18.881559
19.132495
17.576814
17.571449
16.803741
15.591979
14.380813
13.584495
14.265776
13.795495
13.241768
12.366772
12.844801
13.095737
12.950897
12.615919
12.417436
12.239814
13.313890
13.316870
##ZVALUE=240
2.288818
2.354980
6.142855
22.894740
48.853755
111.166835
181.822777
314.429998
416.053534
502.067804
580.551624
601.764917
524.062514
438.199639
322.226882
227.630734
146.352649
113.435984
100.930929
102.095604
112.340450
117.386580
114.578605
99.009871
80.470443
62.722564
47.369599
31.337738
22.770762
14.991760
11.352897
8.421540
9.743571
9.200573
9.340644
9.728670
8.903742
9.827614
10.095835
10.679960
9.808540
9.503961
10.180473
10.366440
9.508729
10.558963
11.103749
10.887980
9.597540
11.660457
11.279583
11.188984
10.537505
11.017919
10.937452
10.740757
11.829734
10.762811
11.115670
12.298822
11.427999
11.431575
11.570454
13.204813
12.341738
12.934804
14.885664
13.538599
14.650822
14.828444
16.008615
18.227696
19.420981
20.623803
20.940900
21.944642
22.563934
21.329522
21.138787
20.052791
18.821955
19.759536
16.778708
16.316772
17.591715
15.942454
15.750527
15.302896
16.508698
15.658736
15.278459
14.691949
16.539693
15.581846
15.774965
16.106963
##ZVALUE=245
1.542568
1.842976
2.059937
1.963973
5.583763
12.835860
41.912794
86.563826
193.200707
297.719836
471.161604
591.675639
694.336891
755.679607
721.588731
606.092811
492.158532
324.890018
224.953890
137.017965
103.523731
101.081729
114.727616
123.720765
132.804513
126.156807
111.332536
96.468925
72.058439
54.590702
41.097999
22.412539
16.178489
12.793541
9.391904
9.930730
10.073781
10.026693
10.550618
10.803938
10.740757
10.698438
9.891987
11.133552
11.313558
11.536479
9.581447
11.134744
10.184646
9.633899
10.046959
10.184646
10.593534
10.737777
10.350943
10.997653
11.131763
10.145903
10.690689
10.507703
10.154843
10.440946
10.018945
12.419820
11.313558
11.964440
12.365580
12.730956
13.807416
14.076829
15.255809
16.276836
17.914772
18.225908
17.505884
18.820763
18.087626
17.967820
18.813610
17.531514
17.460585
17.147660
16.720891
16.740561
15.007854
15.015602
15.701652
14.933944
15.254617
15.849471
15.707612
15.115738
15.452504
14.899969
14.976859
15.133619
##ZVALUE=250
1.436472
1.308918
1.319647
1.534820
1.767874
1.635551
2.270937
9.241700
26.389956
76.857805
160.455704
334.235430
486.303568
697.650909
813.773870
885.179639
849.281549
739.349723
594.077706
373.583436
252.898932
149.120688
105.655789
94.834566
104.448795
119.849443
133.133531
137.493610
137.086511
122.050643
102.206469
82.360506
58.452487
40.034652
25.278926
19.251704
12.941957
12.881756
11.772513
11.797547
11.879802
11.955500
12.907982
10.732412
12.126565
11.402965
11.567473
11.556745
9.858608
10.573864
10.086894
10.304451
10.080934
9.543896
9.510517
10.040998
9.770989
9.923577
8.814931
9.091496
8.985996
10.023713
9.748936
9.414554
9.939671
9.946823
10.074973
10.543466
11.335611
10.714531
13.422966
12.814999
15.633702
14.850497
15.658736
16.366839
16.934872
15.432835
15.736818
15.365481
15.558600
15.131831
14.383793
14.331937
14.419556
13.460517
14.085770
13.761520
13.721585
12.380481
13.571978
13.433695
13.563633
14.228821
13.780594
13.189912
##ZVALUE=255
1.415610
1.375675
1.302958
1.607537
1.448989
1.533628
1.653433
1.648664
2.406836
3.816485
20.862818
50.620437
111.346841
250.332952
391.786695
605.635643
747.663975
860.528946
883.549452
800.471902
667.604804
514.589548
314.130783
199.345946
112.802982
88.401437
86.982846
104.146600
127.358437
139.598846
149.381757
144.110918
135.528445
110.011697
89.905858
62.136650
44.478774
28.542876
21.661520
16.794801
15.369654
14.243722
14.275908
13.526678
12.501478
12.303591
12.654662
11.739731
12.288690
11.049509
11.357665
10.989904
10.231733
10.345578
9.446740
10.157824
9.804964
10.028481
9.407997
8.669496
8.565784
8.539557
9.177923
8.483529
9.188652
8.613467
9.635687
9.847879
10.354519
10.877848
11.118650
11.181831
12.099743
12.933612
13.137460
13.176799
13.647676
13.135672
12.727976
12.369752
13.202429
12.435913
12.506843
13.211966
11.940598
13.054609
12.653470
11.981726
12.345910
12.998581
12.823939
13.120770
12.459755
13.329983
11.808872
12.470484
##ZVALUE=260
1.233816
1.140833
1.280904
1.149774
1.420975
1.457930
1.516938
1.604557
1.487732
1.526475
1.771450
2.401471
7.905960
35.476685
80.006719
187.552571
306.486487
496.736765
658.698678
836.554766
911.191702
901.185870
778.697729
630.291700
409.433842
281.920433
164.030790
106.823444
78.215003
85.829496
109.778643
130.832791
149.455667
159.972906
158.291459
140.840411
123.016834
93.491673
71.719885
48.306584
35.399795
23.436546
19.741654
17.051697
15.695691
15.254617
15.593767
13.546944
14.370680
13.182759
12.394786
12.301803
11.385679
10.645986
10.281801
10.276437
10.695457
9.928942
9.095669
9.585619
8.851886
8.905530
8.515716
8.763671
8.616447
9.328723
9.425879
8.640885
9.474754
9.558797
10.475516
11.198521
11.288524
11.814833
11.639595
11.586547
12.481809
11.577606
12.287498
11.558533
12.021661
11.349916
11.586547
11.376739
12.308955
11.826754
10.639429
11.579990
11.181831
11.844635
11.212826
11.113882
11.328459
11.423826
11.127591
11.540651
##ZVALUE=265
1.168847
1.080632
0.949502
1.198649
1.086593
1.208782
1.215935
1.147985
1.294613
1.407862
1.483560
1.594424
1.504421
1.806617
4.469752
21.571517
54.430962
136.660933
241.095424
445.380807
621.026754
783.282518
932.268500
954.592824
857.234597
726.341605
535.777807
380.246639
214.100480
133.140683
92.869997
76.103806
89.442730
119.958520
141.825676
161.020756
169.785619
161.452889
148.611665
119.210482
99.588633
68.507791
51.252842
34.117699
26.114583
18.892884
18.566847
15.794635
14.845729
13.638735
13.295412
12.905598
12.446642
12.180805
11.429787
10.589957
9.991527
9.595752
9.975433
9.747744
9.081960
9.235740
9.573698
9.090900
9.018779
8.920431
8.977652
8.953810
9.438992
9.899735
9.747744
10.289550
10.646582
11.014938
11.323690
10.945797
12.158751
11.612773
10.732412
10.822415
10.952950
11.013746
11.082888
10.956526
10.451674
11.476874
10.900497
10.547638
11.123419
10.788441
11.171699
10.971427
10.999441
10.569692
11.254549
10.461807
##ZVALUE=270
0.958443
1.023412
0.958443
0.923872
0.981688
1.131892
0.958443
1.123548
1.132488
1.120567
1.253486
1.370907
1.410842
1.360774
1.460910
1.808405
2.325773
10.261536
30.322671
96.752644
191.629529
323.500633
565.689802
748.301744
949.480534
1011.278629
985.758901
890.712738
694.161654
525.969863
363.404751
193.549991
114.685893
73.026419
72.170496
95.388889
119.851828
149.419904
161.964893
168.805718
162.306428
146.027803
123.655796
93.771815
71.093440
47.065616
34.712553
23.776889
18.468499
15.263557
13.641715
13.290644
12.687445
12.010932
11.987686
11.227727
10.956526
10.574460
10.043979
10.297894
9.656549
9.551644
9.106994
8.947849
8.634925
9.107590
9.468794
9.031892
9.827614
9.388924
9.990931
9.980798
10.656714
11.432767
11.099577
10.295510
11.150837
11.041760
10.661483
10.352731
10.715723
10.827780
10.668635
10.278821
9.379983
10.817647
9.661913
9.994507
10.212660
10.478497
10.188818
10.006428
10.493994
9.715557
9.589791
10.555983
##ZVALUE=275
0.686646
0.677705
0.858903
0.786781
0.814795
0.847578
0.893474
0.800490
0.902414
0.981688
0.864863
0.952482
1.145601
1.115799
0.926852
1.320839
1.466870
1.469851
1.940727
4.656911
18.357635
51.746964
146.506429
267.379880
495.570898
665.735006
861.267447
976.073742
1008.558869
935.912728
816.949010
595.441461
423.569679
230.175853
136.923790
74.403882
57.921410
69.363713
88.695884
117.905736
138.076544
155.894756
163.476467
158.862472
143.897533
113.727450
92.482567
65.810680
49.008727
30.263662
21.400452
15.434623
13.594627
12.029409
11.647940
10.435581
10.702610
10.533929
9.345412
10.008812
9.295940
9.049773
9.342432
8.625984
8.788705
8.970499
8.924603
9.122491
8.960962
9.258986
9.641647
10.238886
9.632707
10.535717
11.066794
10.736585
10.702610
10.406971
10.877848
10.373592
10.182858
9.833574
9.781718
10.056496
9.805560
10.080934
9.806752
9.588599
9.667873
9.397864
8.791685
9.758472
9.009838
9.258986
9.369850
9.971857
##ZVALUE=280
0.611544
0.827909
0.916719
0.884533
0.775456
0.811815
0.893474
0.718832
0.985861
0.840425
1.134872
0.999570
0.903606
1.247525
0.981688
1.206994
1.090765
1.382828
1.484752
1.537800
1.743436
2.150536
10.933876
36.788583
112.637877
203.186870
380.020738
555.406809
784.381628
917.904973
1007.535458
982.748866
886.941552
666.841865
492.432714
277.192593
169.051886
82.096457
50.768852
46.012998
59.353709
85.696578
107.877851
135.163665
150.017738
154.315829
149.857998
133.860707
113.456845
85.408688
66.319704
42.049885
29.039979
18.560886
13.648868
10.686517
9.142756
8.816719
8.996725
8.600950
9.225607
8.804798
9.052753
9.163618
9.405613
8.740425
9.260774
8.858442
9.410977
9.593964
9.380579
9.646416
9.908676
9.672642
10.449886
10.366440
10.366440
10.040998
10.025501
9.857416
9.825826
9.721518
9.023547
9.595752
9.121895
9.478927
9.946823
9.199977
9.336472
9.486675
9.374619
9.346604
9.365678
9.332895
9.240508
9.177923
##ZVALUE=285
0.731945
0.683665
0.769496
0.726581
0.841618
0.732541
0.832677
0.746846
0.742674
0.874996
0.955462
0.776649
0.932813
0.865459
0.964999
1.166463
1.328588
1.176000
1.145601
1.152754
1.317859
1.442432
1.568794
1.704693
5.487800
18.134713
61.088800
127.804875
271.573663
424.890518
644.863844
812.949538
947.992802
1001.688838
936.622024
759.824514
594.226718
369.682908
230.619907
110.061765
60.585737
34.002662
36.924481
55.388808
74.374676
103.236437
120.942593
141.197443
146.414638
143.123865
131.405592
109.088421
88.472962
61.788559
43.094754
25.882721
17.141700
11.565685
9.491444
8.616447
7.792711
8.223653
8.096695
8.142591
8.675456
8.219481
8.700490
8.944869
9.032488
8.843541
9.033680
9.844899
9.347796
9.686947
9.704828
9.436607
9.776950
9.855628
9.734631
9.641647
9.887815
9.319782
8.924603
9.500980
9.151697
9.355545
9.324551
9.403825
9.364486
9.302497
9.044409
9.068847
9.292960
8.837581
9.027719
8.914471
##ZVALUE=290
0.667572
0.777841
0.596642
0.714660
0.471473
0.704527
0.675917
0.726581
0.705719
0.589490
0.762939
0.585914
0.779629
0.713468
0.819564
0.967979
0.922680
0.843406
1.058578
0.951886
1.110435
1.206994
1.141429
1.379848
1.374483
1.432896
2.341866
7.354617
34.020543
81.266761
156.684518
322.944522
492.390990
735.685825
882.262588
985.568762
964.725614
827.887654
675.541759
450.882912
297.502875
149.984956
79.313517
34.839511
25.500655
33.864975
48.075914
70.799589
90.820789
117.590427
132.130980
142.502785
139.462948
124.896765
108.710527
80.874562
60.854554
39.267540
27.235746
16.422868
11.605620
8.479953
8.097887
7.371902
7.501841
7.361770
7.413626
7.773638
7.942915
8.299947
8.887649
8.864999
8.909702
9.060502
9.501576
9.100437
9.444952
9.231567
9.199977
9.142756
9.441972
9.008646
9.379983
8.945465
8.885860
8.671880
9.026527
9.057522
8.711815
8.900762
8.805990
8.773804
8.783937
8.114576
8.668900
8.636713
##ZVALUE=295
0.622869
0.540614
0.446439
0.612736
0.506639
0.587702
0.736713
0.651479
0.705719
0.584722
0.628829
0.528693
0.636578
0.664592
0.601411
0.763535
0.677705
0.875592
0.738502
0.974536
1.047850
1.242757
1.153946
1.098514
1.101494
1.160502
1.427531
1.282692
1.628995
3.265738
17.364621
47.671795
107.612610
249.260664
396.085978
624.105930
777.242780
925.889015
958.194733
881.198645
759.608746
544.557571
375.851989
196.229815
108.239651
43.125749
24.110675
20.949841
28.367639
46.308637
63.065886
88.762641
108.374953
127.152801
136.243701
132.105947
121.608973
99.012852
80.667734
55.747628
40.212870
24.349689
16.993880
10.859966
8.748770
7.285476
7.187724
7.733703
7.374883
7.709861
8.080602
8.118749
7.774830
8.467436
9.104609
8.804798
8.718967
8.796453
9.097457
9.058714
8.758903
9.292960
8.569956
8.967519
8.816719
9.007454
8.872747
8.512735
8.707643
8.579493
8.500814
8.774996
8.545518
8.473992
8.396506
8.383989
##ZVALUE=300
0.701547
0.709891
0.611544
0.592470
0.542998
0.685453
0.564456
0.688434
0.679493
0.705719
0.594854
0.559688
0.732541
0.658631
0.825524
0.597835
0.907779
0.797510
0.709891
0.699759
0.846982
0.936985
0.944734
1.036525
1.171827
1.121759
1.207590
1.131892
1.218915
1.416802
1.714826
1.951456
7.090569
25.425553
85.986853
170.802474
336.729884
510.415435
738.378763
868.570805
966.444016
950.248837
821.514726
672.158003
448.789597
291.702747
146.399736
77.906847
29.430985
16.555786
17.816424
24.879575
42.495728
57.527423
81.550479
100.116730
120.647550
127.807856
127.170682
117.908716
98.222494
80.331564
56.788921
41.616559
25.139451
17.405748
11.493564
8.892417
7.832646
7.503629
7.925630
7.796884
8.093715
7.965565
8.484721
8.994937
8.404851
8.446574
8.679628
8.994937
8.756518
8.772612
9.036660
8.962750
9.306669
8.747578
8.690953
8.975863
9.079576
8.825660
8.989573
8.416772
8.832812
8.714795
9.099841
8.266568
##ZVALUE=305
0.603795
0.587702
0.517964
0.630617
0.650883
0.603795
0.612736
0.409484
0.734925
0.583529
0.665784
0.734925
0.819564
0.563860
0.829697
0.651479
0.786781
0.809431
0.612736
0.777841
0.696778
0.700951
0.711679
0.863671
0.838637
1.005530
1.049638
0.991821
1.114607
1.335740
1.167655
1.566410
1.457930
1.691580
2.969503
17.722845
49.070716
137.789845
249.177814
451.056957
618.489981
826.660991
924.571753
958.136916
888.933539
699.436665
543.278456
347.281694
215.155482
98.115802
50.037503
18.950701
12.792945
15.996695
23.378730
39.905906
54.937601
77.403784
95.026493
112.936497
121.615529
120.019913
111.207962
93.429685
76.106787
54.097772
39.161444
24.313927
16.250610
11.357665
9.528995
8.007884
7.988811
8.041859
7.986426
8.292794
8.294582
8.488894
8.317828
8.714795
8.606911
8.684993
8.644462
9.082556
9.202957
9.249449
8.908510
8.872747
8.741617
8.775592
8.875728
8.806586
8.688569
8.947849
8.609891
8.507967
##ZVALUE=310
0.441670
0.566840
0.657439
0.603795
0.497699
0.607967
0.666976
0.598431
0.557899
0.606775
0.616908
0.687838
0.636578
0.598431
0.632405
0.688434
0.669956
0.637770
0.535846
0.627637
0.715852
0.629425
0.728965
0.818968
0.861883
1.005530
0.992417
1.063943
0.886917
1.059771
1.213551
1.184940
1.309514
1.121759
1.387596
1.640916
1.893640
6.936789
24.092793
82.303882
160.644650
329.431891
501.368642
732.421875
867.913961
956.626534
935.138464
811.784863
667.178631
449.192524
298.813581
148.316622
79.165697
29.895902
13.942719
10.714531
13.445616
21.475554
32.231808
50.253868
66.723824
89.726448
102.677941
113.392472
113.768578
104.979873
92.809796
74.783564
57.296753
37.182570
26.163459
17.172694
12.775660
9.687543
8.673668
8.157492
8.186698
8.158684
8.072853
8.126497
8.481741
8.722544
8.569956
8.831620
9.141564
8.975863
8.899570
9.019971
9.013414
8.982420
9.047985
8.630753
8.969903
8.829832
8.413792
8.780956
##ZVALUE=315
0.552535
0.447631
0.659823
0.579953
0.568628
0.742674
0.416636
0.480413
0.685453
0.747442
0.585914
0.381470
0.497699
0.678897
0.763535
0.518560
0.706911
0.491738
0.617504
0.597835
0.512600
0.667572
0.865459
0.759959
0.781417
0.830889
0.916719
0.825524
0.726581
0.953674
0.736713
1.014471
1.201630
0.988841
1.107454
1.086593
1.182556
1.403689
1.910925
3.409982
12.168884
50.587654
112.941861
253.290534
405.657887
637.807846
789.685845
916.690826
946.246982
866.471529
743.068457
532.501936
375.854969
200.164914
109.164715
41.103959
18.433928
9.701848
10.104775
13.785958
18.944740
31.374693
44.872761
64.747930
80.024600
98.723769
106.914639
107.954741
103.156567
86.209774
71.450472
52.761436
38.630962
24.622679
17.256737
11.716485
10.164976
8.758903
8.628964
8.535981
8.441806
8.720756
8.674860
8.727908
8.597970
8.771420
8.913875
9.000897
8.680820
9.000897
9.226799
8.873940
8.660555
8.515716
8.851886
8.382797
##ZVALUE=320
0.476837
0.362992
0.590682
0.576973
0.612736
0.503659
0.441670
0.519753
0.398755
0.470877
0.402927
0.491738
0.477433
0.649691
0.459552
0.622869
0.728965
0.480413
0.700951
0.688434
0.761747
0.696778
0.729561
0.764728
0.723600
0.736713
0.708699
0.663996
0.777841
0.798702
0.822544
0.887513
0.914931
0.988841
1.013875
0.978708
1.013875
1.083612
1.385808
1.216531
1.357794
1.905560
5.355477
29.165745
71.585774
179.112554
297.641754
495.964885
657.081604
837.924480
915.343761
903.170705
814.709067
621.798635
460.021496
255.569816
144.743919
59.889555
28.151870
11.445880
8.184910
9.051561
11.123419
17.852783
26.601553
42.314529
56.447983
75.410604
90.349913
100.720525
101.802945
96.648932
87.198615
67.154765
52.922964
35.184622
25.919676
17.271638
13.107657
9.971857
9.136796
8.583665
8.689761
8.736849
8.717775
8.919835
8.791685
8.759499
8.800626
8.683801
8.780956
8.862615
8.655787
8.879900
8.548498
8.127689
##ZVALUE=325
0.594854
0.637770
0.546575
0.562668
0.522733
0.559688
0.515580
0.454783
0.546575
0.633597
0.476837
0.410676
0.496507
0.498891
0.513792
0.422597
0.660419
0.453591
0.428557
0.487566
0.595450
0.593662
0.639558
0.523925
0.736713
0.651479
0.772476
0.779629
0.647902
0.807643
0.728965
0.726581
0.882745
0.881553
0.842810
0.817776
0.811815
0.959635
0.932813
0.883937
1.189709
1.312494
1.329780
1.590848
2.717972
17.524958
45.964718
121.603012
219.805837
410.549641
574.088693
768.787861
868.429542
907.358527
843.971968
669.264793
508.553982
312.954783
190.015435
84.065795
40.432811
14.363527
8.675456
7.420778
8.171797
11.452436
17.004609
26.460886
38.648844
57.809949
71.710944
87.861419
94.940662
96.969604
91.942549
78.127980
64.410567
47.525764
34.835935
22.783875
16.996861
11.827946
10.307431
9.098649
9.110570
8.740425
8.752942
8.654594
8.548498
8.938909
8.634925
8.569956
8.420944
8.512735
8.473992
8.682609
##ZVALUE=330
0.525713
0.506639
0.550747
0.495911
0.478625
0.488758
0.458956
0.358820
0.455976
0.398755
0.396967
0.323653
0.280738
0.509620
0.321865
0.512600
0.585914
0.536442
0.501871
0.546575
0.678897
0.519753
0.590682
0.518560
0.509620
0.517964
0.610948
0.612736
0.713468
0.563860
0.659823
0.689626
0.578761
0.672936
0.704527
0.761747
0.581741
0.809431
0.903606
0.858903
0.940561
0.909567
0.955462
1.286864
1.248717
1.371503
1.796484
7.375479
24.538636
81.869960
156.718493
315.281749
463.175774
671.892762
803.486705
889.537930
864.795446
734.467506
588.585734
378.638506
243.879557
115.230680
58.951974
21.510720
10.398626
7.235408
7.213950
8.130670
10.410547
16.794801
24.467707
38.386583
51.165819
70.634484
80.788732
90.845823
91.051459
85.700750
75.458884
59.031844
46.683550
31.884909
23.770928
16.831756
13.276935
10.297894
9.202957
8.279681
8.373857
8.471608
8.196831
8.587837
8.375645
7.994771
8.314848
8.358955
##ZVALUE=335
0.528693
0.540614
0.497699
0.509620
0.681877
0.539422
0.459552
0.483990
0.445843
0.542998
0.470877
0.502467
0.435710
0.643730
0.475645
0.449419
0.458956
0.655651
0.612736
0.525713
0.496507
0.542998
0.629425
0.374913
0.569820
0.466704
0.570416
0.572801
0.592470
0.461936
0.698566
0.543594
0.650883
0.674725
0.637770
0.638962
0.687838
0.719428
0.762939
0.913739
0.829697
0.998974
0.821948
0.841618
0.991821
1.239777
1.090765
1.286864
1.583695
2.581477
13.832450
39.874911
115.346909
213.306546
401.271582
557.390451
745.670795
839.349627
856.801867
787.773728
628.912449
476.825833
283.801556
170.800686
73.988438
34.943819
12.816787
7.815957
6.823540
7.143617
8.317828
10.723472
16.397834
23.915768
36.405921
47.712922
64.561963
76.060891
84.071755
85.853934
78.956485
70.350766
56.925416
46.498775
32.760501
24.255514
16.760826
13.079643
10.124445
9.216666
8.578897
8.056760
8.244514
8.057952
8.337498
7.686615
##ZVALUE=340
0.363588
0.358820
0.436902
0.474453
0.500679
0.476837
0.530481
0.375509
0.414848
0.513792
0.457764
0.270605
0.428557
0.420809
0.507832
0.506639
0.574589
0.431538
0.359416
0.504851
0.554919
0.497699
0.458956
0.496507
0.454783
0.460744
0.682473
0.521541
0.497699
0.693798
0.674725
0.634789
0.671744
0.524521
0.788569
0.780821
0.676513
0.650883
0.677705
0.765920
0.699759
0.797510
0.800490
0.827909
0.880957
0.955462
1.017451
1.050830
1.083612
1.184940
1.377463
1.986623
6.046891
30.232668
74.576735
183.934569
307.648778
503.777862
649.603009
801.192522
848.540664
800.613761
693.655014
514.264703
362.309813
188.770890
105.445981
43.677688
19.440651
8.219481
6.886721
6.888509
7.240772
8.193851
10.560751
16.175508
22.919774
35.544634
47.513843
63.461661
71.897507
80.333948
79.931617
74.497461
68.213940
54.161549
44.208765
31.608939
24.310946
16.722679
12.654662
9.918809
8.976460
7.990599
7.733703
7.765889
##ZVALUE=345
0.391603
0.415444
0.356436
0.426769
0.370741
0.399947
0.361800
0.471473
0.395775
0.436902
0.277758
0.210404
0.449419
0.352859
0.272989
0.296831
0.407696
0.344515
0.444651
0.354648
0.479817
0.486970
0.512600
0.384450
0.403523
0.285506
0.475645
0.468493
0.406504
0.560880
0.566840
0.483990
0.512600
0.597835
0.578761
0.431538
0.492930
0.518560
0.562668
0.419617
0.523925
0.645518
0.570416
0.646710
0.701547
0.919700
0.707507
0.836849
0.816584
0.879765
0.911951
1.056790
1.146793
1.553893
2.817512
16.256571
45.804977
122.477412
220.371485
397.093892
545.843840
719.955564
800.155997
808.217525
738.731027
566.515923
422.143936
253.105760
144.707561
58.050752
27.198792
10.762811
7.205606
6.534457
6.579757
7.112622
7.458925
9.768605
13.769865
22.354722
30.677915
44.724941
54.855943
65.803528
71.411729
73.599815
71.688890
63.256621
54.875612
42.239428
33.131838
22.329688
16.561747
11.929870
9.543896
8.275509
##ZVALUE=350
0.295639
0.319481
0.330806
0.337958
0.517964
0.323653
0.337958
0.393987
0.341535
0.365973
0.387430
0.432730
0.409484
0.423789
0.349879
0.451803
0.358820
0.445843
0.492930
0.329614
0.243783
0.352859
0.378489
0.393987
0.445843
0.359416
0.517964
0.418425
0.502467
0.330806
0.550747
0.376701
0.304580
0.681877
0.505447
0.596642
0.462532
0.553727
0.566840
0.544786
0.556707
0.603795
0.657439
0.526905
0.763535
0.654459
0.746846
0.658631
0.689626
0.656843
0.850558
0.777841
0.799894
0.877976
0.935793
1.127720
1.621842
8.367896
26.191473
81.048012
156.514645
315.729976
455.260873
631.408691
738.635659
798.922777
760.623813
628.169775
486.047864
294.793844
179.765821
77.991486
36.203861
11.990666
7.549524
6.533861
6.207824
5.960464
6.338954
7.540584
9.309649
13.857484
18.855929
27.927756
36.400557
48.898458
58.321953
65.581799
67.922473
65.156817
60.271621
50.064921
40.509701
29.660463
22.243857
15.750527
##ZVALUE=355
0.489950
0.304580
0.214577
0.426769
0.404716
0.271797
0.372529
0.358820
0.341535
0.561476
0.358820
0.534654
0.682473
0.414848
0.481606
0.477433
0.560880
0.448823
0.525713
0.369549
0.525713
0.456572
0.527501
0.436902
0.395775
0.538826
0.548959
0.657439
0.538826
0.662804
0.524521
0.569820
0.490546
0.535846
0.441670
0.562668
0.581741
0.692606
0.630617
0.655651
0.557899
0.743866
0.481606
0.629425
0.776649
0.702739
0.732541
0.736713
0.782609
0.606775
0.925660
0.640750
0.924468
0.855923
0.929832
1.057982
1.029968
1.275539
1.382828
3.794432
13.630986
54.152608
111.334920
231.773853
364.440680
558.393002
677.164793
764.335990
761.191845
654.448867
531.009436
352.922678
225.721598
103.048682
50.244927
16.651750
8.735657
6.394982
6.006956
5.837679
5.934834
6.185770
6.825924
8.692741
10.990500
16.826987
23.517609
33.810735
41.745901
51.683784
57.810545
60.892701
60.197711
54.453611
48.334599
37.952662
##ZVALUE=360
0.543594
0.508428
0.434518
0.622869
0.367761
0.492930
0.557899
0.439882
0.232458
0.386834
0.450611
0.379682
0.493526
0.500679
0.568628
0.481606
0.404716
0.504851
0.477433
0.511408
0.530481
0.449419
0.564456
0.367761
0.520945
0.531673
0.579953
0.663996
0.387430
0.540614
0.492930
0.499487
0.602603
0.636578
0.441670
0.575781
0.605583
0.555515
0.558496
0.601411
0.551939
0.462532
0.634789
0.613928
0.644922
0.765920
0.823736
0.733733
0.664592
0.585914
0.895858
0.634789
0.875592
0.892878
0.950694
0.817776
1.065731
1.112819
1.162887
1.359582
1.359582
1.721978
7.047653
22.493601
74.915886
145.671964
288.748741
428.373814
611.869693
711.991787
749.809742
702.421665
572.714806
434.521437
258.167982
156.326890
67.456961
31.124949
10.498762
6.567836
5.573630
5.670786
5.512834
5.433559
5.682707
5.906820
7.455945
9.171963
14.083982
18.947721
27.756691
35.352707
45.094490
51.129460
55.530667
55.960417
##ZVALUE=365
0.306964
0.561476
0.322461
0.405908
0.435710
0.416636
0.371933
0.449419
0.470877
0.341535
0.341535
0.464916
0.487566
0.320673
0.350475
0.416636
0.400543
0.365973
0.445843
0.499487
0.377893
0.389814
0.450611
0.485778
0.457764
0.251532
0.500679
0.380874
0.507832
0.535846
0.534654
0.359416
0.419617
0.463724
0.600815
0.551939
0.461936
0.627637
0.564456
0.654459
0.642538
0.575781
0.777841
0.659823
0.534654
0.628829
0.667572
0.667572
0.518560
0.591874
0.704527
0.840425
0.697970
0.807643
0.770688
0.755787
0.834465
0.964999
0.930429
1.131892
1.004934
1.109838
1.132488
1.587868
2.515912
15.147924
41.482449
110.131502
203.302503
375.515819
513.600707
664.593577
725.688934
705.990791
624.633431
468.307734
334.682465
178.204775
99.079609
36.958456
15.560985
6.745458
5.615950
5.317926
5.055666
4.982948
5.079508
5.244613
5.262494
6.085634
7.629991
11.642575
15.779734
24.080873
30.943751
39.332509
##ZVALUE=370
0.428557
0.406504
0.237823
0.304580
0.413656
0.401735
0.459552
0.399947
0.510812
0.462532
0.512600
0.388622
0.472665
0.451803
0.387430
0.402927
0.496507
0.380874
0.589490
0.350475
0.415444
0.467896
0.442863
0.330806
0.353456
0.629425
0.623465
0.628829
0.411868
0.534654
0.469685
0.389814
0.552535
0.569820
0.502467
0.623465
0.615716
0.419617
0.507832
0.551939
0.455976
0.562668
0.571609
0.387430
0.707507
0.581741
0.752807
0.618696
0.608563
0.615716
0.643730
0.681877
0.608563
0.680685
0.601411
0.817776
0.760555
0.681877
0.727773
0.770688
0.914931
0.978708
1.037717
0.940561
1.142621
1.304746
1.646876
7.418990
25.363564
82.968473
155.535936
298.880935
432.339907
606.976748
691.619515
717.529655
660.295486
521.599650
388.761759
217.763782
124.436617
49.498677
23.289919
9.383559
5.737543
4.920959
4.817843
4.699826
4.485846
4.505515
4.430413
4.947782
5.547404
7.099509
9.501576
13.888478
##ZVALUE=375
0.383854
0.298619
0.469685
0.328422
0.498891
0.405908
0.372529
0.349879
0.334978
0.367761
0.338554
0.409484
0.278950
0.426769
0.395775
0.371933
0.411868
0.211596
0.342727
0.361800
0.407696
0.566840
0.442863
0.567436
0.334978
0.412464
0.525713
0.444651
0.520945
0.522733
0.454783
0.458956
0.402927
0.439882
0.582933
0.438690
0.554919
0.552535
0.427961
0.398755
0.472665
0.529885
0.398755
0.474453
0.568628
0.364780
0.480413
0.539422
0.505447
0.616908
0.662804
0.514984
0.390410
0.619888
0.593662
0.688434
0.601411
0.620484
0.826716
0.646710
0.762939
0.879765
0.837445
0.869632
0.856519
0.899434
1.197457
1.122952
1.275539
3.781915
13.433695
49.852729
107.086897
236.818790
364.641547
544.363856
648.230910
712.748766
693.259835
577.452779
450.712442
279.582739
174.620748
81.883669
41.801929
14.268756
6.937981
4.787445
4.629493
4.211664
4.252791
4.214644
4.141927
4.219413
4.134774
4.961491
##ZVALUE=380
0.391603
0.339746
0.596642
0.329614
0.368953
0.464916
0.191927
0.335574
0.345707
0.266433
0.338554
0.439882
0.451803
0.336766
0.250936
0.429749
0.336766
0.220537
0.485778
0.513792
0.377893
0.341535
0.537634
0.307560
0.327826
0.470877
0.524521
0.518560
0.516772
0.353456
0.311732
0.594854
0.463724
0.406504
0.378489
0.456572
0.386834
0.583529
0.383854
0.639558
0.523925
0.480413
0.466704
0.519753
0.519753
0.438690
0.732541
0.487566
0.676513
0.543594
0.315905
0.422597
0.547767
0.597835
0.476837
0.652671
0.655651
0.581741
0.552535
0.577569
0.789762
0.672936
0.594854
0.725985
0.576973
0.764728
0.782609
0.949502
1.042485
1.194477
1.434684
1.840591
9.120703
28.560758
89.172721
165.880919
315.390825
452.418923
614.061952
688.229799
694.686770
630.690455
496.315956
374.095440
219.707489
130.413771
54.406524
25.482774
8.263588
4.910827
4.304647
4.234910
3.804564
3.906488
3.836751
3.699660
##ZVALUE=385
0.390410
0.431538
0.478625
0.344515
0.422597
0.447631
0.220537
0.223517
0.383854
0.300407
0.333786
0.418425
0.348687
0.430942
0.420809
0.311732
0.425577
0.370741
0.470877
0.367761
0.307560
0.563860
0.335574
0.458956
0.415444
0.520945
0.386834
0.404716
0.399947
0.448823
0.687838
0.407696
0.545979
0.422597
0.418425
0.461936
0.546575
0.421405
0.526905
0.559688
0.583529
0.410676
0.435710
0.456572
0.568628
0.596642
0.583529
0.506639
0.503659
0.413656
0.489950
0.550747
0.321865
0.442863
0.578761
0.553727
0.500679
0.526905
0.570416
0.709891
0.610948
0.662804
0.615716
0.704527
0.622869
0.594854
0.900626
0.944734
0.940561
0.829697
1.123548
1.097918
1.316667
1.543760
3.612638
19.673705
50.129890
129.193664
229.156613
402.907729
532.720685
662.004948
698.635578
663.849711
584.083796
430.213809
305.525661
167.236924
95.214844
39.889812
16.721487
5.885959
4.142523
3.803968
3.749728
3.744960
##ZVALUE=390
0.347495
0.352859
0.442863
0.287890
0.334978
0.362992
0.372529
0.314713
0.347495
0.457764
0.415444
0.349879
0.314713
0.427961
0.472665
0.166893
0.315905
0.501871
0.326633
0.489950
0.457764
0.503659
0.385642
0.193715
0.496507
0.504851
0.412464
0.394583
0.194907
0.541806
0.492930
0.529885
0.560880
0.442863
0.499487
0.435710
0.562668
0.581741
0.556707
0.576973
0.557899
0.458956
0.511408
0.498891
0.502467
0.535846
0.507832
0.435710
0.524521
0.482798
0.449419
0.468493
0.598431
0.615716
0.568628
0.535846
0.522733
0.569820
0.712872
0.688434
0.485778
0.433922
0.853539
0.583529
0.712872
0.659823
0.752807
0.812411
0.808835
0.865459
0.954866
0.982881
0.908971
0.906587
0.922680
1.128912
1.894832
9.941459
31.669736
97.852945
183.217525
343.108773
464.529991
602.113605
677.816868
695.325732
640.806556
503.284931
383.783579
233.760476
136.560798
56.066513
25.668740
8.105636
4.495978
3.593564
##ZVALUE=395
0.334978
0.388622
0.471473
0.273585
0.383854
0.318885
0.451803
0.247955
0.325441
0.395775
0.296831
0.426769
0.422597
0.382662
0.371933
0.473857
0.421405
0.361800
0.265837
0.418425
0.291467
0.209808
0.348687
0.308752
0.475645
0.391603
0.512600
0.515580
0.613928
0.615716
0.765920
0.532866
0.486970
0.521541
0.560880
0.469685
0.567436
0.422597
0.526905
0.524521
0.625849
0.417829
0.498891
0.411868
0.588894
0.640750
0.525713
0.502467
0.540614
0.523925
0.573993
0.603795
0.530481
0.493526
0.468493
0.489950
0.497699
0.524521
0.538826
0.493526
0.632405
0.555515
0.584722
0.515580
0.794530
0.614524
0.543594
0.729561
0.823736
0.848770
0.874996
0.852942
0.911951
0.899434
0.885725
0.878572
0.916719
1.229644
1.327991
5.663633
20.720959
71.454644
136.076808
257.686973
378.589630
549.692512
653.568506
715.121627
696.126819
590.093732
461.298823
287.813544
179.784894
80.048442
38.106441
12.928843
##ZVALUE=400
0.370741
0.335574
0.247955
0.302792
0.290871
0.324845
0.417829
0.405908
0.345707
0.345707
0.304580
0.315905
0.349879
0.441670
0.260472
0.177622
0.271797
0.331998
0.406504
0.449419
0.314713
0.314713
0.350475
0.233650
0.511408
0.372529
0.318885
0.424981
0.427961
0.395775
0.712872
0.504851
0.553727
0.625849
0.675917
0.515580
0.655651
0.637770
0.602603
0.572801
0.591874
0.402927
0.523925
0.612736
0.459552
0.545979
0.630617
0.601411
0.380874
0.530481
0.607967
0.508428
0.585914
0.591874
0.766516
0.577569
0.528693
0.471473
0.560880
0.546575
0.398755
0.506639
0.599623
0.543594
0.680685
0.784993
0.773668
0.719428
0.602603
0.890493
0.973940
0.950694
0.853539
0.834465
0.866652
0.792742
0.806451
0.918508
0.975728
1.017451
1.226664
2.994537
10.844469
40.257573
87.048411
195.583701
309.948921
479.608774
592.994690
682.412982
691.159964
607.506633
504.739881
348.429680
197.130442
116.793513
##END
