##TITLE=FAAI0852
##FORMAT=SPECTACLE-ASCII V-1.2
##DATA TYPE=ULTRAVIOLET SPECTRUM
##SECOND TYPE=ULTRAVIOLET SPECTRUM
##DATE=12/26/17
##TIME=15:46:26
##SPECTROMETER/DATA SYSTEM=SPECTACLE
##XUNITS=NM EM
##YUNITS=ENERGY
##YFACTOR=1
##FIRSTX=220
##LASTX=410
##NPOINTS=96
##3DDATA=Equidistant
##ZUNITS=NM EX
##FIRSTZ=210
##LASTZ=400
##ZPOINTS=39
##XYDATA=(Y..Y)
##ZVALUE=210
3.843904
4.579425
3.542900
3.358722
3.778934
3.898740
4.167557
3.745556
3.772974
3.482699
2.964735
2.885461
2.107620
3.258586
2.760887
2.814531
3.352761
3.150702
2.862811
3.075600
3.120899
3.148913
4.554987
4.131794
4.876852
4.249811
5.057454
5.234480
6.513000
6.754994
7.832646
7.883906
7.770658
7.459521
7.774830
9.413958
8.762479
8.591413
8.535981
8.478761
8.852482
7.938743
8.863807
7.990599
6.699562
8.639693
7.527471
8.453727
7.141829
7.196665
7.082820
7.044673
7.049441
6.540418
7.556677
7.590652
8.027554
7.168651
6.980896
7.575750
6.854534
6.931424
6.772876
7.261634
6.913543
7.095933
7.505417
8.795857
8.961558
11.575818
11.752844
14.385581
15.235543
17.640591
18.244982
22.474527
24.011731
24.879575
25.907755
26.201606
24.593472
22.121668
19.976497
14.999509
12.071729
9.548664
7.884502
6.922483
6.627440
6.147623
6.608963
6.549954
6.274581
7.682443
7.984638
6.978512
##ZVALUE=215
13.094544
13.152957
11.698604
10.484457
8.605719
8.443594
6.879568
6.604791
7.963777
7.437468
7.025599
5.154610
4.849434
3.219843
3.164411
2.991557
3.789663
3.229976
2.959967
3.424883
3.323555
2.969503
3.555417
4.081726
4.012585
4.978776
5.998611
6.824732
8.513927
9.398460
9.713769
10.773540
11.236668
10.964870
11.912584
12.231469
11.440516
11.070967
10.625720
10.112524
10.062456
10.567904
10.296702
9.358525
9.462833
8.508563
8.056760
8.680820
8.411407
7.192492
8.259416
8.000731
7.212758
7.250905
7.322431
7.353425
7.912517
6.639957
6.046891
6.199479
6.194711
7.429719
7.050633
6.539822
6.513000
6.249547
7.780790
6.649494
7.675886
8.447766
10.659695
11.802912
12.728572
14.658570
15.056729
17.604828
18.119812
17.513633
19.437671
19.093752
17.300844
15.515685
13.856888
11.867881
10.209680
9.180903
6.801486
6.182790
6.189942
5.314946
6.096959
5.451441
6.023645
5.326867
6.286502
6.804466
##ZVALUE=220
39.125681
35.484433
39.986968
35.796762
32.762885
27.263761
22.648573
16.412735
15.178919
14.887452
14.903545
15.905499
13.896823
12.668967
8.862615
6.596446
6.044507
5.010962
3.889799
3.564954
3.632903
3.746748
3.604889
4.723668
4.331470
6.222725
8.188486
9.316802
9.586811
11.960864
12.921691
14.851689
15.983582
15.843511
16.895533
16.881824
17.071962
15.812516
16.079545
15.293956
14.759898
13.140440
13.600588
12.651682
12.230873
12.199879
10.835528
10.398626
10.662675
9.317994
9.944439
8.789897
9.758472
8.589625
8.243918
8.095503
7.696748
7.763505
7.859468
7.837415
7.264614
7.685423
7.132888
7.449985
7.495880
7.266998
7.480979
8.358955
10.220408
9.958744
10.926723
12.050867
14.801621
15.548468
16.611814
18.626451
18.104911
18.236637
18.425584
18.785596
16.673803
15.394688
13.605952
11.034608
10.638833
8.277893
7.710457
6.528497
6.635785
6.183982
6.119609
5.785823
6.232858
6.160736
6.139874
5.532503
##ZVALUE=225
59.826970
63.859820
83.478689
93.044639
93.810558
91.292858
77.477694
61.328411
47.562718
37.062764
27.974844
26.620626
28.009415
31.317472
28.368831
26.114583
23.864508
17.129779
13.512969
8.698702
7.205606
5.390644
4.761815
5.055666
5.676746
6.554723
7.607937
10.471940
12.396574
12.996793
14.797449
16.364455
18.196702
19.232631
20.086765
20.111799
19.370914
18.875599
18.990636
19.226670
17.746687
17.955899
16.134977
15.525818
14.551878
14.414787
13.439655
12.480617
12.457967
11.209846
10.461807
10.763407
9.983778
9.188652
10.555983
9.937882
9.892583
9.431839
9.425879
9.454489
9.425879
9.037852
9.798408
8.712411
8.747578
8.965731
8.510947
8.887649
8.003712
10.243654
11.570454
13.232827
14.616847
15.830994
17.200708
16.548634
18.071532
19.515753
15.617609
16.653538
14.425516
13.123751
12.024641
10.887980
9.321570
8.043647
7.933974
7.558465
7.762909
7.196665
6.826520
5.639791
6.702542
6.318688
6.076694
6.643534
##ZVALUE=230
51.068664
55.942535
83.830953
133.134723
167.180896
200.044513
211.556554
204.309821
179.311633
149.954557
98.991990
75.279474
53.346753
48.597455
49.023628
49.144626
54.142475
52.819848
43.393970
38.250685
29.776692
18.802881
12.516975
7.752776
7.135868
8.206964
8.733869
10.050535
11.109710
12.912750
13.539791
14.717579
15.899539
18.591881
20.020604
18.277764
18.031597
19.129515
19.045472
18.572807
17.560720
16.960502
17.259717
14.570951
15.361905
15.116930
14.427900
12.766719
12.829900
12.085438
11.335611
11.963844
10.916591
11.507869
10.927916
10.245442
10.943413
11.369586
10.822415
10.072589
10.766983
10.767579
10.153651
10.594726
9.884834
10.515451
10.818839
11.600852
10.663867
11.582971
13.851523
14.126897
15.293956
15.330911
17.942786
17.250776
16.395450
16.349554
15.999675
15.015602
13.820529
14.976859
12.895465
10.958910
10.458827
10.504723
9.610653
10.211468
9.132624
9.319782
8.483529
8.432865
7.880926
8.077621
8.639693
7.979870
##ZVALUE=235
18.720627
19.252896
48.232675
89.738965
151.802897
212.758780
289.563537
334.592462
377.629995
363.288522
306.516886
246.743560
185.190439
122.430921
92.752576
74.634552
72.836876
77.431798
82.319975
86.083412
76.202750
68.282485
49.120784
35.710931
22.529960
17.092824
11.449456
9.374619
9.274483
11.086464
10.920763
12.133718
12.035966
14.549494
14.004707
14.421940
15.386939
15.703440
14.743805
15.367866
15.734434
14.270544
13.327599
14.048815
14.133453
14.734864
12.433529
13.174415
11.800528
12.880564
12.191534
11.290908
11.317730
10.437965
11.208653
12.090802
12.239814
11.317730
11.419654
11.121631
10.450482
10.754466
11.910796
11.028647
11.551976
11.765957
10.982752
12.981892
12.132525
13.680458
14.239550
15.557408
14.790893
16.874671
17.055869
17.323494
17.012954
16.104579
15.955567
14.603734
14.396906
15.225410
12.182593
12.330413
11.970997
12.180805
12.182593
10.514855
9.469986
10.666847
9.967685
10.726452
10.990500
9.649992
11.456609
10.340810
##ZVALUE=240
2.165437
2.408624
8.756518
22.654533
56.572556
101.331472
196.182728
287.487507
421.037674
500.693917
558.619499
544.309616
489.789844
389.445424
297.105908
185.052752
139.885545
102.347732
94.618797
98.783970
109.040737
117.456913
113.954544
102.971792
81.806779
66.673756
46.964884
31.726956
19.693971
15.204549
10.594726
10.186434
10.186434
10.200739
11.631846
12.123585
12.539625
11.715889
14.277697
12.798905
13.526678
13.259649
13.823509
14.696717
11.964440
13.863444
14.662743
13.367534
12.051463
13.154745
12.401938
12.531877
12.209415
11.966825
13.679862
11.956692
13.005733
12.394786
12.416840
11.938810
12.344718
12.850761
12.601614
10.972619
12.656450
13.303757
13.448596
13.730526
12.682676
13.701916
14.656782
15.650988
18.581748
19.692779
17.131567
18.567443
16.866922
18.663406
17.498732
16.343594
15.718937
15.483499
13.876557
15.205741
15.591979
12.883544
12.642741
13.284683
13.142824
11.443496
11.849999
14.151931
13.394952
11.994839
12.848973
11.850595
##ZVALUE=245
1.627803
1.785755
1.661777
2.084970
5.759001
15.949607
44.954419
88.822842
196.794868
300.577879
466.876626
581.512451
664.196610
693.523884
639.254451
512.290001
408.567786
269.864798
183.812976
117.918849
95.370412
97.145438
111.232996
126.844645
129.217505
125.807524
112.241507
95.227957
67.433715
54.713488
38.367510
23.104548
16.240478
11.605620
12.364984
11.100769
11.889935
12.249947
12.104511
12.898445
14.328957
15.926957
14.198422
13.231635
13.762712
14.409423
13.745427
14.755726
13.211966
13.492703
13.500452
13.783574
12.283921
11.146665
12.560487
11.368990
11.498928
11.580586
11.357665
11.177659
11.822581
11.461973
11.280775
11.656880
12.071729
12.166500
10.769963
11.206865
11.861920
13.376474
13.778806
14.889836
15.504956
15.547872
17.357469
15.793443
16.559958
17.423630
15.281439
15.223622
14.842749
14.776587
14.282465
13.873577
13.660789
12.954473
13.187528
12.969971
13.028979
12.911558
12.232661
12.709498
11.901855
11.613965
11.467934
10.877848
##ZVALUE=250
1.309514
1.195669
1.233816
1.472831
1.439452
1.565814
2.655983
9.573698
35.752654
75.563788
177.032948
297.510624
443.191528
662.373900
800.197721
893.215537
888.640881
780.028701
657.999516
443.712473
300.889611
199.229717
115.289688
96.453428
104.072690
115.968585
132.646561
140.082836
136.899948
122.178793
107.018948
81.758499
62.505603
40.286779
28.856993
19.703507
15.115738
15.495420
15.299916
13.516545
14.856458
14.870763
15.542507
15.870929
15.358925
14.853477
14.607906
13.043880
12.455583
13.136864
12.848973
13.655424
11.423826
12.152791
11.567473
10.498762
11.438727
11.182427
10.055900
9.828806
10.903478
10.068417
9.569526
9.688735
10.183454
9.817481
9.915829
9.549856
10.603666
11.791587
12.400746
13.448000
13.629794
15.699863
15.498996
15.996695
14.949441
14.095902
13.508797
12.688637
13.021827
12.270808
12.535453
11.482835
12.555718
11.681914
11.692643
12.672544
11.302829
10.971427
10.917783
11.351705
11.225939
10.407567
11.955500
11.063814
##ZVALUE=255
1.082420
1.374483
1.596808
1.417994
1.421571
1.558661
1.848936
1.822710
2.195835
5.334616
24.414659
57.414770
121.506453
269.532800
435.089469
709.574819
902.398825
1015.897989
1015.897989
1015.897989
943.940878
742.188692
440.864563
270.790458
141.177773
100.159645
93.790889
107.406974
129.680634
144.919753
150.965452
148.814917
136.730671
108.988881
89.076757
63.349605
47.659874
31.894445
24.160743
18.967986
17.723441
16.569495
17.002821
16.298890
16.944408
16.443729
15.929937
16.153455
14.884472
13.940930
13.956428
13.482571
13.327599
12.215972
11.480451
11.401772
10.495782
10.497570
9.856820
9.482503
9.253621
9.441972
9.261966
8.604527
9.148717
9.494424
9.079576
10.272861
9.780526
9.565949
11.635423
12.336969
12.566447
13.593435
13.261437
13.475418
13.409853
13.394952
12.817979
10.780692
11.168718
10.634661
10.656714
10.508895
10.309815
10.086894
10.514855
10.062456
10.109544
10.474920
10.166764
10.010600
10.020733
9.318590
10.718703
9.714961
##ZVALUE=260
1.380444
1.441836
0.922680
1.492500
1.437664
1.105666
1.551509
1.318455
1.913905
1.985431
2.036691
3.294945
10.685921
40.224791
89.104772
220.827460
398.837924
695.075989
937.680006
1015.897989
1015.897989
1015.897989
1015.897989
982.981920
652.238727
442.315936
252.466798
158.966780
101.935863
94.371438
113.941431
136.257410
153.288841
162.649751
159.785748
146.141648
124.721527
93.769431
72.497725
50.920844
36.826730
26.326776
21.560788
18.538833
17.658472
17.437935
16.112924
15.876889
14.717579
14.986992
14.286637
13.675690
12.658834
12.012720
11.391640
9.962916
10.120869
9.971857
9.392500
9.996891
9.725690
9.223819
8.979440
8.377433
8.129478
8.793473
8.352995
8.970499
9.453893
9.852648
9.776950
10.900497
11.329651
11.463761
12.647510
12.343526
12.543797
11.938810
11.509657
11.592507
11.110902
10.889769
10.197759
10.240674
8.940697
9.096861
9.118915
8.692741
9.136796
9.329915
9.484887
9.028912
8.945465
9.590983
9.023547
8.695722
##ZVALUE=265
1.089573
0.916719
1.289845
1.089573
1.309514
1.245737
1.426935
1.159906
1.389980
1.618862
1.868606
1.680851
1.852512
2.429485
4.943013
26.140809
64.441562
199.785829
387.044549
763.301849
1013.474464
1015.897989
1015.897989
1015.897989
1015.897989
1015.897989
823.869705
569.969416
320.419669
197.087526
121.210814
85.139871
95.714927
122.271776
145.085454
167.181492
169.788599
159.388781
145.838857
119.705796
97.523928
68.979859
51.357746
33.367872
24.678707
19.707680
17.960668
16.031861
15.263557
14.462471
13.695955
13.215542
12.685657
12.044907
11.696815
11.595488
10.848641
9.634495
9.238720
8.876920
8.950830
8.187890
8.757710
7.912517
8.241534
8.095503
7.921457
8.244514
8.919835
9.157658
9.536743
10.558963
11.188984
11.301637
11.109710
11.301637
10.611415
11.029840
10.514855
9.610653
8.987784
8.687973
8.749962
8.739829
8.307695
8.841753
7.748604
8.256435
8.233786
7.692575
8.141994
8.319616
8.294582
8.444786
8.078814
7.850528
##ZVALUE=270
1.104474
1.032948
0.943542
0.863671
1.165867
1.318455
1.082420
1.200438
1.291633
1.589656
1.421571
1.681447
1.566410
1.681447
2.083778
2.085567
2.841949
12.383461
41.199923
152.931809
327.334404
572.155714
970.387459
1015.895605
1015.895605
1015.895605
1015.895605
1015.895605
880.583525
634.173751
427.353978
223.858953
131.104589
75.851679
74.123740
98.012686
118.183494
146.429539
163.684487
167.636871
162.995458
143.392682
122.292638
91.469884
69.863796
44.066906
32.994747
22.421479
18.362999
15.657544
13.499856
12.410879
11.286736
11.433959
10.313988
9.671450
10.020733
9.563565
8.623600
8.524656
8.791685
8.223653
7.927418
7.789731
7.446408
7.202625
7.290840
7.594824
8.561611
7.804632
8.714795
8.657575
9.010434
8.784533
9.142756
9.243488
9.305477
9.043813
8.326769
8.307695
8.699894
7.778406
7.068515
7.147789
7.438660
7.293820
7.412434
7.390976
7.486939
7.367730
6.960630
7.649660
7.032752
7.391572
7.667542
7.745624
##ZVALUE=275
0.891685
0.960827
0.855923
0.736713
0.842810
0.940561
1.051426
1.029968
0.931621
1.065731
1.184940
1.321435
1.335740
1.322627
1.364946
1.215935
1.624823
1.834631
1.929998
5.396605
20.647645
60.221553
180.061460
348.310471
644.266605
872.358680
1015.897989
1015.897989
1015.897989
1015.897989
950.024724
670.852661
462.469459
244.938731
142.871737
73.680878
58.370829
68.408847
87.955594
116.695762
137.679577
158.412457
161.777735
153.104663
140.955448
111.640692
89.985728
63.622594
46.081543
28.240681
19.526482
13.200641
11.318922
9.718537
9.308457
8.776784
8.513927
8.552670
8.142591
7.718801
8.046627
7.821918
7.378459
7.058978
6.978512
6.613731
6.634593
6.902814
7.357597
7.281899
7.537603
7.804632
7.941723
8.709431
8.452535
8.363724
7.980466
8.177757
8.061528
7.270575
7.468462
7.894635
6.857514
7.508993
7.471442
6.782413
6.809831
6.468892
6.616712
6.768703
6.928444
6.653666
6.949902
6.908774
6.848574
7.003546
##ZVALUE=280
0.846982
0.617504
0.771880
0.711679
0.935793
0.985861
0.785589
0.812411
1.047850
1.008511
0.998974
1.083612
1.139641
1.020432
1.278520
1.499653
1.174808
1.519918
1.326799
1.625419
2.013445
2.194643
12.255907
42.039752
139.510632
280.120373
558.058619
831.543803
1015.903950
1015.903950
1015.903950
1015.903950
1015.903950
783.521533
549.349785
301.455855
180.812478
83.527565
51.025748
45.094490
58.979988
85.158944
107.129812
132.316947
147.184730
153.614879
147.616863
131.568909
112.158656
83.130002
61.879754
38.036704
27.241707
15.688539
11.183619
8.063912
7.280707
7.475615
7.299781
7.045865
7.353425
6.529689
6.778836
6.430745
6.738901
6.455779
7.216930
6.642938
6.677508
6.959438
6.978512
7.220507
7.660985
7.832646
8.024573
8.040667
7.944703
7.596612
7.659793
7.452965
7.249713
6.708503
6.657839
6.874800
6.559491
6.434917
6.282926
6.783605
6.710887
6.605983
6.448627
6.284714
6.127954
6.370544
6.086826
6.336570
##ZVALUE=285
0.598431
0.812411
0.757575
0.809431
0.788569
0.675917
0.866652
0.731945
0.908971
0.771880
0.954866
0.836849
0.971556
0.964999
0.921488
0.929832
1.304746
1.042485
1.281500
1.252890
1.395941
1.478791
2.044439
2.200603
5.952716
20.147562
71.913600
168.793797
414.595008
645.504594
907.068849
1015.890837
1015.890837
1015.890837
1015.890837
880.554914
662.823915
396.455526
246.176720
115.439892
62.132478
34.139752
35.835505
55.157542
74.447989
103.525519
123.642683
142.311454
146.014690
143.006444
132.171512
107.870698
86.719990
58.917999
41.631460
24.317503
15.361905
9.619594
7.386804
6.580949
6.251931
6.155968
5.972981
5.878806
5.970597
6.494522
6.232858
6.170869
6.501675
6.667972
6.663799
7.186532
6.891489
7.510781
7.548928
7.386804
7.350445
7.054806
7.256866
6.996989
6.691813
6.580949
6.564856
6.424785
6.132722
6.308556
6.162524
6.294847
6.432533
6.217957
6.246567
6.453991
6.205440
6.303787
6.306767
5.886555
##ZVALUE=290
0.810623
0.740886
0.761747
0.761747
0.667572
0.754595
0.867844
0.664592
0.685453
0.777841
0.705719
0.761747
0.800490
0.952482
0.897646
1.084805
0.943542
1.094937
1.098514
1.010895
1.154542
1.294613
1.325607
1.443624
1.610518
1.733899
2.751946
8.384585
41.598678
107.180476
276.235938
476.007462
794.634819
1010.800600
1015.908718
1015.908718
1015.908718
987.960696
723.088980
531.462431
307.861567
182.603598
79.455972
40.756464
26.059747
31.948686
49.858689
69.097877
96.546412
115.181804
135.798454
141.699910
137.533545
127.345920
103.525519
84.932446
56.930780
39.579868
24.627447
16.250610
9.828806
7.573962
6.234646
5.801916
5.611777
6.225705
5.965829
5.902648
5.991459
6.843805
6.545782
6.517768
7.022619
6.994605
6.708503
7.018447
6.779432
6.630421
6.445646
6.579757
6.125569
6.491542
6.250739
6.022453
6.562471
6.111860
6.108880
6.580949
6.087422
6.052852
6.210804
6.504655
6.185770
6.093979
6.121993
6.046891
##ZVALUE=295
0.494719
0.565648
0.666976
0.692606
0.515580
0.544786
0.552535
0.616908
0.639558
0.837445
0.796914
0.985861
0.769496
0.811815
0.830889
0.742674
0.716448
0.845790
0.810623
1.202822
1.020432
0.945926
0.947714
1.259446
1.233816
1.691580
1.706481
1.720786
1.886487
3.715754
20.934939
66.343546
197.836757
360.709429
635.939837
848.735571
1015.897989
1015.897989
1015.897989
1012.696028
814.509988
624.595881
384.023786
238.443613
108.543634
53.736567
24.214983
20.435452
31.323433
44.310689
67.711473
85.867643
111.661553
125.500560
136.206746
134.032965
118.348598
101.556778
77.453852
59.381723
37.655830
26.125908
14.595985
10.272861
7.061958
5.482435
5.515814
5.723834
5.594492
5.778670
5.780458
6.206632
6.471872
6.176829
6.560683
6.475449
6.524920
6.825924
6.150603
6.459951
6.010532
6.064773
6.273985
6.035566
6.164908
6.208420
5.904436
5.958676
6.051660
5.953908
6.109476
5.738735
5.433559
5.813837
5.935431
5.887747
##ZVALUE=300
0.616908
0.545979
0.680685
0.626445
0.575781
0.607967
0.445843
0.785589
0.611544
0.597835
0.878572
0.582933
0.664592
0.623465
0.671744
0.736713
0.856519
0.679493
0.819564
0.758767
0.858903
0.895858
1.059771
1.142621
0.979900
1.154542
1.327991
1.026988
1.360774
1.423955
1.863837
1.947880
9.094477
37.843585
137.502551
256.737471
480.954051
684.411526
919.674635
1015.897989
1015.897989
1015.897989
935.540795
709.005594
518.874526
285.725594
171.702504
77.692866
36.529899
17.709732
17.283559
24.575591
41.244626
56.135654
81.302524
100.312829
118.380785
127.829909
126.794577
117.851496
97.763538
78.816414
55.784583
39.329529
23.642778
15.488863
9.502769
7.054806
5.868673
5.660653
5.597472
5.727410
5.633831
5.751848
6.155968
6.221533
6.089807
5.685687
6.105900
5.912781
6.094575
6.483793
6.234646
5.982518
5.780458
5.840659
5.935431
5.838871
5.666614
5.782843
5.566478
5.599856
5.597472
5.322695
5.695820
5.619526
##ZVALUE=305
0.383854
0.515580
0.540614
0.442863
0.463724
0.436902
0.598431
0.565648
0.597835
0.543594
0.703931
0.563860
0.580549
0.499487
0.627637
0.679493
0.592470
0.590682
0.608563
0.689626
0.609756
0.726581
0.831485
0.822544
0.920892
1.116991
1.107454
0.743866
1.029968
1.091957
1.209974
1.525879
1.595616
1.817942
5.011559
21.066666
87.691545
180.185437
362.159610
533.025861
767.177939
920.819640
1015.828848
1015.828848
958.342552
811.073780
577.242970
406.582952
218.997598
118.329525
45.439601
21.227598
13.223886
15.373826
24.726987
36.894679
57.957768
75.034499
98.424554
110.825896
119.465590
120.338798
108.818412
94.698668
73.352456
55.468678
35.156608
24.126768
13.959408
9.344816
6.559491
5.839467
5.835891
5.812645
5.406737
5.590916
5.480647
5.423427
5.310774
5.449653
5.652905
5.443692
5.550981
5.319715
5.756617
5.895495
5.817413
5.558729
5.616546
5.696416
5.378723
5.215406
5.331635
5.344748
5.455613
5.406737
##ZVALUE=310
0.530481
0.413656
0.551939
0.626445
0.649691
0.623465
0.573993
0.357628
0.595450
0.640750
0.580549
0.680685
0.437498
0.497699
0.607967
0.512600
0.665784
0.730753
0.644922
0.645518
0.856519
0.721812
0.765920
0.836849
0.668764
0.878572
0.893474
1.014471
1.123548
1.013875
1.100898
0.988841
1.303554
1.315475
1.601577
1.715422
1.762509
9.628534
32.929778
109.110475
204.606652
396.787524
577.424765
812.993646
966.190696
1015.899777
1015.899777
907.049775
744.068027
492.025018
327.277780
162.068605
85.871816
31.282902
14.619827
10.652542
13.250709
21.795630
32.350421
50.566792
66.258907
90.086460
102.151632
112.291574
114.192963
104.652643
92.160702
72.699785
55.705905
35.362840
24.996996
14.669895
10.553598
7.070899
6.005764
5.494952
5.438924
5.541444
5.207658
5.119443
5.264878
5.184412
5.529523
5.284548
5.708933
5.501509
5.599856
5.449653
5.714893
5.475879
5.390644
5.394816
4.972816
5.293489
5.070567
5.199909
##ZVALUE=315
0.517964
0.452995
0.555515
0.741482
0.581741
0.428557
0.538826
0.292659
0.535846
0.536442
0.630617
0.618696
0.406504
0.531673
0.452995
0.624657
0.658631
0.445843
0.420809
0.754595
0.776649
0.600815
0.707507
0.889897
0.776649
0.786781
0.752807
0.933409
0.915527
0.839829
0.931621
0.855923
1.115799
1.094937
1.214743
1.227856
1.528859
1.358986
1.374483
3.340840
13.229847
56.296587
125.337839
282.283425
446.258783
703.851581
878.195763
1015.897989
1015.897989
999.456644
854.913592
603.742003
424.947739
224.601626
121.118426
44.455528
19.507408
9.349585
9.364486
13.048649
18.667579
31.380653
44.692755
64.132810
80.116987
99.335909
107.209682
106.987953
99.992752
85.931420
69.880486
50.345659
36.123991
21.394491
15.027523
9.139776
6.740689
5.552769
5.314946
4.789829
5.133748
4.965663
5.099773
5.027652
5.213618
5.179644
5.286932
5.408525
5.285740
4.999638
5.437732
5.218983
5.123615
5.237460
5.171895
4.712939
##ZVALUE=320
0.395775
0.581741
0.412464
0.595450
0.598431
0.612736
0.637770
0.431538
0.450611
0.508428
0.356436
0.431538
0.529885
0.442863
0.549555
0.569820
0.371933
0.615716
0.450611
0.517964
0.714660
0.598431
0.664592
0.709891
0.600815
0.669956
0.715852
0.667572
0.587702
0.676513
0.708699
1.013875
0.981688
0.931621
0.952482
1.131892
1.164675
1.141429
1.232624
1.460910
1.571774
1.958609
5.752444
31.147599
80.465674
207.585692
340.248942
568.699837
769.432783
993.933678
1015.897989
1015.897989
971.000791
727.463961
522.612929
285.732746
162.846446
69.833994
30.899644
10.925531
8.081794
9.088516
10.945797
17.516613
25.581717
41.301847
55.751801
76.157451
89.842677
100.714564
102.793574
95.453858
84.416866
65.138936
50.219893
32.237768
22.751689
13.836622
9.542704
6.750822
5.385876
4.945993
5.051494
4.996657
4.949570
4.973412
4.802942
4.842877
4.583597
4.533529
4.704595
4.813671
4.893541
4.766583
4.984736
4.749894
##ZVALUE=325
0.421405
0.392795
0.276566
0.423789
0.431538
0.412464
0.570416
0.579953
0.523925
0.613928
0.448823
0.575781
0.463724
0.492930
0.477433
0.425577
0.510812
0.468493
0.586510
0.498891
0.703931
0.555515
0.429749
0.589490
0.615716
0.793934
0.723600
0.608563
0.597835
0.589490
0.692606
0.750422
0.892878
1.011491
0.813603
0.757575
0.986457
1.239777
1.031756
0.898838
1.184940
1.230836
1.365542
1.492500
3.344417
19.773841
52.808523
141.503811
253.681540
473.892689
672.529936
929.742455
1015.897989
1015.897989
1013.947725
801.686645
596.994758
359.115601
213.338733
92.202425
44.403672
14.639497
8.163452
7.162690
7.736683
11.296868
15.918612
26.724935
38.781762
57.654977
71.353912
87.362528
94.305873
96.057653
89.110732
75.393915
61.635971
45.107603
32.033920
19.598603
13.328791
8.422732
6.432533
5.280972
5.121827
4.905462
4.996657
4.666448
4.454851
4.693866
4.819632
4.513860
4.393458
4.659891
4.572868
4.600883
##ZVALUE=330
0.428557
0.410676
0.263453
0.403523
0.489950
0.450611
0.393987
0.349879
0.327826
0.437498
0.455976
0.365973
0.498891
0.438690
0.435710
0.448823
0.597835
0.523925
0.586510
0.651479
0.590682
0.682473
0.682473
0.646710
0.581741
0.572801
0.636578
0.717640
0.764728
0.597835
0.592470
0.723600
0.824928
0.703931
0.719428
0.829697
0.768900
0.861883
0.844598
0.790954
0.799894
0.941753
0.945926
1.201630
1.188517
1.598597
2.030730
8.272529
27.741790
93.523860
179.544687
361.391902
541.766882
802.518725
976.141691
1015.897989
1015.897989
884.773731
694.189668
436.377525
275.212526
127.401948
65.404773
23.274422
10.741949
6.672740
6.413460
7.532835
9.930730
16.411543
23.893714
37.742853
51.090717
68.884492
80.588460
88.858604
90.246797
83.059669
73.122978
56.095719
43.965578
28.736591
20.970702
12.634993
9.126663
6.433725
5.520582
4.763603
4.527569
4.627705
4.471540
4.307628
4.570484
4.458427
4.351735
4.406571
##ZVALUE=335
0.419617
0.420809
0.369549
0.496507
0.501871
0.328422
0.343919
0.492930
0.465512
0.437498
0.271797
0.443459
0.436902
0.294447
0.352859
0.398755
0.706911
0.463724
0.534654
0.648499
0.634789
0.505447
0.584722
0.459552
0.551939
0.461936
0.339746
0.633597
0.599623
0.519753
0.574589
0.647902
0.671744
0.824928
0.627637
0.743866
0.775456
0.806451
0.664592
0.907779
0.883937
0.848770
0.894666
0.948906
1.111627
1.019835
1.261830
1.342893
1.538992
3.749728
14.068484
55.476427
119.368434
267.272592
436.323881
699.991584
889.354944
1015.897989
1015.897989
945.016742
785.200596
524.671674
347.355604
180.587769
94.863772
32.413602
14.080405
7.162690
6.147623
6.450415
7.038713
10.119677
14.719963
24.607778
34.485459
49.656630
62.149763
75.949430
82.816482
83.349943
77.758431
66.403747
55.338740
42.068958
30.799508
20.531416
14.190674
8.569956
6.996989
5.529523
4.751682
4.249811
4.345775
4.126430
4.114509
4.382730
##ZVALUE=340
0.383854
0.293851
0.493526
0.298619
0.258684
0.323653
0.351667
0.406504
0.448823
0.402927
0.378489
0.272989
0.424981
0.448823
0.519753
0.457764
0.483990
0.472665
0.562668
0.447631
0.417829
0.383854
0.449419
0.417829
0.311732
0.543594
0.464916
0.547767
0.491738
0.576973
0.601411
0.684857
0.501871
0.670552
0.516772
0.768900
0.702739
0.607967
0.668764
0.631809
0.791550
0.710487
0.717640
0.900626
0.726581
0.995994
1.086593
1.041889
1.130700
1.235604
1.374483
2.018809
6.477833
33.706427
82.713962
204.340816
348.572731
575.571656
754.908919
940.392613
1001.195908
942.346454
816.476941
593.855977
414.914489
212.820768
118.598938
47.885776
19.911528
7.724762
6.566644
6.008744
6.100535
7.131696
9.630919
14.688969
21.044612
33.069849
45.313835
60.573816
70.272684
78.042746
77.832937
72.539449
65.402985
52.076578
40.851831
28.548837
20.641685
13.519526
9.544492
6.290674
5.404949
4.534721
4.487634
4.107952
##ZVALUE=345
0.267625
0.182986
0.285506
0.254512
0.284910
0.091791
0.261664
0.152588
0.274777
0.413656
0.420809
0.083447
0.244975
0.250936
0.154972
0.294447
0.351667
0.249743
0.226498
0.190735
0.467896
0.448823
0.394583
0.373721
0.324845
0.261664
0.303984
0.404716
0.227690
0.406504
0.247955
0.391603
0.323653
0.453591
0.370741
0.525713
0.440478
0.493526
0.662804
0.656843
0.665784
0.615716
0.552535
0.667572
0.573993
0.557899
0.796914
0.839829
0.772476
0.696778
0.703931
1.026988
1.129508
1.209974
2.852678
17.981529
52.645802
143.657923
249.105692
440.622568
607.965589
806.164742
895.364881
907.874703
829.072595
635.733604
475.288630
284.857750
162.929893
64.963698
28.641820
9.801984
6.481409
5.771518
5.354881
5.555749
6.009936
8.609891
12.244582
20.431876
29.410720
43.226480
52.913427
63.304901
69.138408
71.941614
68.929791
61.298609
52.296519
39.471984
29.206872
19.208789
13.469458
8.607507
6.497502
4.924536
##ZVALUE=350
0.238419
0.323653
0.318885
0.437498
0.501871
0.256896
0.340939
0.564456
0.361800
0.335574
0.303984
0.366569
0.417829
0.261664
0.470877
0.416636
0.303984
0.461936
0.414848
0.369549
0.413656
0.585914
0.432730
0.423789
0.370741
0.446439
0.376701
0.390410
0.414848
0.516772
0.584722
0.461936
0.386834
0.491738
0.556707
0.572801
0.688434
0.617504
0.546575
0.470877
0.701547
0.653863
0.615716
0.640750
0.627637
0.728965
0.654459
0.779629
0.745654
0.781417
0.712872
0.966787
1.026988
1.038909
1.104474
1.321435
1.704693
8.633733
28.636456
92.087984
176.641941
349.195004
506.657958
705.058575
828.256011
895.469785
853.473544
705.446005
544.398427
329.772830
204.067826
93.937516
43.525696
13.047457
7.009506
5.562901
5.357862
5.226731
5.108714
5.981922
7.427931
12.381673
17.630458
26.752949
35.024881
47.881603
56.314468
62.717795
65.703988
63.131452
57.564974
47.201514
38.025975
26.573539
19.984841
12.955666
##ZVALUE=355
0.311732
0.298619
0.484586
0.376701
0.380874
0.374913
0.516772
0.249743
0.348687
0.559688
0.519753
0.433922
0.273585
0.386834
0.610948
0.299811
0.326633
0.641942
0.457764
0.390410
0.444651
0.326633
0.547767
0.375509
0.506639
0.453591
0.456572
0.368953
0.492930
0.417829
0.473857
0.443459
0.447631
0.347495
0.587702
0.503659
0.635982
0.580549
0.465512
0.553727
0.621676
0.539422
0.710487
0.691414
0.642538
0.669956
0.780821
0.772476
0.722408
0.748634
0.802875
0.829697
0.822544
0.886917
0.952482
1.091957
1.053810
1.306534
1.532435
4.456639
15.501976
60.875416
126.063824
261.900425
408.899784
631.573796
767.639875
869.106650
867.759585
745.233893
604.841709
402.107835
257.409811
115.100741
55.624843
17.668605
8.235574
5.446672
5.251765
4.703999
4.681945
4.639626
5.254745
7.179976
9.587407
15.375614
21.714568
32.386780
40.535927
50.381422
56.258440
60.102940
58.375001
52.070618
45.310855
35.219789
##ZVALUE=360
0.397563
0.292659
0.237823
0.418425
0.257492
0.274777
0.393987
0.299811
0.253916
0.341535
0.268817
0.367761
0.500679
0.399947
0.478625
0.554919
0.370741
0.433922
0.433922
0.470877
0.389814
0.513792
0.375509
0.492930
0.508428
0.392795
0.590682
0.391603
0.449419
0.536442
0.572801
0.578761
0.567436
0.437498
0.601411
0.568628
0.566840
0.508428
0.556707
0.540614
0.709891
0.539422
0.601411
0.585914
0.616908
0.589490
0.706911
0.738502
0.702739
0.819564
0.617504
0.778437
0.781417
0.705719
0.921488
0.947714
0.957847
0.958443
1.245737
1.192689
1.404881
1.993775
7.995963
26.035905
86.328983
166.251659
327.211618
482.332706
694.145560
801.270008
849.720836
797.748566
650.091767
494.806767
295.766592
179.701447
75.715780
33.708811
10.392666
5.959868
5.071759
4.691482
4.386902
4.238486
4.348755
4.600883
5.685687
7.652640
12.385845
17.637610
26.268959
34.289956
43.663979
49.950480
53.607821
53.756833
##ZVALUE=365
0.339746
0.506639
0.390410
0.365973
0.394583
0.209808
0.191927
0.359416
0.428557
0.397563
0.412464
0.514984
0.419617
0.508428
0.606775
0.438690
0.393987
0.460744
0.485778
0.439882
0.392795
0.358820
0.355840
0.313520
0.437498
0.512600
0.403523
0.542998
0.497699
0.484586
0.489950
0.541806
0.427961
0.447631
0.564456
0.641942
0.629425
0.472665
0.459552
0.633597
0.611544
0.522733
0.644922
0.594854
0.612736
0.649691
0.607967
0.845790
0.737906
0.737906
0.760555
0.557899
0.637770
0.653863
0.825524
0.768900
0.829697
0.856519
0.983477
1.000762
1.123548
1.294613
1.550913
1.563430
3.012419
17.240644
46.841502
125.526786
232.863426
429.767966
581.636429
750.555992
831.557512
819.620490
724.580884
534.767509
382.863879
212.835670
115.313530
41.484833
16.918778
6.375909
5.078912
4.565716
4.488826
4.323721
4.076958
3.858805
4.099607
5.063415
6.570816
10.215640
14.754534
22.686720
29.538870
38.303733
##ZVALUE=370
0.261664
0.285506
0.326633
0.133514
0.365973
0.091791
0.276566
0.157952
0.124574
0.087619
0.219941
0.344515
0.203848
0.128746
0.140667
0.261664
0.230670
0.116825
0.111461
0.208616
0.212789
0.243783
0.278950
0.243783
0.321865
0.220537
0.452995
0.272989
0.330806
0.117421
0.262856
0.291467
0.419617
0.135899
0.473857
0.280738
0.389814
0.341535
0.248551
0.402927
0.378489
0.327826
0.442863
0.381470
0.294447
0.378489
0.288486
0.422597
0.386834
0.342727
0.402927
0.528693
0.452995
0.484586
0.628829
0.475645
0.490546
0.547767
0.702739
0.645518
0.619888
0.772476
0.774860
0.891685
1.008511
1.227856
1.643896
8.328557
28.668642
93.380809
180.751681
350.118876
510.163903
703.312755
797.804594
823.089480
765.159726
593.221784
440.928936
249.511600
142.292976
55.735707
25.850534
9.375811
5.118847
4.214644
3.884435
3.752708
3.546476
3.543496
3.421903
3.621578
4.007816
5.865693
8.214712
13.078451
##ZVALUE=375
-0.007749
0.017881
0.251532
0.164509
0.230670
0.061989
0.120997
0.038743
0.057817
0.076890
0.114441
0.027418
0.138879
0.216961
0.229478
0.011921
0.104904
0.086427
0.181794
0.100732
0.189543
0.163913
0.293851
0.329614
0.264645
0.300407
0.084639
0.305772
0.264645
0.318885
0.134706
0.185966
0.088811
0.240803
0.147820
0.117421
0.196695
0.327826
0.138879
0.377893
0.308752
0.330806
0.204444
0.097752
0.243783
0.246763
0.180602
0.256896
0.223517
0.311732
0.269413
0.402927
0.251532
0.400543
0.265837
0.323653
0.423789
0.205636
0.275970
0.395775
0.443459
0.555515
0.439882
0.509620
0.722408
0.685453
0.842810
0.945926
1.237988
4.051924
14.974475
56.954622
121.594667
269.098878
413.531661
618.402958
738.241673
817.265511
793.391466
659.962893
513.494611
314.695835
199.979544
98.695755
49.163699
15.767813
6.406903
3.824830
3.665686
3.543496
3.384948
3.368855
3.146529
3.074408
2.873540
3.651977
##ZVALUE=380
0.272989
0.209808
0.286698
0.489950
0.286698
0.355840
0.301600
0.374913
0.230670
0.419617
0.464916
0.471473
0.405908
0.271797
0.318885
0.314713
0.461936
0.287890
0.311732
0.416636
0.402927
0.366569
0.380874
0.345707
0.443459
0.377893
0.377893
0.439882
0.426769
0.317693
0.558496
0.474453
0.658631
0.534654
0.530481
0.542998
0.421405
0.441670
0.407696
0.466704
0.405908
0.547767
0.434518
0.608563
0.488758
0.474453
0.412464
0.491738
0.531673
0.389814
0.551939
0.346899
0.464916
0.462532
0.552535
0.521541
0.638962
0.386834
0.608563
0.542998
0.626445
0.616908
0.564456
0.677705
0.741482
0.822544
0.821948
0.924468
0.948906
1.318455
1.324415
2.388954
9.024739
42.258501
94.406605
207.402706
338.024497
545.671582
683.403611
800.143480
806.557536
700.744987
579.309464
404.910445
274.827480
137.161613
70.342422
24.302602
10.177493
4.655719
3.772974
3.512502
3.616810
3.073812
3.155470
3.120899
##ZVALUE=385
0.232458
0.375509
0.340939
0.328422
0.321865
0.432730
0.306964
0.315905
0.376701
0.319481
0.309944
0.193715
0.393987
0.232458
0.434518
0.420809
0.362992
0.548959
0.483990
0.390410
0.299811
0.277758
0.317693
0.195503
0.269413
0.271797
0.465512
0.456572
0.413656
0.504851
0.598431
0.424981
0.364780
0.343919
0.533462
0.468493
0.489950
0.475645
0.573993
0.416636
0.446439
0.544786
0.505447
0.405908
0.443459
0.565648
0.428557
0.366569
0.403523
0.398755
0.551939
0.664592
0.442863
0.369549
0.566840
0.598431
0.552535
0.347495
0.654459
0.567436
0.572801
0.513792
0.756979
0.696778
0.494719
0.569820
0.924468
0.828505
0.829697
0.980496
1.190901
1.018643
1.406670
1.507998
4.137754
22.254586
57.675838
147.156715
260.611773
458.045006
609.262586
756.317973
800.116658
761.912465
672.305822
496.068001
353.728533
194.108486
110.104680
44.742823
17.948747
5.584955
3.842711
3.411770
3.223419
3.182888
##ZVALUE=390
0.284910
0.259876
0.300407
0.310540
0.383854
0.390410
0.392795
0.371933
0.282526
0.276566
0.232458
0.375509
0.350475
0.333786
0.362992
0.379682
0.305772
0.367761
0.273585
0.165701
0.395775
0.342727
0.355840
0.442863
0.377893
0.313520
0.414848
0.470877
0.412464
0.488758
0.493526
0.470877
0.464916
0.456572
0.470877
0.439882
0.472665
0.581741
0.491738
0.469685
0.566840
0.513792
0.392795
0.573993
0.546575
0.482798
0.488758
0.336766
0.436902
0.528693
0.503659
0.509620
0.554919
0.437498
0.566840
0.516772
0.624657
0.485778
0.392795
0.509620
0.629425
0.528693
0.680685
0.479817
0.626445
0.515580
0.652671
0.762939
0.967979
0.986457
0.948906
0.933409
1.082420
1.146793
1.134872
1.219511
2.344847
9.149909
42.756796
99.047422
229.233503
359.479785
539.960861
670.542717
786.877871
807.678699
731.990933
615.455508
424.678922
286.474824
146.976709
74.693561
25.653839
9.734631
4.077554
3.328919
##ZVALUE=395
0.159740
0.225902
0.244975
0.385642
0.236630
0.342727
0.289679
0.199676
0.313520
0.453591
0.314713
0.359416
0.508428
0.456572
0.313520
0.315905
0.313520
0.380874
0.370741
0.519753
0.265837
0.318885
0.403523
0.272989
0.503659
0.429749
0.370741
0.429749
0.626445
0.528693
0.454783
0.554919
0.508428
0.479817
0.638962
0.523925
0.671744
0.525713
0.663996
0.737906
0.585914
0.592470
0.726581
0.531673
0.489950
0.576973
0.657439
0.499487
0.478625
0.591874
0.617504
0.487566
0.547767
0.573993
0.530481
0.544786
0.616908
0.549555
0.520945
0.476837
0.416636
0.558496
0.532866
0.597835
0.624657
0.541806
0.705719
0.688434
0.678897
0.796914
0.953674
0.967979
1.010895
0.947714
1.085997
1.072884
1.041889
1.042485
1.476407
6.583929
23.419857
80.830455
153.457522
290.829539
430.418849
626.283884
745.005608
821.173787
803.190470
685.032010
541.492701
337.441564
209.547877
92.198849
43.693781
13.875961
##ZVALUE=400
0.327826
0.174642
0.366569
0.239611
0.285506
0.374913
0.429749
0.416636
0.277758
0.429749
0.388622
0.248551
0.324845
0.296831
0.261664
0.273585
0.337958
0.344515
0.394583
0.284910
0.374913
0.517964
0.339746
0.257492
0.345707
0.336766
0.408888
0.343919
0.463724
0.437498
0.355840
0.514984
0.625849
0.779629
0.648499
0.580549
0.510812
0.537634
0.670552
0.691414
0.654459
0.541806
0.499487
0.677705
0.604987
0.380874
0.653863
0.641942
0.663996
0.480413
0.602603
0.525713
0.455976
0.422597
0.459552
0.496507
0.439882
0.406504
0.475645
0.558496
0.446439
0.587702
0.542998
0.661612
0.723600
0.714660
0.712872
0.735521
0.739694
0.655651
0.885725
0.905991
0.940561
0.859499
0.759959
0.900626
0.911951
0.873804
1.090765
1.091957
1.140833
3.518462
12.551546
46.211481
98.665953
223.438740
354.585648
550.176501
678.013563
783.517957
800.268650
711.113811
590.090752
406.038761
267.032981
135.272741
##END
