##TITLE=FAAI0502
##FORMAT=SPECTACLE-ASCII V-1.2
##DATA TYPE=ULTRAVIOLET SPECTRUM
##SECOND TYPE=ULTRAVIOLET SPECTRUM
##DATE=12/26/17
##TIME=14:09:31
##SPECTROMETER/DATA SYSTEM=SPECTACLE
##XUNITS=NM EM
##YUNITS=ENERGY
##YFACTOR=1
##FIRSTX=220
##LASTX=410
##NPOINTS=96
##3DDATA=Equidistant
##ZUNITS=NM EX
##FIRSTZ=210
##LASTZ=400
##ZPOINTS=39
##XYDATA=(Y..Y)
##ZVALUE=210
4.052520
3.439784
2.949834
3.419518
3.843904
3.197789
4.273653
3.644824
3.205538
3.350973
3.339648
2.082586
2.824664
2.633929
2.298951
2.706647
2.829432
2.449751
2.260804
3.123879
2.679825
3.676414
3.481507
3.158450
3.845692
4.018545
4.984736
5.827546
7.015467
7.765889
8.556843
9.381771
10.760427
9.646416
11.493564
11.169910
10.258555
10.952950
11.621714
10.520816
10.180473
9.807944
9.198785
8.818507
9.028912
8.517504
8.076429
8.396506
7.515550
7.603765
7.265806
6.778836
6.724596
6.012917
5.887747
6.027818
6.305575
5.705953
5.451441
6.067753
5.921721
5.836487
5.907416
5.330443
5.949736
5.510449
5.661845
6.359816
6.537437
7.447600
9.534955
10.039806
10.143518
10.739565
10.697842
12.548566
11.958480
11.011958
11.641979
9.640455
9.866953
8.809566
8.802414
8.399487
6.491542
6.019473
5.978942
5.729795
4.699826
5.171895
4.877448
5.242825
4.651546
5.194545
5.492568
5.843639
##ZVALUE=215
11.033416
10.290742
9.074807
7.220507
7.568598
6.738901
6.572604
6.436706
6.340742
6.802678
5.450845
4.821420
4.645586
3.321767
3.349781
2.858639
2.685785
3.122687
3.199577
2.181530
2.992749
3.571510
3.448725
3.604889
4.465580
4.537702
6.241798
7.435679
9.346604
10.015965
12.544990
13.964772
14.844537
17.665625
16.039610
17.819405
17.255545
17.075539
16.158819
15.680790
15.976429
15.213490
14.101863
13.463497
12.420416
12.174845
11.365414
10.716915
9.734631
9.034872
9.714961
8.815527
8.946657
8.185506
8.255839
7.069707
7.293820
7.112622
6.594658
6.040931
6.789565
5.991459
5.154610
6.074905
6.233454
6.658435
6.391406
6.099939
5.929470
7.545948
8.239746
8.904934
8.901954
11.596680
11.049509
11.095405
10.703802
10.345578
10.256767
8.936524
10.061860
8.042455
8.651614
7.594824
6.229877
6.372929
5.506873
5.558729
4.449487
4.422665
5.096793
4.925728
4.946589
4.453659
4.517436
5.132556
##ZVALUE=220
28.946996
31.627417
33.178926
30.473471
26.210546
21.846890
18.739700
15.589595
12.743473
12.697577
13.991594
14.518499
13.574958
12.025833
11.233687
7.689595
5.662441
4.370809
3.195405
3.256798
3.246665
3.506541
3.445745
4.064441
4.020929
6.241798
7.355809
11.251569
12.407899
15.142560
17.610788
20.526648
22.587776
25.401711
25.237799
26.314855
25.783777
26.125908
23.651719
23.818612
23.605824
20.998716
20.105839
18.863678
17.620921
17.367601
16.069412
15.050769
13.087988
12.775660
12.879968
11.555552
11.685491
10.388494
10.211468
9.454489
8.657575
9.252429
8.318424
8.229613
7.701516
6.661415
7.728934
7.670522
7.967949
7.136464
8.473992
8.095503
6.925464
7.458925
8.478761
9.162426
9.856820
10.746717
11.454821
11.639595
10.870695
11.424422
10.429621
9.978414
10.280609
9.459853
9.001493
7.564425
7.274747
5.958676
5.768538
6.281734
5.962849
6.263852
5.876422
5.031824
4.938841
5.351901
5.259514
5.848408
##ZVALUE=225
50.326586
50.597787
63.673854
74.196458
78.743696
73.757768
70.056915
53.052902
38.957596
31.596422
28.611422
25.849938
27.961731
29.208660
29.889941
25.470853
23.180842
17.824769
11.831522
9.847879
5.612969
4.443526
3.529787
4.005432
5.466938
6.344914
8.526444
11.409521
15.409589
17.393827
20.093918
23.311973
25.663972
26.152730
27.641654
28.992891
29.338598
29.955506
28.928518
27.033687
26.207566
25.416613
23.936629
23.281574
21.490455
20.603538
17.766953
17.954707
17.020702
16.501546
15.839934
13.347864
13.897419
13.368726
12.949705
12.357831
11.214614
11.545420
11.001825
11.657476
10.531545
10.870695
10.039806
9.556413
9.891987
8.878708
9.625554
10.133982
9.608865
10.790825
11.459589
11.881590
11.110902
12.045503
11.793971
11.531711
12.048483
11.220574
11.210442
10.805726
10.245442
10.476708
10.577440
9.031892
7.047653
7.978678
7.931590
7.124543
8.032918
7.504821
7.928610
7.506609
7.160902
6.517768
6.470680
7.233620
##ZVALUE=230
40.366650
46.157837
66.606998
104.310513
128.395557
159.977674
166.859627
161.763430
142.506957
118.435621
83.383918
59.667826
47.854781
42.956471
44.729710
50.214529
50.024986
46.626925
47.494769
37.223697
27.396679
17.742515
12.951493
7.885695
6.152987
6.666780
7.805824
10.944605
11.794567
14.320612
15.566945
17.767549
21.127462
23.748875
23.010969
24.596453
24.950504
24.575591
23.884773
26.413798
23.009777
22.775531
21.264553
19.786954
18.068552
18.171668
17.265677
17.697811
16.172528
16.329885
15.058517
14.258623
14.830828
14.325976
13.987422
13.255477
12.913942
12.344718
12.361407
12.134910
12.901425
11.630654
11.708736
10.986924
10.972619
11.553764
12.012720
11.929870
11.240840
12.824535
12.045503
14.405847
15.118718
13.740659
15.302896
14.448762
13.813972
14.735460
14.605522
12.116432
12.685657
11.656880
11.571646
11.514425
10.808706
11.639595
10.854602
9.880662
10.465980
9.880662
10.369420
9.604692
9.040833
10.316968
9.185672
9.541512
##ZVALUE=235
13.558865
16.720891
31.609535
72.662830
109.679699
173.467994
224.123001
278.635621
304.059982
296.235681
266.291499
215.664506
152.411461
109.416842
83.987713
69.651604
71.426630
74.760914
83.759427
82.608461
76.570511
66.049695
49.876571
34.285784
23.952723
14.259815
10.548830
9.070635
9.069443
11.574626
12.227893
12.874603
12.981892
15.655756
14.955997
15.998483
15.893579
16.243458
14.984608
16.340613
15.772581
16.133785
15.642643
15.488863
15.093684
14.079809
13.742447
14.433861
14.212728
12.362599
13.108850
13.628602
13.637543
13.503432
13.097525
12.421608
13.039708
12.807846
13.689995
12.755990
13.486743
14.242530
12.647510
12.759566
13.654828
12.741685
12.626648
12.884736
13.954639
14.828444
15.949607
15.581846
16.433597
16.252995
15.906692
17.480850
16.697645
17.167926
16.864538
16.235709
16.407967
15.137792
15.852451
13.691783
14.840961
13.734698
13.744831
13.245940
12.716651
14.479756
13.817549
13.449788
12.755990
12.948513
12.144446
13.258457
##ZVALUE=240
1.615882
2.134442
6.526709
16.005635
44.164658
76.508522
156.665444
230.868459
336.272717
398.386717
458.012819
446.200967
413.541794
331.017971
263.908505
173.922777
125.722885
96.285939
91.566443
100.556612
113.142729
117.620826
113.305449
104.568601
81.324577
66.050887
46.749711
33.281446
21.538734
13.469458
11.997819
11.613965
11.086464
11.810660
11.536479
12.851954
12.887716
13.079643
14.479756
14.550686
13.732910
14.403462
14.653802
14.825463
15.502572
15.702844
13.915896
14.407635
13.433695
13.941526
13.732910
13.888478
14.387965
13.995767
13.755560
13.126731
13.239980
13.212562
14.021993
12.515783
13.831854
13.509989
14.322996
13.610721
14.702678
14.102459
15.264750
14.699697
16.451478
16.625524
15.901923
18.545985
19.028783
19.836426
20.113587
20.390749
20.773411
20.395517
21.323562
18.657446
21.045804
19.541979
17.525554
19.495487
17.772913
17.237663
16.412735
16.141534
16.118884
16.601682
17.644763
16.255975
17.054677
15.849471
16.643405
15.600920
##ZVALUE=245
1.631975
2.017617
1.730919
1.905560
3.209710
14.576912
36.830902
94.368458
166.625977
290.573835
393.517017
519.508719
583.579540
597.343445
563.022494
460.906625
368.543863
247.799754
171.585679
110.858679
95.408559
95.316768
107.416511
123.163462
128.074884
130.952597
109.542608
97.253919
72.110891
53.807497
36.004782
25.959611
19.543767
15.382767
12.626648
14.268756
15.044808
15.738606
14.657974
14.925599
15.778542
16.598701
15.927553
15.984774
15.078783
15.633702
15.512705
15.304685
15.421510
14.703870
14.584661
14.525652
13.429523
13.401508
14.104843
13.989806
12.708902
13.316870
13.459921
12.071729
12.997985
12.687445
13.087988
12.346506
12.432933
12.671947
12.920499
14.034510
15.144944
14.668703
15.094876
17.634630
17.995834
17.897487
19.670725
19.381642
19.781590
19.706488
21.086931
18.763542
18.344522
17.500520
18.246770
17.489791
15.896559
16.136765
15.548468
16.356707
15.233755
15.725493
16.078949
14.672875
14.986992
16.777515
15.083551
14.894605
##ZVALUE=250
1.486540
1.391768
1.520514
1.851916
1.630783
2.097487
2.654791
12.501478
56.141615
103.143454
214.691758
329.431891
452.437997
585.517883
658.288002
705.456734
677.526593
593.336821
493.890643
335.845947
233.987570
152.927637
98.618865
92.433691
100.560784
117.160678
133.938789
139.655471
136.214495
125.767589
112.304688
84.500909
67.105889
43.970942
32.704473
23.976564
21.149516
19.786954
17.846823
19.463897
19.609928
18.395782
19.802451
19.242764
17.659664
17.547607
17.176867
16.261935
15.754700
14.976859
14.959574
15.603900
15.095472
13.903975
13.454556
13.832450
14.022589
12.711883
11.529922
12.090802
11.374950
12.536645
11.173487
11.764765
11.634827
11.157990
11.443496
12.406707
12.364984
13.093948
13.403893
15.384555
15.094876
16.014576
15.677810
17.251968
17.387867
16.547441
16.457438
16.948581
15.959740
15.893579
15.590787
15.800595
15.387535
15.710592
15.174747
14.905930
15.358925
15.401840
14.796853
14.201999
14.151931
14.430881
15.310645
14.856458
##ZVALUE=255
1.130700
1.162887
1.562834
1.410842
1.546741
1.615882
1.617670
1.554489
1.779795
5.178452
18.933415
66.063404
128.411651
262.879729
385.142565
553.229451
659.346581
757.489800
769.487619
692.318678
597.928762
479.153991
295.710564
191.217661
110.603571
88.480711
89.415908
104.503632
131.013989
147.964954
157.297850
152.825713
141.609907
120.165944
99.600554
71.810484
57.012439
40.189624
31.226873
27.067661
25.128722
24.381876
23.157001
22.235513
22.168756
21.461844
19.464493
19.566417
19.403696
18.095970
17.920732
16.458631
15.688539
15.549660
14.604926
14.060736
13.633966
13.336539
12.508631
12.587905
11.734962
11.660457
11.309981
10.829568
10.526776
10.272861
10.602474
11.039972
11.646748
11.711717
13.604760
11.817813
13.874769
13.861656
14.438629
14.139414
15.232563
15.006661
15.010834
14.633536
15.005469
13.607740
13.182759
12.394786
14.030933
13.067722
13.253689
13.254881
12.836456
12.981892
13.216734
13.109446
13.625622
13.095737
13.821721
12.677908
##ZVALUE=260
1.171827
1.066923
1.046658
1.179576
1.371503
1.321435
1.375675
1.254678
1.677871
1.556873
1.832843
2.558827
7.350445
30.258894
67.574978
168.464780
277.563930
449.721813
596.072674
753.386021
817.263722
810.551643
694.648027
565.835834
371.467471
256.045461
152.981877
105.495453
85.068941
93.572736
112.586617
146.118999
163.902640
173.376799
173.713565
156.134963
137.964487
107.308626
85.482597
63.055754
50.516725
38.487911
33.700466
28.505921
27.469993
26.004910
25.437474
23.910999
22.226572
20.614862
20.950437
18.982887
18.601418
17.083883
15.347600
13.976693
13.754964
13.619661
13.682842
12.458563
11.773705
11.663437
11.891723
11.543632
11.270642
10.628700
10.850430
10.885596
10.781884
11.460781
12.201667
11.485815
12.107491
12.720823
13.497472
13.138652
13.103485
12.580752
12.501478
13.194680
12.575984
13.148785
12.314916
11.980534
12.196898
11.563897
12.293458
12.433529
12.051463
11.400580
11.752844
12.023449
12.436509
12.508631
11.875629
12.707710
##ZVALUE=265
1.211762
1.183748
1.132488
1.140833
1.091957
1.236796
1.208782
1.237988
1.158714
1.240969
1.323819
1.390576
1.714826
2.039671
4.164577
19.856691
54.133534
135.347843
237.858891
427.390933
586.242676
737.156868
854.813457
871.210694
779.143572
669.121742
494.361520
353.484750
206.772685
134.442449
99.800825
90.243816
105.887651
137.798786
159.295797
178.590417
189.968944
180.661678
164.189935
138.161778
114.919543
85.589886
66.605806
48.640966
39.890409
32.847524
29.345751
26.251674
25.008917
23.672581
22.837520
21.588802
20.229816
18.981695
18.316507
16.425848
15.730858
14.899969
14.883876
13.221502
12.362599
12.109876
11.332631
11.693835
11.586547
10.868907
11.180639
10.550618
10.710955
11.637807
11.324883
11.943579
11.530519
12.124777
13.057590
12.242794
12.542605
12.867451
12.476444
11.350513
12.427568
11.845827
11.769533
12.058616
11.389852
11.295676
11.629462
11.599660
11.057854
11.313558
11.090636
11.914968
11.384487
11.600852
11.449456
11.723638
##ZVALUE=270
1.029968
1.087785
1.124740
1.040697
0.960827
0.948906
1.051426
0.792742
1.051426
1.245737
1.185536
1.518726
1.238585
1.420975
1.614690
1.800656
2.161860
9.151697
30.700564
98.684430
192.352533
324.468017
537.891984
697.866678
857.803822
908.637643
879.784822
784.868598
612.548590
470.467806
328.290462
188.868642
123.614669
87.631941
92.573762
113.575459
140.270591
167.951584
182.131529
184.941888
182.887912
161.935687
139.387846
110.203624
86.516738
60.790777
46.249628
35.564899
28.763413
24.537444
22.437572
21.009445
20.428896
19.688606
18.076897
16.591549
15.299916
15.353560
14.825463
13.732910
13.422966
12.484789
12.838840
11.794567
11.310577
10.891557
11.661649
10.932684
11.138916
11.468530
11.573434
11.345744
11.476874
12.195706
12.436509
12.549758
11.953712
11.853576
11.913776
11.659861
11.212826
11.509657
11.663437
11.112690
11.086464
10.652542
10.718703
11.585951
10.699630
10.863543
10.904670
10.136962
11.325479
10.910630
11.294484
11.207461
##ZVALUE=275
0.780821
0.789762
0.744462
0.845790
0.785589
1.174808
0.845790
0.968575
0.979900
0.857711
1.041889
1.211762
1.021624
1.149774
1.338720
1.260638
1.372695
1.486540
1.904964
4.360676
16.312599
46.953559
135.154724
245.265961
445.238948
595.036745
773.535967
871.502757
917.058587
866.860747
762.684941
566.187501
411.458015
231.612921
145.384669
84.996819
71.099997
81.811547
101.707578
130.808949
153.257847
170.976520
178.098679
169.768929
156.685710
123.400688
101.718903
74.236989
56.435466
38.562417
29.116869
21.997690
18.864870
16.617775
16.384721
15.345812
14.888644
14.298558
13.847947
13.321638
13.319850
11.977553
12.170672
11.247993
11.741519
11.400580
11.954904
10.732412
11.128783
10.976791
11.034608
11.348724
11.641979
11.604428
12.382865
11.498928
12.087822
12.053847
11.194944
11.499524
10.906458
11.270642
11.346936
11.338592
10.738969
10.899901
11.182427
10.510683
11.153817
10.536909
10.562539
10.876656
10.475516
10.728836
10.895729
10.295510
##ZVALUE=280
0.921488
0.916719
0.838637
0.893474
0.683665
0.864863
0.859499
0.761747
0.896454
0.914931
0.914931
0.874996
0.790954
1.129508
1.108646
1.118779
1.192689
1.286864
1.457930
1.423955
1.616478
2.046824
9.996891
33.496618
102.825761
188.626647
346.822739
506.843925
713.203549
838.610530
930.507779
917.192698
832.560658
640.103817
472.956896
275.510550
172.110796
86.823702
56.906939
52.425861
65.147877
91.098547
114.394426
140.964985
154.366493
161.692500
156.307817
135.978460
119.421482
89.035630
67.177415
44.386983
33.443570
20.591617
16.573668
13.606548
12.245774
11.624694
11.180639
11.067986
10.915995
10.475516
11.045933
10.831952
11.094809
10.746717
10.719895
10.630488
10.550618
10.796785
11.165738
11.294484
11.376739
11.478662
11.249781
12.032986
11.746883
11.586547
11.537671
11.140704
11.455417
10.851622
10.573864
11.335611
11.030436
11.207461
10.671616
10.968447
11.030436
10.487437
10.377765
10.604858
10.265708
10.194778
10.352731
10.016561
##ZVALUE=285
0.919700
0.828505
0.766516
0.822544
0.831485
0.804663
0.988841
0.944734
1.044869
1.094937
0.984669
0.967979
1.009703
1.069903
0.981688
1.205802
1.203418
1.277924
1.345873
1.229644
1.157522
1.594424
1.731515
2.105832
5.355477
16.635656
59.060454
121.674538
253.217816
397.879481
557.827950
763.901472
887.165666
942.778587
889.587998
732.588768
571.472645
356.855989
227.936506
111.362934
59.915781
35.977960
37.517548
56.567788
75.197816
106.654763
125.560760
142.432451
147.817731
146.535635
134.077668
110.849738
89.923739
62.955618
44.503808
27.355552
19.140840
13.086796
11.224747
9.820461
10.199547
9.942651
9.921789
9.784698
10.279417
10.568500
10.360479
10.237694
10.865927
10.803938
10.831952
10.882616
11.071563
10.761619
11.010766
10.998845
11.377931
11.365414
10.967851
11.241436
11.536479
11.285543
11.358857
11.142492
11.261702
10.696650
11.114478
10.811687
11.264682
10.637641
10.685921
10.817647
10.919571
10.587573
10.385513
10.258555
##ZVALUE=290
0.782609
0.810623
0.769496
0.484586
0.577569
0.736713
0.717640
0.631809
0.734925
0.855923
0.714660
0.897646
0.770688
0.853539
0.822544
0.888705
1.133680
1.035929
0.987649
0.991821
1.026988
1.097918
1.256466
1.383424
1.306534
1.711845
1.953840
9.070635
27.690530
84.210634
161.175728
324.637890
479.784012
700.588822
839.142799
938.228965
938.019753
813.483000
665.417910
451.553464
299.380422
150.750875
81.509948
35.897493
26.175976
34.766793
48.421621
73.633790
93.983412
117.848516
133.935809
142.388940
143.068433
127.632618
110.094547
82.874894
62.499642
40.322542
28.523803
17.222762
12.847781
9.873509
8.967519
9.121895
9.009838
9.362698
9.539723
9.615421
9.770989
9.817481
10.042787
10.789633
10.662675
10.718703
10.862947
10.938644
10.835528
11.138916
11.297464
10.794997
10.793805
10.719895
10.433793
11.233687
10.924935
11.033416
11.046529
10.721684
10.454655
11.187792
10.762811
10.572672
10.707974
10.868907
10.473728
10.605454
##ZVALUE=295
0.643730
0.694990
0.608563
0.586510
0.712872
0.717640
0.595450
0.853539
0.623465
0.612736
0.732541
0.708699
0.653863
0.703931
0.771880
0.765920
0.800490
0.751615
1.039505
0.972748
0.948906
0.864863
1.059771
1.118779
1.120567
1.107454
1.230836
1.364946
1.522899
3.071427
11.243820
46.851635
105.504990
241.407752
387.329459
614.809990
768.489838
916.370749
950.031877
876.231790
752.487779
541.048646
378.394723
204.083920
112.283826
43.679476
24.160743
21.217465
29.040575
45.901537
64.837933
90.336800
109.411478
127.654672
135.071874
132.163763
122.817755
101.600885
82.231760
56.343675
41.285753
26.034713
17.838478
11.843443
10.400414
8.395910
8.500814
8.613467
9.184480
9.126663
9.287000
9.448528
9.837747
10.120869
10.506511
10.383725
10.122657
10.559559
11.109710
10.645986
10.614991
10.901690
10.837913
10.771751
10.962486
11.139512
10.505915
10.776520
10.582805
11.141896
10.819435
10.563731
10.449886
10.685921
10.440946
10.657907
##ZVALUE=300
0.659823
0.543594
0.544786
0.584722
0.602603
0.686646
0.662804
0.640750
0.776649
0.580549
0.645518
0.660419
0.599623
0.602603
0.770688
0.706911
0.796914
0.820756
0.767708
0.791550
0.959635
0.988841
0.909567
1.078844
1.016855
0.949502
1.180768
1.123548
1.271963
1.187921
1.532435
1.900792
7.132888
24.786592
79.577565
156.722665
320.549607
485.039949
706.467628
839.684606
942.090750
934.545994
670.189857
650.016665
306.568742
278.685689
142.639875
34.391880
30.577779
16.529560
17.530918
36.697984
39.584637
72.417855
80.405474
103.877783
118.411779
128.547549
127.947927
116.038918
100.830793
78.583956
50.740838
39.354563
18.428564
17.020702
12.515783
9.498000
8.860826
8.822680
8.643866
8.830428
9.257793
9.462833
9.914637
9.690523
10.549426
10.234714
10.295510
10.805726
10.699630
10.567904
11.176467
10.299683
10.835528
11.047721
10.738969
10.954738
10.886788
10.918975
10.748506
10.667443
10.896921
10.711551
10.683537
10.377765
##ZVALUE=305
0.491738
0.468493
0.623465
0.665784
0.591874
0.450611
0.628829
0.407696
0.526905
0.739694
0.508428
0.713468
0.773668
0.662804
0.696778
0.856519
0.791550
0.587702
0.636578
0.747442
0.772476
0.707507
0.864863
0.883937
0.823736
0.928640
0.820756
0.863671
0.993609
1.031756
1.132488
1.374483
1.346469
1.527667
3.598928
13.173819
52.959919
113.394856
254.671574
397.651792
617.951751
772.342682
912.227631
949.147940
865.334868
735.371709
529.807806
373.421907
201.257467
110.612512
43.407679
20.617843
12.554526
15.336871
25.270581
36.888719
58.155656
76.040626
96.550584
111.255646
122.172832
121.394992
111.607909
99.411607
74.773431
58.652759
38.308501
27.042627
16.665459
12.356639
10.163784
9.572506
8.976460
9.400845
9.151697
9.435415
9.808540
10.186434
9.837747
10.051727
10.625720
10.599494
10.719895
10.542870
10.846853
10.871887
10.941625
11.164546
11.003613
10.960698
10.688901
10.466576
10.347962
10.068417
10.147691
10.106564
##ZVALUE=310
0.555515
0.648499
0.547767
0.454783
0.596642
0.458956
0.565648
0.468493
0.637770
0.608563
0.543594
0.738502
0.638962
0.591874
0.726581
0.486970
0.634789
0.637770
0.575781
0.667572
0.649691
0.772476
0.652671
0.734925
0.741482
0.805855
0.906587
0.964999
0.921488
1.157522
1.097918
1.082420
1.074672
1.225471
1.312494
1.654625
1.862645
5.433559
27.370453
66.537857
164.605975
282.508731
491.882563
661.890507
849.356651
933.336020
921.719670
836.955905
652.482510
483.020544
278.067589
166.370869
71.224570
33.379793
13.645887
11.136532
14.980435
21.235943
34.346581
47.912598
69.241524
86.618662
104.343891
114.914775
115.749836
109.348893
92.618465
77.224970
54.501891
39.842725
25.354624
18.688440
13.189912
11.134744
9.704828
9.331703
9.403825
9.644628
9.656549
9.903908
10.091662
9.950995
10.334849
10.793805
10.538697
10.414720
10.986924
10.844469
10.452867
10.746717
10.771751
10.085702
10.268688
10.358691
10.255575
10.280609
##ZVALUE=315
0.497699
0.577569
0.448823
0.348687
0.508428
0.526905
0.475645
0.511408
0.567436
0.588894
0.575781
0.642538
0.530481
0.634789
0.619888
0.536442
0.602603
0.726581
0.605583
0.486970
0.453591
0.577569
0.778437
0.659823
0.672936
0.651479
0.731945
0.861883
0.860691
0.942945
1.008511
0.893474
0.896454
0.966787
1.138449
1.131892
1.217723
1.364946
1.776814
3.169775
11.654496
46.767592
104.425550
234.703422
383.836627
616.047978
762.555599
900.290608
941.655636
879.724622
758.738518
548.786521
386.403799
205.838680
112.014413
41.858554
18.578768
9.779930
9.859800
13.589859
19.402504
32.016635
44.981837
64.608455
81.384778
100.526810
107.778907
109.363794
103.360415
87.119937
71.933866
54.025650
39.907694
25.733709
18.818974
13.166666
11.211634
9.680986
9.834766
9.829998
9.492636
10.169744
10.234714
10.593534
10.446906
10.603666
10.615587
10.349751
10.606647
10.750890
10.628700
10.182858
10.241866
10.362864
10.281801
10.236502
##ZVALUE=320
0.546575
0.520945
0.608563
0.654459
0.422597
0.498891
0.548959
0.494719
0.515580
0.462532
0.443459
0.566840
0.441670
0.504851
0.744462
0.527501
0.497699
0.684857
0.792742
0.807643
0.703931
0.566840
0.530481
0.632405
0.729561
0.672936
0.651479
0.729561
0.712872
0.845790
0.684857
0.933409
0.939965
0.944734
0.988841
1.072884
1.171827
1.177788
1.215935
1.323819
1.356602
1.872778
5.011559
26.828647
69.291592
175.863504
293.007493
488.029718
652.913451
841.666460
921.952724
917.035937
833.368897
642.433763
472.538471
262.682438
150.802732
65.238476
29.693842
11.453629
8.375645
9.166598
11.783838
18.426776
26.293993
43.586493
57.300925
77.585578
91.811419
102.243423
103.014708
96.374750
87.340474
67.726970
53.209662
36.569834
26.884675
18.515587
14.033914
11.463761
10.187626
9.901524
9.974837
10.008812
9.991527
9.962916
10.093451
10.320544
10.353923
10.013580
10.076761
10.272861
10.451674
10.246634
9.898543
10.375977
##ZVALUE=325
0.532866
0.534654
0.549555
0.631809
0.546575
0.344515
0.512600
0.521541
0.459552
0.547767
0.368953
0.495911
0.506639
0.659823
0.689626
0.546575
0.563860
0.471473
0.751615
0.457764
0.429749
0.553727
0.699759
0.622869
0.526905
0.603795
0.753999
0.627637
0.722408
0.779629
0.719428
0.699759
0.737906
0.795722
0.778437
0.851750
0.931621
0.857711
0.973940
1.085997
1.272559
1.377463
1.202822
1.526475
2.808571
17.135739
45.658946
118.605494
214.777589
404.313803
563.273430
765.513778
876.466036
924.868584
869.857669
694.240928
529.768467
325.239897
196.617842
85.319877
41.473508
14.771819
8.869767
8.172989
8.444786
12.341738
16.681552
27.333498
39.569736
57.849884
72.234869
87.646842
94.551444
97.467899
91.547966
78.514814
64.206719
47.492981
36.680698
24.244785
18.469691
13.538599
11.421442
10.286570
10.115504
10.340810
9.964705
10.225773
9.964705
9.682775
9.923577
10.400414
9.862781
10.088682
10.065436
9.779930
##ZVALUE=330
0.516772
0.427961
0.541806
0.464916
0.575781
0.583529
0.453591
0.422597
0.304580
0.553727
0.461936
0.476837
0.652671
0.588894
0.494719
0.670552
0.498891
0.513792
0.514984
0.474453
0.654459
0.473857
0.480413
0.502467
0.527501
0.563860
0.591874
0.572801
0.570416
0.638962
0.560880
0.685453
0.656843
0.795722
0.750422
0.910759
0.660419
0.971556
0.854731
1.025796
1.094937
1.134872
1.194477
1.094937
1.071692
1.450777
1.932979
7.326603
23.587942
79.306960
152.961016
309.758782
455.273986
665.829778
801.693797
897.829533
880.664587
759.882927
610.479712
396.819711
253.892541
118.794441
59.990883
22.371411
10.749698
7.376671
7.522702
8.792877
10.858774
17.881989
25.301576
39.335489
51.720738
69.555640
82.365870
90.947747
91.696978
85.630417
75.488687
59.261918
46.595931
32.338500
24.758577
17.781854
14.202595
11.314750
10.416508
9.867549
9.985566
9.917617
9.787679
9.664893
9.821653
9.622574
9.953976
9.377599
##ZVALUE=335
0.352859
0.331998
0.517964
0.502467
0.462532
0.560880
0.492930
0.324845
0.472665
0.377893
0.297427
0.389814
0.522733
0.332594
0.433922
0.420809
0.577569
0.606775
0.508428
0.526905
0.553727
0.478625
0.667572
0.613928
0.541806
0.635982
0.583529
0.599623
0.610948
0.650883
0.525713
0.660419
0.632405
0.634789
0.634789
0.603795
0.625849
0.668764
0.729561
0.859499
0.699759
0.934601
0.935793
0.895858
1.026988
1.143813
1.093745
1.270771
1.477599
3.410578
11.675954
48.400760
103.077888
228.873491
368.748903
584.297776
731.571913
859.276652
886.010528
802.750587
678.117871
465.312004
313.131809
163.524747
86.132884
29.863715
13.694763
7.920861
7.055998
7.459521
8.488894
11.200905
15.674829
25.418997
35.516620
51.389933
64.357519
77.068806
84.785819
86.169839
80.154538
70.003867
59.321523
45.650601
36.189556
25.127530
19.099712
14.002919
11.423826
10.066628
9.857416
9.450912
9.385943
9.444952
9.354949
9.243488
##ZVALUE=340
0.388622
0.362992
0.354648
0.336766
0.301600
0.540614
0.458956
0.458956
0.397563
0.325441
0.414848
0.454783
0.457764
0.456572
0.404716
0.611544
0.423789
0.527501
0.437498
0.456572
0.583529
0.538826
0.547767
0.630617
0.536442
0.620484
0.555515
0.543594
0.697970
0.540614
0.426769
0.657439
0.829697
0.624657
0.653863
0.666976
0.673532
0.635982
0.719428
0.830889
0.813603
0.861883
0.830889
0.804663
0.910759
0.884533
0.896454
1.177788
1.033545
1.247525
1.198649
1.962781
5.826950
29.426813
72.983503
179.395676
300.824046
494.595766
644.391775
799.456835
856.160522
815.593004
716.045499
532.212853
376.951694
202.894807
110.268593
42.446852
18.719435
8.520484
7.349849
7.205606
7.483959
8.891821
10.836720
16.634464
23.394823
35.504699
46.990514
62.951446
72.101951
80.698729
80.547929
74.553490
68.034530
55.023432
45.158863
32.528639
25.173426
17.654896
13.579726
10.977983
9.886622
9.255409
8.785725
8.912683
##ZVALUE=345
0.356436
0.481606
0.309944
0.337958
0.452995
0.366569
0.452995
0.346899
0.390410
0.423789
0.368953
0.441670
0.406504
0.354648
0.375509
0.387430
0.364780
0.500679
0.387430
0.424981
0.423789
0.495911
0.506639
0.533462
0.569820
0.576973
0.427961
0.578761
0.635982
0.543594
0.571609
0.743866
0.546575
0.695586
0.545979
0.591874
0.879765
0.680685
0.619888
0.639558
0.555515
0.608563
0.759959
0.869632
0.828505
1.048446
0.737906
0.763535
0.800490
1.113415
0.832677
1.042485
1.208782
1.509786
2.663732
16.670823
46.090484
121.140480
213.538408
388.443470
534.915924
715.718865
803.122520
819.946527
751.941800
492.495894
427.102447
181.893706
141.037703
60.829520
27.572513
8.163452
7.070899
7.125735
6.853938
7.286668
9.923577
11.008978
17.615557
21.420717
32.704473
43.357611
62.576532
66.571832
74.235797
74.761510
67.593455
65.208673
44.256449
43.647885
32.235980
23.454428
14.213920
13.037920
10.793805
9.530783
##ZVALUE=350
0.435710
0.355840
0.399947
0.440478
0.410676
0.318885
0.615716
0.399947
0.390410
0.546575
0.525713
0.421405
0.448823
0.488758
0.535846
0.406504
0.408888
0.546575
0.302792
0.387430
0.591874
0.533462
0.472665
0.526905
0.535846
0.515580
0.571609
0.501871
0.352859
0.536442
0.443459
0.675917
0.647902
0.488758
0.591874
0.590682
0.503659
0.678897
0.556707
0.658631
0.633597
0.512600
0.529885
0.636578
0.530481
0.729561
0.757575
0.862479
0.963807
0.924468
0.893474
0.938773
0.885725
1.089573
1.085997
1.673698
2.060533
6.315708
28.699636
133.689642
161.747932
403.458476
459.847450
629.234910
733.962655
797.801614
710.311532
645.839572
477.231741
182.069540
170.610547
84.471703
39.703846
12.956858
7.852912
6.709695
6.552935
6.551743
6.544590
7.755756
9.467602
14.210939
19.671917
29.793978
38.736463
50.340891
58.916807
66.815615
69.201589
67.156553
61.537623
50.512552
41.607618
30.647516
23.679733
17.053485
##ZVALUE=355
0.341535
0.285506
0.384450
0.585914
0.428557
0.525713
0.332594
0.404716
0.458956
0.406504
0.543594
0.468493
0.446439
0.359416
0.479817
0.477433
0.423789
0.421405
0.350475
0.425577
0.391603
0.491738
0.487566
0.550747
0.422597
0.444651
0.670552
0.523925
0.585914
0.451803
0.681877
0.427961
0.572801
0.581741
0.599623
0.461936
0.607967
0.431538
0.676513
0.715852
0.570416
0.587702
0.645518
0.622869
0.503659
0.637770
0.622869
0.747442
0.752807
0.737906
0.828505
0.744462
0.875592
0.909567
0.825524
1.074672
1.166463
1.296997
1.335740
4.072785
14.130473
54.765940
111.393929
232.211947
359.054804
547.663569
673.289895
767.015815
767.116547
663.985610
538.362861
355.861783
227.840543
102.204680
49.299598
16.935468
8.560419
6.439686
6.291866
6.298423
6.360412
6.422997
6.998777
9.142756
11.651516
17.593503
24.115443
34.145713
42.445660
52.553415
58.688521
61.600804
60.954690
55.492520
49.257874
39.164424
##ZVALUE=360
0.504851
0.500679
0.298619
0.525713
0.466704
0.363588
0.441670
0.437498
0.437498
0.386834
0.397563
0.462532
0.411868
0.344515
0.365973
0.487566
0.433922
0.409484
0.441670
0.413656
0.345707
0.544786
0.521541
0.467896
0.542998
0.372529
0.515580
0.470877
0.557899
0.586510
0.496507
0.461936
0.584722
0.459552
0.626445
0.670552
0.626445
0.713468
0.590682
0.641942
0.666976
0.742674
0.592470
0.655651
0.658631
0.707507
0.607967
0.619888
0.610948
0.728965
0.740886
0.671744
0.800490
0.857711
0.856519
0.957847
0.912547
1.030564
0.934601
1.137853
1.151562
1.723766
7.276535
23.452640
76.924562
147.099495
286.872983
422.264934
611.829758
713.039637
752.875805
708.026886
575.287938
439.413786
262.181759
156.994462
68.539977
31.434894
10.776520
6.558895
5.907416
5.958676
5.912781
5.661845
5.973577
6.404519
7.539988
9.705424
14.514923
20.040870
27.740598
35.896897
45.642853
51.386952
56.114793
56.618452
##ZVALUE=365
0.537634
0.463724
0.482798
0.383854
0.366569
0.546575
0.379682
0.476837
0.392795
0.444651
0.452995
0.429749
0.322461
0.504851
0.354648
0.406504
0.414848
0.581741
0.538826
0.420809
0.454783
0.684857
0.442863
0.540614
0.449419
0.522733
0.643730
0.556707
0.555515
0.659823
0.584722
0.514984
0.433922
0.541806
0.514984
0.632405
0.533462
0.673532
0.572801
0.603795
0.318885
0.655651
0.663996
0.605583
0.583529
0.542998
0.632405
0.531673
0.641942
0.648499
0.595450
0.772476
0.758767
0.664592
0.797510
0.789762
0.717640
0.877976
0.937581
1.060963
1.000762
1.073480
1.292825
1.482964
2.842546
15.527606
42.733550
111.271739
202.868581
373.721719
505.663753
653.315783
725.993514
715.533495
632.615685
467.513800
333.966017
185.874701
102.594495
39.068460
17.164946
7.081628
5.777478
5.500913
5.451441
5.250573
5.252957
5.245805
5.308986
6.189942
8.277893
12.029409
16.636848
23.927689
30.810833
39.605498
##ZVALUE=370
0.406504
0.410676
0.403523
0.453591
0.407696
0.561476
0.437498
0.455976
0.363588
0.303984
0.465512
0.445843
0.405908
0.326633
0.287890
0.539422
0.461936
0.619888
0.502467
0.395775
0.357628
0.488758
0.618696
0.449419
0.487566
0.391603
0.405908
0.454783
0.505447
0.517964
0.470877
0.583529
0.650883
0.353456
0.459552
0.562668
0.543594
0.524521
0.552535
0.565648
0.489950
0.591874
0.356436
0.504851
0.470877
0.490546
0.555515
0.729561
0.636578
0.456572
0.644922
0.503659
0.616908
0.693798
0.692606
0.744462
0.784993
0.626445
0.651479
0.702739
0.947714
0.829697
0.870824
1.100898
1.193881
1.287460
1.770854
7.636547
25.505424
82.338452
153.993964
292.666554
425.830483
602.090955
692.889690
723.074675
666.878819
527.961850
394.003987
222.373009
125.116706
49.683452
23.694634
9.322762
5.902648
5.115867
5.045533
4.888773
4.917979
4.769564
4.652739
4.943609
5.757809
7.424951
10.160804
14.776587
##ZVALUE=375
0.362992
0.343919
0.389814
0.315905
0.327826
0.351667
0.433922
0.369549
0.434518
0.359416
0.383854
0.299811
0.315905
0.353456
0.352859
0.291467
0.292659
0.475645
0.379682
0.380874
0.382662
0.409484
0.414848
0.518560
0.533462
0.431538
0.553727
0.561476
0.493526
0.358820
0.542998
0.443459
0.419617
0.466704
0.494719
0.515580
0.536442
0.484586
0.525713
0.542998
0.658631
0.660419
0.632405
0.566840
0.529885
0.478625
0.490546
0.687838
0.625849
0.594854
0.515580
0.505447
0.779629
0.574589
0.650883
0.701547
0.633597
0.776649
0.719428
0.722408
0.693798
0.732541
0.672936
0.822544
0.818968
0.901818
1.028776
1.207590
1.309514
3.917813
13.157725
48.342943
102.154613
230.763555
359.607935
539.311767
646.952987
720.042586
705.765486
589.982867
464.721918
287.500024
178.547502
83.315969
42.362809
14.254451
7.315874
5.003810
4.475713
4.411936
4.500747
4.236698
4.257560
4.444718
4.539490
5.096793
##ZVALUE=380
0.425577
0.343919
0.433922
0.377893
0.344515
0.193715
0.339746
0.331998
0.300407
0.440478
0.377893
0.408888
0.557899
0.538826
0.459552
0.458956
0.427961
0.387430
0.372529
0.426769
0.275970
0.437498
0.355840
0.522733
0.485778
0.512600
0.533462
0.574589
0.429749
0.570416
0.479817
0.647902
0.463724
0.466704
0.377893
0.488758
0.441670
0.573993
0.426769
0.569820
0.526905
0.472665
0.475645
0.527501
0.492930
0.558496
0.594854
0.640750
0.603795
0.515580
0.563860
0.628829
0.564456
0.535846
0.590682
0.516772
0.624657
0.613928
0.734925
0.626445
0.813603
0.629425
0.698566
0.796914
0.719428
0.789762
0.914931
0.854731
0.833869
1.151562
1.343489
2.275705
7.485747
35.396814
80.858469
188.409686
302.576423
470.014811
596.069694
699.816942
710.344911
624.103546
513.828993
347.756743
234.409571
116.451979
61.278939
21.961927
9.535551
5.108714
4.353523
4.253983
4.186630
4.251599
4.161596
4.106760
##ZVALUE=385
0.296831
0.341535
0.326633
0.248551
0.363588
0.400543
0.385642
0.314713
0.331998
0.305772
0.298619
0.336766
0.398755
0.414848
0.385642
0.369549
0.443459
0.361800
0.330806
0.379682
0.282526
0.269413
0.297427
0.495911
0.489950
0.468493
0.440478
0.516772
0.486970
0.456572
0.499487
0.552535
0.546575
0.336766
0.471473
0.532866
0.494719
0.641942
0.535846
0.647902
0.710487
0.564456
0.639558
0.480413
0.437498
0.400543
0.555515
0.408888
0.552535
0.468493
0.607967
0.352859
0.469685
0.507832
0.450611
0.615716
0.567436
0.510812
0.650883
0.442863
0.635982
0.498891
0.742674
0.476837
0.679493
0.579953
0.660419
0.913739
0.914931
0.924468
1.006722
1.034737
1.184940
1.349449
3.444552
19.528866
50.212741
126.679540
225.473642
398.612618
531.016588
661.413670
699.977875
670.598745
592.136979
438.084602
311.593413
169.854760
96.568465
40.419698
16.740561
5.751848
4.289746
3.983974
3.922582
3.792644
##ZVALUE=390
0.243783
0.170469
0.187755
0.230670
0.085831
0.334978
0.161529
0.265837
0.194907
0.221729
0.205636
0.214577
0.199676
0.198483
0.318885
0.140667
0.147820
0.089407
0.183582
0.256896
0.258684
0.312924
0.192523
0.264645
0.100732
0.245571
0.281930
0.208616
0.260472
0.231862
0.388622
0.471473
0.486970
0.474453
0.471473
0.524521
0.490546
0.448823
0.343919
0.509620
0.475645
0.409484
0.384450
0.316501
0.447631
0.379682
0.473857
0.458956
0.287890
0.438690
0.380874
0.343919
0.380874
0.360608
0.391603
0.420809
0.374913
0.329614
0.312924
0.450611
0.429749
0.414848
0.459552
0.375509
0.545979
0.495911
0.469685
0.600815
0.723600
0.679493
0.705719
0.843406
0.823736
0.857711
0.775456
1.013875
1.757741
9.974837
31.538606
97.062588
180.874467
340.065956
463.290811
601.169467
680.316687
704.371929
648.833513
516.215563
394.233465
241.490006
140.617490
57.651997
26.092529
7.974505
4.518628
3.700852
##ZVALUE=395
0.320673
0.266433
0.212789
0.270605
0.317693
0.454783
0.485778
0.345707
0.360608
0.378489
0.315905
0.284910
0.357628
0.356436
0.330806
0.294447
0.354648
0.399947
0.359416
0.391603
0.282526
0.371933
0.418425
0.265837
0.412464
0.460744
0.505447
0.589490
0.690818
0.632405
0.581741
0.622869
0.754595
0.670552
0.713468
0.736713
0.843406
0.836849
0.823736
0.673532
0.706911
0.587702
0.649691
0.652671
0.730753
0.593662
0.750422
0.659823
0.622869
0.571609
0.615716
0.562668
0.638962
0.582933
0.684857
0.606775
0.588894
0.511408
0.436902
0.463724
0.567436
0.679493
0.618696
0.586510
0.595450
0.575781
0.522733
0.805855
0.739694
0.770688
0.844598
0.897646
0.815988
0.834465
1.088977
0.995994
0.978708
1.161695
1.369715
5.822778
20.862818
71.252584
133.390427
252.248645
374.933481
549.903512
657.512546
726.532936
709.426999
603.964925
473.645926
293.794870
183.230639
80.093741
38.286448
12.802482
##ZVALUE=400
0.429749
0.373721
0.349879
0.275970
0.491738
0.322461
0.252724
0.382662
0.365973
0.343919
0.283718
0.520945
0.364780
0.389814
0.353456
0.370741
0.292659
0.266433
0.437498
0.381470
0.438690
0.334978
0.408888
0.411868
0.358820
0.220537
0.522733
0.445843
0.657439
0.743866
0.744462
0.781417
0.835657
0.775456
0.872612
0.810623
0.821948
0.725985
0.866652
0.748634
0.849962
0.663996
0.737906
0.627637
0.687838
0.730753
0.551939
0.508428
0.623465
0.627637
0.685453
0.546575
0.690818
0.520945
0.503659
0.558496
0.657439
0.552535
0.696778
0.692606
0.577569
0.596642
0.590682
0.648499
0.734925
0.689626
0.546575
0.681877
0.765920
0.765920
0.866652
0.886917
0.813603
0.748634
0.876784
0.765920
0.925660
0.867844
1.020432
1.112819
1.333952
3.114939
10.429621
38.954616
83.394647
189.126730
301.705003
470.076799
583.451986
679.112673
693.953633
615.283847
507.504940
338.457823
223.253965
112.305880
##END
