##TITLE=FAAI0802
##FORMAT=SPECTACLE-ASCII V-1.2
##DATA TYPE=ULTRAVIOLET SPECTRUM
##SECOND TYPE=ULTRAVIOLET SPECTRUM
##DATE=12/26/17
##TIME=16:04:27
##SPECTROMETER/DATA SYSTEM=SPECTACLE
##XUNITS=NM EM
##YUNITS=ENERGY
##YFACTOR=1
##FIRSTX=220
##LASTX=410
##NPOINTS=96
##3DDATA=Equidistant
##ZUNITS=NM EX
##FIRSTZ=210
##LASTZ=400
##ZPOINTS=39
##XYDATA=(Y..Y)
##ZVALUE=210
5.221963
4.338622
4.817843
4.457831
3.800988
3.609657
3.952980
4.038811
3.781915
3.553629
2.996922
2.697706
2.880692
2.970695
3.104806
3.248453
3.383756
3.061891
3.497601
3.587604
4.339814
4.797578
4.974604
4.162788
5.398989
6.425977
7.193685
7.778406
8.380413
9.580851
10.186434
11.938810
11.841655
14.042854
13.694763
15.124679
12.907982
14.568567
13.229847
13.342500
12.886524
12.510419
11.763573
12.585521
12.016892
11.427999
10.992885
10.712743
10.725856
10.275841
9.212494
9.682775
9.625554
9.427667
8.858442
9.520650
8.840561
8.851886
9.170771
8.226633
8.902550
8.160472
9.471774
10.050535
9.397864
8.035898
9.830594
9.313822
12.320876
14.527440
14.877915
17.133951
21.747947
24.800897
27.337670
27.635694
29.101968
29.402971
28.972626
27.548671
22.995472
23.560524
18.860698
17.209649
14.042854
12.431741
11.399984
9.800792
7.347465
8.389950
7.575750
9.143949
8.782744
9.332895
10.232925
10.608435
##ZVALUE=215
15.661716
15.856624
14.548898
10.540485
9.859800
7.543564
8.104444
8.123517
8.159876
7.142425
7.392764
5.565882
5.306602
4.648566
3.757477
2.888441
2.383590
2.833605
2.993941
3.502965
3.502965
3.983974
4.160404
4.580617
5.708933
6.518960
8.008480
9.330511
11.445880
14.152527
15.462637
14.747977
18.558502
19.006729
20.166636
19.304752
21.132827
19.330978
20.299554
18.521547
18.137693
18.023849
16.368628
17.330647
15.835762
14.176965
14.475584
13.065934
13.560653
11.652708
12.556911
11.041760
11.441708
10.727644
10.214448
10.182858
11.019707
9.486675
10.868907
8.583665
10.171533
9.282827
9.027719
8.357763
9.323955
9.028912
8.816719
10.098815
10.602474
11.565685
15.658736
15.550852
18.502474
20.318627
23.152828
24.278760
24.237633
24.794936
24.641752
22.245646
21.810532
20.083785
17.783642
16.578436
14.137626
12.979507
11.155605
8.631945
8.153915
6.674528
7.679462
7.529855
9.180903
9.074807
8.810759
8.077621
##ZVALUE=220
43.228865
45.852661
48.768520
48.296452
42.219758
31.393766
27.205944
18.321872
16.718507
15.723705
15.915632
16.474724
15.842915
13.667941
11.137724
8.600950
6.538630
5.332828
4.861951
4.187822
3.457665
4.266500
3.600717
5.426407
5.674958
7.386804
8.965731
11.135936
16.216636
16.761422
22.363663
22.854805
25.904775
28.515458
28.949976
28.314590
30.228496
27.295947
29.268861
28.452873
25.690794
25.609732
24.713874
23.204684
22.129416
21.322966
21.253824
15.370846
17.984509
15.923977
16.155839
14.439821
13.308525
12.681484
13.549924
12.803674
12.342930
12.105703
12.088418
12.196898
10.919571
9.408593
10.402799
10.609627
10.632873
11.398792
10.032654
11.564493
11.700988
11.752844
12.459755
15.082955
16.703606
20.309687
19.611716
20.104647
22.675991
20.643473
21.424890
20.919442
20.408630
19.488931
17.278790
15.912652
13.826489
11.921525
9.729862
8.983612
9.421706
8.369684
9.415746
7.332563
6.573796
7.601976
7.379651
7.918477
##ZVALUE=225
64.044595
68.105459
83.674788
104.088783
111.574531
111.641884
103.665590
82.448721
65.816641
47.295690
37.336946
29.119849
30.229688
30.987859
29.740930
27.043819
22.294521
18.142462
14.084578
9.268522
6.955862
5.719662
4.393458
4.852414
6.426573
8.147955
9.606481
12.732744
16.229749
19.624829
22.532940
27.904510
29.210448
30.686855
32.269955
32.304525
32.836795
32.647848
33.317804
30.832887
29.881597
30.540824
26.607513
26.582479
24.195910
22.805929
22.703409
22.905469
20.947456
17.621517
16.791821
17.145872
15.326738
15.574694
16.334653
15.088916
13.858676
14.656782
13.007522
12.869835
13.085604
12.403727
10.312796
12.569427
11.199713
11.625886
10.940433
10.381937
12.512803
13.061762
13.263822
14.745593
16.553998
17.022491
17.849803
19.737482
19.347668
20.686984
19.167662
18.837452
17.669797
15.916824
15.264750
12.914538
13.150573
11.313558
10.966659
9.315610
9.056926
8.991957
9.225607
8.404851
9.152889
9.537935
8.398890
8.929968
##ZVALUE=230
47.433972
52.435994
82.541704
125.599504
165.265799
206.954479
227.135420
230.104923
212.845802
185.208917
125.019550
92.016459
62.699914
51.033497
51.425695
51.980615
53.869486
50.748587
46.133995
34.769773
30.139685
18.408895
12.251735
8.791685
7.926822
7.307529
10.486841
11.223555
13.695955
16.852617
19.066930
20.665526
22.581816
24.057627
25.416613
26.786923
26.937723
27.469993
27.631521
26.631951
27.243495
23.756623
24.941564
22.204518
22.351742
20.270944
20.873547
18.061996
16.934872
17.114878
16.901493
14.452934
16.883612
15.571713
15.274882
14.589429
15.408993
13.334751
13.167858
13.155937
11.828542
14.279485
13.076663
12.661815
12.118816
12.955666
12.537837
13.255477
13.314486
15.398860
15.722513
17.094612
17.334819
18.791556
21.165609
20.284653
19.229650
19.310713
20.002723
18.675923
17.755628
17.594695
16.115904
15.824437
13.747811
13.798475
11.507869
12.312531
10.713935
11.111498
11.086464
11.241436
11.262894
10.026693
10.344982
11.227727
##ZVALUE=235
13.912916
15.997887
35.203695
82.827806
130.920410
207.427740
268.684626
344.385505
373.457670
370.289683
337.466002
279.206634
192.304850
144.852996
98.710656
77.610612
72.604418
75.603724
81.736445
83.564520
77.550411
65.031648
47.249794
37.287474
24.139881
16.580820
12.220740
10.362864
10.590553
11.302829
13.563633
14.153719
14.679432
16.255975
16.654730
18.053651
18.011928
19.405484
17.191768
17.518997
18.852949
18.434525
16.246438
18.560886
16.892552
17.692447
15.947819
16.482472
15.497804
16.009808
15.391707
14.780760
14.722943
14.726520
15.040636
13.417602
12.969971
13.588667
12.645721
12.945533
13.134480
14.275908
13.063550
14.292598
13.436675
14.491677
12.628436
13.747811
14.426708
14.684796
15.815496
16.327500
18.614531
18.700957
18.651485
18.936992
22.178888
20.248890
20.173788
19.334555
20.513535
18.815994
17.218590
14.654994
15.423894
14.204979
14.061928
13.575554
14.660954
13.247728
13.110638
12.937784
14.159679
11.888742
11.115670
10.683537
##ZVALUE=240
2.544522
2.172589
6.607771
15.992522
47.371984
90.759993
173.445940
262.810588
389.974713
469.481945
534.407496
531.374812
499.776006
405.019522
316.344500
210.236907
150.742531
109.472871
95.627904
100.360513
111.119747
114.414692
113.947988
102.799535
82.814693
63.023567
43.674707
33.100843
20.862818
14.021993
13.479590
12.997985
12.115836
12.837648
13.608932
13.048649
14.244914
15.607476
14.790893
14.949441
14.928579
15.427470
16.953945
16.297698
15.956759
16.660690
16.092658
15.362501
15.078783
16.555786
15.194416
15.046000
15.360713
15.481710
14.187694
14.859438
12.951493
14.616847
13.541579
14.028549
13.866425
14.076829
14.344454
15.043616
13.899803
14.793873
14.665723
13.313890
14.501810
15.729666
15.635490
17.928481
18.813610
18.755794
19.583702
18.932819
19.635558
20.887852
18.886924
19.798875
19.030571
17.980933
17.349720
16.899705
17.518997
15.261769
15.965700
16.006827
15.667677
15.261769
14.977455
14.624000
14.720559
14.166832
13.660789
13.850927
##ZVALUE=245
1.621842
1.130700
1.161695
1.604557
3.614426
14.948845
35.038590
89.901686
163.986683
255.904794
402.729511
509.774685
605.588555
620.159507
581.435561
511.938930
379.102826
280.829668
204.712749
127.764940
98.422766
99.566579
109.967589
125.103593
130.021572
122.124553
109.709501
91.422796
73.020458
53.490996
37.321448
24.795532
18.334985
14.810562
14.295578
13.805628
13.637543
15.294552
14.426708
15.115738
15.140772
16.582608
16.448498
15.985966
16.854405
15.409589
16.641617
15.846491
15.722513
14.510751
15.159845
14.518499
13.301969
13.785958
13.567805
13.178587
13.434887
11.825562
12.245774
12.816787
11.194944
12.091994
11.873841
12.323856
12.172461
11.919737
13.223886
12.742877
13.160706
14.298558
13.831854
14.470816
15.197992
15.890598
16.942620
18.746853
15.843511
16.625524
15.866756
15.873909
16.466975
16.192794
15.415549
14.641881
14.930964
14.583468
14.056563
13.883710
13.401508
13.508797
13.308525
13.533831
13.508797
14.277697
13.145804
13.031960
##ZVALUE=250
1.618862
1.640916
1.570582
1.731515
1.504421
1.743436
2.620816
7.532835
31.974912
67.986846
162.420869
261.376500
374.633670
530.956984
626.047850
696.965456
689.087510
620.983839
523.870587
355.651975
249.881744
162.878633
104.976892
89.374781
104.081631
117.900968
135.551691
139.342546
136.424899
123.858452
110.365748
85.018873
64.252615
44.517517
32.562613
22.552609
21.189451
19.389987
18.844604
19.086599
19.988418
19.614697
19.611716
19.497871
19.399524
18.541813
18.405914
16.672611
16.986728
16.200542
16.263723
15.532970
15.007854
16.156435
14.205575
13.345480
12.726784
12.076497
12.207627
12.244582
11.701584
11.277795
11.144876
12.611747
11.001825
11.065602
10.616779
10.582805
11.551976
12.018681
12.206435
12.984872
14.048815
13.789535
14.307499
14.178753
14.542937
15.630722
14.810562
15.788674
14.187694
13.010502
13.514757
12.967587
12.971759
13.299584
12.811422
12.404919
11.843443
12.768507
12.061596
12.016892
12.469888
12.024641
13.377666
12.232661
##ZVALUE=255
1.260638
1.329780
1.350641
1.209974
1.462698
1.420975
1.512766
1.328588
1.868606
4.714727
21.509528
54.285526
107.118487
224.480629
344.449878
518.893600
635.896921
746.081471
772.484541
723.997951
628.908873
503.457785
318.209529
204.367638
116.044879
90.436935
89.439750
106.565952
130.935907
149.493814
157.052875
153.294802
142.026544
121.206641
98.653436
69.751740
54.596663
39.129853
32.665730
26.439428
25.982857
24.050474
23.606420
23.193955
23.454428
22.359490
20.607710
19.565821
19.287467
18.455982
18.237829
16.862750
16.389489
15.827417
15.286803
14.122725
13.260841
13.189912
12.202859
10.948777
12.151599
10.484457
10.702610
9.683967
10.313988
10.373592
11.117458
10.864735
11.254549
10.405779
11.887550
11.517406
12.034774
12.924671
12.094975
13.266802
12.771487
13.839602
12.611747
12.446642
12.642741
12.037754
12.111664
12.343526
12.240410
11.543632
11.728406
11.200905
11.181831
11.565685
11.676550
11.638999
11.017919
11.361837
10.583997
11.367798
##ZVALUE=260
1.057982
1.048446
1.042485
0.945926
0.885725
1.079440
1.435876
1.299977
1.547933
1.547933
1.976490
2.637506
10.637641
44.418573
91.598630
199.461579
309.608579
486.373901
625.408888
785.055757
851.078033
847.667456
748.841763
614.213943
416.021943
284.146667
166.973472
112.818480
86.381435
93.378425
120.077729
143.104792
158.539414
177.312493
171.336532
153.756738
133.843422
104.232430
85.679889
62.715411
49.786568
38.718581
32.872558
29.504895
26.597977
26.333928
24.548769
22.704601
22.122860
20.400882
20.043850
18.332601
18.220544
17.487407
15.461445
14.158487
14.355779
12.860894
13.448000
12.294650
12.283921
11.250973
10.822415
10.664463
10.481477
10.269880
9.989738
9.798408
11.119843
10.363460
11.146665
11.173487
10.939837
11.784434
11.514425
11.753440
11.342764
11.609793
12.091994
11.291504
11.459589
10.650754
11.028647
10.651946
10.279417
11.175871
11.134744
10.321736
10.146499
9.957552
10.040998
10.487437
10.156631
10.162592
9.587407
10.803938
##ZVALUE=265
0.957847
1.219511
1.042485
1.104474
1.204610
1.293421
1.151562
1.199841
1.097918
1.108646
1.424551
1.603961
1.814961
1.981854
5.283952
29.041767
64.781904
147.884488
256.516933
445.738435
605.840683
756.117702
893.754959
918.372869
833.562016
715.775490
538.620949
385.209918
220.254660
144.041777
99.627972
90.247989
103.889704
135.146976
159.499645
180.520415
182.442665
176.105499
164.832473
136.469603
114.728808
84.587932
66.968799
47.587752
38.431883
31.048656
27.820468
26.714802
24.694800
22.950768
21.258593
19.903779
18.804669
17.601848
16.968846
16.099811
14.645457
13.709664
13.435483
12.763739
11.826754
10.940433
10.971427
10.061860
10.183454
9.897947
9.777546
9.442568
9.933710
10.033846
9.537935
10.962486
10.586977
10.957718
10.964870
11.275411
11.330843
10.967851
10.807514
10.777712
10.130405
10.080934
10.557771
9.525418
10.511875
9.997487
9.759665
9.542704
9.254813
9.742975
9.787679
8.927584
9.267926
9.911656
10.064840
9.788871
##ZVALUE=270
0.894666
0.910759
0.948906
0.952482
0.959635
0.749826
0.837445
1.027584
1.119971
1.154542
1.185536
1.200438
1.099706
1.272559
1.455545
1.573563
2.188683
10.663867
32.091737
95.808506
189.039707
320.600867
544.787645
709.919930
893.625021
950.313807
932.455659
849.941969
659.211874
502.911806
358.817577
201.362967
129.720569
89.573860
89.548826
114.499927
138.073564
164.317489
182.167888
187.788606
182.742476
160.542727
138.444901
107.872486
84.540844
57.182908
44.324994
34.640431
28.245449
23.915768
22.519827
20.305514
19.127727
18.054843
16.507506
16.005635
14.585853
13.978481
13.543963
12.365580
11.977553
10.971427
10.706782
10.394454
10.013580
10.145903
10.104775
9.820461
9.087920
9.749532
9.668469
10.399818
10.574460
10.048747
9.484887
10.594726
10.674596
11.028647
10.613799
10.054708
9.679794
8.918643
9.956956
9.346604
9.109974
9.182692
9.557605
8.821487
9.749532
9.448528
9.631515
9.184480
9.509921
9.077787
9.930730
9.549856
##ZVALUE=275
0.749826
0.825524
0.843406
0.801682
0.829697
0.697970
0.840425
0.798702
1.072884
0.827909
1.090765
1.006722
0.989437
1.199841
1.070499
1.330972
1.735687
1.671910
1.826882
4.735589
16.227961
47.837496
137.069821
252.779722
465.872884
636.339784
823.783875
940.465927
985.006690
934.032798
847.204924
626.847744
451.654792
251.006484
156.999826
87.133646
72.122812
83.194971
102.337003
130.310655
151.009560
169.162750
176.079869
170.373917
152.704716
123.377442
101.168752
73.242784
54.856539
37.776828
27.806759
20.852685
17.870665
15.528798
14.878511
14.181733
13.440847
12.835860
12.065768
11.246800
10.947585
10.911822
10.732412
9.646416
9.705424
9.167790
9.759665
9.358525
9.400845
9.821653
10.152459
9.965897
9.972453
9.432435
9.973645
10.191798
9.708405
10.040998
9.938478
10.220408
9.773970
9.565949
9.180903
9.483695
8.935928
9.360909
9.305477
8.747578
8.880496
9.280443
8.765459
8.892417
9.282827
8.804798
8.888841
8.977652
##ZVALUE=280
0.774860
0.752807
0.699759
0.688434
0.743866
0.728965
0.784993
0.831485
0.850558
0.841618
0.918508
0.877976
0.868440
1.001954
1.138449
0.866652
1.070499
1.082420
1.289845
1.525879
1.748800
1.988411
10.602474
35.446882
109.658837
199.450850
366.376638
536.561608
755.470991
906.876922
994.307995
999.778509
907.479525
695.540905
519.069433
301.941633
187.670588
93.050599
58.821440
52.379966
66.653490
91.521740
113.627911
138.516426
154.985785
159.205794
154.456496
135.196447
116.681457
87.486506
67.431927
45.163631
31.414628
20.794868
14.827847
11.357665
11.048913
10.209680
9.907484
9.535551
10.069609
9.633899
9.030700
9.231567
9.320974
9.254813
9.261966
8.477569
9.139776
9.316802
9.395480
9.510517
9.439588
9.293556
9.844899
10.205507
9.832978
9.843707
10.075569
9.774566
9.346604
9.121895
9.110570
9.240508
9.332895
8.993745
8.863807
8.845925
8.909702
9.143949
8.994937
9.065866
8.742809
8.894801
9.026527
8.832812
##ZVALUE=285
0.647902
0.674725
0.683665
0.854731
0.613928
0.747442
0.751615
0.773668
0.736713
0.731945
0.679493
0.819564
0.912547
0.914931
1.050830
1.216531
1.123548
0.799894
1.178980
1.013875
1.262426
1.363754
1.537800
1.802444
5.492568
19.031763
61.814785
126.200914
268.900990
424.404740
599.401593
824.666619
958.940983
1015.897989
971.837640
797.364712
631.617904
395.858884
252.459645
124.057531
67.850947
38.183928
37.467480
56.336522
76.349974
107.537508
124.260783
144.846439
149.155855
144.472718
133.644938
111.841559
89.255571
60.727596
44.440627
26.509762
17.949939
12.320876
9.782910
8.931756
8.479953
8.226633
8.656979
8.160472
8.321404
8.792877
8.492470
8.594990
8.731484
8.448958
9.133816
9.026527
9.462833
9.577870
9.713769
9.910464
9.219646
9.278655
9.464622
9.648800
8.728504
9.006858
9.127855
8.903742
8.770823
9.556413
8.748770
9.165406
9.206533
8.860826
9.164810
8.647442
8.798838
8.652806
8.907914
8.986592
##ZVALUE=290
0.551939
0.809431
0.719428
0.629425
0.712872
0.591874
0.759959
0.534654
0.701547
0.808835
0.675917
0.791550
0.655651
0.678897
0.722408
0.885725
0.865459
0.971556
0.891685
0.966787
0.954866
0.919700
1.285672
1.303554
1.262426
1.507998
2.521873
8.065701
36.274791
82.540512
161.717534
333.253741
507.609844
752.980709
911.134481
1015.897989
1014.047861
886.651874
729.079843
496.995449
330.523849
166.925788
90.170503
38.647652
27.077794
36.036968
49.692988
72.673559
93.082786
120.078921
135.481954
144.113898
141.563416
126.791596
107.395649
81.103444
60.542822
39.175749
27.900934
16.548634
11.812449
8.696914
8.344650
7.777810
7.842779
7.946491
7.979870
7.880926
8.183718
8.031726
8.578897
8.831620
9.024739
9.319782
9.462833
9.544492
9.633899
9.493828
8.913875
9.358525
9.576678
9.482503
9.718537
9.227991
9.469986
8.890629
9.578466
9.564757
9.381771
9.640455
9.679794
9.077787
8.888841
8.925796
8.770823
9.198785
##ZVALUE=295
0.490546
0.609756
0.796914
0.765920
0.715852
0.625849
0.678897
0.585914
0.634789
0.694990
0.793934
0.642538
0.555515
0.621676
0.811815
0.738502
0.855923
0.995994
0.948906
1.033545
1.077652
0.968575
0.916719
1.036525
1.227856
1.404881
1.418591
1.343489
1.738667
3.504753
12.605786
52.982569
116.070509
267.216563
426.579714
669.222474
832.808018
997.495651
1015.904546
955.699682
824.267864
594.507456
418.299437
224.405527
123.552680
47.998428
26.256442
21.685958
29.265881
47.542453
65.025687
91.505647
108.565688
129.264593
137.155652
134.507418
122.600794
100.854635
81.270933
55.960417
40.189624
24.733543
17.303824
11.122823
8.872747
7.383823
7.374883
7.591844
7.584691
7.970929
8.183718
8.446574
8.618832
8.656979
9.451509
8.993745
9.281635
9.436607
8.962750
9.049773
9.084940
9.149909
9.443760
9.296536
9.504557
9.426475
9.650588
9.294748
9.302497
9.296536
9.123683
8.926988
9.293556
9.002686
9.672642
9.305477
##ZVALUE=300
0.621676
0.637770
0.586510
0.601411
0.549555
0.507832
0.488758
0.607967
0.645518
0.510812
0.458956
0.536442
0.566840
0.676513
0.645518
0.538826
0.653863
0.735521
0.850558
0.776649
0.913739
0.928640
0.753999
0.967979
1.224875
1.196861
1.170635
1.318455
1.265407
1.482964
1.624823
1.799464
6.632805
35.447478
82.585812
197.959542
331.439972
556.439757
736.338496
933.402777
1015.897989
1011.075974
912.300944
699.970722
517.325997
293.854475
173.263550
77.357888
37.238002
16.835928
17.411709
26.814938
39.019585
60.549974
80.209970
104.755759
118.665695
129.530430
128.556490
116.184950
100.920796
76.553822
58.311820
38.626790
27.196407
15.651584
11.408925
8.315444
8.029938
7.684827
7.444620
7.499456
7.907748
8.471608
8.545518
8.706450
8.775592
8.578897
9.504557
8.907914
8.963943
9.230971
9.129643
9.411573
9.157658
9.039640
9.015799
9.338856
9.222627
9.250641
9.176731
9.022951
9.242892
8.835793
9.114742
9.351969
##ZVALUE=305
0.496507
0.551939
0.487566
0.547767
0.583529
0.664592
0.603795
0.701547
0.535846
0.594854
0.473857
0.802875
0.712872
0.699759
0.894666
0.796914
0.629425
0.737906
0.667572
0.799894
0.782609
0.726581
0.764728
0.870824
0.704527
0.861883
1.087785
1.001954
1.120567
1.143813
1.259446
1.433492
1.448989
1.635551
3.457665
22.451878
60.590506
156.519413
270.455480
473.300815
648.900867
862.249732
980.979800
1015.941501
967.930555
775.028467
609.676838
390.520692
243.763924
111.276507
56.085587
20.528436
13.593435
16.565919
23.610592
39.869547
55.817962
78.725815
95.695853
114.499927
122.634768
120.440722
112.372637
93.342662
76.427460
53.995848
38.188696
24.524927
16.617775
10.907650
8.930564
7.744431
7.969737
8.069873
8.114576
8.403659
8.558631
8.456707
8.349419
8.686781
8.948445
8.973479
9.363890
9.177923
9.125471
9.339452
9.180903
9.216666
9.085536
9.279847
9.335876
9.342432
9.301901
9.678602
9.094477
9.197593
##ZVALUE=310
0.530481
0.467896
0.641942
0.569820
0.479817
0.621676
0.622869
0.579953
0.789762
0.479817
0.530481
0.414848
0.607967
0.539422
0.671744
0.516772
0.595450
0.484586
0.519753
0.785589
0.780821
0.826716
0.824928
0.756979
0.856519
0.927448
0.827909
0.933409
0.960827
0.958443
1.070499
1.059771
1.021624
1.225471
1.416802
1.499653
1.899600
10.876656
36.656857
104.904771
192.240477
367.727876
535.988808
766.543746
908.157825
1012.126803
1009.323001
888.677835
738.089681
510.894656
340.600610
173.396468
93.699694
34.053922
15.647411
10.936856
14.087558
22.884607
32.699704
51.624775
66.921711
90.292692
103.021860
113.158822
115.355849
105.802417
94.268918
74.149966
57.378411
36.962628
26.861429
16.439557
12.444854
9.183884
8.502603
8.000731
8.156896
8.171797
8.134842
8.188486
8.408427
8.570552
8.870959
8.780956
9.091496
9.310842
9.108782
9.431839
9.065866
9.305477
9.484887
8.933544
9.163618
9.124875
9.022951
8.648634
##ZVALUE=315
0.500679
0.383854
0.524521
0.495911
0.516772
0.522733
0.513792
0.541806
0.486970
0.457764
0.572801
0.568628
0.481606
0.548959
0.524521
0.677705
0.516772
0.734925
0.553727
0.605583
0.650883
0.583529
0.688434
0.796914
0.585914
0.624657
0.823736
0.733733
0.735521
0.938773
1.021624
0.951886
0.961423
0.862479
1.109838
1.141429
1.419783
1.331568
1.820922
4.109740
17.891526
64.125657
130.867958
275.016427
428.441763
670.102835
822.576880
972.468853
1014.677882
949.426889
820.830464
599.281788
430.436730
231.414437
128.170848
47.194958
19.954443
9.747744
10.220408
13.364553
19.160509
32.070875
45.152903
65.896511
81.124902
98.545551
106.904507
109.122992
102.008581
86.509585
72.153807
53.267479
38.627982
24.058819
16.728640
11.459589
9.321570
8.284450
7.981658
7.901788
8.169413
8.360744
8.268952
8.380413
8.541942
8.708835
8.565784
9.072423
9.093881
8.983612
8.962750
8.892417
8.902550
9.009838
9.086728
9.037852
##ZVALUE=320
0.476837
0.438690
0.294447
0.397563
0.438690
0.417829
0.547767
0.436902
0.475645
0.290871
0.573993
0.403523
0.475645
0.363588
0.596642
0.492930
0.484586
0.571609
0.561476
0.609756
0.631809
0.504851
0.580549
0.641942
0.531673
0.647902
0.665784
0.648499
0.780821
0.834465
0.868440
0.807643
0.856519
1.009703
0.881553
0.914931
0.992417
1.093745
1.368523
1.360774
1.291633
1.940727
6.004572
33.100843
76.783895
191.054940
314.009786
522.023439
694.921613
895.140767
983.603001
983.879566
901.302099
708.649755
524.117947
297.638774
167.693496
67.352653
30.693412
11.552572
8.204579
9.145737
11.524558
17.949939
26.877522
42.857528
57.430863
77.316761
90.410709
101.785660
104.412436
96.712708
85.267425
64.942837
51.467419
35.631657
25.457740
16.215444
12.210608
9.328723
8.649826
8.106828
8.407831
8.405447
8.418560
8.442998
8.452535
8.367896
8.382797
8.443594
8.584857
8.609891
8.559823
8.294582
8.977652
8.604527
##ZVALUE=325
0.348687
0.382662
0.415444
0.396967
0.439882
0.329614
0.380874
0.472665
0.507832
0.522733
0.418425
0.512600
0.306964
0.539422
0.342727
0.419617
0.499487
0.474453
0.278950
0.420809
0.462532
0.508428
0.509620
0.658631
0.724792
0.580549
0.488758
0.664592
0.810623
0.647902
0.808835
0.742674
0.769496
0.823736
0.830889
0.862479
0.912547
1.107454
0.923872
0.990629
1.122952
1.375675
1.335740
1.566410
3.075600
18.470883
48.063993
126.450658
227.849483
428.331494
600.698590
813.719034
935.690999
994.293690
934.035778
758.706927
583.212972
360.558629
217.716694
93.532801
45.080781
14.917850
8.655787
7.887483
8.286834
11.953712
16.591549
27.209520
39.131641
59.303641
72.193742
88.059902
96.416473
95.524788
90.110898
76.625943
63.202977
46.134591
34.592748
22.185445
15.869737
11.553764
9.525418
8.723736
8.116961
8.437634
8.099675
8.099675
8.184910
8.323789
8.573532
8.357763
8.359551
8.271933
8.256435
8.681417
##ZVALUE=330
0.487566
0.381470
0.410676
0.509620
0.472665
0.442863
0.348687
0.341535
0.385642
0.489950
0.370741
0.478625
0.467896
0.553727
0.469685
0.487566
0.577569
0.349879
0.505447
0.503659
0.500679
0.625849
0.509620
0.408888
0.721812
0.506639
0.587702
0.721812
0.568628
0.712872
0.622869
0.694990
0.694990
0.584722
0.842810
0.712872
0.692606
0.815988
0.795722
0.816584
0.970960
1.044869
1.031756
1.079440
1.402497
1.510978
1.799464
7.644892
25.410652
84.034801
161.809921
328.929424
489.999652
721.281767
870.971680
976.092815
962.610841
833.143592
677.017570
441.056490
281.322598
130.201578
65.561533
23.287535
10.588765
7.433891
7.163882
7.987618
10.731816
17.050505
24.760962
38.405657
51.370859
69.690943
81.436634
90.086460
90.685487
84.137917
74.865818
57.966709
45.094490
31.067729
22.573471
16.057491
12.359619
9.753704
9.014606
8.169413
8.313656
7.894635
7.936954
8.030534
8.171797
7.923841
7.884502
8.271933
##ZVALUE=335
0.469685
0.390410
0.384450
0.463724
0.542998
0.436902
0.333786
0.293851
0.281930
0.400543
0.295639
0.461936
0.549555
0.547767
0.373721
0.414848
0.527501
0.596642
0.576973
0.483990
0.566840
0.445843
0.525713
0.523925
0.428557
0.455976
0.589490
0.358820
0.638962
0.688434
0.703931
0.501871
0.681877
0.708699
0.392795
0.789762
0.697970
0.733733
0.669956
0.783801
0.869632
0.814795
0.900626
0.903606
0.920892
0.913739
1.242757
1.264811
1.502633
3.564954
13.196468
50.866604
109.515786
244.877934
394.378901
628.152490
789.980888
929.414034
959.962010
876.945853
743.128657
512.436628
348.097682
179.631710
93.822479
31.361580
13.578534
7.432699
6.779432
7.039905
7.987618
11.062622
15.165806
25.733709
36.000609
51.786900
64.109564
77.290535
84.248781
85.243583
79.980493
67.101717
56.732893
43.011904
33.444762
22.243857
16.554594
11.919737
9.789467
8.422732
8.128881
7.926822
7.750988
7.805824
7.824898
7.596612
##ZVALUE=340
0.464916
0.486970
0.572801
0.433922
0.380874
0.510812
0.442863
0.396967
0.378489
0.401735
0.400543
0.375509
0.487566
0.416636
0.570416
0.512600
0.420809
0.578761
0.428557
0.502467
0.387430
0.494719
0.535846
0.322461
0.400543
0.477433
0.467896
0.620484
0.504851
0.552535
0.595450
0.502467
0.659823
0.670552
0.635982
0.643730
0.722408
0.633597
0.650883
0.495911
0.777841
0.702739
0.778437
0.690818
0.800490
0.846982
0.963807
0.983477
1.141429
1.308918
1.452565
2.100468
6.280541
31.250715
76.415539
189.609528
322.245955
528.545976
692.178011
872.209668
941.056013
900.007486
792.487860
591.001511
417.547822
213.509798
117.649436
47.258735
19.728541
8.238554
7.043481
6.987453
6.923676
7.971525
10.061860
16.326904
22.948980
34.935474
46.870708
62.446594
71.718693
78.924894
80.511570
74.539781
67.231655
54.217577
43.489933
30.872822
23.676753
16.340613
12.194514
9.180903
8.414984
7.655621
7.517934
7.509589
##ZVALUE=345
0.403523
0.344515
0.428557
0.378489
0.345707
0.465512
0.323653
0.402927
0.339746
0.522733
0.348687
0.398755
0.266433
0.503659
0.363588
0.324845
0.621676
0.482798
0.317693
0.304580
0.399947
0.362992
0.382662
0.328422
0.510812
0.402927
0.487566
0.489950
0.536442
0.384450
0.451803
0.542998
0.338554
0.353456
0.363588
0.529885
0.503659
0.538826
0.476837
0.602603
0.552535
0.828505
0.847578
0.931621
0.758767
0.787973
0.805855
0.879765
0.853539
0.871420
0.931621
1.262426
1.350641
1.477599
2.896786
17.367005
49.147606
128.651857
228.802562
413.370728
580.659509
788.965821
887.814760
909.199715
842.659473
658.985972
486.545563
275.755525
157.335997
65.357685
28.869510
10.419488
7.153749
6.584525
6.471872
6.640553
7.234812
9.681582
13.363957
21.899939
30.619502
44.525862
54.442883
66.529512
71.604848
73.477626
71.215630
63.280463
54.226518
40.821433
31.224489
21.792650
16.527772
11.889935
9.614825
7.993579
##ZVALUE=350
0.392795
0.514984
0.463724
0.463724
0.312924
0.439882
0.394583
0.368953
0.359416
0.452995
0.298619
0.434518
0.312924
0.334978
0.426769
0.425577
0.409484
0.400543
0.457764
0.526905
0.297427
0.267625
0.439882
0.396967
0.556707
0.342727
0.426769
0.382662
0.334978
0.449419
0.422597
0.475645
0.339746
0.589490
0.513792
0.435710
0.464916
0.404716
0.577569
0.637770
0.709891
0.736713
0.589490
0.742674
0.689626
0.698566
0.681877
0.793934
0.585914
0.811815
0.787973
0.842810
1.047850
1.139641
1.171827
1.192689
1.664758
8.611679
27.744770
87.164640
165.632963
330.872536
486.528873
691.916943
823.640823
904.114842
868.569016
725.309849
554.071665
329.510570
199.443698
89.489818
41.978955
13.088584
7.589459
6.394982
6.069541
5.841851
6.198883
6.937981
8.878708
13.736486
18.958449
27.929544
36.626458
49.238801
58.057904
65.056682
67.135692
65.139532
59.613585
49.192905
40.381551
29.256940
22.297502
15.712976
##ZVALUE=355
0.314713
0.539422
0.414848
0.423789
0.484586
0.258684
0.380874
0.462532
0.405908
0.419617
0.533462
0.308752
0.400543
0.442863
0.452995
0.443459
0.337958
0.338554
0.516772
0.381470
0.416636
0.546575
0.536442
0.375509
0.553727
0.479817
0.450611
0.391603
0.339746
0.384450
0.363588
0.597835
0.617504
0.421405
0.420809
0.565648
0.577569
0.482798
0.578761
0.461936
0.792742
0.594854
0.596642
0.466704
0.503659
0.667572
0.722408
0.613928
0.566840
0.741482
0.776649
0.886917
1.003742
0.787973
1.027584
1.087785
1.016855
1.396537
1.420975
4.315972
15.291572
57.377815
118.040442
250.581503
392.221808
607.978702
759.373903
878.189802
877.729654
759.607553
611.515641
397.491455
250.477791
111.731887
52.338839
17.000437
8.111000
6.008744
5.650520
5.726814
5.729795
5.791783
6.536841
8.340478
11.056662
16.831756
23.527741
33.802986
42.258501
52.061677
58.435798
61.870813
60.214996
54.819584
48.458576
38.144588
##ZVALUE=360
0.297427
0.435710
0.521541
0.503659
0.262856
0.490546
0.375509
0.452995
0.360608
0.399947
0.318885
0.265837
0.386834
0.468493
0.425577
0.241995
0.416636
0.465512
0.352859
0.506639
0.459552
0.459552
0.423789
0.443459
0.500679
0.548959
0.516772
0.505447
0.444651
0.474453
0.452995
0.534654
0.499487
0.507832
0.459552
0.447631
0.434518
0.632405
0.439882
0.658631
0.613928
0.789762
0.489950
0.685453
0.641942
0.633597
0.585914
0.581741
0.583529
0.798702
0.692606
0.670552
0.795722
0.857711
0.929832
0.952482
0.989437
1.065731
1.121759
1.340508
1.302958
2.322793
6.520748
28.966665
70.708990
178.740025
297.846794
489.889979
653.013587
813.248754
857.547522
798.597932
679.228902
463.977456
308.519602
150.568485
78.554749
28.326511
11.815429
6.344914
5.478859
5.376935
5.405545
5.285740
5.069971
5.786419
6.863475
9.388924
12.773871
19.395947
26.405454
37.298799
44.572949
53.121448
55.701733
55.107474
##ZVALUE=365
0.382662
0.323653
0.343919
0.366569
0.372529
0.448823
0.275970
0.345707
0.468493
0.401735
0.296831
0.349879
0.331998
0.327826
0.302792
0.538826
0.442863
0.322461
0.459552
0.321865
0.356436
0.468493
0.470877
0.443459
0.423789
0.440478
0.477433
0.439882
0.358820
0.510812
0.479817
0.473857
0.489950
0.456572
0.521541
0.548959
0.648499
0.466704
0.498891
0.437498
0.396967
0.556707
0.686646
0.449419
0.618696
0.604987
0.678897
0.651479
0.657439
0.692606
0.703931
0.743866
0.685453
0.987649
0.846982
0.770688
0.849962
0.935793
0.861883
1.003742
0.874996
1.296997
1.359582
1.463890
2.964735
16.251802
43.489933
115.650892
214.904547
403.012633
553.429723
723.353624
804.643035
798.441768
709.613562
521.560907
371.919870
207.080841
112.383962
41.582584
17.339587
6.977916
5.607605
5.137920
5.100965
4.971623
4.831553
4.950762
5.091429
6.013513
7.860661
11.637807
15.975833
23.585558
30.390620
38.707852
##ZVALUE=370
0.265837
0.425577
0.412464
0.423789
0.394583
0.465512
0.330806
0.451803
0.348687
0.420809
0.369549
0.577569
0.384450
0.248551
0.452995
0.389814
0.461936
0.524521
0.412464
0.250936
0.305772
0.388622
0.328422
0.531673
0.492930
0.425577
0.425577
0.220537
0.402927
0.404716
0.330806
0.500679
0.455976
0.588894
0.438690
0.447631
0.541806
0.541806
0.489950
0.529885
0.647902
0.517964
0.409484
0.569820
0.643730
0.636578
0.601411
0.499487
0.612736
0.645518
0.655651
0.677705
0.657439
0.604987
0.839829
0.720620
0.912547
0.984669
0.734925
0.995994
0.734925
0.903606
1.035929
0.986457
1.246929
1.244545
2.033710
6.290674
32.661557
79.048872
188.633800
304.418802
490.665436
633.343458
777.440667
806.422830
735.853910
615.436435
411.380529
267.904997
125.564933
64.495802
24.894476
10.755658
5.561709
4.880428
4.501939
4.764795
4.501939
4.496574
4.538894
4.560947
5.481839
6.853938
10.235906
13.986826
##ZVALUE=375
0.314713
0.249743
0.326633
0.315905
0.239611
0.399947
0.139475
0.444651
0.320673
0.264645
0.450611
0.438690
0.276566
0.331998
0.365973
0.389814
0.328422
0.415444
0.295639
0.351667
0.233650
0.311732
0.475645
0.366569
0.523925
0.319481
0.298619
0.372529
0.453591
0.435710
0.498891
0.417829
0.537634
0.469685
0.436902
0.571609
0.411868
0.410676
0.524521
0.412464
0.607967
0.491738
0.546575
0.520945
0.457764
0.471473
0.541806
0.575781
0.545979
0.484586
0.582933
0.538826
0.499487
0.630617
0.799894
0.683665
0.525713
0.700951
0.650883
0.758767
0.651479
0.635982
0.572801
0.808835
0.851750
0.866652
0.998974
1.174808
1.407862
4.245639
14.008880
51.939487
111.168623
249.424577
387.910604
586.187840
708.568692
789.037943
778.606534
654.078722
511.102676
313.352942
197.516680
97.483993
48.086643
15.383959
6.931424
4.654527
4.449487
4.356503
4.319549
3.916621
4.012585
4.139543
4.263520
4.612803
##ZVALUE=380
0.356436
0.361800
0.285506
0.328422
0.287890
0.296831
0.231862
0.391603
0.276566
0.361800
0.456572
0.300407
0.222921
0.533462
0.563860
0.282526
0.311732
0.376701
0.338554
0.356436
0.349879
0.291467
0.329614
0.202656
0.453591
0.426769
0.478625
0.429749
0.371933
0.355840
0.457764
0.421405
0.357628
0.466704
0.382662
0.614524
0.578761
0.420809
0.623465
0.610948
0.625849
0.511408
0.661612
0.444651
0.450611
0.421405
0.515580
0.399947
0.497699
0.453591
0.498891
0.538826
0.474453
0.640750
0.434518
0.545979
0.608563
0.720620
0.628829
0.666976
0.629425
0.651479
0.735521
0.574589
0.795722
0.756979
0.786781
0.913739
1.100898
1.105666
1.445413
2.209544
7.865429
36.375523
85.461736
200.947523
327.871442
516.081452
651.663542
774.771571
791.794658
699.493885
576.797724
390.027761
261.153579
129.137635
66.255927
23.270845
9.655952
5.095601
4.338622
3.990531
4.002452
3.968477
3.961921
3.810525
##ZVALUE=385
0.233650
0.345707
0.271797
0.242591
0.311732
0.202656
0.389814
0.153780
0.241995
0.335574
0.432730
0.317693
0.348687
0.365973
0.329614
0.232458
0.334978
0.385642
0.337958
0.403523
0.438690
0.320673
0.251532
0.441670
0.390410
0.394583
0.400543
0.459552
0.528693
0.531673
0.525713
0.464916
0.609756
0.468493
0.539422
0.650883
0.403523
0.541806
0.504851
0.425577
0.517964
0.380874
0.592470
0.405908
0.605583
0.530481
0.641942
0.534654
0.558496
0.514984
0.643730
0.506639
0.485778
0.397563
0.381470
0.500679
0.320673
0.354648
0.570416
0.550747
0.603795
0.638962
0.508428
0.779629
0.586510
0.660419
0.753999
0.712872
0.937581
1.059771
1.073480
0.992417
0.966787
1.495481
3.694892
20.413995
53.147674
136.464834
244.410634
432.932973
582.389832
732.091665
776.689649
749.253631
663.287640
491.630435
350.468755
190.157890
107.175708
43.808818
17.572641
5.773902
4.154444
3.847480
3.850460
3.755689
##ZVALUE=390
0.362992
0.412464
0.160933
0.373721
0.351667
0.232458
0.385642
0.283718
0.255704
0.332594
0.387430
0.361800
0.299811
0.377893
0.345707
0.166893
0.229478
0.352859
0.306964
0.329614
0.245571
0.329614
0.442863
0.437498
0.333786
0.366569
0.476837
0.526905
0.664592
0.638962
0.546575
0.701547
0.573993
0.541806
0.662804
0.772476
0.885725
0.716448
0.602603
0.480413
0.451803
0.632405
0.538826
0.560880
0.612736
0.557899
0.541806
0.682473
0.680685
0.392795
0.694990
0.612736
0.406504
0.420809
0.542998
0.576973
0.557899
0.495911
0.479817
0.470877
0.588894
0.412464
0.573993
0.688434
0.662804
0.611544
0.773668
0.822544
0.835657
0.879765
1.008511
0.876784
0.961423
1.121759
1.148582
1.220703
2.106428
10.711551
33.780932
102.356672
193.293691
364.554524
509.637594
676.991940
760.959983
786.533952
729.368925
580.183864
442.946553
271.205902
157.026649
62.689781
28.670430
9.353757
4.843473
3.945827
##ZVALUE=395
0.145435
0.108480
0.285506
0.108480
0.271797
0.440478
0.323653
0.275970
0.385642
0.419617
0.340939
0.394583
0.429749
0.318885
0.260472
0.296831
0.277758
0.430942
0.306964
0.457764
0.371933
0.111461
0.291467
0.382662
0.424981
0.532866
0.450611
0.471473
0.543594
0.515580
0.699759
0.548959
0.733733
0.786781
0.743866
0.730753
0.797510
0.777841
0.815988
0.783801
0.764728
0.977516
0.629425
0.674725
0.614524
0.721812
0.683665
0.433922
0.533462
0.563860
0.531673
0.591874
0.460744
0.483990
0.556707
0.598431
0.591874
0.485778
0.612736
0.439882
0.629425
0.522733
0.582933
0.619888
0.660419
0.749826
0.726581
0.772476
0.808835
0.822544
0.964999
0.972748
0.885725
1.050830
0.935793
0.903606
1.030564
1.297593
1.375675
5.865693
21.604896
75.622797
148.652792
293.649435
427.402854
611.925721
722.789764
797.162652
787.031651
666.782856
523.612499
323.616862
203.705430
96.183419
45.533776
14.564991
##ZVALUE=400
0.374913
0.310540
0.375509
0.193715
0.221729
0.221729
0.307560
0.310540
0.433922
0.230670
0.269413
0.085831
0.355840
0.284910
0.303984
0.259876
0.173450
0.232458
0.289679
0.445843
0.381470
0.304580
0.317693
0.465512
0.261664
0.307560
0.461936
0.425577
0.485778
0.714660
0.565648
0.544786
0.688434
0.928640
0.776649
0.918508
0.884533
0.936985
0.926852
0.951886
0.859499
0.767708
0.609756
0.631809
0.537634
0.732541
0.658631
0.537634
0.618696
0.661612
0.616908
0.491738
0.556707
0.640750
0.479817
0.486970
0.606775
0.459552
0.506639
0.546575
0.527501
0.336766
0.449419
0.480413
0.625849
0.591874
0.820756
0.738502
0.685453
0.827909
0.838637
1.002550
0.769496
0.977516
0.916719
0.815988
0.867844
0.936985
0.992417
1.162887
1.391768
3.087521
11.645555
45.569539
96.212626
213.165879
335.849524
522.100925
646.435618
753.403902
779.025555
692.246556
580.601692
401.507616
264.477730
133.223534
##END
