##TITLE=FAAI0801
##FORMAT=SPECTACLE-ASCII V-1.2
##DATA TYPE=ULTRAVIOLET SPECTRUM
##SECOND TYPE=ULTRAVIOLET SPECTRUM
##DATE=12/26/17
##TIME=16:01:05
##SPECTROMETER/DATA SYSTEM=SPECTACLE
##XUNITS=NM EM
##YUNITS=ENERGY
##YFACTOR=1
##FIRSTX=220
##LASTX=410
##NPOINTS=96
##3DDATA=Equidistant
##ZUNITS=NM EX
##FIRSTZ=210
##LASTZ=400
##ZPOINTS=39
##XYDATA=(Y..Y)
##ZVALUE=210
3.290772
3.744960
3.555417
3.642440
3.723502
3.337860
3.302693
3.526807
3.512502
3.329515
2.583861
2.694726
2.264977
1.959801
1.940727
2.409816
2.289414
2.256632
2.765656
2.223849
2.383590
2.749562
2.784729
2.938509
3.092885
3.758669
4.142523
4.307628
5.555749
5.982518
6.021857
6.165504
5.868673
6.779432
6.939769
6.164908
6.686449
6.593466
7.066727
6.005764
6.418824
6.501675
5.461574
5.459785
5.761981
5.310774
5.689859
5.153418
5.079508
5.835891
5.472898
4.886985
5.151629
4.585981
4.699826
4.268885
4.828572
4.337430
4.980564
4.364848
4.602671
4.643798
4.650950
4.620552
4.293919
4.565716
5.212426
5.701780
5.334616
5.796552
6.923676
6.954670
8.039474
9.634495
9.702444
9.684563
9.809732
9.552836
9.672642
9.147525
8.063912
8.279681
7.135868
5.584955
5.358458
5.132556
4.085898
4.228950
4.544854
3.057718
4.042983
4.376769
5.322695
5.309582
6.108880
5.587935
##ZVALUE=215
11.647940
12.589693
9.741783
7.786751
7.304549
6.240606
6.761551
7.015467
8.083582
7.222891
7.123947
5.871654
4.673600
3.718734
3.351569
2.387762
2.611876
2.454519
2.916455
3.137589
2.721548
2.817512
3.260970
3.358722
3.713965
4.293919
4.766583
5.396605
5.682707
6.804466
7.048845
8.726716
8.165836
9.872913
8.989573
9.694695
10.304451
10.665655
8.212924
10.137558
8.263588
8.184910
8.262992
7.295609
7.562637
7.223487
7.120967
7.870793
6.316900
5.456805
5.972981
5.562901
5.530715
5.979538
6.157756
6.043911
4.727840
5.727410
5.191565
5.366802
4.914999
4.835725
4.409552
5.315542
5.253553
4.872680
5.013943
5.520582
5.140901
5.803704
7.298589
7.881522
8.710623
8.992553
9.440780
9.952784
9.346604
10.179877
8.678436
8.656979
7.692575
7.345676
5.470514
6.406903
5.683899
4.481673
4.511476
4.464984
3.670454
3.932714
3.729463
4.406571
4.193783
4.225969
4.149675
4.804730
##ZVALUE=220
32.577515
34.435987
34.961700
31.709671
28.061867
22.861958
19.884706
17.194748
15.558600
15.436411
15.637875
13.782978
13.694763
13.038516
10.752678
7.939935
5.921721
4.155636
3.957748
3.015995
2.450943
2.555847
3.171563
3.611445
4.018545
5.081892
4.996657
5.932450
7.627606
9.084940
10.235906
10.864735
12.329817
13.341904
14.197826
12.915730
12.832880
13.314486
15.150905
12.944937
11.709929
12.781620
10.909438
11.035800
10.412931
9.346604
10.031462
9.587407
7.893443
8.081794
7.801652
7.552505
7.786751
7.144809
7.597804
6.393790
6.892681
7.381439
6.431937
5.786419
5.539656
5.670786
5.381703
6.658435
5.839467
5.343556
4.939437
6.256700
6.497502
5.713701
6.725788
8.127689
10.496974
8.914471
9.731650
9.223819
9.580851
9.025931
10.549426
8.387566
8.639693
8.558631
7.410645
6.792545
6.446838
5.898476
6.136894
5.180836
5.484819
3.851652
4.682541
4.524589
4.598498
4.342794
4.484653
5.594492
##ZVALUE=225
54.824948
55.812597
70.411563
79.271793
84.251761
82.179904
73.391795
56.302547
44.080615
32.416582
28.746724
26.823878
29.908419
28.742552
29.340982
28.029680
22.129416
17.249584
11.813641
7.880926
6.306767
3.457665
3.862977
4.032850
3.903508
5.550981
5.418658
7.393956
8.841753
10.313988
10.546446
13.175607
14.367700
14.439821
15.027523
15.704632
16.433597
15.942454
15.632510
15.966892
14.421940
14.416575
13.547540
12.329817
12.234449
11.363626
9.569526
10.581613
9.140968
8.944869
10.713935
9.040833
8.681417
7.553697
7.924438
8.502603
7.074475
8.169413
7.454753
7.255673
7.339716
6.292462
7.351637
7.549524
7.686615
7.091761
6.539822
7.395744
7.011890
8.241534
8.551478
8.662939
9.678602
11.012554
10.201931
10.114908
9.449720
10.084510
8.965731
9.506941
7.999539
9.290576
8.683801
7.003546
6.931424
6.032586
6.741881
6.571412
6.043911
6.545782
5.862713
5.934834
5.239844
5.540848
7.042885
5.575418
##ZVALUE=230
46.502948
49.156547
73.198676
112.404823
143.137574
173.138976
182.161927
172.699690
150.613785
125.540495
84.397793
64.541698
49.811602
45.321584
50.252676
52.644610
52.256584
49.709678
47.829747
36.786795
28.126836
17.772913
11.525750
7.646680
5.473495
5.477667
5.485415
6.837845
7.711649
9.428859
9.617805
12.499690
12.899637
12.605786
13.466477
14.329553
12.767911
13.097525
12.816787
13.189912
12.585521
13.853908
11.944771
11.136532
11.227727
11.244416
9.957552
9.617805
10.469556
8.891821
9.427667
8.572936
9.186864
8.818507
8.843541
8.434653
8.303523
7.750988
7.863641
7.716417
7.681847
8.132458
7.862449
6.978512
8.312464
8.630753
8.598566
8.957982
8.936524
8.830428
9.564757
11.076927
10.661483
12.432933
11.364818
12.994409
11.333823
12.167692
10.751486
11.730790
11.233687
9.402633
9.582639
8.318424
9.148717
7.640719
8.118749
7.852912
7.651448
7.323623
7.412434
7.684827
7.778406
7.365942
7.381439
6.363988
##ZVALUE=235
15.309453
16.755462
40.619969
71.835518
130.311847
174.113512
247.393847
287.961960
310.250521
300.738811
260.243416
215.417743
162.420869
108.896494
81.597567
73.818564
70.050955
79.537630
84.996819
84.884763
78.147650
66.849589
49.155951
35.568476
22.259951
16.232729
10.903478
7.612705
7.180572
9.096861
7.300973
9.524822
9.190440
9.578466
10.988712
10.813475
11.018515
10.103583
11.319518
10.040998
9.783506
10.295510
10.130405
10.377765
9.798408
9.301901
9.476542
9.358525
9.539723
9.425879
8.739829
8.696914
8.239746
9.252429
9.335876
9.151697
8.289814
8.462667
8.448958
8.493662
9.760857
8.039474
9.106994
8.568764
9.901524
10.017753
9.889603
8.945465
10.947585
11.113882
11.868477
12.808442
11.966825
14.691949
14.314651
14.065504
14.609694
14.714599
13.183951
12.386441
12.307763
12.703538
12.425780
10.789633
10.885000
10.769963
10.466576
10.896921
10.198951
9.285808
9.640455
9.932518
10.207891
11.006594
10.895729
9.587407
##ZVALUE=240
2.904534
2.216697
7.570982
19.672513
51.473975
90.150833
171.241760
253.374577
359.025598
422.551632
464.718938
460.906625
425.094962
342.762470
265.775919
170.512795
127.234459
98.927617
90.339780
101.978779
110.269785
118.495822
117.942691
106.230974
80.242753
64.566731
46.013594
33.105612
19.362569
13.273954
9.837747
7.644892
8.734465
8.348823
8.935928
9.254813
9.993911
9.395480
9.459853
9.109974
9.441972
9.824634
9.651780
8.829832
9.094477
9.354949
8.689761
9.419918
9.230971
8.603930
8.520484
9.047985
8.699894
9.374619
9.143949
8.962750
8.530617
8.434653
9.296536
8.006692
10.355711
9.237528
8.973479
8.789897
8.772612
10.132790
10.261536
11.438727
10.552406
12.857914
11.824965
12.512803
13.511777
14.236569
13.968945
15.556812
15.550852
14.664531
13.903975
14.446974
14.627576
13.539791
14.146566
13.313890
13.423562
12.295842
11.949539
14.998913
11.582971
12.262464
11.381507
11.838675
13.398528
10.925531
12.126565
11.384487
##ZVALUE=245
1.329780
1.356602
1.260638
1.462698
4.255772
11.986494
37.622452
79.409480
165.862441
256.340504
387.312770
478.014946
537.467599
561.612844
525.844693
435.189605
352.294445
238.831639
168.932676
107.109547
94.355941
96.459985
112.199783
119.786859
129.884481
123.903751
113.098621
95.291734
68.880916
54.083467
38.841963
24.911761
16.707778
10.367632
9.418726
9.345412
9.418726
9.350777
9.316802
8.088946
9.771585
9.562969
8.671880
9.091496
8.613467
8.895993
9.385943
8.897781
9.062886
9.396672
8.555651
9.015799
8.197427
8.665919
8.498430
8.171797
7.816553
8.411407
7.935762
8.469820
8.839965
8.327961
7.754564
7.914901
8.306503
8.838773
8.841753
9.337664
9.875894
10.546446
10.190606
11.968613
12.158751
13.199449
13.457537
13.456941
12.822747
12.348890
14.252663
13.193488
13.081431
11.867881
12.915730
13.880730
11.734962
11.603832
11.029840
11.795759
12.310743
11.727810
11.352897
10.429621
11.419654
11.253953
11.358857
11.276603
##ZVALUE=250
1.429915
1.278520
1.321435
1.548529
1.484752
1.748800
2.477765
7.900596
31.163692
62.897801
144.096613
240.626931
347.042680
488.999486
570.186973
631.378889
622.747540
550.193787
462.203622
318.113565
222.695470
147.995949
98.322630
92.684627
105.780959
117.661953
133.016706
139.112473
134.111643
119.625926
97.712874
80.000758
59.242845
36.834478
25.822520
17.436743
13.147593
11.546612
10.609627
9.968877
9.714961
11.530519
10.847449
10.540485
10.157824
10.558963
10.417700
9.520650
10.063648
8.967519
9.804964
8.378625
9.227991
8.577704
8.922815
7.945895
7.777810
7.645488
8.014441
8.528829
7.421970
7.578731
7.288456
8.717775
8.727908
6.977916
7.913709
7.650852
9.124875
8.318424
10.024905
11.332631
10.886788
10.883808
11.373758
11.504889
11.182427
12.115836
11.374950
11.959672
10.194778
10.236502
10.553598
10.703802
10.487437
11.435747
11.275411
10.131598
10.604858
11.891723
10.839701
10.805726
10.261536
10.119677
10.126829
10.501742
##ZVALUE=255
1.273751
1.454949
0.896454
1.325607
1.231432
1.470447
1.181960
1.459718
1.815557
3.623962
17.137527
47.717690
117.884874
196.960568
333.118439
451.035500
600.369573
670.493841
699.440837
666.801929
572.163463
420.617461
295.752883
175.431967
115.577579
84.706545
85.739493
106.782913
125.116706
142.700672
149.495602
144.658685
131.230950
106.681585
85.519552
58.742762
42.787790
27.293563
20.776987
14.663935
13.967752
12.468696
11.959672
11.950731
11.827946
11.760592
10.878444
10.467768
10.767579
9.668469
8.798838
8.625984
8.932948
9.284616
8.418560
7.762909
7.416606
8.455515
8.302927
7.179976
7.015467
6.406903
7.267594
7.641912
6.348491
7.485747
7.631779
7.472634
7.569790
8.747578
9.124875
8.950830
9.111762
9.792447
11.053681
10.064840
9.686947
10.848641
9.571910
10.273457
9.658933
9.638667
9.608865
9.529591
9.688735
9.167790
8.635521
9.146929
10.061860
9.744763
9.660721
9.685755
9.511709
8.968711
10.003448
9.597540
##ZVALUE=260
1.047850
1.314878
1.177788
1.086593
1.030564
0.883937
1.286864
1.505613
1.430511
1.506805
1.660585
2.686977
8.504987
33.271909
74.176788
168.463588
269.558430
432.441831
556.959510
710.932016
775.273442
775.938034
676.518679
553.739667
366.703868
254.373550
149.298906
100.912452
79.107881
85.336566
104.357600
132.018924
152.071714
160.901546
157.138705
137.688518
119.106770
88.783503
69.225430
45.826435
31.872988
21.915436
17.342567
14.417768
13.408661
12.697577
12.242794
11.843443
12.573600
10.897517
11.244416
9.759665
9.100437
9.354949
8.786917
8.379817
8.286834
7.555485
7.084608
7.129908
7.162690
6.543994
6.873608
6.446838
6.555915
6.674528
6.450415
6.817579
6.736517
7.446408
8.733869
8.330941
8.466840
8.590817
8.433461
9.245872
9.386539
8.535981
8.959770
8.598566
9.498596
9.067655
8.371472
8.585453
8.674860
8.704662
8.310676
8.461475
9.323955
8.466840
9.676814
9.052753
8.844733
8.810759
9.168983
8.994937
##ZVALUE=265
0.995994
0.899434
1.083612
0.845790
0.883937
0.853539
0.976920
1.081824
1.177788
1.154542
1.361966
1.216531
1.474619
1.917481
4.533529
22.678971
52.056909
127.913952
223.625898
405.151844
559.798479
693.145990
825.413465
843.760967
764.814615
654.991865
480.971932
342.584848
196.014643
127.223730
86.610913
75.867772
88.628531
118.565559
138.980746
160.618424
165.496469
156.378746
143.191814
116.554499
94.054937
62.923431
46.509504
30.684471
21.623969
16.686916
14.394522
13.407469
12.091994
11.570454
11.557937
10.703802
9.852648
9.521842
9.063482
8.779764
8.331537
8.097887
7.142425
7.105470
7.172823
6.626844
6.928444
6.089807
6.268620
6.425977
6.433725
6.406903
6.208420
6.954670
7.538795
7.742643
8.158684
7.964969
8.339882
8.128881
8.214712
8.411407
8.557439
7.934570
8.273721
8.003712
8.006692
7.887483
7.661581
7.453561
7.883906
8.031726
8.270741
8.454919
8.041859
7.805824
8.450747
8.546710
8.106828
8.366704
##ZVALUE=270
0.889897
0.914931
0.946522
0.718832
0.898838
0.967979
1.073480
1.041889
0.975728
0.973940
1.123548
1.100898
1.324415
1.479983
1.522899
1.640916
2.200603
9.899735
30.695796
92.605948
182.392597
304.560661
516.600609
680.038929
840.737820
894.601941
869.898796
780.246854
606.942773
457.437634
313.018560
169.511437
104.370713
69.231987
70.786476
93.204975
116.124749
144.300461
160.446763
168.982744
162.079930
141.083002
120.982528
89.892745
68.392754
43.241978
30.959845
20.544529
15.277863
11.898875
10.924935
10.216832
9.963512
9.034872
9.395480
8.663535
8.037686
8.122921
7.240772
6.900430
7.202625
7.057786
6.691813
6.526709
6.141663
6.255507
6.017685
6.392598
6.385446
6.937981
6.721616
7.404685
7.415414
7.465482
7.553697
7.631779
8.206964
7.447600
7.471442
7.490516
7.883906
7.552505
7.407665
7.490516
7.256866
7.304549
7.445812
7.216930
7.705688
7.670522
7.616878
7.669926
7.470846
7.352829
8.054972
7.538795
##ZVALUE=275
0.664592
0.851750
0.796914
0.732541
0.946522
0.833869
0.939965
0.837445
0.904799
0.950694
1.002550
1.111627
1.165867
1.102686
0.988841
1.211762
1.277924
1.483560
1.393557
4.830956
18.543005
49.976707
142.559409
255.227685
462.175608
612.768531
791.119933
892.266035
924.213529
868.307948
759.643912
562.427044
402.875543
218.125582
132.430792
69.494843
55.342913
65.609813
85.789561
116.785765
136.282444
155.160427
160.705447
152.356625
139.923692
111.993551
91.372728
63.154697
44.630766
27.820468
18.859506
12.651682
10.266900
8.815527
8.731484
7.994771
7.713437
7.814765
6.873608
6.348491
6.596446
6.521940
6.679893
6.233454
6.677508
6.033778
6.168485
6.085634
6.096959
6.314516
6.551743
6.920695
7.392764
7.320642
7.827878
7.841587
7.371902
7.556677
7.803440
6.912947
7.266998
6.877780
7.314682
6.766915
6.858706
7.195473
7.080436
6.465912
6.579757
7.282495
6.986856
7.414818
7.467866
7.158518
7.181764
7.200837
##ZVALUE=280
0.731945
0.710487
0.731945
0.696778
0.742674
0.715852
0.816584
0.804663
0.992417
0.874996
0.887513
0.787973
0.865459
1.075864
0.846982
1.242757
0.836849
1.271963
1.314878
1.452565
1.528859
2.067685
11.461973
38.205981
114.685893
203.526616
364.700556
523.799658
731.589794
859.587789
931.053758
925.962925
830.585957
626.134872
463.451743
266.177654
160.297751
76.784492
47.682524
44.509768
56.778789
84.951520
106.783509
134.909749
148.085952
154.768825
149.449706
131.581426
112.860799
81.766844
60.244799
38.677454
26.865602
14.924407
10.308623
8.185506
7.081628
6.712675
6.637573
6.431937
5.785823
6.160736
5.695820
6.083846
5.771518
6.192923
6.086826
5.765557
6.367564
6.220937
6.527901
6.808639
7.214546
7.366538
6.907582
7.389784
7.354617
6.901622
6.525517
7.080436
6.953478
7.113814
6.727576
7.086992
6.680489
6.966591
6.771684
7.056594
7.219911
6.652474
6.702542
6.974936
7.031560
6.655455
7.004738
6.912947
##ZVALUE=285
0.773668
0.715852
0.666976
0.882745
0.922680
0.780821
0.658631
0.906587
0.708699
0.712872
0.699759
0.728965
0.812411
0.930429
0.726581
1.014471
0.988841
1.192689
0.883937
1.251698
1.184940
1.126528
1.526475
1.551509
5.287528
18.563867
64.830780
130.465627
276.120901
419.690609
559.515953
779.299736
894.569755
946.522951
897.404552
726.201534
575.042963
357.742906
223.044753
106.313825
57.286620
32.982826
35.610795
55.007935
74.390769
102.335811
123.384595
142.148733
146.718621
143.285990
130.680799
107.955933
87.141991
59.086680
41.284561
24.176836
16.096830
9.418726
7.096529
6.402731
5.957484
6.323457
6.082654
5.551577
5.638599
5.946755
6.137490
5.682707
6.245971
6.273985
6.592870
6.830692
6.744862
7.093549
6.799698
6.838441
6.811619
6.854534
6.419420
6.638765
6.767511
6.871819
6.864667
7.075667
6.784797
6.719828
6.986856
6.961823
6.759763
6.813407
6.907582
7.183552
6.957650
7.156730
6.961823
6.859899
##ZVALUE=290
0.582933
0.527501
0.558496
0.775456
0.700951
0.693798
0.796914
0.764728
0.806451
0.839829
0.784993
0.729561
0.858903
0.686646
0.804663
0.741482
0.721812
0.862479
0.853539
1.013875
0.896454
1.208782
1.084805
1.160502
1.586676
1.535416
2.224445
7.789731
36.772490
83.712935
162.719488
327.367783
493.650436
726.697445
863.857865
955.916643
940.534472
809.733868
660.514832
443.740487
297.842622
148.641467
80.351830
34.249425
24.805665
34.685731
48.294663
71.111917
92.604756
117.819905
133.704543
143.476725
138.459802
124.661922
107.162595
80.024600
59.215426
37.089586
25.190711
14.521480
9.768605
6.611943
6.278753
5.533695
5.437732
5.518794
5.575418
5.681515
5.855560
6.197691
6.343722
6.625652
6.837845
6.959438
6.914735
6.793737
6.653666
6.924868
6.820560
6.840825
6.596446
6.707907
6.705523
6.509423
6.786585
6.929636
6.915927
7.103682
6.742477
6.831884
6.933808
6.644726
6.779432
7.021427
6.925464
6.993413
##ZVALUE=295
0.449419
0.660419
0.481606
0.817776
0.516772
0.689626
0.758767
0.774860
0.576973
0.620484
0.684857
0.834465
0.781417
0.727773
0.722408
0.722408
0.719428
0.618696
0.758767
0.709891
0.712872
0.881553
0.942945
0.916719
1.286864
1.239777
1.295805
1.555681
1.592636
3.481507
18.899441
53.579807
115.791559
262.979865
411.656499
640.738606
792.801976
928.920507
958.783627
876.360536
747.648478
534.672737
366.798639
192.553997
105.558634
42.373538
24.185777
20.997524
27.946830
45.732856
63.296556
90.368986
106.763840
127.492547
134.076476
132.703781
119.746923
98.834634
78.867674
55.052638
39.537549
22.445917
15.078783
9.072423
6.770492
5.376935
5.612969
5.562901
5.500913
5.591512
6.225705
6.015897
6.408691
6.589890
6.704926
6.846786
6.724596
7.301569
6.883740
6.584525
6.680489
6.870627
6.550550
6.981492
6.853938
6.517768
7.072687
6.616712
6.704926
7.005930
7.104874
6.893873
7.043481
6.846786
7.033944
7.100701
##ZVALUE=300
0.524521
0.703931
0.707507
0.445843
0.634789
0.546575
0.448823
0.487566
0.614524
0.384450
0.504851
0.588894
0.599623
0.622869
0.692606
0.654459
0.855923
0.811815
0.770688
0.748634
0.872612
0.857711
0.913739
0.950694
0.926852
1.001954
1.104474
1.129508
1.313686
1.397729
1.409650
1.820922
7.718801
28.455853
90.437531
172.631741
341.625810
509.979725
730.936527
858.008862
957.476497
940.980911
813.400745
663.229823
438.777804
286.175609
145.381689
76.895952
29.095411
16.774535
17.414689
24.198890
40.137768
56.426525
80.612898
100.347996
120.747685
127.073526
126.098990
117.509961
97.631812
79.809427
55.585504
40.215850
24.613738
16.245842
9.541512
7.296801
5.903840
5.601645
5.667806
6.009936
5.991459
6.271601
6.528497
6.337762
6.462932
6.713867
6.381869
6.614923
6.717443
6.619692
6.707907
6.609559
6.989837
6.688833
7.220507
7.016659
6.987453
6.737709
6.800890
7.392764
6.801486
7.103682
6.835461
6.657839
##ZVALUE=305
0.647902
0.533462
0.513792
0.502467
0.419617
0.485778
0.481606
0.634789
0.533462
0.690818
0.587702
0.596642
0.612736
0.549555
0.597835
0.654459
0.550747
0.502467
0.536442
0.631809
0.646710
0.627637
0.841618
0.691414
0.818968
0.826716
1.024604
0.949502
1.174808
1.240969
1.185536
1.177788
1.462698
1.607537
2.985597
18.076897
51.341653
137.151480
241.440535
435.813665
601.539612
805.104971
915.435553
945.801735
877.599716
700.695515
541.564822
337.014794
212.154984
97.654462
47.793984
18.314719
12.574792
16.565919
22.812486
39.081573
55.486560
78.922510
95.128417
112.996697
119.788647
119.237900
110.245943
92.027783
75.325966
52.727461
36.832690
23.154616
15.158653
9.370446
7.229447
6.590486
5.877614
6.321669
6.163716
6.308556
6.055832
6.329417
6.205440
6.641746
6.164908
6.673932
6.799698
6.781816
6.975532
6.905794
7.116795
7.278919
7.245541
7.015467
7.161498
6.681681
7.090569
6.708503
6.666780
6.799698
##ZVALUE=310
0.453591
0.480413
0.563860
0.471473
0.472665
0.591874
0.457764
0.510812
0.403523
0.504851
0.638962
0.376701
0.366569
0.603795
0.577569
0.581741
0.602603
0.576973
0.531673
0.560880
0.660419
0.790954
0.770688
0.778437
0.714660
0.634789
0.884533
0.891685
0.838637
0.808835
0.960827
1.127720
1.056790
1.218915
1.242757
1.412630
1.557469
7.746816
25.788546
83.854795
162.754655
333.164930
489.689708
714.038014
851.135850
946.599841
932.750702
808.772445
664.993525
440.545678
291.279554
144.761801
77.074766
28.052926
13.684630
10.519624
13.163686
21.581650
31.879544
51.178932
67.863464
89.089870
103.383660
113.774538
113.980770
105.112791
92.494488
72.393417
56.311488
35.434961
25.130510
15.462637
11.048913
7.530451
6.666780
6.390810
6.229877
6.074905
6.061792
6.425977
6.352663
6.683469
6.459951
6.562471
6.848574
7.094741
6.628633
6.946921
6.917715
7.090569
6.975532
6.780624
6.823540
7.146597
6.874800
6.997585
##ZVALUE=315
0.533462
0.368953
0.429749
0.397563
0.536442
0.592470
0.475645
0.478625
0.632405
0.578761
0.671744
0.567436
0.526905
0.564456
0.553727
0.453591
0.689626
0.709891
0.569820
0.566840
0.629425
0.442863
0.700951
0.671744
0.755787
0.711679
0.701547
0.851750
0.927448
0.903606
0.788569
0.816584
0.918508
0.974536
1.093745
1.035929
1.279712
1.417994
1.696944
3.661513
13.235807
53.811669
116.000772
254.672766
407.326818
644.989014
792.552829
916.724801
945.673585
864.396691
734.592676
523.289442
366.218686
193.119645
104.128718
39.614439
17.537475
9.584427
9.212494
13.024807
18.791556
31.780601
43.568611
65.215826
80.763698
98.667741
107.153654
107.647777
100.625753
86.128712
70.900917
50.854683
36.989450
22.700429
15.491843
9.858608
7.678866
6.815791
6.345510
6.155968
6.469488
5.947948
6.376505
6.462932
6.657839
6.849766
6.623864
6.668568
6.544590
6.598830
6.887913
6.632805
6.570816
7.071495
6.965995
6.873608
##ZVALUE=320
0.450611
0.365973
0.452995
0.488758
0.419617
0.471473
0.406504
0.522733
0.483990
0.445843
0.430942
0.476837
0.427961
0.482798
0.563860
0.610948
0.519753
0.487566
0.472665
0.741482
0.488758
0.576973
0.537634
0.624657
0.539422
0.543594
0.683665
0.637770
0.738502
0.795722
0.688434
0.765920
0.854731
0.907779
0.945926
0.924468
0.875592
0.969768
1.050830
1.448989
1.498461
2.052784
5.952716
30.249953
76.203942
191.203952
312.248468
507.223606
670.425892
850.219727
918.442607
894.109607
800.199509
608.464479
445.435643
247.142911
140.937567
60.131550
28.051734
10.309815
7.684827
8.554459
10.689497
17.418861
26.026964
42.078495
56.661963
76.104403
89.550614
101.161003
101.895928
96.151829
84.808469
65.472722
50.687790
32.854676
24.081469
15.098453
10.629892
7.721782
6.966591
6.796718
6.337762
6.761551
6.666780
6.607771
6.549954
6.513596
6.646514
6.699562
6.441474
6.626844
6.833673
6.548762
6.776452
6.475449
##ZVALUE=325
0.282526
0.260472
0.330806
0.308752
0.339746
0.257492
0.149608
0.334978
0.372529
0.358820
0.293851
0.321865
0.314713
0.413656
0.347495
0.220537
0.275970
0.427961
0.549555
0.439882
0.364780
0.648499
0.535846
0.490546
0.431538
0.613928
0.479817
0.532866
0.661612
0.539422
0.501871
0.652671
0.610948
0.588894
0.619888
0.632405
0.613928
0.690818
0.860691
0.979900
1.022816
1.199841
1.263618
1.215935
3.391504
14.485717
55.722594
115.415454
248.963833
398.513675
616.535544
758.473873
882.243514
905.234814
823.104978
683.835745
468.309522
322.245955
172.551870
95.018744
35.184622
15.560985
7.637739
7.052422
8.392930
10.708570
16.525984
25.369525
41.885972
56.379437
75.209737
85.965991
94.921589
95.530748
89.434981
78.579783
60.993433
47.094822
31.149983
21.840930
13.788939
10.009408
7.888675
7.114410
6.490946
6.428957
6.487966
6.427765
6.203651
6.300807
6.077886
6.248951
6.646514
6.195903
6.447434
6.456971
##ZVALUE=330
0.463724
0.306964
0.465512
0.319481
0.476837
0.349879
0.385642
0.426769
0.418425
0.365973
0.449419
0.530481
0.229478
0.486970
0.494719
0.522733
0.513792
0.609756
0.723600
0.409484
0.474453
0.562668
0.471473
0.426769
0.731945
0.591874
0.533462
0.638962
0.696778
0.610948
0.658631
0.565648
0.657439
0.703931
0.950694
0.742674
0.727773
0.788569
0.868440
0.750422
0.883937
0.962615
0.936985
1.078844
1.164675
1.257658
1.629591
8.099675
27.077794
86.752772
166.063905
327.693820
478.606820
683.449507
811.043978
888.651013
855.239630
710.740685
569.102764
369.895697
237.808824
109.042525
55.911541
20.885468
9.905696
6.717443
6.765723
7.562637
10.033846
16.297698
24.275780
38.960576
52.609444
70.560575
80.870986
88.804960
90.233684
82.879663
73.667765
57.074428
44.059753
29.602647
21.630526
14.634728
11.028647
8.139610
7.042885
6.446838
6.493926
6.507635
6.168485
6.547570
6.157756
6.215572
6.334782
6.087422
##ZVALUE=335
0.238419
0.363588
0.448823
0.486970
0.436902
0.398755
0.433922
0.480413
0.570416
0.480413
0.456572
0.488758
0.287890
0.539422
0.393987
0.370741
0.445843
0.448823
0.467896
0.493526
0.392795
0.311732
0.468493
0.529885
0.564456
0.382662
0.542998
0.522733
0.481606
0.573993
0.668764
0.555515
0.634789
0.588894
0.605583
0.546575
0.631809
0.743866
0.812411
0.639558
0.832677
0.932813
0.808835
0.757575
1.030564
1.064539
1.201630
1.198649
1.334548
3.843904
13.074875
52.518845
111.258626
244.199634
387.515426
603.998899
744.256973
850.806832
861.189961
757.467747
634.154677
432.725549
292.009711
151.686668
80.199838
28.140545
12.805462
7.009506
6.312728
6.238818
7.394552
10.280609
14.393926
24.257898
34.170747
50.836802
63.095689
76.853633
82.715750
83.237886
78.693628
65.929890
56.106448
42.412877
32.477975
21.520853
15.284419
10.308623
8.349419
7.050633
6.498694
6.225705
6.197691
5.719662
5.926490
6.320477
##ZVALUE=340
0.339746
0.419617
0.346899
0.242591
0.360608
0.418425
0.342727
0.457764
0.398755
0.389814
0.339746
0.260472
0.242591
0.303984
0.436902
0.349879
0.487566
0.511408
0.501871
0.505447
0.461936
0.410676
0.359416
0.193715
0.360608
0.595450
0.512600
0.682473
0.552535
0.658631
0.599623
0.492930
0.550747
0.498891
0.673532
0.521541
0.419617
0.645518
0.667572
0.742674
0.572801
0.627637
0.676513
0.849962
0.797510
0.818968
0.951886
0.912547
1.111627
1.168847
1.303554
1.563430
7.886887
26.623607
89.000463
172.051787
343.400836
490.672588
677.694678
781.326890
838.239789
802.973509
662.114620
524.815917
323.650837
203.043818
93.759894
45.929551
14.602542
7.825494
6.282926
6.240606
6.364584
7.339716
9.880662
13.816953
22.694468
32.292604
47.916770
59.579611
73.787570
77.801943
78.413486
75.743794
64.198971
54.550767
41.241646
31.700730
20.249486
14.811754
10.161996
8.247495
6.631613
6.547570
5.983710
6.024837
##ZVALUE=345
0.287890
0.392795
0.339746
0.464916
0.274777
0.392795
0.442863
0.415444
0.366569
0.417829
0.312924
0.393987
0.494719
0.452995
0.381470
0.590682
0.392795
0.449419
0.422597
0.391603
0.283718
0.414848
0.201464
0.428557
0.393987
0.479817
0.577569
0.302792
0.586510
0.484586
0.376701
0.538826
0.439882
0.487566
0.459552
0.534654
0.506639
0.423789
0.468493
0.558496
0.580549
0.535846
0.739694
0.708699
0.736713
0.775456
0.736713
0.751615
0.867844
0.864863
1.144409
0.964999
1.349449
1.428723
3.426671
13.705492
58.601499
117.617846
243.073702
374.388695
572.669506
699.803829
803.211927
806.195736
709.847808
585.268736
398.237705
262.389779
120.598674
60.057640
20.652413
10.037422
6.740689
6.127954
5.917549
6.029606
6.685853
8.263588
13.798475
19.658804
31.789541
42.220950
54.634809
63.193440
71.364641
73.366761
69.076419
62.917471
51.186681
41.445494
29.746890
21.921992
14.388561
10.544658
8.020997
6.752610
##ZVALUE=350
0.378489
0.297427
0.362992
0.197887
0.209808
0.409484
0.396967
0.314713
0.571609
0.301600
0.442863
0.519753
0.264645
0.482798
0.300407
0.325441
0.375509
0.317693
0.289679
0.435710
0.395775
0.304580
0.487566
0.400543
0.493526
0.443459
0.404716
0.523925
0.448823
0.408888
0.349879
0.677705
0.587702
0.561476
0.538826
0.563860
0.557899
0.399947
0.618696
0.646710
0.424981
0.500679
0.450611
0.636578
0.661612
0.722408
0.629425
0.790954
0.767708
0.681877
0.736713
0.890493
0.943542
0.985861
1.116991
1.276731
1.769662
8.137822
27.365685
86.935759
163.976550
320.831537
463.454723
638.512969
742.956996
792.444944
751.625896
614.497662
470.219851
279.065967
170.405507
78.478456
37.173629
11.735559
6.737709
5.609989
5.593896
5.305409
5.565882
6.607771
8.550882
13.189912
18.382668
27.880669
35.940409
48.406720
56.982636
64.375997
67.010522
64.578652
59.063435
48.226714
38.950443
28.140545
20.663738
14.057755
##ZVALUE=355
0.335574
0.459552
0.436902
0.476837
0.289679
0.372529
0.310540
0.328422
0.226498
0.274777
0.362992
0.326633
0.359416
0.352859
0.258684
0.290871
0.421405
0.478625
0.387430
0.424981
0.579953
0.328422
0.485778
0.430942
0.409484
0.420809
0.643730
0.503659
0.551939
0.507832
0.602603
0.489950
0.489950
0.597835
0.570416
0.468493
0.436902
0.497699
0.450611
0.485778
0.671744
0.579953
0.591874
0.574589
0.633597
0.760555
0.635982
0.580549
0.647902
0.700951
0.859499
0.717640
0.833869
0.931621
0.862479
0.968575
1.159906
1.142621
1.316667
4.282594
15.097857
58.136582
117.286444
243.365765
375.418663
570.424795
685.386658
767.967701
757.832527
640.545487
515.054464
335.980654
215.224624
95.396638
46.803951
15.319586
7.946491
5.765557
5.293489
5.082488
5.188584
5.172491
5.664825
7.803440
10.320544
16.006827
22.563934
32.745600
41.347742
51.003695
57.097673
60.881972
59.440732
54.025650
46.598911
36.482811
##ZVALUE=360
0.191927
0.287890
0.199676
0.260472
0.130534
0.386834
0.292659
0.283718
0.481606
0.470877
0.232458
0.276566
0.365973
0.327826
0.272989
0.250936
0.190735
0.354648
0.470877
0.397563
0.475645
0.469685
0.248551
0.329614
0.459552
0.364780
0.438690
0.492930
0.413656
0.265837
0.404716
0.397563
0.378489
0.531673
0.294447
0.398755
0.488758
0.482798
0.401735
0.512600
0.567436
0.555515
0.535846
0.517964
0.466704
0.614524
0.483990
0.785589
0.642538
0.566840
0.628829
0.580549
0.664592
0.743866
0.839829
0.921488
0.853539
0.853539
1.084805
1.019835
1.272559
1.569986
7.600784
24.794936
81.771612
156.492591
303.658843
444.399714
630.299449
725.499988
751.850009
699.346662
560.382009
422.086716
248.647928
149.802566
64.902902
29.763579
9.548664
6.009936
5.260706
5.136728
4.844666
4.675984
4.819632
4.827976
6.572604
8.481741
12.804866
18.342733
27.007461
34.589767
43.888688
50.525665
54.180622
54.680705
##ZVALUE=365
0.508428
0.496507
0.499487
0.400543
0.681877
0.538826
0.549555
0.533462
0.580549
0.626445
0.593662
0.431538
0.431538
0.565648
0.600815
0.605583
0.656843
0.508428
0.458956
0.464916
0.589490
0.648499
0.632405
0.532866
0.517964
0.605583
0.646710
0.566840
0.692606
0.693798
0.731945
0.777841
0.613928
0.726581
0.682473
0.622869
0.703931
0.590682
0.701547
0.650883
0.839829
0.626445
0.681877
0.669956
0.887513
0.871420
0.739694
0.748634
0.808835
0.619888
0.729561
0.716448
0.737906
0.696778
0.905991
0.978708
0.965595
1.015663
1.111627
1.137853
1.193881
1.238585
1.447797
1.614690
3.004670
16.979575
45.782924
119.856000
218.544602
398.106575
528.942943
666.769743
727.331638
706.344843
619.275570
451.267958
320.774913
176.768899
96.358657
35.645962
14.964938
6.085634
5.154610
4.849434
4.873872
4.594922
4.439950
4.353523
4.716516
5.514622
7.234812
10.915995
15.252829
22.712946
31.854510
38.213730
##ZVALUE=370
0.407696
0.553727
0.402927
0.329614
0.553727
0.500679
0.436902
0.546575
0.659823
0.535846
0.471473
0.503659
0.596642
0.481606
0.546575
0.586510
0.573993
0.476837
0.423789
0.426769
0.421405
0.516772
0.587702
0.601411
0.569820
0.470877
0.518560
0.496507
0.624657
0.557899
0.469685
0.551939
0.656843
0.580549
0.579953
0.642538
0.534654
0.572801
0.626445
0.590682
0.529885
0.625849
0.670552
0.596642
0.589490
0.690818
0.720620
0.787973
0.719428
0.727773
0.726581
0.702739
0.714660
0.770688
0.812411
0.735521
0.774860
0.792742
0.911951
0.950694
1.007915
0.939965
1.073480
1.196861
1.152754
1.261830
1.976490
8.353591
28.084517
91.298819
168.651938
316.144824
451.509953
623.230934
702.782869
717.884898
656.864643
510.558486
377.303958
210.149884
118.577480
47.306418
22.025704
8.756518
5.362630
4.467964
4.543662
4.265904
4.036427
4.148483
4.022717
4.254580
4.566908
6.674528
9.040833
13.777614
##ZVALUE=375
0.337958
0.417829
0.326633
0.367761
0.297427
0.231862
0.348687
0.452995
0.347495
0.293851
0.179410
0.448823
0.344515
0.293851
0.313520
0.486970
0.413656
0.410676
0.385642
0.241995
0.310540
0.485778
0.361800
0.249743
0.464916
0.410676
0.440478
0.432730
0.418425
0.343919
0.299811
0.429749
0.360608
0.467896
0.363588
0.454783
0.375509
0.489950
0.546575
0.524521
0.469685
0.459552
0.431538
0.436902
0.489950
0.422597
0.574589
0.472665
0.602603
0.488758
0.547767
0.482798
0.548959
0.550747
0.570416
0.510812
0.414848
0.580549
0.598431
0.794530
0.653863
0.611544
0.634789
0.792742
0.785589
0.973940
0.888705
0.961423
1.364946
4.077554
14.940500
54.047704
114.711523
251.562595
380.857587
559.884906
660.771728
718.219876
693.112016
569.327474
441.806912
270.096660
167.138577
77.215433
38.995743
13.295412
6.491542
4.269481
4.212856
4.018545
3.741980
3.597736
3.527999
3.498793
3.463626
4.056692
##ZVALUE=380
0.528693
0.553727
0.353456
0.458956
0.396967
0.510812
0.590682
0.492930
0.460744
0.576973
0.488758
0.639558
0.559688
0.531673
0.533462
0.380874
0.531673
0.573993
0.580549
0.519753
0.509620
0.448823
0.599623
0.583529
0.649691
0.591874
0.644922
0.499487
0.685453
0.654459
0.404716
0.530481
0.577569
0.520945
0.602603
0.539422
0.463724
0.609756
0.716448
0.582933
0.594854
0.583529
0.713468
0.604987
0.714660
0.613928
0.508428
0.593662
0.640750
0.729561
0.799894
0.513792
0.673532
0.677705
0.756979
0.738502
0.676513
0.699759
0.733733
0.853539
0.777841
0.753999
0.866652
0.925660
0.894666
0.798702
1.053810
1.181960
1.273751
1.307726
1.373887
2.477765
8.457899
38.609505
88.346004
200.823545
318.349004
487.957001
609.156489
704.997778
701.736808
602.950454
492.978692
343.163610
230.195522
113.409758
58.417916
21.082759
9.326935
4.774928
3.985763
3.875494
3.788471
3.584623
3.770590
3.475547
##ZVALUE=385
0.275970
0.273585
0.350475
0.227690
0.324845
0.272989
0.281930
0.275970
0.301600
0.330806
0.331998
0.268817
0.358820
0.367761
0.399947
0.288486
0.248551
0.314713
0.365973
0.404716
0.314713
0.323653
0.319481
0.484586
0.312924
0.382662
0.473857
0.331998
0.301600
0.466704
0.299811
0.516772
0.288486
0.612736
0.447631
0.356436
0.522733
0.300407
0.438690
0.479817
0.390410
0.456572
0.262856
0.494719
0.415444
0.371933
0.464916
0.431538
0.435710
0.378489
0.435710
0.494719
0.563860
0.433922
0.559688
0.539422
0.458956
0.488758
0.488758
0.457764
0.631809
0.392795
0.589490
0.671744
0.690818
0.691414
0.660419
0.818968
0.797510
0.913739
0.822544
1.058578
1.087785
1.366735
3.859997
22.610426
56.507587
139.176846
241.705775
413.959622
543.491840
666.317940
698.949695
652.973652
566.259623
409.963727
288.619995
158.044696
90.031624
37.580729
15.711784
5.322695
3.725886
3.496408
3.336668
3.211498
##ZVALUE=390
0.232458
0.329614
0.255704
0.250936
0.216961
0.457764
0.282526
0.449419
0.227690
0.264645
0.188947
0.321865
0.433922
0.200868
0.368953
0.242591
0.224710
0.388622
0.465512
0.393987
0.266433
0.383854
0.345707
0.397563
0.430942
0.404716
0.406504
0.278950
0.351667
0.496507
0.583529
0.573993
0.566840
0.372529
0.429749
0.497699
0.528693
0.549555
0.585914
0.525713
0.579953
0.548959
0.447631
0.440478
0.472665
0.540614
0.466704
0.565648
0.393987
0.561476
0.419617
0.578761
0.406504
0.636578
0.522733
0.402927
0.543594
0.558496
0.381470
0.488758
0.429749
0.593662
0.477433
0.556707
0.606775
0.591874
0.583529
0.661612
0.696778
0.804663
0.798702
0.929832
1.092553
1.174808
1.036525
1.282692
2.320409
11.549592
35.410523
107.168555
198.196769
360.912681
484.881997
616.275668
685.496926
696.683526
636.652708
496.121645
377.157927
229.271650
132.861733
54.339767
24.989843
7.475615
4.297495
3.420711
##ZVALUE=395
0.276566
0.397563
0.313520
0.394583
0.310540
0.365973
0.216961
0.239611
0.365973
0.308752
0.330806
0.283718
0.321865
0.211596
0.365973
0.436902
0.241995
0.234842
0.371933
0.366569
0.388622
0.637770
0.281930
0.538826
0.428557
0.388622
0.302792
0.464916
0.367761
0.337958
0.645518
0.607967
0.496507
0.661612
0.591874
0.542998
0.595450
0.590682
0.560880
0.567436
0.470877
0.472665
0.549555
0.437498
0.585914
0.428557
0.538826
0.620484
0.471473
0.468493
0.503659
0.513792
0.397563
0.438690
0.434518
0.593662
0.537634
0.534654
0.441670
0.495911
0.531673
0.421405
0.531673
0.498891
0.579953
0.607967
0.704527
0.586510
0.688434
0.749826
0.829697
0.814795
0.854731
0.788569
1.121759
0.869632
0.870824
0.880957
1.597404
4.998446
28.407574
67.407489
154.729486
255.697966
423.615575
552.242994
682.446957
723.103881
680.148602
590.927005
430.971980
300.697684
159.485936
85.220933
32.057762
14.367700
##ZVALUE=400
0.342727
0.396967
0.360608
0.155568
0.405908
0.419617
0.317693
0.336766
0.183582
0.381470
0.269413
0.382662
0.348687
0.168681
0.222921
0.316501
0.217557
0.334978
0.303984
0.300407
0.287890
0.324845
0.360608
0.256896
0.321865
0.574589
0.319481
0.425577
0.444651
0.501871
0.387430
0.442863
0.620484
0.627637
0.537634
0.520945
0.611544
0.441670
0.492930
0.552535
0.520945
0.667572
0.524521
0.642538
0.405908
0.574589
0.660419
0.578761
0.545979
0.453591
0.482798
0.390410
0.593662
0.498891
0.416636
0.570416
0.436902
0.553727
0.491738
0.478625
0.499487
0.516772
0.468493
0.599623
0.583529
0.474453
0.592470
0.763535
0.739694
0.654459
0.675917
0.615716
0.798702
0.755787
0.866652
0.887513
0.793934
0.986457
0.912547
1.085997
1.198649
2.970695
11.998415
47.309995
99.016428
214.119554
332.773924
503.869653
613.067746
697.855949
702.720881
613.023639
502.477884
343.544483
226.573944
113.741755
##END
