##TITLE=FDDW1
##FORMAT=SPECTACLE-ASCII V-1.2
##DATA TYPE=ULTRAVIOLET SPECTRUM
##SECOND TYPE=ULTRAVIOLET SPECTRUM
##DATE=12/26/17
##TIME=12:38:13
##SPECTROMETER/DATA SYSTEM=SPECTACLE
##XUNITS=NM EM
##YUNITS=ENERGY
##YFACTOR=1
##FIRSTX=220
##LASTX=410
##NPOINTS=96
##3DDATA=Equidistant
##ZUNITS=NM EX
##FIRSTZ=210
##LASTZ=400
##ZPOINTS=39
##XYDATA=(Y..Y)
##ZVALUE=210
17.695427
17.138720
14.594793
11.192560
11.766553
9.947419
10.508895
7.860661
7.357597
5.802512
4.297495
2.569556
2.808571
2.234578
2.392530
1.707673
3.014803
2.716780
3.142953
3.052950
2.850890
3.138781
3.754497
3.849864
3.815889
4.488826
4.239678
4.456639
5.094409
5.725622
6.401539
5.870461
5.391836
6.983876
6.807446
6.683469
6.803870
7.441640
7.082820
7.233620
7.074475
6.496906
5.918741
6.528497
6.593466
6.550550
6.615520
5.861521
5.642772
6.211996
6.376505
5.188584
5.723834
6.155968
5.295873
5.679727
6.295443
5.697608
4.494786
5.727410
5.609989
5.283952
5.626678
6.020665
5.507469
5.703568
5.754828
6.884933
7.293820
7.850528
9.199977
11.104941
12.765527
14.290810
14.712811
15.354753
16.407967
15.528798
14.308691
13.218522
11.687875
10.106564
8.257627
7.160902
6.579757
6.324649
4.835725
5.796552
5.746484
8.477569
9.880662
15.435815
18.894672
22.919774
27.985573
31.736493
##ZVALUE=215
43.370724
45.092702
34.864545
27.869940
21.957755
17.215610
17.104745
14.303923
14.658570
14.126897
11.817813
9.718537
6.866455
5.497932
4.341602
3.589988
2.549887
2.690554
2.525449
2.441406
2.505779
2.914667
3.073812
2.551675
3.592968
4.957914
4.579425
4.724860
5.524755
5.380511
5.217791
6.284714
6.452799
6.814599
7.128716
6.749630
8.073449
6.600618
7.987618
7.877946
8.025765
7.196665
7.219911
6.955862
7.140636
6.592870
7.004738
6.893873
6.596446
7.292628
6.856918
6.171465
6.838441
6.281734
5.251765
6.320477
5.825758
5.338788
4.598498
5.504489
6.030798
6.136894
4.800558
5.445480
5.878806
6.001592
6.063581
6.712675
6.504655
7.971525
8.332729
9.904504
10.841489
12.236834
12.364984
12.241602
12.026429
11.036992
10.855794
10.826588
10.011792
8.989573
7.527471
6.120801
6.147623
5.226731
5.207658
4.636645
4.059672
4.260540
4.021525
4.499555
5.041957
5.945563
8.357763
12.461543
##ZVALUE=220
87.407827
93.171597
89.284778
72.592497
62.051415
47.119856
38.479567
29.463768
26.628971
24.436712
25.809407
24.485588
21.652579
19.238591
14.664531
10.955930
5.895495
4.880428
3.501773
2.828836
2.310872
3.240705
3.440976
3.330708
3.303885
4.070997
3.930926
4.838705
4.835725
5.434752
5.913973
6.964803
7.013679
8.636713
7.715821
8.455515
7.689595
6.846786
8.630753
7.769465
7.598996
7.715821
6.857514
7.622838
6.297827
7.567406
6.941557
7.353425
6.931424
6.026626
6.014705
6.289482
6.510615
5.835891
6.325841
7.000566
5.762577
5.992651
5.918741
5.705953
5.431771
6.027818
6.013513
5.794764
5.937815
6.229877
5.635619
6.593466
6.548762
6.635785
8.174777
8.084774
9.492636
9.180903
10.754466
10.202527
9.441972
9.715557
10.157824
9.249449
9.703636
9.081960
6.678700
5.915761
5.471706
4.638433
4.920959
3.853440
4.223585
4.729629
4.174709
3.545880
3.615618
3.399849
3.910661
4.544854
##ZVALUE=225
122.238994
127.523541
142.491460
153.459907
146.180987
131.602883
109.859705
79.886913
64.541698
49.584508
40.128827
35.487413
38.852692
39.963722
38.054585
32.570958
26.164651
20.088553
15.163422
9.088516
6.682873
4.690886
3.500581
4.183650
4.271865
4.404783
4.404783
5.292892
5.618930
5.224943
6.437898
7.268786
8.835793
7.525682
7.106662
8.593798
7.906556
9.272695
7.339716
8.055568
7.846951
8.128881
8.601546
7.911921
7.313490
8.223653
8.691549
6.955862
6.699562
7.013679
7.357597
6.645918
8.147955
6.893873
6.289482
7.458925
6.812811
7.092953
7.141829
7.360578
6.209612
6.838441
7.728934
7.047653
7.217526
6.393790
7.008910
7.116795
7.061958
7.752776
7.987618
9.700656
9.357929
10.619760
10.329485
10.824800
10.636449
9.883642
10.267496
10.039806
8.139610
7.458925
6.814599
5.978942
5.430579
4.960895
4.786849
5.151629
4.474521
3.986955
4.391670
3.761649
3.806949
5.515814
4.166961
3.917813
##ZVALUE=230
90.799928
100.349784
142.806768
198.834538
233.804584
249.680877
251.263976
224.414468
190.225840
156.431794
105.208755
80.563426
62.456727
56.692958
61.703920
58.532953
60.941577
55.546761
51.073432
39.309859
30.909777
20.027757
12.514591
7.223487
6.508827
5.137920
5.521774
5.044937
6.400943
6.009936
6.483793
5.767941
8.042455
7.240772
7.523894
7.130504
7.874966
6.886721
8.331537
7.674694
8.034706
7.771850
7.637739
8.343458
7.837415
7.172823
7.303953
8.001924
8.913875
6.916523
6.159544
6.720424
8.083582
6.844997
7.065535
7.583499
7.872581
7.447600
8.754730
7.224679
7.913709
8.872747
7.273555
7.881522
8.088946
7.859468
7.236600
7.194877
8.014441
8.725524
9.307861
9.746552
9.601712
10.038614
11.932850
11.038780
11.344552
11.032820
9.667873
8.871555
7.780790
7.553697
7.986426
6.343722
5.887747
6.238818
5.013943
5.158782
5.600452
4.458427
5.856752
5.020499
4.490614
5.020499
5.061626
5.082488
##ZVALUE=235
28.685927
31.719804
62.814951
128.554702
194.627643
272.640586
334.500670
389.297605
403.129458
372.388959
328.117609
261.190534
176.484585
134.429932
94.193816
82.399845
80.755949
84.389448
89.157820
90.669990
82.452893
72.962642
51.832795
39.449930
24.089813
16.465783
10.293722
6.655455
6.614923
6.591678
6.674528
6.067753
6.361604
6.846786
7.507801
8.051991
7.500648
6.413460
7.857680
7.035732
7.304549
6.694794
8.061528
7.884502
6.519556
7.621646
7.145405
7.011890
7.735491
7.529855
7.457733
7.494688
8.005500
7.579923
7.771850
8.297563
8.073449
7.284880
7.361770
8.616447
7.302761
8.369684
8.396506
7.697940
7.628798
7.408857
8.111000
8.378625
6.982684
10.364652
10.152459
10.310411
11.570454
11.974573
11.564493
11.357665
12.152791
10.395646
10.067821
9.889603
9.544492
7.811785
7.765889
7.128716
6.552935
6.738901
6.451607
6.266832
6.205440
6.037951
5.791783
5.509853
4.709959
4.837513
5.678535
5.371571
##ZVALUE=240
1.941919
2.087951
10.696650
62.570572
76.886415
131.888986
294.697881
308.009982
417.896509
473.309755
510.803461
489.208698
429.239869
360.891819
252.334476
158.403516
129.723549
87.872744
89.328885
103.440881
105.546713
111.684799
106.442571
98.213553
63.691735
59.082508
29.841661
28.485656
17.174482
12.209415
6.016493
5.996823
5.503893
5.661845
5.914569
5.868673
6.407499
6.920695
6.744862
6.666780
7.551908
6.650686
6.376505
6.254911
6.805658
7.448792
6.380677
6.046891
7.347465
6.824732
7.092953
6.457567
6.540418
6.316900
6.803870
6.657839
6.868839
7.311702
6.943941
6.869435
6.662607
7.288456
7.353425
7.196665
7.668734
7.322431
7.269979
7.396936
7.768869
8.233786
10.002851
9.639859
9.807944
10.263920
10.211468
10.538697
10.621548
10.311604
10.041595
9.830594
9.353757
9.238720
7.257462
6.969571
6.135702
6.623864
5.810857
5.162954
6.127954
5.180836
5.599856
5.520582
5.384684
4.994869
5.635619
4.209876
##ZVALUE=245
1.425743
1.345873
1.495481
1.520514
5.048513
16.116500
52.771568
105.586648
209.527612
297.562480
438.472629
515.284538
570.460558
588.455796
551.272631
447.050929
366.158485
244.479775
177.299976
113.998652
92.605948
91.820955
107.167959
117.425919
121.897459
117.906928
104.203820
88.571906
69.169998
48.692822
36.605597
20.988584
13.311505
9.199977
6.417632
6.416440
6.407499
6.910563
6.472468
6.693602
6.574988
6.342530
6.742477
6.513000
6.799698
7.028580
6.654859
6.614923
6.837845
7.177591
7.462502
6.865859
6.219745
6.925464
6.453991
6.431937
5.676746
6.200671
5.955696
6.610751
5.723834
6.244779
5.827546
5.831718
6.496906
5.945563
5.473495
6.011724
7.284880
7.433891
6.623864
8.026958
8.542538
8.864999
8.461475
10.049939
9.374619
8.688569
8.139610
7.425547
7.198453
6.997585
6.251931
6.534457
5.912781
5.571842
4.930496
4.917979
4.818439
5.281568
5.571842
4.293919
4.321933
4.492998
4.447699
5.137920
##ZVALUE=250
1.120567
1.154542
1.144409
1.478791
1.644492
1.359582
2.901554
9.421706
38.399696
80.249906
180.930495
276.641846
391.694903
533.444881
606.627464
659.396648
647.453666
561.133623
475.777984
328.962803
223.922729
154.177547
94.741583
85.398555
98.472834
114.119649
124.033689
125.489831
124.961734
116.697550
99.664927
72.952509
54.104924
33.866763
21.655560
11.830926
8.801818
7.116795
7.193685
6.841421
6.394982
6.648898
7.188916
6.745458
6.958842
7.126927
7.614493
6.600618
6.250739
5.640984
6.669760
5.434752
5.893707
6.094575
5.962849
5.838871
6.001592
6.169677
4.883409
5.763769
5.677938
5.328655
5.706549
5.618930
4.932880
5.250573
5.170703
5.549788
5.682707
6.322861
6.437898
7.163882
7.038713
6.763935
7.397532
7.818937
7.985830
7.494688
6.678700
6.692410
6.028414
6.089807
4.869699
4.675984
5.263686
4.683733
4.593730
4.281998
4.533529
4.232526
4.814863
3.768802
3.857613
3.261566
3.866553
4.486442
##ZVALUE=255
1.032948
1.088977
1.184940
1.265407
0.953674
1.564622
0.995994
1.268983
1.422763
4.193783
26.041865
59.359670
116.374493
237.231851
353.477597
519.994497
623.436570
708.670020
730.601549
669.513941
574.819446
455.037951
289.168954
189.477801
107.574463
84.299445
82.643628
95.415711
117.603540
125.855803
134.965777
133.959651
122.341514
97.427964
75.633526
52.042603
35.386682
21.610856
13.345480
9.036660
7.530451
7.049441
7.039905
6.782413
6.630421
6.585717
6.865859
6.201863
6.615520
5.922914
6.513596
5.901456
6.234646
5.770922
5.903840
5.295873
5.374551
5.230904
5.082488
4.664660
4.856586
5.162954
4.390478
4.857779
4.661679
4.354715
4.908442
4.724860
5.060434
5.085468
5.207658
5.864501
5.679727
5.889535
6.242990
6.081462
7.142425
6.141663
5.343556
5.291700
4.866719
4.574656
4.610419
4.617572
3.823638
3.815889
3.567934
3.865957
3.384948
3.987551
3.341436
3.519654
3.495812
3.542900
3.396869
3.634691
##ZVALUE=260
0.777841
1.006722
0.782609
0.709891
0.947714
0.875592
1.008511
1.034737
1.308918
1.328588
1.722574
2.148747
8.675456
37.714839
86.845756
191.400647
304.782987
473.783016
602.043867
749.367476
797.835588
795.337558
693.483949
569.680929
384.336710
261.770487
153.298974
98.034739
72.966814
73.717833
89.416504
118.632913
131.648779
139.960647
136.078596
122.415423
101.549625
76.978803
58.559775
36.345720
24.997592
14.769435
10.118484
8.069873
7.409453
7.076859
6.962419
6.634593
6.322861
6.119609
5.982518
5.990863
5.868673
5.774498
5.993843
5.370975
5.292892
4.901886
5.148649
4.873872
4.833937
4.689693
4.624724
4.422665
4.202724
4.308820
4.476905
4.538894
4.430413
5.180836
4.871488
5.259514
5.759597
5.151629
5.617738
5.402565
5.260706
4.989505
4.314780
4.163980
4.582405
4.237890
3.902912
3.787875
3.454685
3.698468
3.056526
3.311634
3.418922
3.166795
3.364682
2.960563
2.814531
3.007650
2.689958
3.144741
##ZVALUE=265
0.883937
0.902414
0.882745
0.699759
1.023412
1.149774
0.852942
1.077652
0.919700
1.118779
1.209974
1.468658
1.282692
1.733899
4.052520
24.814606
62.762499
147.676468
251.439810
448.095798
602.394938
734.518766
855.625868
869.754553
782.192945
665.289760
495.128632
351.999998
201.850533
126.679540
80.111623
64.354539
72.648525
102.456808
121.777654
138.283968
144.760609
137.023926
125.865936
101.489425
80.498457
53.432584
37.562847
22.364855
14.944673
9.472966
8.050799
7.177591
6.854534
7.178783
6.856918
6.389618
5.739927
6.134510
5.679727
5.961657
5.881786
5.411506
5.125999
4.816651
4.928708
4.726648
4.523993
4.610419
4.624724
4.279613
4.197955
4.482865
4.317760
4.509687
4.919767
4.608631
4.965663
5.058646
5.026460
4.671812
4.612803
4.259944
4.174709
4.057884
3.659725
3.679991
3.598928
3.292561
3.089905
3.420711
2.947450
2.990961
2.752542
2.893806
2.789497
2.738833
2.930760
2.564788
2.780557
2.443790
##ZVALUE=270
0.877976
0.871420
0.816584
0.900626
0.824928
0.880957
0.872612
0.940561
0.835657
0.894666
1.165867
1.152754
1.256466
1.154542
1.400709
1.579523
2.082586
10.398626
33.008456
105.252862
203.519464
338.811874
558.846593
714.293718
866.608620
922.386646
883.170962
791.020989
606.808662
457.087755
323.753953
172.162652
99.844933
58.380961
57.009459
77.646971
95.523000
124.139786
138.310790
145.900846
141.052604
124.700665
107.379556
79.037547
58.278441
35.855770
24.490952
14.844537
10.028481
7.673502
7.163882
6.652474
6.300807
5.902648
5.765557
5.576611
5.649924
5.272627
5.191565
5.234480
5.151629
4.880428
4.941821
4.627705
4.249811
4.421473
4.102588
4.093647
4.413724
4.562736
4.872680
4.819632
4.909635
5.089641
4.687905
4.910827
4.565716
4.181862
3.831983
3.611445
3.610849
3.229976
3.120899
3.061891
3.035665
2.850890
2.928972
3.042817
2.476573
2.669692
2.801418
2.810955
2.744794
2.560616
2.796650
2.560616
##ZVALUE=275
0.618696
0.576973
0.719428
0.648499
0.715852
0.690818
0.603795
0.848770
0.806451
0.619888
0.812411
0.818968
0.766516
0.800490
1.147985
1.076460
1.295805
1.307726
1.388788
4.930496
20.209551
55.861473
158.293843
282.404423
498.427749
653.807521
825.765729
917.544961
942.988992
885.923505
734.430552
577.197671
409.572721
220.675468
127.585530
62.339902
45.587420
53.545833
71.810484
99.280477
116.934776
135.521889
140.057802
136.896968
125.016570
101.623535
80.662966
55.344701
39.005876
23.055673
14.936924
9.246469
7.145405
6.212592
5.516410
5.440712
5.380511
5.389452
5.323887
5.222559
4.986525
4.832745
4.404783
4.356503
3.873706
4.192591
4.023910
4.114509
4.106760
3.800988
3.985763
4.376769
4.805923
4.513860
4.524589
4.640818
4.462600
4.041791
3.614426
3.623962
3.466606
3.012419
3.206730
2.889633
2.695918
2.827644
2.428889
2.720952
2.410412
2.563000
2.315640
2.323985
2.357960
2.498627
2.410412
2.405643
##ZVALUE=280
0.678897
0.519753
0.629425
0.537634
0.615716
0.748634
0.731945
0.672936
0.699759
0.781417
0.764728
0.782609
0.865459
0.764728
0.822544
0.951886
0.936985
1.128912
1.105666
1.104474
1.517534
1.941919
11.957884
42.770505
128.641725
227.028728
403.478742
570.777655
774.598718
891.595483
963.037014
936.448574
840.031505
645.782948
476.097465
273.109674
166.253448
76.835752
45.179725
38.641691
48.284531
72.137713
92.848539
117.410421
132.102966
136.431456
133.555532
118.131638
102.920532
75.554848
56.751966
35.262704
23.674965
13.503432
8.779764
6.169677
5.598664
5.177855
4.914999
4.658699
4.703999
4.572868
4.780889
4.062653
4.041791
4.214644
4.149675
4.173517
4.246831
4.032850
4.110932
4.144907
4.251599
4.374981
4.365444
4.301667
3.889799
3.681779
3.830791
3.341436
3.203750
2.910495
3.013611
2.655983
2.366900
2.568960
2.757907
2.464652
2.308488
2.310872
2.318621
2.277493
2.187490
2.166629
2.218485
2.390742
##ZVALUE=285
0.402927
0.589490
0.540614
0.560880
0.508428
0.592470
0.646710
0.638962
0.619888
0.571609
0.574589
0.621676
0.787973
0.600815
0.652671
0.619888
0.720620
0.830889
1.028776
1.160502
1.114607
1.363754
1.271963
1.727939
5.366802
21.226406
72.145462
148.350000
296.332836
450.938940
611.940622
811.192989
920.709968
970.172882
915.271640
745.936036
586.262941
364.983678
230.738521
111.354589
59.458613
30.589700
31.130910
47.655702
64.995885
93.232989
109.667778
127.484798
133.368969
130.985975
119.050741
98.610520
78.076720
54.241419
37.737489
21.329522
13.733506
8.422732
6.014705
4.937649
4.320741
4.331470
4.580617
4.039407
4.054904
3.646612
3.889799
3.749728
3.999472
3.943443
3.987551
4.068613
4.022717
4.248619
4.109740
3.804564
3.609657
3.433824
3.519654
3.282428
3.065467
2.870560
2.910495
2.573729
2.850890
2.603531
2.483726
2.179742
2.524853
2.530813
2.418756
2.346635
2.042651
2.193451
2.395511
2.340674
##ZVALUE=290
0.631809
0.431538
0.513792
0.432730
0.641942
0.629425
0.583529
0.681877
0.590682
0.499487
0.807643
0.671744
0.791550
0.762939
0.665784
0.689626
0.802875
0.879765
0.823736
0.830889
0.996590
0.887513
1.014471
0.951886
1.384616
1.493692
2.576709
8.213520
39.638877
93.997717
178.553462
352.323651
523.054004
748.764873
888.890624
985.569954
968.573689
836.431980
679.412484
462.519526
306.168795
153.317451
82.150698
34.377575
23.215413
29.724836
42.056441
62.913895
80.908537
105.821490
120.315552
127.584934
126.910806
114.895701
99.023581
72.691441
53.673983
34.208894
23.302436
12.509823
8.691549
5.412698
4.420877
4.038811
4.141927
4.005432
3.723502
3.868937
3.402829
3.629923
3.967881
4.155636
4.238486
4.236698
3.827810
3.637671
3.679991
3.176928
3.070831
2.962947
2.733469
2.802610
2.834797
2.748966
2.394915
2.475977
2.386570
2.386570
2.181530
2.386570
2.186894
1.993775
2.258420
2.188683
2.138615
1.987815
##ZVALUE=295
0.359416
0.331998
0.391603
0.304580
0.472665
0.481606
0.473857
0.591874
0.629425
0.497699
0.509620
0.528693
0.553727
0.621676
0.536442
0.667572
0.588894
0.624657
0.891685
0.732541
0.724792
0.807643
0.861883
0.917912
0.941753
0.965595
1.213551
1.409650
1.668930
3.087521
19.336939
56.535602
124.047399
279.064775
433.222651
665.919781
814.626813
955.274701
988.318920
903.651714
776.493549
558.188558
389.586687
207.380652
113.050938
43.551922
22.464991
18.193722
24.584532
40.389895
56.072474
80.279708
96.825957
115.297437
121.475458
119.625926
109.927654
90.874434
73.274970
50.445795
36.643744
21.006465
13.910532
7.545948
5.485415
3.934503
3.738999
3.570914
3.541708
3.478527
3.736615
3.751516
3.828406
3.848672
3.684759
3.527999
3.350973
2.851486
2.872944
2.981424
2.696514
2.598763
2.580881
2.317429
2.666712
2.426505
2.205968
2.117753
2.233982
2.257824
2.129674
1.848936
2.032518
2.139807
1.946688
1.896620
##ZVALUE=300
0.410676
0.566840
0.359416
0.544786
0.510812
0.441670
0.579953
0.393987
0.355840
0.414848
0.381470
0.411868
0.583529
0.662804
0.608563
0.731945
0.534654
0.564456
0.600815
0.699759
0.781417
0.948906
0.764728
0.881553
0.796914
1.029968
0.955462
1.025796
1.225471
1.337528
1.305938
1.699924
5.649924
33.219457
80.931783
200.786591
332.154632
554.495454
721.827745
898.243785
975.063443
957.864523
857.985616
660.058856
483.316779
267.214775
161.212683
74.476004
34.798980
15.472770
14.710426
23.897886
33.564568
52.575469
70.368648
93.925595
106.743574
117.239952
115.460753
104.417801
92.033744
69.368482
52.295923
34.857988
23.087859
13.381839
7.773638
5.130768
3.988743
3.480911
3.429651
3.835559
3.442764
3.575683
3.468990
3.285408
3.278852
2.759695
2.980828
2.617836
2.456903
2.516508
2.554655
2.600551
2.429485
2.154708
2.087951
1.903772
2.096891
2.123713
1.987815
2.170801
2.100468
1.986623
2.129674
2.009869
##ZVALUE=305
0.545979
0.423789
0.392795
0.472665
0.405908
0.434518
0.585914
0.418425
0.609756
0.376701
0.554919
0.518560
0.493526
0.529885
0.476837
0.614524
0.550747
0.550747
0.616908
0.550747
0.457764
0.743866
0.602603
0.698566
0.714660
0.788569
0.929832
0.977516
0.897646
0.966787
1.177788
1.091957
1.342893
1.511574
3.959537
15.124679
61.132908
131.470561
284.295678
433.959961
661.721826
815.245509
957.406759
985.613465
897.200704
762.816668
550.670624
388.606787
208.246708
114.009976
44.044852
20.363927
11.831522
13.575554
22.293925
32.715797
52.626729
66.891909
87.235570
99.384785
109.100938
108.922720
100.539923
86.561441
66.770911
50.645471
31.942725
21.231771
11.322498
7.303953
4.937649
4.113913
3.607869
3.536940
3.266931
3.133416
3.061891
2.838969
2.736449
2.715588
2.460480
2.432466
2.310872
2.310872
2.388954
2.279878
2.321601
2.266765
2.059937
2.215505
1.810789
1.959801
1.817942
1.851916
1.855493
1.818538
##ZVALUE=310
0.388622
0.367761
0.468493
0.368953
0.324845
0.317693
0.457764
0.415444
0.516772
0.534654
0.496507
0.421405
0.624657
0.650883
0.445843
0.507832
0.493526
0.494719
0.317693
0.490546
0.605583
0.602603
0.655651
0.602603
0.767708
0.785589
0.760555
0.821948
0.771880
0.974536
0.901818
0.807643
0.970960
1.169443
1.172423
1.319647
1.585484
7.483959
25.240779
85.551739
169.816613
339.553952
509.860516
739.508867
883.799791
979.339480
961.564779
840.892792
690.982938
462.217927
311.200023
156.393647
83.483458
31.365752
13.670921
9.932518
12.063980
19.361973
28.302670
44.503808
58.960915
79.740882
91.296434
101.404786
103.168488
95.077753
84.607601
65.692663
50.915480
31.801462
21.671653
12.528896
8.169413
4.940629
3.876686
3.078580
2.755523
2.641678
2.348423
2.376437
2.301931
2.181530
2.251863
2.058744
2.325773
2.224445
2.184510
2.082586
1.901984
1.984835
1.836419
1.903772
1.866817
1.791716
1.897812
1.823902
##ZVALUE=315
0.458956
0.385642
0.495911
0.380874
0.493526
0.470877
0.527501
0.409484
0.531673
0.407696
0.339746
0.480413
0.592470
0.324845
0.414848
0.634789
0.454783
0.510812
0.529885
0.488758
0.586510
0.543594
0.556707
0.527501
0.593662
0.407696
0.651479
0.757575
0.674725
0.654459
0.816584
0.757575
0.881553
0.843406
1.194477
1.150966
1.005530
1.273751
1.449585
3.297925
12.362599
54.170489
118.584633
263.471603
420.468450
662.706494
812.821984
950.529575
983.202457
906.715989
776.909590
558.509827
393.054485
208.844543
114.016533
43.068528
18.692613
8.517504
8.024573
11.392832
16.300678
27.193427
38.975477
56.715608
71.198940
87.388754
96.043944
96.071959
91.155767
76.316595
63.602924
46.226978
32.552481
18.710494
12.223721
6.876588
4.589558
2.952814
2.729893
2.340674
2.283454
2.248883
2.027750
2.083778
2.027750
1.998544
1.996756
1.958609
1.895428
2.141595
1.753569
1.830459
1.903772
1.864433
1.812577
1.924634
##ZVALUE=320
0.346899
0.367761
0.442863
0.206828
0.489950
0.365973
0.327826
0.307560
0.361800
0.308752
0.333786
0.285506
0.478625
0.282526
0.391603
0.318885
0.567436
0.541806
0.484586
0.552535
0.500679
0.434518
0.420809
0.531673
0.656843
0.756979
0.615716
0.592470
0.659823
0.861883
0.564456
0.739694
0.821948
0.931621
0.770688
0.893474
0.908971
0.955462
1.015663
1.111627
1.326799
1.761913
5.249977
29.840469
76.366663
197.322965
325.146914
529.589653
699.740648
888.132453
963.608623
948.327780
857.376456
658.288002
482.288599
269.853473
156.142712
67.175627
30.893683
10.430813
6.949902
7.382631
9.501576
14.555454
22.154450
36.677718
49.500465
66.995621
79.774857
90.259910
91.746449
85.327625
75.740814
58.044791
44.905543
28.283596
19.669533
11.154413
6.484985
3.914833
2.824664
2.355576
2.177954
2.004504
2.038479
2.007484
1.830459
1.851916
1.929998
1.779795
1.745820
1.805425
1.732707
1.890659
1.690984
1.776814
##ZVALUE=325
0.393987
0.365973
0.384450
0.530481
0.243783
0.385642
0.380874
0.438690
0.354648
0.538826
0.475645
0.496507
0.281930
0.452995
0.437498
0.440478
0.304580
0.522733
0.466704
0.440478
0.431538
0.463724
0.462532
0.435710
0.584722
0.540614
0.703931
0.738502
0.627637
0.575781
0.593662
0.716448
0.734925
0.788569
0.716448
0.813603
0.871420
0.883937
1.068711
0.906587
1.052618
1.176000
1.382828
1.536608
3.038645
18.971562
51.023960
133.998990
240.621567
445.737839
614.563823
817.815661
919.862986
954.419971
885.561705
699.715614
533.185005
327.214599
200.951695
88.875890
42.762756
14.549494
7.432699
6.090999
6.464720
9.509921
13.431907
23.123622
33.410788
50.214529
62.983632
77.859759
83.599687
85.426569
80.123544
66.893697
55.347681
38.983822
27.383566
16.338825
10.082722
5.850792
3.776550
2.706647
2.299547
1.985431
2.129674
1.846552
1.899600
1.667738
1.725554
1.672506
1.713634
1.696944
1.636744
1.661777
##ZVALUE=330
0.283718
0.443459
0.569820
0.335574
0.267625
0.415444
0.385642
0.311732
0.424981
0.330806
0.288486
0.324845
0.413656
0.370741
0.449419
0.479817
0.456572
0.436902
0.332594
0.304580
0.498891
0.459552
0.468493
0.429749
0.473857
0.491738
0.448823
0.423789
0.625849
0.517964
0.538826
0.569820
0.533462
0.735521
0.616908
0.689626
0.731945
0.625849
0.716448
0.796914
0.751615
0.851750
0.886917
1.066923
1.004934
1.198649
1.886487
7.765889
26.821494
91.290474
175.579786
345.541835
502.473712
722.690821
856.049657
931.288004
901.638865
767.553449
619.885921
406.381488
260.796547
121.044517
62.048435
22.855997
9.788871
5.520582
5.565882
6.124973
7.789731
13.210773
19.667745
32.213926
43.370724
60.346723
70.742965
78.884959
79.983473
74.224472
64.938664
50.034523
38.232803
24.184585
16.480684
9.649992
6.247759
3.372431
2.748966
2.263784
1.879930
1.849532
1.613498
1.588464
1.597404
1.681447
1.498461
1.619458
##ZVALUE=335
0.207424
0.306964
0.351667
0.354648
0.264645
0.357628
0.321865
0.306964
0.314713
0.301600
0.326633
0.355840
0.400543
0.142455
0.294447
0.225902
0.303984
0.412464
0.393987
0.401735
0.489950
0.239611
0.538826
0.465512
0.524521
0.484586
0.503659
0.609756
0.477433
0.408888
0.323653
0.441670
0.513792
0.409484
0.685453
0.653863
0.486970
0.423789
0.744462
0.606775
0.561476
0.738502
0.835657
0.940561
0.917912
0.959635
1.182556
1.209974
1.425743
3.834963
13.626814
55.203438
118.814707
258.942842
411.810875
640.055537
785.377622
903.651714
912.512541
816.631913
683.645606
470.633507
320.079923
167.771578
90.321898
33.031702
13.095737
5.970597
5.176663
4.981756
5.578995
8.057952
11.695623
20.111799
29.184818
43.593645
54.741502
66.793561
72.783828
74.001551
69.464445
58.781505
48.744678
34.754872
25.785565
15.997887
10.413527
5.902648
3.920794
2.736449
2.027750
1.638532
1.703501
1.418591
1.605749
1.532435
##ZVALUE=340
0.376701
0.295639
0.334978
0.449419
0.411868
0.195503
0.404716
0.435710
0.294447
0.377893
0.431538
0.344515
0.412464
0.345707
0.309944
0.324845
0.311732
0.295639
0.346899
0.341535
0.425577
0.426769
0.318885
0.405908
0.281930
0.477433
0.376701
0.513792
0.436902
0.458956
0.383854
0.386834
0.485778
0.517964
0.610948
0.634789
0.580549
0.394583
0.662804
0.673532
0.611544
0.670552
0.586510
0.630617
0.759959
0.780821
0.807643
0.968575
1.052618
1.039505
1.085997
1.562834
8.758903
27.978420
91.063976
181.574821
365.349650
522.547960
717.307925
832.479596
898.613930
861.451030
718.835592
567.106605
360.164642
226.345658
106.066465
51.262975
15.598536
6.897449
4.818439
4.900694
4.898906
5.289912
7.737875
10.812879
18.284917
27.162433
41.217804
51.791668
62.942505
69.305897
69.693923
65.383911
56.463480
47.306418
34.657717
25.764704
16.143918
10.887980
6.134510
4.026890
2.608895
2.042651
1.717806
1.730919
##ZVALUE=345
0.269413
0.287890
0.107884
0.361800
0.258684
0.370741
0.350475
0.387430
0.278950
0.248551
0.321865
0.397563
0.330806
0.262856
0.352859
0.346899
0.432730
0.291467
0.532866
0.464916
0.318885
0.411868
0.403523
0.366569
0.508428
0.405908
0.496507
0.424981
0.400543
0.485778
0.286698
0.228882
0.363588
0.344515
0.458956
0.455976
0.471473
0.415444
0.659823
0.427961
0.523925
0.720620
0.752807
0.732541
0.677705
0.817776
0.824928
0.873804
0.935793
0.805855
0.950694
1.034737
1.100898
1.221895
2.905726
18.199682
51.227808
136.200786
243.508816
437.204838
593.434572
773.053765
857.166648
864.425898
786.970854
600.555539
446.034670
264.270902
150.243640
59.846640
26.997924
9.399652
5.541444
4.693866
4.452467
4.391670
4.912615
6.591678
9.835958
17.451644
24.521947
37.637949
46.632886
56.366920
60.884953
62.497854
61.329603
53.647757
45.685768
34.547448
25.329590
15.626550
10.742545
5.979538
3.859997
2.527833
##ZVALUE=350
0.207424
0.281930
0.343919
0.340939
0.359416
0.351667
0.406504
0.334978
0.338554
0.453591
0.266433
0.399947
0.344515
0.462532
0.318885
0.357628
0.326633
0.298619
0.357628
0.391603
0.473857
0.240803
0.434518
0.466704
0.353456
0.512600
0.425577
0.430942
0.337958
0.435710
0.346899
0.482798
0.451803
0.424981
0.429749
0.386834
0.389814
0.364780
0.398755
0.521541
0.591874
0.539422
0.689626
0.514984
0.670552
0.685453
0.640750
0.692606
0.656843
0.726581
0.786781
0.917912
0.908971
1.029968
1.083612
1.239777
1.579523
9.515882
29.796958
93.192458
176.140666
349.470973
499.449968
681.471825
796.854496
852.577686
810.353756
672.034025
517.821908
312.747955
190.489888
83.379745
38.313866
11.695623
5.978942
4.591942
4.179478
3.745556
3.620982
4.382730
5.927682
10.069609
14.373660
22.249818
30.062795
40.940642
49.002767
55.690408
58.344603
56.179762
51.059723
41.235685
33.684969
23.107529
16.533732
10.288954
##ZVALUE=355
0.190735
0.340939
0.325441
0.356436
0.266433
0.383854
0.237823
0.294447
0.278950
0.367761
0.269413
0.203848
0.275970
0.253916
0.269413
0.223517
0.342727
0.237823
0.353456
0.438690
0.335574
0.349879
0.225902
0.281930
0.355840
0.415444
0.378489
0.373721
0.414848
0.489950
0.362992
0.536442
0.298619
0.492930
0.413656
0.439882
0.585914
0.359416
0.359416
0.482798
0.429749
0.456572
0.568628
0.521541
0.468493
0.590682
0.651479
0.587702
0.660419
0.627637
0.732541
0.604987
0.858903
0.796914
1.012683
0.933409
1.124740
1.179576
1.378655
3.112555
18.188953
50.174594
134.500861
238.646865
430.519581
584.159493
750.958920
825.099945
809.117556
714.924932
529.826880
388.343930
221.907496
122.806430
48.678517
21.143556
6.713867
4.620552
4.013777
3.800988
3.313422
3.485680
3.720522
4.687905
7.931590
11.883974
19.199848
26.087761
37.008524
43.330789
50.286651
52.610636
51.756501
47.301650
39.168596
31.937957
##ZVALUE=360
0.460744
0.459552
0.350475
0.321865
0.347495
0.436902
0.445843
0.407696
0.354648
0.535846
0.478625
0.452995
0.528693
0.316501
0.441670
0.517964
0.482798
0.463724
0.568628
0.362992
0.550747
0.555515
0.450611
0.436902
0.471473
0.595450
0.389814
0.385642
0.492930
0.466704
0.612736
0.532866
0.527501
0.459552
0.544786
0.595450
0.561476
0.696778
0.567436
0.577569
0.538826
0.589490
0.619888
0.739694
0.677705
0.633597
0.561476
0.621676
0.599623
0.638962
0.823736
0.678897
0.739694
0.779629
0.935793
0.887513
0.985861
1.074672
1.027584
1.133680
1.367927
2.163649
6.618500
30.766726
76.195598
189.992785
310.257673
498.358607
647.408962
781.631470
810.042024
740.077496
620.582700
423.278809
287.316442
152.362585
79.409480
27.321577
11.134744
4.693866
4.053712
3.532767
3.527999
3.206730
2.922416
3.513694
4.078746
6.612539
9.255409
15.207529
21.248460
30.230880
37.477612
44.544935
47.808886
47.507882
##ZVALUE=365
0.166893
0.261664
0.282526
0.243783
0.338554
0.217557
0.362992
0.559688
0.337958
0.399947
0.139475
0.163913
0.418425
0.384450
0.419617
0.295639
0.383854
0.364780
0.246763
0.409484
0.324845
0.332594
0.384450
0.348687
0.436902
0.415444
0.449419
0.419617
0.371933
0.505447
0.368953
0.355840
0.423789
0.394583
0.291467
0.265837
0.346899
0.374913
0.262856
0.484586
0.393987
0.460744
0.497699
0.395775
0.412464
0.452995
0.517964
0.463724
0.683665
0.523925
0.562668
0.690818
0.731945
0.677705
0.737906
0.635982
0.606775
0.724792
0.871420
0.813603
0.909567
1.226664
1.177788
1.506805
2.908707
17.393827
47.832727
126.210451
233.161449
423.756838
566.699505
720.829964
789.262652
768.804550
678.318739
497.757792
354.837775
196.470618
107.590556
39.484501
15.949607
5.192757
4.059672
3.623962
3.294945
3.043413
2.736449
2.824664
2.920628
3.565550
4.781485
8.006692
11.648536
18.451810
24.589896
32.598972
##ZVALUE=370
0.242591
0.314713
0.333786
0.307560
0.270605
0.214577
0.347495
0.287890
0.139475
0.263453
0.310540
0.237823
0.276566
0.317693
0.367761
0.377893
0.379682
0.211596
0.312924
0.369549
0.305772
0.190735
0.331998
0.239611
0.141859
0.274777
0.359416
0.258684
0.349879
0.336766
0.449419
0.342727
0.422597
0.382662
0.450611
0.324845
0.357628
0.392795
0.446439
0.313520
0.375509
0.475645
0.451803
0.428557
0.495911
0.463724
0.486970
0.476837
0.581741
0.628829
0.521541
0.499487
0.609756
0.567436
0.602603
0.722408
0.682473
0.712872
0.698566
0.869632
0.671744
0.881553
0.908971
0.916719
1.040697
1.229644
1.870990
9.201765
30.023456
93.796849
179.337859
338.153839
485.372543
671.494007
757.201910
776.832700
715.418458
563.935637
420.702696
240.050554
139.015913
56.140423
25.353432
8.038878
4.340410
3.323555
3.335476
2.967715
2.731681
2.594590
2.393723
2.680421
2.936721
4.254580
6.428957
10.416508
##ZVALUE=375
0.487566
0.485778
0.394583
0.546575
0.461936
0.343919
0.533462
0.478625
0.486970
0.587702
0.480413
0.599623
0.626445
0.535846
0.454783
0.593662
0.530481
0.404716
0.521541
0.331998
0.588894
0.547767
0.575781
0.390410
0.559688
0.531673
0.703931
0.582933
0.475645
0.481606
0.685453
0.669956
0.494719
0.473857
0.521541
0.494719
0.664592
0.803471
0.577569
0.486970
0.634789
0.407696
0.568628
0.634789
0.648499
0.689626
0.706911
0.744462
0.552535
0.714660
0.726581
0.678897
0.591874
0.741482
0.707507
0.759959
0.591874
0.748634
0.674725
0.662804
0.671744
0.932813
0.836849
0.879765
0.795722
1.148582
0.924468
1.243949
1.448989
4.441738
15.330911
56.903958
120.991468
267.843008
410.704017
603.904724
717.380643
783.940554
757.467747
626.845956
488.184690
301.917791
192.404985
96.720457
48.416853
16.079545
6.319880
3.847480
3.301501
3.247857
2.808571
2.526641
2.471805
2.442598
2.551675
2.734661
##ZVALUE=380
0.289679
0.141859
0.253916
0.298619
0.322461
0.230670
0.322461
0.226498
0.268817
0.309944
0.153780
0.195503
0.077486
0.330806
0.113845
0.334978
0.432730
0.206828
0.255704
0.315905
0.290871
0.275970
0.131726
0.169873
0.204444
0.362992
0.124574
0.395775
0.207424
0.296831
0.303984
0.411868
0.397563
0.405908
0.447631
0.299811
0.298619
0.356436
0.386834
0.425577
0.416636
0.430942
0.464916
0.431538
0.402927
0.501871
0.428557
0.335574
0.425577
0.402927
0.314713
0.355840
0.434518
0.559688
0.599623
0.404716
0.521541
0.527501
0.545979
0.533462
0.512600
0.527501
0.629425
0.733733
0.656843
0.755787
0.737906
0.809431
0.982881
1.152754
1.291633
2.242923
8.059740
39.814711
94.079971
217.552781
346.103907
533.572435
666.916966
773.336887
773.710012
670.437813
553.460717
387.408733
261.512995
130.905509
67.526698
24.258494
9.718537
3.876686
3.167987
2.714992
2.792478
2.486706
2.417564
2.348423
##ZVALUE=385
0.174642
0.196695
0.156760
0.239611
0.305772
0.175834
0.153780
0.325441
0.194907
0.178814
0.205636
0.149608
0.086427
0.198483
0.294447
0.297427
0.373721
0.209808
0.292659
0.287890
0.302792
0.491738
0.233650
0.186563
0.342727
0.297427
0.372529
0.214577
0.252724
0.312924
0.319481
0.296831
0.269413
0.430942
0.356436
0.376701
0.331998
0.104904
0.208616
0.457764
0.249743
0.392795
0.349879
0.294447
0.196695
0.374913
0.370741
0.269413
0.470877
0.429749
0.458956
0.389814
0.391603
0.270605
0.433922
0.288486
0.297427
0.389814
0.370741
0.445843
0.583529
0.520945
0.561476
0.436902
0.535846
0.660419
0.624657
0.785589
0.884533
0.783801
0.943542
1.148582
1.241565
1.494884
3.966689
22.578835
58.874488
149.515867
263.691545
455.583930
598.180890
732.474923
768.816471
725.947618
637.643933
467.738509
331.738591
182.453990
104.782581
43.574572
17.542839
5.013943
3.239512
2.722740
2.782941
2.450943
##ZVALUE=390
0.278950
0.309944
0.341535
0.312924
0.256896
0.276566
0.326633
0.252724
0.273585
0.370741
0.348687
0.182986
0.423789
0.320673
0.141859
0.207424
0.196695
0.319481
0.158548
0.302792
0.223517
0.312924
0.275970
0.198483
0.267625
0.378489
0.361800
0.365973
0.345707
0.379682
0.316501
0.416636
0.448823
0.348687
0.489950
0.509620
0.383854
0.481606
0.290871
0.411868
0.448823
0.367761
0.475645
0.475645
0.395775
0.377893
0.505447
0.624657
0.461936
0.455976
0.588894
0.302792
0.172853
0.354648
0.163913
0.443459
0.352859
0.533462
0.472665
0.362992
0.593662
0.548959
0.543594
0.612736
0.434518
0.608563
0.633597
0.688434
0.773668
0.946522
0.948906
0.909567
0.866652
0.998974
1.132488
1.084805
1.839995
11.501908
36.752820
113.618970
212.763548
392.022729
527.712703
673.784018
749.909878
766.803622
705.745816
555.768013
424.956679
258.537531
151.972771
63.140988
28.659701
8.019805
3.823638
2.850890
##ZVALUE=395
0.229478
0.305772
0.208616
0.148416
0.170469
0.341535
0.222921
0.373721
0.146627
0.170469
0.320673
0.202656
0.109673
0.133514
0.229478
0.337958
0.178814
0.298619
0.152588
0.234842
0.304580
0.339746
0.365973
0.115633
0.146627
0.278950
0.258684
0.337958
0.377893
0.367761
0.552535
0.458956
0.580549
0.527501
0.510812
0.342727
0.458956
0.544786
0.459552
0.382662
0.422597
0.421405
0.475645
0.414848
0.425577
0.370741
0.432730
0.491738
0.501871
0.420809
0.483990
0.561476
0.499487
0.389814
0.434518
0.480413
0.344515
0.460744
0.317693
0.512600
0.323653
0.378489
0.578761
0.614524
0.603795
0.570416
0.474453
0.537634
0.868440
0.835657
0.889897
0.861883
0.967979
0.930429
0.958443
0.949502
0.935793
1.022816
1.528859
5.156994
28.768778
70.004463
162.917972
271.643996
452.791452
591.760874
738.271475
786.097646
751.417875
655.048490
485.321879
341.183543
182.328820
98.859668
37.250519
16.308427
##ZVALUE=400
0.415444
0.468493
0.285506
0.192523
0.095963
0.298619
0.363588
0.309944
0.398755
0.407696
0.079870
0.240803
0.141859
0.348687
0.304580
0.326633
0.056624
0.250936
0.288486
0.270605
0.282526
0.334978
0.362992
0.176430
0.246763
0.302792
0.262856
0.286698
0.507832
0.543594
0.439882
0.415444
0.405908
0.550747
0.626445
0.387430
0.336766
0.425577
0.560880
0.487566
0.295639
0.476837
0.411868
0.507832
0.393987
0.462532
0.510812
0.548959
0.311732
0.447631
0.324845
0.287890
0.369549
0.319481
0.395775
0.565648
0.436902
0.383854
0.403523
0.406504
0.476837
0.489950
0.495911
0.535846
0.485778
0.412464
0.585914
0.596642
0.664592
0.786781
0.597835
0.801682
0.906587
0.828505
0.866652
0.824928
0.805855
0.834465
0.911951
0.958443
1.057982
3.379583
12.882948
50.282478
105.932951
232.035518
354.913473
527.494550
656.015873
758.847594
761.438608
663.538575
547.870994
376.687646
249.008536
126.894712
##END
