##TITLE=FKDZ52
##FORMAT=SPECTACLE-ASCII V-1.2
##DATA TYPE=ULTRAVIOLET SPECTRUM
##SECOND TYPE=ULTRAVIOLET SPECTRUM
##DATE=12/26/17
##TIME=13:53:59
##SPECTROMETER/DATA SYSTEM=SPECTACLE
##XUNITS=NM EM
##YUNITS=ENERGY
##YFACTOR=1
##FIRSTX=220
##LASTX=410
##NPOINTS=96
##3DDATA=Equidistant
##ZUNITS=NM EX
##FIRSTZ=210
##LASTZ=400
##ZPOINTS=39
##XYDATA=(Y..Y)
##ZVALUE=210
2.713799
2.854466
2.838969
2.065897
2.899766
2.793670
2.894998
3.292561
3.099442
2.904534
1.827478
2.370477
2.553463
3.284812
2.795458
2.410412
2.456903
2.421737
2.826452
2.589822
2.813935
3.687739
3.441572
3.090501
3.590584
3.971457
4.295707
5.938411
5.138516
6.431937
6.248951
6.367564
7.379651
7.401705
7.546544
7.099509
6.984472
7.222891
7.516742
7.681847
7.408857
6.176829
6.108880
5.770922
5.971789
6.775856
6.673932
6.878972
5.637407
6.189942
6.222725
6.204844
6.013513
6.863475
5.126595
6.128550
5.515814
6.072521
5.286932
5.640984
6.180406
6.408691
4.695654
5.186796
5.084872
5.303621
6.311536
6.206632
7.610917
8.349419
8.918643
11.187792
11.818409
14.221668
14.221668
14.666915
16.518831
15.180707
14.161468
13.545752
11.966825
11.513829
10.690689
9.186864
8.022785
7.375479
6.114841
5.723834
5.701780
5.040765
5.878806
5.269647
5.224943
6.094575
5.446672
5.974770
##ZVALUE=215
9.164810
7.894635
7.699728
6.627440
6.088614
5.764961
6.113648
5.879998
5.899668
6.105900
5.862713
4.963875
4.172921
4.105568
3.313422
2.565980
2.556443
2.660751
2.566576
3.234744
3.074408
3.187656
3.732443
3.661513
4.773736
4.882812
5.467534
6.292462
6.316900
7.629991
9.139776
9.282827
9.707808
9.882450
11.809468
10.520816
11.378527
11.307597
9.202957
9.422898
9.420514
8.779764
8.573532
8.947849
7.728934
7.980466
7.438660
7.542968
8.029938
7.505417
7.844567
7.345676
6.868839
6.394982
5.897880
6.918907
6.292462
5.790591
5.738735
5.623698
5.985498
6.195903
6.063581
5.847812
5.395412
6.441474
6.029606
6.201863
6.359816
7.195473
8.152723
9.594560
10.992885
12.559891
12.397766
13.720989
14.128685
12.812614
11.794567
12.380481
10.275841
9.828806
9.253621
8.309484
7.216930
6.061792
5.991459
5.126595
4.614592
4.820824
4.933476
5.211830
5.377531
5.070567
4.826784
5.573630
##ZVALUE=220
25.359988
26.476979
25.240779
27.599931
23.227930
21.006465
18.381476
14.278889
11.970997
12.961626
13.178587
12.914538
13.679862
11.989474
9.211898
7.529855
5.680919
4.147887
3.895760
3.069639
2.624989
3.606677
3.637671
4.539490
4.992485
5.228519
5.889535
7.641912
9.258986
10.531545
12.473464
14.234781
14.247894
15.102625
16.407967
16.272664
14.705658
14.920831
15.061498
14.658570
14.097691
13.396740
13.282895
13.016462
11.581779
11.300445
10.531545
9.600520
9.580851
9.422898
8.900762
8.238554
7.719994
7.827878
7.880926
7.508993
7.206798
7.324815
7.482767
6.933808
6.342530
7.649660
7.399917
6.109476
6.269813
7.378459
7.725954
6.888509
7.690787
7.513762
8.649826
8.864999
10.021925
12.082458
12.440681
11.853576
12.415648
12.793541
12.005568
10.912418
11.204481
8.255839
9.250641
7.200837
7.644892
6.992817
6.115437
6.746650
6.293654
5.847812
4.967451
5.358458
5.738735
5.337000
5.201697
5.675554
##ZVALUE=225
42.565465
43.368936
58.506727
65.924525
68.473816
71.504712
61.991811
50.573945
40.620565
29.987693
27.002692
24.425983
26.181936
26.832819
27.922988
25.436878
22.292733
15.730858
12.754798
7.566810
5.229712
4.324913
3.915429
4.235506
5.545616
5.598664
8.202791
9.565949
12.870431
13.199449
14.780760
15.761852
18.090606
19.587874
19.124746
18.775463
21.345615
19.436479
19.641519
17.655492
18.443465
16.351938
15.139580
16.146898
13.694763
12.919903
12.223721
12.235641
10.991693
10.351539
10.938644
10.191798
9.654760
10.088682
8.936524
9.705424
9.280443
8.812547
8.434653
8.523464
8.415580
8.369684
8.112788
8.516908
8.223653
8.088946
8.625984
8.631945
8.684993
9.924769
9.613633
10.438561
10.991693
11.754632
11.933446
12.249947
11.972785
12.237430
11.343956
11.703968
11.751652
9.162426
9.311438
8.756518
7.898808
7.943511
6.960630
7.147789
7.700920
6.467700
6.454587
6.295443
5.707741
6.597638
6.106496
6.424785
##ZVALUE=230
34.222603
39.186478
59.752464
94.165802
118.873715
149.474740
157.881975
155.190825
142.880678
116.655827
83.299875
60.316920
47.884583
44.113994
49.363971
50.101876
51.490664
50.330758
43.775439
35.406947
27.671456
16.871691
12.641549
8.102655
6.882548
7.050633
7.015467
9.334683
10.709763
12.360811
13.891459
15.587807
16.814470
18.740892
18.649697
19.169450
18.305779
17.493963
17.349720
18.682480
16.959906
16.283989
15.533566
15.074611
13.269782
12.813807
13.727546
13.162494
13.256669
11.907816
10.885596
11.502504
10.169744
11.014938
11.360645
10.416508
10.413527
10.724664
9.813905
10.960698
10.709763
10.118484
10.650754
10.496974
10.864735
10.381937
10.509491
11.368990
11.029840
11.610985
11.979938
13.076663
14.255643
14.847517
15.014410
14.195442
15.249848
14.082789
13.670921
12.932420
12.154579
10.987520
10.507703
10.139942
10.861754
9.785891
8.354783
10.044575
8.769631
8.642673
8.029938
9.099841
7.957816
8.505583
7.838607
8.649826
##ZVALUE=235
11.783838
12.116432
33.591986
63.197613
95.714927
156.985521
212.133527
273.154974
298.903584
288.012624
267.657638
208.083987
160.263777
103.333592
81.759691
67.281723
68.498850
76.709986
82.286000
82.665682
78.833699
66.805482
49.938560
39.346814
23.949742
16.764998
11.228919
10.298491
8.861423
8.905530
11.136532
12.253523
12.940764
12.929440
13.375878
14.289618
14.791489
13.943911
14.553666
14.821887
13.412833
13.632774
14.579892
14.644861
13.834834
12.404919
13.072491
12.233853
12.885928
11.334419
11.711717
11.407733
10.848641
12.329817
12.015700
10.531545
10.617971
11.656880
12.473464
12.264848
11.642575
10.268688
10.321736
12.973547
11.701584
12.588501
12.596846
13.532639
13.925433
13.574958
12.849569
14.330745
15.997887
16.239882
16.976595
16.766787
16.014576
17.579794
16.442537
14.629960
13.834834
14.359951
13.026595
13.285875
12.247562
12.468696
12.113452
12.467504
12.440681
11.452436
11.437535
11.235476
11.698604
10.784864
11.702776
10.282993
##ZVALUE=240
2.156496
1.919866
6.469488
16.238689
42.827725
76.884627
151.252747
229.325891
326.161981
387.856960
444.063544
445.813537
412.667990
326.455832
257.113576
165.098906
128.046870
95.647573
96.031427
99.862814
111.748576
114.053488
110.360980
104.112625
83.401799
64.153671
47.636628
31.633973
20.467639
14.473796
11.803508
9.893775
11.022687
10.399818
10.727644
11.734962
12.477636
13.099909
13.214946
13.074875
14.321804
14.268756
14.829636
14.424920
16.441941
14.616847
13.212562
13.469458
12.814999
13.254881
13.697743
13.216734
12.835860
12.216568
13.691783
13.145804
13.642907
13.418794
12.258887
12.370944
13.324618
12.506843
12.453794
12.302995
13.527870
12.666583
12.860894
14.337897
14.293790
14.091730
15.703440
17.076731
18.276572
18.029809
18.059611
18.224716
17.683506
17.898679
18.711686
18.649697
16.809702
14.860630
15.211701
15.166998
15.230775
15.241504
14.767647
14.157891
13.547540
13.594627
15.079975
14.435649
13.168454
12.981892
13.547540
12.259483
##ZVALUE=245
1.551509
1.365542
1.453757
1.910925
3.837943
12.277961
31.340718
78.076720
139.220953
217.611790
348.090529
443.060994
531.794429
549.575686
518.698692
445.915461
330.399871
246.918797
180.322528
116.057992
96.289515
97.461939
107.214451
121.353865
129.522681
121.615529
109.441876
91.529489
75.642467
48.915744
39.501786
23.945570
17.219782
12.813807
12.262464
12.329817
12.785792
13.695955
14.592409
13.554692
15.052557
14.459491
14.312863
14.631748
16.308427
14.277697
15.204549
14.237761
13.468862
13.394952
13.322830
15.278459
13.519526
12.547970
13.510585
12.606978
12.740493
12.350678
11.260509
11.961460
12.511611
11.880994
11.135936
11.904836
12.369752
12.069941
11.721849
11.151433
13.867617
13.139844
14.870763
15.677810
14.786720
15.760660
17.594695
16.853809
16.612411
15.787482
15.801787
15.229583
16.976595
14.541745
15.218854
13.687611
14.735460
14.311671
14.235973
13.933778
13.208985
13.532639
12.240410
13.246536
13.056993
12.910962
13.813972
12.779832
##ZVALUE=250
1.095533
1.517534
1.282692
1.342893
1.510978
1.774430
2.584457
7.202625
28.386712
58.115721
137.293935
230.254531
327.305794
465.976596
556.030869
612.280965
611.073971
554.795861
466.888547
320.006609
228.303671
151.045918
99.823475
92.162490
101.419687
120.101571
133.961439
137.473941
132.759809
120.798945
106.458664
79.169869
62.333941
39.607882
28.927922
21.478534
18.031597
15.255809
15.495420
16.141534
14.860630
15.987754
16.732812
15.842915
15.792847
15.927553
15.657544
15.252829
14.329553
13.920665
13.832450
13.451576
12.734532
13.338923
13.404489
12.282729
11.601448
12.366772
11.984706
10.292530
10.605454
10.365844
11.391640
11.070967
10.107756
11.165738
11.228919
11.481643
11.182427
12.036562
12.761950
13.499856
13.019443
14.036894
13.399720
14.719963
14.979839
15.028715
14.768839
13.668537
14.093518
13.633966
13.075471
13.176799
12.142658
12.697577
12.921691
12.358427
13.371706
11.552572
12.790561
12.039542
11.744499
12.330413
11.594892
12.523532
##ZVALUE=255
1.043677
1.353621
1.096725
1.579523
1.324415
1.242757
1.464486
1.569986
1.867414
3.328919
15.352964
40.295720
106.123686
187.646747
315.063596
437.586904
582.300425
660.769939
700.699687
668.352842
580.626726
427.333713
305.663943
177.672505
118.346810
84.906816
88.533759
105.666518
127.037764
146.316886
154.470801
145.645738
135.138631
111.837983
92.830658
65.336823
49.023628
32.223463
25.462508
21.488667
19.041896
18.195510
17.858744
18.204451
18.717647
17.506480
17.465949
16.704798
16.338825
15.200973
13.843775
14.464855
13.113618
13.069510
12.560487
11.463761
11.088848
10.873675
10.861754
11.012554
10.148883
10.174513
9.879470
9.907484
9.981990
9.698868
8.832812
9.657741
9.804964
10.247827
10.180473
11.633635
12.463927
12.985468
12.042522
12.382865
12.803674
12.032986
12.331605
11.514425
12.010932
11.302829
11.006594
11.680722
11.198521
10.870695
11.031628
11.262894
11.153817
11.231899
11.131763
10.544658
10.382533
11.415482
11.308789
10.892749
##ZVALUE=260
1.133680
1.115799
1.084805
1.137853
1.185536
1.293421
1.235604
1.409650
1.390576
1.735687
1.403689
2.751946
7.988811
31.967759
68.329573
157.971978
390.847921
408.343673
572.234988
739.926696
776.141882
781.930685
657.782555
537.908673
327.299833
245.621800
124.053955
100.447536
84.913969
106.724501
112.258792
131.810904
155.711770
162.414908
148.103833
142.420530
124.314427
81.476569
71.987510
56.066513
39.369464
25.120974
23.275614
21.301508
19.755960
18.787980
18.081665
16.063452
15.512705
16.250610
15.158653
13.649464
14.600754
13.470650
12.225509
10.832548
11.134744
10.587573
10.963678
9.540915
9.704828
8.898973
8.432865
9.093881
8.839965
9.428859
9.130836
9.109974
9.628534
9.143949
10.064840
9.753704
10.751486
11.126995
10.999441
11.018515
10.727644
10.837913
10.885000
11.562705
10.807514
10.335445
10.837913
10.437965
10.679960
9.533763
10.066628
10.461807
10.248423
9.598732
9.634495
10.132790
9.883642
10.235906
9.498000
9.346604
##ZVALUE=265
0.873804
1.013875
1.042485
1.140833
0.944734
1.257658
1.148582
1.392961
1.246929
1.338720
1.228452
1.348853
1.245737
1.737475
3.785491
19.360781
48.244596
117.387772
208.875537
385.172963
538.533926
681.616664
827.382803
855.081677
780.319571
676.817894
502.181649
360.480547
207.348466
136.393905
98.337531
81.556439
94.581842
124.075413
146.130919
166.391730
170.358419
166.232586
151.981711
124.065876
99.691749
70.151687
54.942966
37.464499
28.741956
21.892786
20.155907
17.769933
16.767979
15.316606
14.498830
14.175773
13.842583
13.315678
12.539625
11.534691
10.693669
10.635853
10.733604
9.853840
9.046793
8.581877
8.486509
8.150935
8.525848
7.900596
8.227825
8.602738
8.511543
8.620620
9.214878
9.915829
9.864569
10.252595
10.254979
11.020899
10.347962
9.882450
10.087490
9.935498
9.619594
9.426475
9.231567
9.264946
9.374619
9.433627
9.196997
8.933544
9.344816
9.209514
8.832812
9.077787
9.191632
9.610653
9.432435
9.693503
##ZVALUE=270
1.058578
0.873804
0.932813
0.966787
1.003742
0.996590
1.133680
1.137853
1.258850
1.191497
0.985861
1.396537
1.160502
1.571774
1.323819
1.377463
2.323985
8.894801
26.224852
85.128546
168.064833
289.519429
500.036478
666.804910
835.259557
900.650620
883.643031
801.951885
631.878972
477.026701
332.911611
182.407498
116.284490
75.535774
76.582432
101.757646
123.128891
148.923993
164.294839
170.783997
165.522695
146.518946
126.992464
96.208453
74.265599
47.217607
36.304593
24.608970
19.105673
16.518831
14.277697
13.788939
13.183951
12.694597
11.017919
10.785460
10.658503
9.929538
9.707808
9.220839
9.020567
8.400679
8.803606
9.108782
8.518696
8.530617
7.958412
8.160472
8.434653
8.600950
8.985996
9.425879
9.312630
9.646416
8.836985
9.666681
9.531975
9.237528
9.533763
8.974671
8.934736
8.810759
8.967519
8.318424
8.943677
8.946657
8.694530
8.825660
9.068847
8.530617
8.817911
8.526444
8.108616
8.692741
8.559823
8.536577
##ZVALUE=275
0.804663
0.876784
0.834465
0.661612
0.895858
0.999570
0.829697
0.901818
1.040697
0.993609
1.106858
1.078844
1.246929
1.372695
1.089573
1.405478
1.508594
1.472831
1.773834
4.338622
16.702414
46.239495
130.891800
241.714716
447.471738
602.142811
787.158608
894.202590
934.138894
883.774757
778.051019
576.903820
415.228605
227.540731
139.254928
73.560476
59.730411
70.418715
90.078712
118.239522
139.622688
156.560540
162.355900
156.006813
141.452551
113.275647
91.472864
66.770911
48.591495
30.804873
21.804571
14.859438
12.884736
11.529922
10.430813
10.096431
10.405779
9.550452
8.836985
9.131432
8.511543
8.226633
7.999539
8.275509
8.005500
8.285642
7.718801
8.158684
7.877946
8.044839
8.403659
8.554459
8.850694
8.803606
9.164810
9.716749
9.192824
9.121895
8.447766
8.921623
8.718967
8.568764
8.445978
8.415580
8.140802
8.243918
8.447766
8.173585
7.765889
8.368492
8.217692
8.270741
8.514524
7.684827
8.161664
8.295774
##ZVALUE=280
0.816584
0.757575
0.729561
0.798702
0.782609
0.758767
0.869632
0.977516
0.948906
1.003742
0.890493
1.032948
1.099706
0.934601
0.983477
1.202822
1.051426
1.036525
1.086593
1.511574
1.780987
2.253652
8.343458
39.363503
93.870759
217.545629
339.061618
546.449423
696.387887
865.352750
943.100452
918.876529
828.065872
637.641549
477.525592
281.140804
169.319510
79.814792
50.666928
45.892000
58.998466
84.549785
106.968880
132.325888
148.557425
152.425766
148.527622
128.709674
111.319423
83.817840
64.028502
40.927529
27.964711
17.181635
11.897683
9.610653
8.314848
8.578897
8.037686
7.960796
7.684827
7.812977
7.754564
8.006692
7.508993
7.692575
7.511973
7.595420
7.652640
7.955432
8.050799
8.480549
8.593798
9.043813
8.448958
8.688569
8.565784
9.014606
8.382797
8.525848
8.837581
8.146763
8.077621
8.714795
8.115768
8.087754
7.796884
8.123517
7.831454
8.345842
8.011460
7.792711
7.884502
7.849932
7.811785
7.887483
##ZVALUE=285
0.566840
0.643730
0.717640
0.612736
0.695586
0.550747
0.719428
0.688434
0.597835
0.837445
0.914931
0.777841
0.901818
0.851750
0.837445
0.964999
1.071692
0.813603
1.184940
1.151562
1.364946
1.298785
1.528859
1.616478
4.925728
16.848445
57.530999
122.063756
259.066820
402.720571
544.726849
774.630904
904.335976
964.493752
923.328996
757.468939
594.543815
375.178456
233.237743
112.328529
59.542656
34.123659
35.937428
53.498745
72.995424
103.626847
122.291446
139.347911
146.671534
143.447518
132.871866
108.286738
87.767839
60.026646
42.552948
24.911761
16.610622
10.840893
8.165836
7.747412
7.400513
7.126927
6.632805
7.625818
7.554889
7.245541
7.404685
7.969737
7.591844
7.697940
8.057952
8.218884
8.241534
8.101463
8.477569
8.434653
8.199811
8.104444
8.201599
8.094907
7.979870
7.983446
8.078814
8.222461
7.560849
7.766485
7.995963
7.650852
7.934570
7.694960
7.761717
8.037686
7.525682
7.678866
7.605553
7.585883
##ZVALUE=290
0.604987
0.715852
0.635982
0.708699
0.641942
0.692606
0.913739
0.537634
0.637770
0.786781
0.736713
0.820756
0.845790
0.891685
0.903606
0.759959
0.838637
0.922680
0.822544
1.011491
0.977516
1.111627
1.238585
1.104474
1.355410
1.683831
2.345443
7.346869
32.819510
77.696443
152.651668
314.471722
477.705598
718.496442
863.377452
976.549983
969.047546
851.175785
698.853731
472.906828
313.498974
157.272816
83.673000
34.928918
25.741458
33.726692
47.090650
70.810914
90.326667
116.770864
132.522583
144.290924
142.304897
126.254559
108.922720
80.203414
60.239434
39.745569
26.642680
15.882850
11.019707
8.070469
7.597804
6.740689
6.896853
6.977916
7.026792
7.162690
7.593632
7.488728
8.041859
8.041859
8.572936
8.199811
8.256435
8.400679
7.911921
8.249879
8.163452
8.131862
7.933974
7.981658
7.729530
7.764697
8.013844
8.082986
7.967949
8.004904
7.756948
7.630587
7.748604
7.659793
7.632971
7.219911
7.125735
7.193685
##ZVALUE=295
0.584722
0.654459
0.722408
0.623465
0.827909
0.691414
0.763535
0.847578
0.671744
0.792742
0.612736
0.639558
0.653863
0.736713
0.739694
0.702739
0.817776
0.804663
0.907779
0.976920
1.173615
1.078844
1.174808
1.010895
1.174808
1.248717
1.330972
1.321435
1.675487
2.847910
16.424656
46.309829
106.372833
247.493982
399.195552
630.409718
788.578987
942.865014
976.032615
903.787017
775.468946
556.166768
382.527709
202.415586
112.722516
46.125650
24.203658
21.618605
28.400421
46.540499
62.567592
89.909434
106.623769
126.944780
133.782625
130.955577
120.781660
100.089908
79.713464
55.710673
40.596724
23.977757
15.999675
10.456443
8.092523
7.573962
6.796718
6.774664
6.970763
7.320642
7.447600
7.610917
8.054972
7.930994
8.128881
8.285642
8.220673
8.348823
7.806420
8.018613
8.100867
7.510781
8.175969
7.829666
7.897615
8.137822
7.834435
7.815957
7.842779
7.874966
7.590652
7.245541
7.251501
7.431507
7.630587
7.304549
##ZVALUE=300
0.536442
0.692606
0.551939
0.531673
0.542998
0.428557
0.626445
0.501871
0.472665
0.708699
0.652671
0.686646
0.710487
0.725985
0.808835
0.634789
0.937581
0.770688
0.861883
0.816584
0.856519
0.993609
0.910759
0.887513
1.149774
1.039505
1.221895
1.016855
1.491904
1.425743
1.821518
1.972914
5.272627
28.011799
69.535971
178.867579
301.689506
522.732735
693.368912
881.709456
968.101621
955.847502
857.805610
658.499599
485.894680
270.139575
160.495639
73.372722
36.236644
17.306805
17.595887
26.064515
38.807988
59.798956
78.699589
103.606582
117.498636
127.781630
125.325918
114.596486
99.962950
75.643659
58.880448
39.123893
26.223660
15.795827
10.971427
8.180737
7.360578
6.944537
7.342696
7.848740
7.358789
7.732511
7.672906
7.636547
7.591844
7.622838
7.659793
7.844567
7.569790
8.055568
8.120537
7.668734
7.937551
7.841587
7.887483
7.685423
7.854700
6.974936
7.681847
7.151961
7.104874
7.304549
7.240772
7.263422
##ZVALUE=305
0.527501
0.476837
0.650883
0.503659
0.562668
0.499487
0.529885
0.683665
0.599623
0.622869
0.580549
0.600815
0.663996
0.714660
0.835657
0.627637
0.771880
0.844598
0.823736
0.693798
0.792742
0.777841
0.815988
0.739694
0.973940
0.958443
1.045465
1.073480
1.102686
1.122952
1.316667
1.176596
1.385808
1.529455
3.703833
13.505816
54.469705
117.803812
261.486769
408.333540
634.938478
799.773932
953.249931
989.246964
904.091597
767.570734
550.886989
385.794640
202.949643
112.617612
45.586824
21.771789
12.834668
15.527606
24.135709
36.428571
58.371425
75.516701
97.870827
112.341642
121.641755
119.899511
109.689832
96.316934
72.186589
56.881905
37.470460
25.304556
15.558600
11.183619
8.005500
7.419586
7.570982
7.455945
7.521510
7.153749
7.530451
7.181764
7.433891
7.784963
7.841587
7.438660
7.567406
7.430911
7.807612
7.336736
7.517934
7.425547
7.318854
7.177591
7.161498
6.973743
7.136464
7.083416
6.834865
6.813407
##ZVALUE=310
0.440478
0.542998
0.361800
0.679493
0.622869
0.502467
0.656843
0.628829
0.582933
0.573993
0.444651
0.413656
0.471473
0.480413
0.571609
0.617504
0.683665
0.741482
0.681877
0.780821
0.840425
0.798702
0.727773
0.817776
1.042485
0.789762
0.920892
0.843406
0.978708
1.098514
1.107454
0.929832
1.272559
1.374483
1.534820
1.407862
1.868606
5.773902
28.693676
69.386959
173.304677
295.733809
517.126918
690.812469
885.889530
972.900987
960.839987
868.444443
673.872828
495.979786
283.400416
170.208812
74.271560
34.460425
13.716817
10.745525
14.739633
20.833611
33.546686
47.114491
68.756938
85.842609
103.634000
112.412572
113.324523
107.329488
92.095733
74.911714
52.549839
37.236810
23.381710
16.960502
11.483431
9.010434
7.915497
7.246733
7.212758
7.050633
7.326603
6.997585
6.933808
7.158518
7.392764
7.075667
6.793737
7.477999
7.087588
7.328987
7.162690
7.200837
6.973743
6.703734
6.979704
6.706715
6.832480
6.740689
##ZVALUE=315
0.534654
0.437498
0.551939
0.403523
0.544786
0.572801
0.466704
0.617504
0.457764
0.466704
0.712872
0.455976
0.552535
0.520945
0.633597
0.445843
0.670552
0.609756
0.557899
0.575781
0.602603
0.709891
0.839829
0.910759
0.750422
0.829697
0.819564
0.745654
0.718832
0.955462
1.003742
1.015663
0.938773
1.012683
1.073480
1.063943
1.250505
1.617670
1.462698
3.157854
11.729598
50.163865
110.543966
246.865749
402.248502
644.337535
799.601674
938.701630
976.565480
902.134776
776.298642
557.694435
395.020843
213.797688
116.333961
42.851567
19.050837
9.811521
9.624958
13.595819
19.342899
32.313466
44.955611
63.838959
79.645514
98.027587
106.695890
107.459426
101.212859
86.758733
72.100759
51.395893
37.666559
23.485422
16.254783
10.450482
8.696914
7.437468
6.845593
6.751418
6.798506
6.511807
6.734729
6.793737
6.778836
6.631613
6.966591
6.977916
7.004738
7.050633
6.872416
6.714463
6.833673
6.509423
6.556511
6.558895
##ZVALUE=320
0.393987
0.478625
0.553727
0.547767
0.488758
0.429749
0.440478
0.521541
0.577569
0.446439
0.340939
0.556707
0.517964
0.641942
0.569820
0.687838
0.630617
0.625849
0.501871
0.609756
0.689626
0.680685
0.748634
0.660419
0.579953
0.667572
0.630617
0.707507
0.791550
0.792742
0.801682
0.651479
0.933409
0.878572
0.960827
0.861883
1.063943
1.123548
1.181960
1.298785
1.388788
1.945496
5.428791
28.866529
72.443485
181.825757
307.042599
514.599681
680.972934
876.686573
959.506035
951.008797
862.435699
661.381483
485.277772
273.712873
157.524943
67.634583
31.541586
11.222959
8.268952
9.133816
11.388659
17.700791
26.567578
42.521954
56.699514
75.734854
88.986754
100.264549
102.491975
95.869899
85.414648
65.499544
51.108599
33.816695
24.013519
15.221834
10.727644
8.282661
7.241964
6.699562
6.875992
6.831884
6.321669
6.688833
6.704926
6.513596
6.767511
6.783605
6.475449
6.432533
6.481409
6.453991
6.317496
6.286502
##ZVALUE=325
0.354648
0.445843
0.423789
0.528693
0.528693
0.514984
0.332594
0.548959
0.600815
0.509620
0.513792
0.574589
0.522733
0.641942
0.653863
0.447631
0.432730
0.649691
0.579953
0.709891
0.581741
0.528693
0.646710
0.634789
0.661612
0.500679
0.513792
0.538826
0.638962
0.765920
0.694990
0.673532
0.756979
0.959635
0.948906
0.888705
1.004934
1.080632
1.096725
1.138449
1.144409
1.306534
1.468658
1.534820
2.705455
17.807484
47.133565
124.370456
227.503777
428.527594
596.513748
811.149478
926.375985
972.905755
906.431675
719.265938
548.821688
338.937640
206.458569
91.837645
43.754578
14.876723
8.547902
7.515550
8.325577
11.616945
16.344786
26.946664
38.273931
57.499409
71.841478
86.053610
94.622970
96.035004
89.400411
75.852871
62.919855
45.571923
33.120513
21.206737
14.448762
9.680986
7.759929
6.885529
6.613731
6.366968
6.380677
6.251931
6.239414
6.249547
6.133914
6.124973
6.463528
6.056428
6.114841
5.980730
##ZVALUE=330
0.418425
0.529885
0.523925
0.520945
0.425577
0.522733
0.477433
0.482798
0.513792
0.579953
0.490546
0.587702
0.436902
0.535846
0.490546
0.511408
0.514984
0.578761
0.506639
0.600815
0.654459
0.505447
0.701547
0.664592
0.681877
0.441670
0.582933
0.703931
0.815988
0.833869
0.665784
0.741482
0.708699
0.702739
0.733733
0.807643
1.038909
0.751615
0.770688
0.891685
0.900626
1.000762
1.172423
1.153946
1.291633
1.523495
1.684427
7.416606
24.715662
83.356500
161.663890
329.495668
489.226580
718.922615
869.448781
974.054933
960.347652
810.714960
661.783814
438.637733
284.073949
132.307410
67.868829
24.577975
11.200905
6.935596
7.058978
7.902980
10.166764
16.351938
24.120808
38.262606
51.933527
69.670677
80.840588
87.829828
89.101791
81.783533
72.703958
56.571960
43.631792
29.377937
21.232963
14.789701
10.745525
7.808805
6.864667
6.500483
6.354451
6.133914
5.723834
6.081462
5.982518
5.782843
6.006956
5.717874
##ZVALUE=335
0.392795
0.550747
0.515580
0.548959
0.466704
0.407696
0.427961
0.481606
0.533462
0.490546
0.428557
0.436902
0.540614
0.428557
0.454783
0.484586
0.578761
0.417829
0.585914
0.567436
0.609756
0.512600
0.687838
0.508428
0.521541
0.559688
0.664592
0.626445
0.708699
0.459552
0.502467
0.596642
0.581741
0.572801
0.661612
0.697970
0.790954
0.780821
0.833869
0.777841
0.843406
0.678897
1.016855
0.813603
1.025796
1.288652
1.220703
1.253486
1.670718
3.531575
13.027787
51.133633
109.377503
243.389606
393.185616
619.095564
776.233673
914.285779
949.810743
875.522494
752.016902
532.037020
365.328789
192.492604
100.478530
33.361912
14.027953
7.552505
6.645918
6.653666
7.557869
10.324717
14.445782
23.889542
34.562945
50.225854
62.168837
75.509548
81.924796
83.643794
78.430772
65.911412
55.493712
41.873455
32.118559
21.332502
15.517473
10.479689
8.335710
6.894469
6.478429
5.979538
5.952716
6.047487
5.477667
5.425811
##ZVALUE=340
0.525713
0.480413
0.350475
0.552535
0.334978
0.349879
0.488758
0.267625
0.397563
0.446439
0.633597
0.517964
0.419617
0.564456
0.489950
0.529885
0.358820
0.472665
0.407696
0.453591
0.436902
0.613928
0.368953
0.483990
0.626445
0.630617
0.476837
0.495911
0.426769
0.438690
0.629425
0.693798
0.632405
0.565648
0.575781
0.691414
0.499487
0.671744
0.764728
0.706911
0.862479
0.665784
0.926852
0.964999
0.899434
0.886917
1.119971
1.038909
1.201630
1.176596
1.358986
2.060533
6.225705
31.177998
77.676773
190.708637
321.972966
523.836613
686.096549
868.091583
943.056941
932.625532
844.810605
657.444000
480.390787
255.122781
140.959620
54.867864
22.054911
8.286834
6.704926
6.450415
6.711483
7.313490
9.386539
15.009642
22.275448
33.743978
45.420527
60.167909
69.968700
77.181458
77.914596
73.433518
65.910816
53.736567
41.983724
29.594898
22.115707
14.641881
10.717511
7.532835
6.708503
5.701780
5.422831
5.680919
##ZVALUE=345
0.454783
0.409484
0.394583
0.439882
0.343919
0.485778
0.599623
0.523925
0.485778
0.410676
0.610948
0.541806
0.575781
0.363588
0.529885
0.382662
0.506639
0.592470
0.465512
0.629425
0.633597
0.634789
0.584722
0.599623
0.652671
0.530481
0.596642
0.676513
0.346899
0.500679
0.467896
0.471473
0.593662
0.632405
0.553727
0.626445
0.680685
0.640750
0.622869
0.884533
0.645518
0.783801
0.619888
0.833869
0.652671
0.785589
0.809431
0.805855
0.954866
0.912547
1.173615
1.081824
1.308918
1.629591
3.631711
12.964606
54.282546
116.283894
250.772834
388.926864
595.029593
752.294660
908.034444
959.740877
908.170938
790.143013
569.095612
383.920670
181.076527
89.851618
31.015873
13.139844
6.912947
6.527901
6.384850
6.454587
6.982684
8.592606
13.454556
19.634962
31.536818
41.669607
54.275990
63.468814
70.737600
72.068572
69.015622
62.612891
50.976872
41.658878
29.829741
22.077560
14.403462
10.523796
7.476807
6.363988
##ZVALUE=350
0.388622
0.399947
0.461936
0.448823
0.308752
0.473857
0.475645
0.394583
0.492930
0.336766
0.243783
0.339746
0.447631
0.438690
0.366569
0.377893
0.484586
0.610948
0.419617
0.636578
0.400543
0.530481
0.370741
0.512600
0.441670
0.560880
0.463724
0.560880
0.545979
0.432730
0.436902
0.605583
0.608563
0.671744
0.486970
0.493526
0.583529
0.432730
0.665784
0.580549
0.740886
0.710487
0.819564
0.693798
0.822544
0.739694
0.881553
0.956655
0.811815
0.910759
1.000762
1.157522
1.109838
1.191497
1.264811
1.462698
2.092719
6.570816
30.398965
72.590709
178.863406
300.935507
500.600934
654.529929
841.894746
928.521752
928.978920
848.810673
635.770559
442.329645
225.451589
121.437907
44.228435
17.646551
7.402897
6.138682
6.007552
5.854964
5.855560
6.187558
8.504987
11.800528
18.525720
25.579929
37.103891
46.049953
57.296753
63.339472
66.420436
64.660907
57.448745
49.755573
38.010478
30.197501
20.196438
14.979839
##ZVALUE=355
0.369549
0.456572
0.315905
0.359416
0.398755
0.384450
0.453591
0.527501
0.502467
0.383854
0.346899
0.388622
0.368953
0.358820
0.435710
0.299811
0.342727
0.379682
0.512600
0.381470
0.510812
0.514984
0.376701
0.542998
0.488758
0.357628
0.626445
0.532866
0.350475
0.460744
0.545979
0.537634
0.470877
0.696778
0.550747
0.480413
0.707507
0.433922
0.549555
0.541806
0.640750
0.666976
0.590682
0.598431
0.712872
0.470877
0.760555
0.522733
0.578761
0.796914
0.686646
0.802875
0.980496
1.053810
0.933409
1.077652
1.088977
1.319647
1.427531
4.128814
14.255643
56.175590
116.520524
246.862769
387.605429
601.429939
742.364526
881.387591
915.257931
844.651461
716.796517
498.307943
325.796604
143.350959
64.976811
18.760562
8.352995
5.924702
5.335808
5.307794
5.260706
5.259514
5.938411
7.310510
10.197759
15.882850
22.146702
32.150745
40.740967
50.544739
56.489706
59.897900
58.583617
52.805543
46.147704
36.284924
##ZVALUE=360
0.484586
0.421405
0.508428
0.416636
0.499487
0.396967
0.425577
0.348687
0.344515
0.610948
0.341535
0.440478
0.403523
0.486970
0.331998
0.439882
0.364780
0.502467
0.528693
0.503659
0.618696
0.557899
0.625849
0.403523
0.479817
0.481606
0.657439
0.507832
0.513792
0.540614
0.600815
0.634789
0.431538
0.620484
0.596642
0.502467
0.513792
0.645518
0.598431
0.712872
0.468493
0.453591
0.689626
0.709891
0.620484
0.619888
0.586510
0.683665
0.783801
0.621676
0.622869
0.883937
0.864863
0.892878
0.938773
0.879765
0.973940
1.156926
1.185536
1.212955
1.440644
2.269745
6.508827
28.769970
70.648789
178.191662
292.580724
480.229855
635.607839
797.880888
852.772593
825.150013
735.078454
539.031625
373.999476
188.976526
95.764995
32.575727
12.776852
6.007552
5.406737
5.043745
4.855990
4.628897
4.851818
5.287528
6.030798
8.412600
12.007952
18.575788
25.191903
35.854578
42.753816
51.119924
54.749846
54.164529
##ZVALUE=365
0.245571
0.218749
0.317693
0.351667
0.162721
0.397563
0.482798
0.312924
0.462532
0.394583
0.402927
0.349879
0.304580
0.401735
0.500679
0.421405
0.386834
0.387430
0.296831
0.382662
0.365973
0.414848
0.301600
0.391603
0.284910
0.382662
0.328422
0.461936
0.517964
0.369549
0.419617
0.492930
0.342727
0.565648
0.398755
0.447631
0.460744
0.400543
0.401735
0.552535
0.539422
0.565648
0.489950
0.458956
0.517964
0.666976
0.484586
0.476837
0.612736
0.694990
0.599623
0.639558
0.564456
0.774860
0.747442
0.855923
0.431538
0.712872
0.772476
0.842810
1.086593
1.086593
1.224875
1.392961
3.467798
12.375712
48.684478
106.451511
245.707631
389.016867
588.588715
708.148479
804.415941
808.770657
707.181692
584.769845
384.916663
242.812634
109.029412
51.415563
15.403628
7.454753
4.978776
4.631877
4.683733
4.582405
4.398823
4.292727
4.754663
5.285740
7.201433
9.813905
15.489459
21.663904
30.227900
36.866665
##ZVALUE=370
0.420809
0.380874
0.400543
0.431538
0.423789
0.356436
0.404716
0.340939
0.400543
0.371933
0.291467
0.370741
0.423789
0.378489
0.394583
0.555515
0.266433
0.402927
0.452995
0.462532
0.444651
0.507832
0.439882
0.439882
0.338554
0.488758
0.629425
0.408888
0.542998
0.483990
0.470877
0.437498
0.495911
0.530481
0.486970
0.537634
0.766516
0.580549
0.564456
0.519753
0.441670
0.598431
0.522733
0.558496
0.589490
0.516772
0.551939
0.544786
0.646710
0.690818
0.769496
0.645518
0.826716
0.712872
0.572801
0.656843
0.674725
0.757575
0.710487
0.767708
0.901818
1.052618
1.082420
1.007915
1.178980
1.371503
1.931787
6.348491
33.031702
80.535412
192.683935
309.810638
490.309000
635.162592
765.619874
791.906714
718.251467
598.534942
405.927896
266.580582
127.019882
65.634847
25.544763
11.262894
5.553961
4.578829
4.340410
4.230738
4.136562
4.033446
3.771782
4.065633
4.971623
6.329417
9.487867
13.063550
##ZVALUE=375
0.514984
0.393987
0.337958
0.321865
0.363588
0.422597
0.316501
0.338554
0.276566
0.344515
0.355840
0.269413
0.430942
0.465512
0.337958
0.375509
0.407696
0.401735
0.435710
0.482798
0.496507
0.410676
0.601411
0.566840
0.344515
0.378489
0.362992
0.396967
0.403523
0.507832
0.505447
0.517964
0.523925
0.389814
0.531673
0.630617
0.628829
0.625849
0.415444
0.325441
0.504851
0.429749
0.421405
0.605583
0.549555
0.439882
0.575781
0.598431
0.517964
0.559688
0.497699
0.570416
0.627637
0.674725
0.782609
0.559688
0.596642
0.698566
0.685453
0.656843
0.662804
0.813603
0.808835
0.715852
0.736713
1.089573
1.148582
1.247525
1.402497
4.172921
14.328957
52.420497
113.278627
253.990889
398.096442
596.824884
710.825920
786.086917
764.519572
634.555817
494.522452
303.296447
192.256570
96.940994
49.038529
15.934706
7.124543
4.544854
4.138947
3.979802
3.854632
3.675818
3.713965
3.629923
3.825426
4.063845
##ZVALUE=380
0.318885
0.373721
0.268817
0.376701
0.532866
0.314713
0.398755
0.312924
0.349879
0.418425
0.349879
0.324845
0.303984
0.459552
0.522733
0.231862
0.324845
0.293851
0.437498
0.351667
0.519753
0.279546
0.520945
0.340939
0.342727
0.376701
0.395775
0.480413
0.442863
0.430942
0.466704
0.405908
0.529885
0.602603
0.448823
0.605583
0.382662
0.583529
0.580549
0.382662
0.560880
0.565648
0.390410
0.445843
0.455976
0.575781
0.481606
0.426769
0.548959
0.474453
0.392795
0.542998
0.545979
0.438690
0.624657
0.467896
0.665784
0.516772
0.490546
0.581741
0.533462
0.547767
0.544786
0.699759
0.628829
0.834465
0.747442
1.002550
0.978708
1.205802
1.428723
2.466440
7.649660
36.950707
86.725950
205.105543
328.374505
509.688854
642.117858
757.997632
764.987469
665.470958
551.263690
387.602448
261.925459
130.914450
68.113804
24.063587
10.011792
4.700422
3.920794
3.668666
3.708601
3.455877
3.401637
3.137589
##ZVALUE=385
0.419617
0.437498
0.420809
0.349879
0.247955
0.494719
0.327826
0.347495
0.482798
0.327826
0.325441
0.414848
0.370741
0.401735
0.379682
0.289679
0.334978
0.514984
0.374913
0.401735
0.302792
0.222921
0.220537
0.230670
0.404716
0.275970
0.341535
0.376701
0.353456
0.391603
0.551939
0.411868
0.541806
0.453591
0.501871
0.585914
0.658631
0.398755
0.621676
0.496507
0.515580
0.563860
0.501871
0.275970
0.375509
0.454783
0.564456
0.412464
0.542998
0.503659
0.418425
0.507832
0.559688
0.455976
0.514984
0.505447
0.612736
0.520945
0.443459
0.460744
0.533462
0.584722
0.494719
0.651479
0.605583
0.861883
0.899434
0.928640
0.935793
0.965595
1.153946
1.155734
1.279712
1.633763
3.576875
20.702481
53.833723
137.722492
244.439840
433.317423
578.827858
722.860694
761.571527
731.331706
639.898777
476.541519
337.692499
185.221434
105.405450
44.028759
18.153787
5.857944
3.939867
3.637671
3.498793
3.461838
##ZVALUE=390
0.532866
0.554919
0.317693
0.381470
0.389814
0.449419
0.301600
0.276566
0.456572
0.362992
0.420809
0.383854
0.351667
0.412464
0.428557
0.397563
0.427961
0.293851
0.482798
0.377893
0.344515
0.407696
0.611544
0.365973
0.459552
0.531673
0.439882
0.469685
0.488758
0.381470
0.306964
0.492930
0.560880
0.479817
0.508428
0.577569
0.451803
0.523925
0.433922
0.483990
0.581741
0.513792
0.444651
0.537634
0.508428
0.508428
0.503659
0.560880
0.388622
0.487566
0.571609
0.473857
0.530481
0.453591
0.435710
0.523925
0.687838
0.639558
0.660419
0.617504
0.707507
0.593662
0.679493
0.566840
0.651479
0.684857
0.704527
0.886917
0.799894
0.852942
1.056790
1.178980
1.130700
1.238585
1.289845
1.269579
1.891851
10.880828
34.774542
105.782747
200.103521
375.064611
509.817600
660.508871
746.114850
774.827003
714.679956
568.730831
434.448719
264.580846
155.485868
63.354969
29.201508
8.427501
4.421473
3.581643
##ZVALUE=395
0.374913
0.284910
0.380874
0.344515
0.179410
0.332594
0.372529
0.244975
0.240803
0.317693
0.505447
0.378489
0.255704
0.160933
0.419617
0.475645
0.298619
0.409484
0.350475
0.331998
0.266433
0.176430
0.223517
0.400543
0.359416
0.371933
0.359416
0.529885
0.514984
0.534654
0.366569
0.339746
0.565648
0.611544
0.567436
0.512600
0.604987
0.583529
0.543594
0.551939
0.557899
0.559688
0.482798
0.496507
0.485778
0.587702
0.264645
0.561476
0.452995
0.569820
0.515580
0.536442
0.375509
0.597835
0.549555
0.597835
0.474453
0.504851
0.511408
0.497699
0.489950
0.508428
0.621676
0.622869
0.635982
0.584722
0.647902
0.872612
0.766516
0.741482
1.072884
1.017451
0.888705
0.967979
0.964999
0.952482
1.043677
1.005530
1.428723
6.316900
22.918582
79.999566
149.710774
281.499624
418.080688
609.438419
727.337003
798.032880
774.250627
654.875636
514.084697
320.527554
199.416876
87.475777
42.319894
13.629794
##ZVALUE=400
0.351667
0.231862
0.309944
0.267625
0.441670
0.306964
0.486970
0.331998
0.394583
0.462532
0.263453
0.340939
0.519753
0.320673
0.429749
0.510812
0.328422
0.435710
0.399947
0.424981
0.440478
0.395775
0.383854
0.278950
0.390410
0.367761
0.397563
0.384450
0.637770
0.475645
0.532866
0.449419
0.356436
0.596642
0.555515
0.651479
0.567436
0.445843
0.388622
0.569820
0.636578
0.518560
0.702739
0.501871
0.439882
0.516772
0.464916
0.479817
0.613928
0.450611
0.451803
0.360608
0.465512
0.423789
0.417829
0.562668
0.524521
0.462532
0.538826
0.430942
0.510812
0.505447
0.537634
0.449419
0.590682
0.630617
0.500679
0.733733
0.791550
0.877976
0.895858
0.886917
0.932813
0.965595
0.884533
0.854731
0.979900
1.030564
0.941753
1.079440
1.279712
3.418922
12.126565
44.091940
96.385479
215.262771
345.863700
536.523461
667.085648
767.715573
778.373480
685.523748
558.900833
370.527506
243.426561
123.796463
##END
