##TITLE=FKDZ02
##FORMAT=SPECTACLE-ASCII V-1.2
##DATA TYPE=ULTRAVIOLET SPECTRUM
##SECOND TYPE=ULTRAVIOLET SPECTRUM
##DATE=12/26/17
##TIME=13:37:09
##SPECTROMETER/DATA SYSTEM=SPECTACLE
##XUNITS=NM EM
##YUNITS=ENERGY
##YFACTOR=1
##FIRSTX=220
##LASTX=410
##NPOINTS=96
##3DDATA=Equidistant
##ZUNITS=NM EX
##FIRSTZ=210
##LASTZ=400
##ZPOINTS=39
##XYDATA=(Y..Y)
##ZVALUE=210
2.812743
3.184676
3.166795
3.299713
3.194809
3.203750
2.938509
3.989935
3.565550
3.615618
2.763867
2.499819
2.043843
2.525449
2.403855
3.355742
2.771616
3.036857
3.265738
2.836585
2.902746
3.862977
3.307462
4.541874
4.244447
5.134940
5.146861
5.794764
5.908608
6.755590
7.714629
7.917881
8.925796
9.631515
11.555552
8.743405
11.131763
9.017587
10.509491
9.034872
9.093881
9.672642
8.429885
9.652972
8.830428
9.521842
8.691549
8.463860
7.608533
7.839799
8.268952
7.441640
7.723570
8.326769
7.627606
7.545948
7.808805
6.471872
6.609559
7.199645
7.446408
7.469654
7.718801
7.638931
7.706881
6.909966
7.849932
7.890463
8.960962
9.571910
11.878610
13.243556
15.362501
16.933680
19.598603
20.897985
20.247698
22.909641
22.574663
19.675493
18.124580
16.607642
14.397502
13.701916
11.461973
10.192990
8.830428
6.382465
7.296801
6.835461
6.549954
6.555915
5.717874
6.701946
6.451607
6.630421
##ZVALUE=215
10.058880
9.580851
7.871985
7.114410
6.690621
5.463958
6.199479
5.900860
6.167889
6.027818
5.627871
4.704595
4.340410
3.637671
3.482699
2.583861
2.752542
2.401471
3.155470
2.945662
3.693700
3.607869
2.966523
3.775954
5.066991
4.317760
6.667972
6.974936
9.349585
10.115504
10.311604
12.316704
13.626814
14.676452
14.517903
13.267994
15.180707
15.578866
14.502406
14.707446
13.915896
13.016462
12.627840
11.719465
12.116432
11.606812
10.042787
10.823607
9.588599
9.221435
9.087920
9.534955
8.259416
7.773638
7.444620
8.021593
7.157922
8.529425
7.605553
7.818937
7.002950
7.473826
6.661415
7.035732
6.046891
7.482767
6.754994
8.031726
7.338524
8.754730
10.441542
10.717511
12.413859
13.719797
15.145540
15.387535
15.505552
15.849471
15.496612
14.634728
15.084743
12.621880
12.046695
10.607839
9.713769
8.641481
7.227659
7.167459
5.885959
5.954504
5.983710
5.571842
5.989671
5.963445
5.915761
5.983710
##ZVALUE=220
27.107000
26.055574
26.611686
27.706623
25.242567
19.855499
17.576814
13.547540
12.207627
11.959672
12.955666
13.932586
13.310909
11.126995
8.865595
7.835627
6.115437
5.350709
4.243851
3.433824
4.155636
3.322959
3.545880
4.152656
5.954504
6.513596
8.260608
9.384751
11.622906
14.686584
15.014410
18.734932
21.993518
21.419525
20.918846
23.465753
24.345517
23.701787
23.306608
22.241473
21.300912
20.499825
19.921660
17.474890
17.916560
15.032887
15.836954
13.924837
14.603734
12.924671
12.367964
12.139678
11.587739
11.438727
10.342598
9.947419
9.270906
9.622574
8.943677
9.238720
9.068847
8.459687
8.390546
7.909536
8.558631
7.822514
8.033514
7.966757
9.378791
9.194613
9.450912
10.203719
11.855960
12.986660
13.122559
13.535619
15.067458
13.852715
14.403462
13.449788
13.600588
11.138916
10.675788
9.366870
8.823872
7.434487
7.492900
6.304979
5.410910
6.285906
6.131530
6.541610
6.347895
6.338954
5.673766
6.349683
##ZVALUE=225
41.606426
42.191744
53.863525
69.393516
70.237517
72.856545
67.380667
52.819848
42.564869
36.061406
27.262568
25.609732
25.518537
25.704503
27.635694
25.867820
20.305514
16.913414
12.852550
8.887649
6.213784
4.473925
4.340410
4.398823
5.003810
7.397532
9.214878
10.442734
14.131665
16.661882
19.909739
22.452474
24.558902
27.327538
28.169751
28.235912
27.021766
28.258562
27.380586
26.869774
25.415421
26.212931
24.331808
22.771955
21.459460
18.785596
18.647909
17.273426
17.003417
16.129613
14.859438
15.500784
14.149547
12.696981
11.181831
11.251569
12.357831
12.860894
10.926723
10.446906
10.957718
11.575818
9.855628
10.918975
9.597540
10.078549
9.361506
9.578466
9.808540
10.279417
10.727644
11.463761
12.089610
13.339520
15.193820
14.423728
13.190508
13.789535
13.698936
12.469888
11.617541
12.006760
10.359883
9.472966
9.221435
8.937716
8.447766
8.052588
8.031726
7.850528
8.320808
6.677508
7.499456
7.357597
7.427931
8.195639
##ZVALUE=230
36.183000
38.414598
66.930652
93.060732
128.242970
146.822929
163.864493
164.116621
140.957832
117.944479
83.744526
59.881806
51.605701
44.227839
45.582652
48.867464
50.034523
48.009753
45.015812
34.732819
26.010871
19.926429
11.518598
8.240938
6.172657
6.789565
8.565784
10.206699
11.895895
15.153885
15.035868
18.792748
20.193458
22.531748
24.058819
23.724437
24.810433
24.170876
24.979711
23.414493
24.676919
22.155643
23.759604
20.056963
20.813942
19.751787
17.810464
16.900897
16.219616
15.317798
16.150475
14.582872
13.427734
13.640523
13.283491
12.312531
13.853908
13.511777
12.881756
12.647510
12.272596
13.190508
13.388991
12.237430
12.181997
12.147427
12.344718
12.019873
12.077689
13.623834
14.514923
14.101863
15.563965
16.315579
17.064810
14.934540
16.379952
15.679598
15.765429
13.751984
13.758540
12.735724
12.949705
12.299418
12.947917
11.457801
11.269450
11.045933
10.506511
10.119677
10.360479
11.000633
9.351969
11.183619
10.451674
10.188818
##ZVALUE=235
11.974573
16.037822
29.469728
63.832998
110.829473
168.302655
221.133828
279.000998
301.062465
303.224921
270.956755
224.144459
152.838826
114.877820
84.819794
71.237683
69.747567
74.266791
81.951618
81.326962
77.543855
66.019893
54.183602
34.080744
23.924708
16.252995
12.337565
9.847879
8.416772
10.841489
11.282563
13.131499
13.511777
14.652610
15.291572
15.317798
15.980601
16.579628
17.039776
16.968846
18.785000
18.587708
18.415451
17.011762
15.310645
15.437603
15.859604
14.156699
14.518499
14.553666
14.026761
13.650656
14.613867
13.663769
13.730526
14.186502
14.437437
14.105439
14.152527
13.372898
13.232827
13.226867
12.903810
14.411807
13.401508
14.018416
15.480518
15.801787
15.968680
15.854836
16.277432
17.064810
18.386841
18.578768
19.268990
18.673539
19.064546
17.984509
17.486811
17.571449
19.054413
17.262697
15.264750
15.901923
15.203953
15.148520
15.472770
15.408993
15.083551
14.548898
12.542605
15.044808
14.466643
12.672544
13.366938
13.056993
##ZVALUE=240
1.914501
2.159476
5.358458
14.665723
37.172437
82.982779
137.054920
244.639516
314.960480
413.038731
464.461446
468.605757
418.768525
332.050920
264.374614
174.019933
128.834844
95.623732
88.971853
96.060634
103.746653
109.424591
108.398795
102.856755
81.031919
64.435601
46.525002
32.818913
18.924475
15.019774
10.966659
9.869933
11.818409
12.245774
13.371706
13.491511
13.882518
13.695955
14.323592
14.544725
15.483499
14.905930
15.826821
13.991594
15.362501
15.298724
16.770959
15.026927
15.328526
14.129877
13.804436
14.598966
14.761686
15.542507
14.055967
15.357733
14.278889
13.739467
14.687777
14.530420
13.809800
15.732646
14.840961
14.180541
15.780926
14.264584
16.201735
17.328858
16.084909
18.372536
18.630624
20.136833
18.893480
19.732714
21.459460
20.512938
21.498799
20.754933
19.810796
20.025969
19.505620
17.934442
19.133687
17.855763
18.010736
18.471479
17.371774
15.999675
17.532706
16.591549
17.512441
16.567707
17.514825
15.119910
16.377568
17.614961
##ZVALUE=245
1.868606
1.724958
1.692772
1.617670
3.299713
13.485551
31.686425
83.960891
153.552890
243.200660
399.477482
501.981974
610.285997
623.739958
579.682589
507.456660
363.824964
271.719694
239.175558
118.437409
97.413659
96.329451
103.202462
122.256875
130.665898
123.083591
112.628937
91.798902
72.292686
52.731633
36.534667
25.353432
19.657612
15.115738
14.666915
13.042688
14.198422
14.218688
16.032457
15.484691
15.337467
16.483665
15.327930
15.845895
16.451478
15.831590
15.576482
15.241504
15.437603
15.394688
15.009642
14.614463
13.735890
14.007688
14.638901
13.590455
14.253855
13.472438
13.179779
13.496876
14.533997
13.585687
14.213920
13.947487
13.353825
12.512803
14.040470
14.969707
15.797615
15.125871
17.417669
16.033649
17.601848
19.018650
18.511415
19.654632
19.679666
18.474460
19.563437
19.805431
17.908812
18.194914
17.997622
17.008781
16.722679
17.352700
17.419457
17.218590
16.809702
17.034411
16.384721
15.382767
15.579462
16.700625
16.069412
16.202927
##ZVALUE=250
1.222491
1.671910
1.476407
1.575947
1.831651
1.916885
2.110600
6.613731
27.321577
62.905550
153.691769
265.923738
388.723016
549.827814
647.092462
702.660680
694.260597
605.091453
503.322482
341.554880
234.700441
156.832933
102.414489
91.103911
103.376508
116.349459
134.100914
139.533877
134.834647
127.401948
106.369853
83.573461
65.425634
44.792891
32.860637
24.975538
20.717978
20.456910
19.085407
18.946528
18.970966
19.973516
18.873811
18.939972
19.586682
19.544959
17.142892
17.674565
17.553568
16.931891
15.270710
16.467571
15.714765
16.250610
14.885664
14.746785
15.848875
14.088750
12.969971
13.551712
13.305545
13.518929
12.019873
12.456775
13.125539
13.324618
13.359785
12.728572
13.680458
14.993548
16.238689
15.694499
16.037822
16.988516
16.675591
17.571449
17.891526
18.503666
16.880631
17.258525
16.452670
16.553998
16.625524
14.797449
16.709566
14.977455
15.259981
15.036464
15.330911
16.673803
15.465617
14.345646
14.811754
15.080571
14.758706
15.410781
##ZVALUE=255
1.438856
1.519918
1.388788
1.622438
1.537800
1.484752
1.982450
1.593828
2.147555
4.186630
18.238425
49.987435
102.659464
221.744776
341.691971
519.468784
639.687777
741.527677
767.155886
710.695982
606.182814
472.574830
304.398537
197.293758
114.335418
90.144873
88.601708
103.106499
128.572583
147.592425
155.587792
150.145888
143.038630
119.703412
99.775791
71.199536
57.648420
40.846467
35.200715
27.363896
27.421713
26.282668
25.668740
25.682449
23.669600
23.840666
22.833943
22.137761
21.105409
20.571947
19.260645
17.577410
17.812848
17.137527
16.271472
16.061664
15.378594
15.556812
14.575720
13.881922
13.784766
13.795495
13.265610
13.811588
12.808442
13.074875
13.189912
13.415813
13.677478
13.539791
14.255643
14.508963
14.806986
15.013814
16.032457
16.075969
16.929507
15.338659
15.266538
15.196800
14.620423
15.897751
14.530420
14.658570
14.252663
13.956428
14.790893
14.508963
14.720559
14.460683
14.523864
14.657974
13.895631
14.258623
15.099645
13.686419
##ZVALUE=260
1.230836
1.095533
1.283884
1.061559
1.038909
1.225471
1.321435
1.204610
1.288652
1.518726
1.642704
2.512932
10.776520
28.071404
76.974630
148.870945
300.595760
427.148938
557.406545
728.036761
807.396770
798.984766
713.512897
556.514859
411.739945
245.490670
164.591670
100.700855
84.825754
93.573928
114.569664
147.184730
163.461566
176.368952
169.770718
157.444477
141.887665
111.090541
90.140700
65.763593
52.216649
40.957928
35.646558
31.329989
30.433536
28.570890
26.302934
27.566552
24.705529
22.503734
22.627711
20.535588
19.936562
19.298792
17.850995
17.916560
16.557574
15.724897
15.613437
14.636517
14.235973
14.023781
14.206767
13.130903
12.780428
13.180971
12.641549
12.949705
13.432503
12.986660
13.023615
13.549924
14.602542
15.154481
14.637709
14.142990
14.454722
14.884472
14.719963
13.779998
13.398528
14.196634
13.368726
13.329983
13.295412
13.238788
12.891889
12.780428
13.476610
13.228655
13.540983
13.874769
13.594627
13.836622
13.503432
13.625622
##ZVALUE=265
0.956655
0.952482
0.893474
0.975728
0.996590
1.014471
1.306534
1.376867
1.234412
1.390576
1.485944
1.470447
1.627803
1.426935
3.340840
19.288659
47.749877
117.108822
211.117864
388.528705
541.834831
693.387985
835.325718
865.511894
799.533725
690.028667
516.749620
370.159745
215.526819
140.924454
95.399618
91.497898
103.929639
137.181878
160.399675
182.657838
185.714960
183.877945
168.141723
140.908957
117.204785
89.432001
71.428418
52.591562
42.506456
35.238862
32.941699
30.697584
29.932857
27.018785
25.054812
24.793744
22.708774
22.060871
19.954443
19.352436
18.504858
17.459989
16.338825
15.633702
15.879869
14.478564
14.787912
12.803674
14.213920
13.868809
12.813807
12.872815
12.425780
13.089776
13.171434
13.602972
14.040470
14.395714
14.484525
14.290810
13.881922
13.617873
14.339685
13.564825
13.364553
13.102889
12.707710
12.775660
12.273788
13.300776
12.457967
12.955666
12.346506
12.295842
11.973977
12.363791
12.028813
12.401938
13.090968
12.548566
##ZVALUE=270
0.982881
0.808835
0.765920
0.991821
1.031756
0.926852
0.879765
1.123548
1.194477
1.206994
1.362562
1.245737
1.118779
1.263618
1.338720
1.583695
2.137423
7.609725
23.391843
77.783465
157.301426
331.927538
488.119721
700.652599
837.931633
919.633508
908.759832
800.468922
674.443841
474.821925
337.632895
188.658834
125.451684
93.531609
92.324615
116.793513
141.267776
170.477629
182.695985
191.145539
185.948610
167.722702
144.116879
110.256672
90.138912
64.307451
51.006675
39.091706
32.708645
27.757883
26.318431
24.866462
23.330450
21.586418
20.990968
19.195676
18.245578
17.819405
17.249584
15.359521
15.647411
14.916658
14.543533
14.830828
13.901591
12.976527
12.703538
13.445616
13.886690
13.076663
13.453960
13.354421
13.178587
13.917685
13.201833
13.130903
13.408661
13.627410
13.904572
12.603998
13.521910
13.450980
12.593865
11.944771
12.044907
12.581944
11.667609
11.667609
11.905432
12.267828
12.447834
11.854768
11.969805
11.351705
12.153983
11.765957
##ZVALUE=275
0.954866
0.936985
0.855923
1.041889
0.996590
0.664592
1.113415
0.892878
1.042485
1.027584
1.110435
1.097918
1.038909
1.214743
1.103878
1.594424
1.492500
1.711845
1.848936
4.764795
16.629696
45.654774
131.097436
245.400667
458.240509
618.954897
797.759891
912.047625
957.553983
908.898711
763.555765
608.357787
443.795919
247.592926
157.664418
88.762641
75.818896
85.440874
105.006695
134.445429
153.368711
172.572732
175.780654
170.519948
156.332850
128.587484
105.288625
77.926517
60.907602
41.599870
31.717420
25.206804
22.171736
19.986629
18.805861
17.977953
17.743707
16.265512
15.604496
15.198588
15.332699
14.693737
14.197826
13.035536
13.519526
12.881756
13.239980
13.031960
12.937784
13.108850
13.108850
12.821555
12.902617
13.885498
13.740659
13.602972
13.628602
13.725758
12.778640
13.406873
12.652874
12.568831
12.143850
12.688637
11.986494
12.122989
11.689663
12.232661
11.569858
12.072921
11.957884
12.448430
10.851622
11.645555
11.612773
11.500716
##ZVALUE=280
0.789762
0.781417
0.948906
0.851750
0.961423
0.909567
0.763535
0.794530
0.856519
0.966787
0.882745
0.931621
0.723600
0.814795
1.137853
1.289845
1.262426
1.365542
1.379848
1.644492
1.804829
2.234578
10.470748
35.126805
107.347965
194.270611
360.602736
522.896647
742.092729
878.233910
970.707536
966.081619
875.197649
670.789480
501.773953
293.655992
181.684494
90.612769
58.630705
54.717660
68.440437
93.994737
115.975738
142.573714
153.720975
163.246989
156.625509
138.859749
119.856000
91.025829
71.047544
46.474934
33.740997
22.675991
19.006729
15.876889
14.024973
14.334917
14.003515
12.775660
13.269782
12.504458
13.337731
12.553930
12.406707
12.515783
12.510419
12.306571
12.724996
12.531877
12.808442
12.869835
12.712479
13.228655
12.854934
13.192892
12.856722
12.751818
12.901425
12.035966
12.185574
12.110472
12.236834
11.528730
12.031794
12.011528
11.620522
11.933446
11.553764
11.737943
11.830926
11.317730
11.181831
11.668801
11.857748
11.568666
##ZVALUE=285
0.674725
0.721812
0.649691
0.795722
0.644922
0.655651
0.826716
0.663996
0.904799
0.758767
0.944734
0.982881
1.069903
0.843406
0.939965
0.793934
1.010895
1.016855
0.957847
1.221895
1.262426
1.393557
1.470447
1.622438
5.018711
17.335415
60.155988
123.409629
262.035728
413.092971
575.232506
797.838569
928.037763
988.454819
939.427614
773.098469
606.957674
383.355618
242.978930
118.139982
63.242912
37.150979
38.286448
56.928992
76.196790
107.554793
123.948455
144.269466
150.353909
145.700574
133.662820
111.348629
89.298487
63.395500
46.914816
28.618574
21.021962
14.854670
12.733936
11.717677
11.337996
11.645555
11.053681
11.173487
11.242628
10.859966
11.078715
11.099577
11.618733
11.307597
11.944771
11.842847
11.615753
11.956692
12.258887
12.482405
12.050867
11.676550
11.996627
12.252927
11.622906
11.900663
11.364818
11.710525
11.861920
11.418462
11.788607
11.361837
11.375546
11.400580
11.581779
10.945797
11.132956
11.198521
10.986924
11.397600
##ZVALUE=290
0.582933
0.652671
0.550747
0.556707
0.543594
0.493526
0.581741
0.772476
0.899434
0.950694
0.667572
0.758767
0.895858
0.733733
0.840425
0.909567
0.899434
0.963807
1.037717
0.854731
1.147985
0.982881
1.218915
1.216531
1.432896
1.793504
2.448559
7.046461
34.361482
79.807639
184.242725
314.920545
486.975908
731.375813
881.458521
998.963714
996.400714
862.291455
714.555979
481.068492
320.478678
162.906647
84.631443
35.942793
26.919842
35.241842
48.672557
72.271824
91.902614
118.605494
133.032799
143.132806
141.156912
128.215551
110.008717
82.372427
62.247515
40.756464
29.196739
18.353462
14.006495
11.515617
10.286570
10.060668
9.587407
9.867549
10.224581
10.310411
10.435581
10.586977
10.828972
10.573864
10.823607
10.817647
11.567473
11.321902
11.718869
11.301637
11.315942
11.059642
11.358857
11.309981
11.252761
11.224747
11.501908
11.122823
11.414886
11.061430
10.903478
11.119843
11.363626
10.779500
11.206865
11.063814
10.640621
11.365414
##ZVALUE=295
0.538826
0.704527
0.553727
0.528693
0.593662
0.699759
0.504851
0.599623
0.846982
0.720620
0.589490
0.714660
0.709891
0.781417
0.728965
0.789762
0.899434
0.796914
0.649691
0.920892
0.871420
0.998974
0.938773
0.973940
1.123548
1.187921
1.302958
1.541972
1.722574
3.163815
11.559725
48.656464
109.627843
255.239606
408.825874
649.181008
806.472898
963.999629
995.806456
924.530029
792.634487
570.120811
399.119854
213.019848
116.671920
46.054721
25.702715
21.780729
28.271675
46.826601
63.448548
89.436769
107.149482
127.886534
134.152770
130.461454
122.180581
99.310875
81.468821
57.211518
42.320490
25.967956
19.356608
12.620687
10.605454
9.510517
9.402633
9.254813
9.395480
9.482503
9.837747
9.896755
10.313988
10.648966
10.227561
10.819435
10.794997
10.550618
11.030436
11.097789
11.084676
11.298656
11.135936
10.955930
11.160970
11.059642
11.194944
11.628866
10.870695
10.961890
11.017919
11.137724
11.013746
11.102557
10.775924
11.008978
##ZVALUE=300
0.702739
0.684857
0.529885
0.678897
0.649691
0.740886
0.673532
0.758767
0.590682
0.745654
0.780821
0.874996
0.723600
0.692606
0.684857
0.796914
0.877976
0.680685
0.814795
1.016855
0.663996
0.830889
0.985861
1.014471
0.915527
1.107454
1.193881
1.314878
1.293421
1.340508
1.550913
1.908541
6.607771
24.824739
84.261894
163.575411
333.468914
506.625772
742.373466
885.229707
995.128751
992.663503
865.777731
712.428689
475.212932
313.257575
158.079863
83.902478
31.731725
17.264485
18.724799
25.574565
41.193962
56.769848
81.969500
100.361705
120.442510
128.255486
125.815868
119.319558
99.409819
80.922842
56.045651
42.552948
27.119517
18.804669
12.914538
10.481477
8.780956
8.761883
9.176731
9.370446
9.438992
9.395480
9.940863
9.979606
10.240674
10.291934
10.197759
10.818839
10.966659
10.627508
10.521412
10.791421
11.131763
11.368990
10.949969
11.089444
10.706782
11.041760
10.604858
11.003613
10.702610
10.797977
10.949969
10.782480
##ZVALUE=305
0.683665
0.509620
0.643730
0.625849
0.526905
0.626445
0.602603
0.550747
0.655651
0.574589
0.724792
0.665784
0.624657
0.673532
0.607967
0.666976
0.677705
0.766516
0.613928
0.697970
0.885725
0.859499
0.903606
1.008511
1.083612
1.027584
1.160502
1.083612
1.154542
1.237988
0.997782
1.266599
1.467466
1.678467
2.904534
16.308427
46.111941
131.794810
239.159465
439.471006
618.240833
837.127566
955.042839
1004.607677
940.837860
748.948455
587.557554
372.161865
234.214664
105.587840
52.216649
19.949675
13.781786
16.107559
23.886561
38.878918
53.837895
76.049566
94.023943
112.092495
119.163990
118.600726
111.817718
93.536973
76.581836
54.052472
38.742423
25.128722
17.468929
12.107491
9.747744
9.447932
9.348989
9.132624
9.811521
9.800792
9.575486
10.246634
10.106564
10.543466
10.700822
10.900497
10.597706
10.916591
10.908842
10.466576
11.308789
11.366606
11.199713
10.667443
11.244416
10.739565
10.874867
10.832548
11.060834
11.009574
##ZVALUE=310
0.439882
0.546575
0.462532
0.528693
0.450611
0.467896
0.426769
0.480413
0.585914
0.520945
0.542998
0.678897
0.649691
0.644922
0.587702
0.583529
0.619888
0.608563
0.687838
0.606775
0.754595
0.636578
0.782609
0.681877
0.734925
0.786781
0.948906
0.850558
0.994802
1.052618
1.099706
1.036525
1.194477
1.089573
1.369715
1.492500
1.829863
6.924868
23.608804
80.406666
158.527493
326.968431
502.886772
748.161674
896.719694
1003.748775
991.969705
865.675807
711.579919
479.888916
320.181847
160.608888
86.782575
31.277537
14.841557
11.091828
14.031529
22.584796
32.538772
50.414801
66.039562
88.766813
101.614594
113.424659
114.249587
106.167793
94.140768
73.975921
56.510568
38.372874
26.969910
17.745495
13.481975
10.572672
9.652972
9.484887
9.620786
9.891987
9.772778
10.224581
10.393858
10.320544
10.562539
11.023879
10.747910
10.751486
11.011958
11.037588
11.330843
10.849833
10.870695
10.528564
10.643601
10.845661
11.027455
10.338426
##ZVALUE=315
0.450611
0.517964
0.499487
0.615716
0.550747
0.576973
0.634789
0.675917
0.620484
0.316501
0.607967
0.579953
0.767708
0.405908
0.714660
0.695586
0.639558
0.571609
0.584722
0.659823
0.696778
0.629425
0.689626
0.720620
0.664592
0.785589
0.738502
0.745654
0.756979
0.979900
1.125932
0.913739
0.917912
1.111627
1.151562
1.198649
1.359582
1.476407
1.446605
3.307462
12.182593
50.771832
111.410618
251.984596
409.259796
658.892989
814.695954
961.535573
1004.664898
926.378965
799.243450
574.409962
406.662822
217.055678
118.227005
44.299960
19.264817
10.064840
9.865761
14.032722
19.484758
31.437874
44.374466
63.607693
79.840422
99.034905
106.645823
107.574463
102.835894
86.109638
71.938634
52.973628
39.797425
24.997592
18.840432
12.825727
11.390448
10.162592
9.760857
9.743571
9.919405
9.989738
10.107756
10.594726
10.570884
10.459423
10.524988
10.789633
10.629892
10.513663
10.745525
10.805726
10.803938
10.809898
10.540485
10.579824
##ZVALUE=320
0.619888
0.477433
0.577569
0.586510
0.569820
0.451803
0.469685
0.710487
0.640750
0.636578
0.515580
0.402927
0.569820
0.554919
0.524521
0.684857
0.392795
0.602603
0.728965
0.724792
0.647902
0.690818
0.712872
0.626445
0.721812
0.819564
0.851750
0.696778
0.825524
0.721812
0.697970
0.904799
0.831485
0.924468
0.985861
0.853539
1.027584
1.179576
1.243949
1.345873
1.607537
2.179742
5.322695
28.713942
72.379708
189.076662
313.293934
523.640513
698.992610
896.154642
978.713632
975.406766
884.483457
677.898526
498.572588
277.827978
159.750581
67.964792
30.746460
11.412501
8.234978
9.252429
11.887550
18.684864
26.518703
42.031407
56.234598
77.269673
89.942813
101.912618
103.347898
96.878409
86.364746
67.160726
52.409768
35.884976
26.333928
18.088818
14.243722
11.147857
10.046959
10.194778
10.208488
10.201931
10.079741
10.298491
10.399818
10.089874
10.770559
10.434985
10.420680
10.321736
10.246634
10.189414
10.372996
10.391474
##ZVALUE=325
0.488758
0.400543
0.580549
0.539422
0.373721
0.472665
0.418425
0.508428
0.576973
0.469685
0.548959
0.697970
0.365973
0.489950
0.706911
0.663996
0.493526
0.590682
0.432730
0.595450
0.610948
0.450611
0.553727
0.491738
0.833869
0.629425
0.629425
0.836849
0.718832
0.744462
0.751615
0.935793
0.871420
0.911951
0.757575
1.088977
0.987649
1.010895
1.098514
1.009703
1.206994
1.408458
1.338720
1.554489
3.034472
18.385649
48.314929
128.069520
229.269862
434.663892
607.899427
822.879672
935.027003
983.879566
918.360949
726.780891
554.677844
341.651440
208.123922
91.426969
43.600798
15.151501
9.002686
7.739663
8.891821
12.092590
17.017722
26.845932
38.697720
58.231950
70.990920
86.497664
95.077753
96.518993
90.483427
76.906681
64.611435
47.611594
35.885572
23.827553
17.933846
12.929440
11.598468
10.277629
10.192990
10.141730
10.253787
9.960532
10.166764
10.204911
9.936690
9.974837
10.250807
9.979606
10.129809
10.118484
##ZVALUE=330
0.394583
0.454783
0.425577
0.419617
0.540614
0.439882
0.505447
0.535846
0.379682
0.603795
0.593662
0.248551
0.400543
0.454783
0.544786
0.430942
0.486970
0.512600
0.530481
0.507832
0.522733
0.530481
0.624657
0.528693
0.451803
0.665784
0.673532
0.623465
0.653863
0.678897
0.757575
0.627637
0.676513
0.829697
0.764728
0.910759
0.985861
0.806451
0.917912
1.082420
1.223683
0.950694
0.899434
1.263618
1.334548
1.381636
1.654625
7.538795
25.079846
84.474683
164.575577
332.268476
492.099524
720.162988
864.107013
958.885550
932.439566
796.114802
640.294552
415.610671
268.789530
126.779675
64.444542
23.432970
10.847449
7.441640
7.214546
8.925796
11.139512
17.479658
24.672747
38.547516
51.004887
68.997741
81.908703
90.070963
91.788769
84.500909
75.703859
59.518814
47.781467
32.660961
24.488568
17.580986
13.940930
11.448860
10.196567
10.041595
9.934902
9.777546
9.999871
9.908676
9.549856
9.639859
9.368658
9.647608
##ZVALUE=335
0.523925
0.513792
0.357628
0.458956
0.536442
0.632405
0.566840
0.455976
0.525713
0.543594
0.425577
0.447631
0.375509
0.482798
0.493526
0.495911
0.586510
0.496507
0.381470
0.465512
0.561476
0.592470
0.493526
0.567436
0.614524
0.579953
0.648499
0.520945
0.641942
0.625849
0.636578
0.756979
0.809431
0.787973
0.610948
0.669956
0.808835
0.963807
1.052618
0.835657
0.841618
0.979900
0.792742
1.067519
1.030564
0.981688
1.182556
1.234412
1.609921
2.362728
14.443994
41.991472
121.806860
225.223899
425.086617
597.753525
796.758533
905.937552
934.440494
870.058537
690.408945
525.995493
313.762426
190.332532
80.725551
38.213730
13.484955
8.364916
7.219911
7.544756
8.752942
10.792613
17.098784
24.074912
36.133528
47.867894
64.868927
76.334476
84.418654
85.536838
79.105496
71.605444
57.368875
47.140718
33.424497
25.564432
17.841458
14.316440
11.353493
10.453463
9.773970
9.209514
9.234548
9.564757
9.436607
9.371638
##ZVALUE=340
0.464916
0.462532
0.431538
0.445843
0.551939
0.494719
0.333786
0.302792
0.365973
0.268817
0.386834
0.494719
0.362992
0.530481
0.499487
0.389814
0.473857
0.365973
0.543594
0.452995
0.469685
0.518560
0.556707
0.442863
0.593662
0.572801
0.621676
0.560880
0.712872
0.616908
0.549555
0.662804
0.688434
0.497699
0.745654
0.833869
0.747442
0.825524
0.617504
0.900626
0.780821
0.878572
0.774860
0.800490
1.002550
0.957847
0.937581
1.034737
1.077652
1.016855
1.298785
2.212524
6.147623
31.265616
76.738000
193.382502
324.239731
530.977845
690.648556
860.694647
917.415023
868.290663
760.665536
564.264655
402.188897
219.203830
119.813681
45.225620
19.441843
8.771420
7.207990
7.213950
7.355809
8.324981
11.073947
16.430616
23.193955
35.964847
46.637654
62.056780
71.440935
79.650879
79.946518
75.402856
68.394542
54.251552
44.475794
32.477975
24.822950
17.797947
13.565421
10.774732
10.054708
8.998513
8.867979
8.822680
##ZVALUE=345
0.426769
0.430942
0.348687
0.392795
0.267625
0.479817
0.392795
0.405908
0.489950
0.318885
0.395775
0.529885
0.365973
0.458956
0.341535
0.488758
0.503659
0.384450
0.465512
0.486970
0.529885
0.551939
0.455976
0.462532
0.517964
0.424981
0.492930
0.498891
0.598431
0.432730
0.558496
0.542998
0.674725
0.716448
0.679493
0.615716
0.732541
0.607967
0.702739
0.653863
0.852942
0.720620
0.814795
0.782609
0.739694
0.889897
0.812411
0.996590
0.850558
0.958443
1.077652
1.141429
1.422763
1.377463
3.009439
17.237663
48.646927
130.146742
232.486725
428.048968
588.460565
778.380036
869.655013
890.085697
811.471939
626.587868
467.596650
276.488662
158.698559
63.645840
29.228926
11.346936
7.581711
7.064939
6.998777
7.559657
8.112788
10.199547
14.269948
23.112893
31.253695
44.986606
55.099726
64.932704
70.888996
73.414445
71.061850
63.413978
55.035949
43.438673
33.775568
23.030639
17.713904
13.323426
11.222959
9.543896
##ZVALUE=350
0.409484
0.500679
0.360608
0.377893
0.397563
0.522733
0.483990
0.394583
0.469685
0.418425
0.303984
0.492930
0.533462
0.287890
0.349879
0.388622
0.463724
0.432730
0.567436
0.412464
0.470877
0.528693
0.484586
0.466704
0.430942
0.421405
0.409484
0.491738
0.565648
0.570416
0.293851
0.535846
0.604987
0.628829
0.586510
0.520945
0.512600
0.581741
0.678897
0.629425
0.589490
0.548959
0.816584
0.685453
0.744462
0.755787
0.631809
0.829697
0.839829
0.794530
0.950694
1.122952
0.974536
1.261830
1.155734
1.284480
1.644492
8.124709
26.994944
87.159872
166.007876
331.349969
482.540727
679.234862
803.184509
871.478915
831.376910
693.330765
536.350608
324.257016
199.858546
92.218518
43.741465
13.914704
7.860661
6.784797
6.548762
6.616712
6.724596
7.711649
9.768605
14.506578
19.519925
28.350949
37.275553
49.375892
57.510734
66.363811
68.166852
66.041946
60.238838
49.783587
41.374564
30.448437
23.388863
16.673803
##ZVALUE=355
0.417829
0.495911
0.470877
0.524521
0.455976
0.450611
0.658631
0.433922
0.485778
0.355840
0.453591
0.501871
0.467896
0.617504
0.572801
0.558496
0.619888
0.641942
0.733733
0.614524
0.602603
0.567436
0.471473
0.653863
0.388622
0.558496
0.582933
0.615716
0.676513
0.703931
0.651479
0.691414
0.721812
0.653863
0.634789
0.666976
0.658631
0.800490
0.758767
0.630617
0.657439
0.747442
0.811815
0.832677
0.810623
0.839829
0.889897
0.918508
0.925660
0.879765
0.866652
0.939965
1.097918
1.149774
1.025796
1.132488
1.252890
1.301765
1.479983
4.235506
14.954805
56.952834
117.974877
248.969793
392.349958
608.363748
740.545988
839.572549
843.521953
726.912618
589.096546
393.770933
252.829790
111.887455
54.427981
17.930865
8.953810
6.770492
6.452799
6.300807
6.372929
6.652474
7.201433
9.099841
11.441708
17.416477
24.079680
34.090877
42.636991
52.193999
58.018565
61.934590
61.078668
55.541992
48.924685
38.996935
##ZVALUE=360
0.503659
0.470877
0.498891
0.507832
0.600815
0.411868
0.418425
0.602603
0.589490
0.520945
0.500679
0.533462
0.484586
0.552535
0.558496
0.480413
0.598431
0.551939
0.522733
0.566840
0.478625
0.597835
0.629425
0.597835
0.477433
0.637770
0.619888
0.552535
0.603795
0.418425
0.664592
0.642538
0.545979
0.707507
0.708699
0.654459
0.784993
0.598431
0.638962
0.596642
0.665784
0.718832
0.688434
0.805855
0.713468
0.724792
0.659823
0.720620
0.882745
0.898838
0.837445
0.885725
0.809431
0.969768
0.939965
1.058578
1.057982
1.129508
1.319647
1.432896
1.489520
2.193451
6.422997
29.546618
72.126985
181.237459
300.714970
489.654541
642.735958
794.482827
830.991864
777.153969
661.277771
458.869934
309.515595
152.116418
79.890490
30.145645
13.299584
6.865859
6.272793
6.210804
5.800724
5.879998
6.219745
6.641746
7.745624
10.143518
13.722777
20.147562
27.059913
37.443638
44.562817
53.024888
55.755973
55.618882
##ZVALUE=365
0.439882
0.491738
0.556707
0.524521
0.320673
0.363588
0.343919
0.304580
0.251532
0.372529
0.393987
0.554919
0.340939
0.346899
0.414848
0.414848
0.561476
0.378489
0.418425
0.437498
0.548959
0.485778
0.452995
0.559688
0.487566
0.468493
0.528693
0.576973
0.455976
0.602603
0.531673
0.581741
0.664592
0.755787
0.549555
0.426769
0.591874
0.719428
0.528693
0.456572
0.516772
0.706911
0.659823
0.629425
0.572801
0.476837
0.580549
0.788569
0.557899
0.781417
0.695586
0.743866
0.821948
0.872612
0.865459
1.009703
0.850558
0.741482
1.053810
0.937581
1.187921
1.214743
1.470447
1.537800
3.644824
12.249947
48.383474
106.992722
246.440768
391.882658
594.750643
715.934634
805.601478
803.954005
686.084032
554.096699
356.919765
222.355723
100.104809
47.679543
15.043616
7.442832
5.759597
5.543828
5.553961
5.384684
5.136728
5.398989
5.718470
6.455779
8.549690
11.118650
16.860962
22.664666
31.777620
37.859678
##ZVALUE=370
0.403523
0.460744
0.387430
0.482798
0.292659
0.520945
0.282526
0.420809
0.470877
0.347495
0.457764
0.281930
0.452995
0.437498
0.445843
0.291467
0.434518
0.456572
0.428557
0.371933
0.463724
0.310540
0.505447
0.498891
0.442863
0.401735
0.451803
0.590682
0.508428
0.413656
0.500679
0.495911
0.421405
0.445843
0.588894
0.357628
0.509620
0.583529
0.477433
0.558496
0.589490
0.541806
0.708699
0.677705
0.604987
0.621676
0.645518
0.686646
0.719428
0.662804
0.578761
0.630617
0.820756
0.742674
0.682473
0.775456
0.669956
0.795722
0.773668
0.741482
0.915527
0.977516
0.931621
1.037717
1.218915
1.288652
2.200603
6.611943
33.979416
81.661940
193.255544
310.801864
497.342944
640.589595
773.897767
802.287459
726.328492
605.489016
407.520533
265.197754
124.775767
64.674616
24.866462
11.246800
5.816817
5.187988
5.052686
5.064607
4.855990
4.652739
4.687905
4.962683
5.724430
7.097721
10.500550
13.510585
##ZVALUE=375
0.346899
0.469685
0.334978
0.413656
0.313520
0.320673
0.376701
0.326633
0.387430
0.425577
0.553727
0.464916
0.444651
0.427961
0.454783
0.386834
0.418425
0.325441
0.452995
0.460744
0.418425
0.374913
0.501871
0.404716
0.462532
0.553727
0.539422
0.450611
0.572801
0.526905
0.533462
0.488758
0.531673
0.403523
0.472665
0.426769
0.591874
0.512600
0.449419
0.493526
0.546575
0.438690
0.512600
0.585914
0.587702
0.496507
0.534654
0.556707
0.522733
0.529885
0.569820
0.503659
0.556707
0.668764
0.730753
0.766516
0.644922
0.705719
0.777841
0.641942
0.851750
0.808835
0.991821
0.858903
0.870824
0.895858
1.028776
1.281500
1.506805
3.973842
14.172792
53.452849
114.266872
255.279541
399.947762
599.481463
719.727874
800.860524
784.631968
653.896928
512.413979
318.613648
199.160576
92.348456
46.093464
15.224814
7.234812
4.980564
4.762411
4.658699
4.472733
4.527569
4.497766
4.253983
4.481673
5.124807
##ZVALUE=380
0.321865
0.365973
0.499487
0.365973
0.367761
0.435710
0.421405
0.414848
0.299811
0.267625
0.335574
0.363588
0.416636
0.509620
0.448823
0.443459
0.515580
0.462532
0.401735
0.426769
0.415444
0.455976
0.432730
0.379682
0.593662
0.513792
0.670552
0.533462
0.529885
0.469685
0.647902
0.608563
0.378489
0.567436
0.321865
0.686646
0.625849
0.647902
0.523925
0.655651
0.615716
0.693798
0.557899
0.541806
0.514984
0.554919
0.551939
0.739694
0.538826
0.509620
0.574589
0.431538
0.606775
0.583529
0.716448
0.622869
0.624657
0.701547
0.578761
0.752807
0.824928
0.781417
0.765920
0.838637
0.909567
0.840425
0.973940
0.974536
1.209974
1.282692
1.514554
2.310872
7.593632
37.553906
87.407827
207.798481
337.021947
530.970693
675.285459
795.369744
805.992484
701.563954
579.024553
403.309464
270.770788
134.606957
69.314837
24.501681
10.699630
5.213618
4.532933
4.430413
4.375577
4.194975
3.995895
4.119873
##ZVALUE=385
0.326633
0.301600
0.407696
0.319481
0.389814
0.317693
0.272989
0.197887
0.365973
0.294447
0.340939
0.333786
0.387430
0.389814
0.472665
0.341535
0.341535
0.242591
0.345707
0.353456
0.314713
0.281930
0.549555
0.475645
0.298619
0.218749
0.507832
0.399947
0.467896
0.299811
0.499487
0.427961
0.547767
0.393987
0.428557
0.487566
0.515580
0.413656
0.464916
0.571609
0.294447
0.495911
0.346899
0.528693
0.480413
0.547767
0.426769
0.529885
0.473857
0.264645
0.550747
0.613928
0.538826
0.462532
0.676513
0.606775
0.532866
0.626445
0.444651
0.515580
0.679493
0.693798
0.510812
0.703931
0.580549
0.593662
0.722408
0.697970
0.905991
0.875592
1.021624
1.182556
1.188517
1.546741
4.666448
15.492439
59.048533
126.607418
271.744728
419.415832
622.471571
734.467506
798.298717
778.422952
654.932857
522.111654
331.724882
210.213661
95.945001
47.258735
16.555786
6.742477
4.309416
4.209876
3.784895
3.910661
##ZVALUE=390
0.418425
0.353456
0.361800
0.373721
0.320673
0.449419
0.197887
0.293851
0.290871
0.301600
0.229478
0.446439
0.351667
0.371933
0.252724
0.368953
0.433922
0.271797
0.255704
0.330806
0.435710
0.197887
0.352859
0.405908
0.387430
0.297427
0.428557
0.525713
0.545979
0.556707
0.458956
0.426769
0.502467
0.487566
0.588894
0.535846
0.616908
0.639558
0.555515
0.434518
0.561476
0.635982
0.770688
0.556707
0.541806
0.581741
0.586510
0.527501
0.578761
0.435710
0.626445
0.404716
0.525713
0.586510
0.654459
0.568628
0.590682
0.706911
0.557899
0.604987
0.509620
0.491738
0.654459
0.555515
0.680685
0.735521
0.732541
0.814795
0.929832
0.973940
0.930429
1.139641
1.095533
1.188517
1.167655
1.321435
1.870990
10.917783
34.487844
106.236935
201.654434
379.187465
521.472692
680.423975
774.574876
799.428821
738.148689
586.672425
449.276567
275.165439
160.253644
65.617561
30.101538
8.799434
4.702806
4.035830
##ZVALUE=395
0.399947
0.391603
0.256896
0.296831
0.331998
0.300407
0.332594
0.260472
0.394583
0.418425
0.467896
0.345707
0.472665
0.399947
0.426769
0.447631
0.444651
0.398755
0.179410
0.357628
0.338554
0.309944
0.293851
0.293851
0.476837
0.504851
0.532866
0.535846
0.509620
0.658631
0.667572
0.702739
0.633597
0.570416
0.777841
0.692606
0.686646
0.700951
0.688434
0.624657
0.667572
0.560880
0.745654
0.677705
0.571609
0.602603
0.520945
0.594854
0.589490
0.731945
0.691414
0.536442
0.582933
0.600815
0.664592
0.598431
0.602603
0.630617
0.603795
0.484586
0.710487
0.541806
0.589490
0.670552
0.680685
0.658631
0.671744
0.708699
0.702739
1.063943
0.900626
1.073480
1.050830
1.028776
1.020432
1.111627
1.025796
1.362562
1.528859
6.146431
22.241473
78.236461
149.269700
285.731554
425.994992
618.907809
738.806725
820.663571
802.733898
679.713488
535.117984
332.089663
206.324458
91.183782
43.767691
14.526844
##ZVALUE=400
0.285506
0.373721
0.349879
0.221729
0.342727
0.414848
0.427961
0.392795
0.451803
0.351667
0.260472
0.369549
0.282526
0.271797
0.419617
0.425577
0.320673
0.287890
0.241995
0.513792
0.471473
0.261664
0.310540
0.429749
0.445843
0.508428
0.403523
0.523925
0.626445
0.545979
0.657439
0.569820
0.626445
0.802875
0.517964
0.673532
0.633597
0.684857
0.618696
0.830889
0.667572
0.677705
0.649691
0.637770
0.629425
0.640750
0.525713
0.587702
0.498891
0.472665
0.579953
0.403523
0.555515
0.441670
0.468493
0.617504
0.632405
0.612736
0.581741
0.665784
0.595450
0.612736
0.646710
0.579953
0.563860
0.580549
0.727773
0.767708
0.810623
0.918508
0.770688
0.932813
0.954866
0.950694
0.918508
0.907779
1.021624
0.943542
0.835657
1.307726
1.295805
3.388524
11.617541
45.923591
98.797679
221.826434
351.285934
543.275476
671.231747
779.334903
796.113610
699.780583
584.724545
404.060483
268.399715
136.675835
##END
