##TITLE=FQP00302
##FORMAT=SPECTACLE-ASCII V-1.2
##DATA TYPE=ULTRAVIOLET SPECTRUM
##SECOND TYPE=ULTRAVIOLET SPECTRUM
##DATE=12/26/17
##TIME=13:00:31
##SPECTROMETER/DATA SYSTEM=SPECTACLE
##XUNITS=NM EM
##YUNITS=ENERGY
##YFACTOR=1
##FIRSTX=220
##LASTX=410
##NPOINTS=96
##3DDATA=Equidistant
##ZUNITS=NM EX
##FIRSTZ=210
##LASTZ=400
##ZPOINTS=39
##XYDATA=(Y..Y)
##ZVALUE=210
1.810789
2.001524
2.304912
2.569556
2.062917
2.833605
2.352595
2.228618
2.709627
2.460480
2.199411
2.343655
1.714826
2.015829
2.160668
2.670884
1.984835
2.813935
2.541542
3.405809
3.086925
3.311634
3.443956
3.574491
4.521608
4.281998
4.785657
4.702806
5.277991
4.652739
5.196929
5.142689
5.308986
6.763935
6.235838
5.871654
6.934404
6.894469
5.784631
6.342530
5.803704
6.241798
5.641580
6.429553
5.512834
5.639791
5.970597
6.589890
6.972551
6.109476
5.885959
5.935431
6.244779
6.401539
6.262660
6.528497
6.400943
5.452633
7.244945
6.975532
7.131696
5.933642
6.219745
6.738901
7.068515
6.636977
7.741451
8.501410
8.230805
11.358857
11.333823
13.694763
14.971495
17.588735
18.544793
20.104647
19.475818
19.887686
19.985437
19.975901
19.050837
16.636848
15.078783
13.160706
10.414720
9.884834
7.913709
7.139444
6.858706
6.385446
6.272793
5.866885
7.379651
6.384850
6.716847
6.335974
##ZVALUE=215
7.304549
6.359816
5.847812
4.363656
4.533529
4.664660
4.014969
4.745722
5.566478
4.242659
4.223585
4.469752
3.562570
3.332496
2.689958
2.878904
2.085567
2.567768
3.255606
2.848506
2.708435
4.025698
2.849698
3.573895
4.015565
4.483461
4.084706
5.156994
6.284714
6.014705
6.029606
7.297993
8.180737
8.253455
8.075833
8.030534
7.080436
7.015467
7.655621
7.822514
7.105470
7.584691
6.372929
7.333755
7.166862
6.798506
6.869435
6.330609
6.762743
5.735755
7.093549
6.012917
6.992817
5.520582
6.089807
6.244779
5.928874
5.629659
5.168915
5.926490
5.390644
5.765557
5.795956
5.429983
6.226897
5.541444
6.146431
6.880760
7.027984
7.111430
9.043813
10.111928
11.389852
13.378859
14.383793
15.130639
14.858842
14.559627
14.088750
13.496876
13.199449
12.889504
11.629462
10.634661
9.953976
8.355975
7.671714
7.135868
5.843639
5.952716
5.256534
5.814433
6.144643
5.801916
5.208850
6.107688
##ZVALUE=220
20.249486
22.830963
25.654435
22.214651
21.280646
16.345978
14.144778
11.389852
9.943843
10.674596
10.685921
10.911822
11.439919
12.188554
8.121729
7.028580
5.196929
3.770590
2.943873
3.947616
3.665686
3.661513
3.737807
3.635883
4.189610
4.750490
6.272793
6.738901
7.746816
9.960532
9.924769
10.508895
11.031628
10.885000
11.469722
11.961460
12.057424
12.289882
11.903644
11.201501
10.937452
11.986494
10.780692
10.279417
10.042787
10.185838
9.118915
10.762811
8.973479
8.330941
8.863807
8.973479
8.590817
8.138418
9.118915
8.045435
7.844567
8.872747
7.862449
8.132458
8.766651
8.186698
8.356571
8.830428
8.296967
8.080602
8.509755
8.678436
9.801984
11.218786
11.351705
13.216734
14.232993
15.286803
15.777946
18.649697
18.128753
17.699599
16.622543
16.493797
15.651584
16.306639
13.573766
12.850761
11.919737
10.605454
9.003878
9.907484
9.136796
8.404851
8.617640
8.268952
8.156896
7.889867
9.070635
8.632541
##ZVALUE=225
42.610765
42.964816
57.159662
67.812800
80.358982
79.879761
80.523491
64.441562
55.106878
40.641427
31.769872
24.380684
25.875568
24.978518
24.873614
23.652911
21.385550
15.195608
13.328791
8.551478
6.737709
4.553795
4.736781
5.114675
5.709529
6.341934
8.124709
7.560849
10.389686
12.367964
12.069941
12.744665
13.895631
14.260411
14.979839
16.366839
16.880631
15.080571
16.238689
15.344620
15.796423
14.934540
14.961958
13.489723
13.399720
13.002753
13.395548
10.891557
11.592507
11.271834
10.562539
11.923909
12.337565
11.444688
10.979772
11.348724
11.152625
11.326671
11.008978
11.088848
10.348558
10.597706
9.474754
11.960864
11.336803
10.621548
10.817647
11.275411
13.179779
13.896823
15.162826
16.368628
20.048618
20.420551
22.415519
23.264885
23.513436
23.338795
21.538734
21.535754
20.451546
19.891858
17.440915
16.935468
15.628934
13.613701
13.336539
13.650656
12.909770
13.363957
11.582971
13.368726
11.674762
11.691451
11.791587
12.115836
##ZVALUE=230
42.167902
44.829845
77.467561
112.916827
146.333575
196.376443
218.305588
222.870708
207.074881
165.119767
128.182769
86.578727
62.129498
49.930811
45.623779
44.824481
48.455000
49.688816
41.783452
36.013722
25.859475
20.254850
12.488961
9.091496
7.424951
7.225871
8.107424
8.032918
9.377599
11.007786
10.913610
13.121963
14.649630
15.459657
15.483499
16.948581
17.459989
16.005635
17.600656
17.254949
16.158819
16.604662
16.091466
15.482903
15.556812
16.416907
13.321638
14.224648
13.472438
14.655590
13.358593
13.248920
14.059544
12.116432
13.403893
13.369918
13.197660
13.376474
12.793541
14.504790
14.604926
12.962818
13.877749
14.910698
14.863610
14.143586
15.154481
16.011000
15.893579
18.289685
20.543933
23.808479
26.110411
25.885701
26.616454
28.890967
30.376911
28.800964
28.712749
27.585626
26.443601
25.733709
23.449659
22.955537
22.294521
21.177530
20.075440
19.160509
18.146634
17.496943
16.942620
16.606450
17.901659
17.677546
17.384887
18.216968
##ZVALUE=235
15.591979
17.265677
35.582781
83.220601
134.720802
216.763616
284.453630
360.472798
392.750502
401.878953
348.294973
289.932489
199.160576
138.159990
95.860958
75.113773
70.104599
76.623559
76.180696
81.527829
75.072646
62.145591
51.495433
38.391948
27.164817
17.065406
12.274981
10.114908
10.142922
10.864735
11.269450
11.454821
12.436509
12.886524
12.324452
13.126731
13.676882
13.699532
12.876987
14.892817
14.704466
13.784766
15.135407
14.383793
15.893579
14.435649
12.832880
13.559461
14.036894
13.379455
12.211800
13.545752
13.542771
13.228655
12.463927
13.896823
14.008880
15.659928
14.032722
15.171766
15.418530
16.380548
16.185641
16.674995
17.375946
17.788410
17.713904
18.909574
18.368959
21.526814
22.084713
23.878813
23.581982
26.763678
26.210546
28.581619
29.900670
29.637814
28.256774
29.318929
30.236840
27.628541
30.186772
26.865602
26.231408
25.452971
25.901794
24.210811
24.496913
24.624467
23.946762
26.231408
23.391843
25.266409
23.732781
25.052428
##ZVALUE=240
1.623631
1.915693
7.452965
19.677877
51.644444
96.463561
186.626911
271.309614
399.716496
474.105477
520.116687
512.932539
464.615822
369.477868
285.629630
180.475712
128.637552
97.794533
88.299513
96.961856
107.291937
110.258460
111.199617
94.563961
79.376698
66.716671
44.685602
32.040477
20.022988
14.545918
11.224747
10.201931
10.239482
11.668801
11.103749
11.925697
12.251735
12.592673
12.027621
12.777448
13.668537
13.281703
14.704466
13.182759
14.944673
13.293624
14.330745
14.460683
13.576746
14.341474
14.752746
13.882518
13.605952
13.981462
14.981627
15.744567
14.752746
15.954971
16.741753
16.941428
14.811754
17.411709
17.272830
19.744635
18.613935
20.330548
20.487905
21.651983
21.146536
23.891926
26.821494
27.660728
29.741526
32.294989
33.504963
35.603642
32.985806
32.762885
35.909414
34.294724
35.798550
33.150911
33.608675
32.522678
33.288598
33.494830
32.429695
32.254457
33.354759
32.391548
32.551885
30.961633
29.851794
31.564832
31.586885
30.259490
##ZVALUE=245
1.600981
1.540780
1.302958
2.092719
4.998446
16.121864
43.021441
126.184821
240.033865
386.048555
619.214773
790.928006
924.880505
952.192545
865.203738
725.367665
506.272912
352.463722
207.110643
135.593414
101.061463
98.101497
105.325580
121.235847
126.694441
124.869943
111.740828
91.763735
70.873499
51.415563
37.591457
24.077892
16.778708
12.827516
12.378693
11.897683
12.244582
12.194514
13.296604
14.335513
14.142990
14.426708
15.634894
14.698505
15.519857
14.210939
14.348626
14.846921
14.374852
14.528632
14.515519
13.722777
13.951659
14.657974
14.095902
13.265610
13.385415
14.093518
15.196800
14.649630
14.560819
15.495420
14.317632
16.919971
17.546415
18.399954
18.696785
20.432472
23.582578
23.078918
24.137497
26.967525
28.074980
31.924844
31.454563
33.439994
35.151839
33.764839
35.121441
34.233928
31.775832
32.328963
32.491684
31.397939
32.814741
32.244921
31.343699
30.828714
32.610893
32.885671
32.433867
32.022595
31.461716
30.726790
28.781891
31.281710
##ZVALUE=250
1.262426
1.300573
1.557469
1.717806
1.471639
1.844764
2.614856
8.628964
35.692453
89.176893
233.585835
393.849611
583.850741
834.058523
978.556871
1015.897989
1013.682485
867.964625
712.567568
460.709929
298.947692
184.218884
105.890632
91.109872
100.243688
116.401911
131.775737
135.442615
130.648613
118.409991
107.069612
78.357458
61.373711
38.799644
30.259490
18.850565
17.187595
14.588833
15.152693
15.579462
14.306903
15.354753
15.619993
15.160441
16.260743
15.371442
15.273690
14.795661
15.196800
16.512871
14.878511
14.264584
14.210939
13.836622
13.949871
13.452768
13.656616
13.050437
12.845993
13.608932
12.737513
14.288425
15.263557
14.550686
14.938712
15.366673
15.541911
16.001463
18.403530
20.180941
20.721555
23.166537
23.590922
25.254488
25.439858
26.523471
27.306676
28.788447
27.539730
27.996898
29.446483
29.247999
29.531717
27.514696
28.694868
28.273463
29.260516
28.909445
28.332472
29.395819
29.217601
28.238893
28.310418
27.996898
28.733611
29.629469
##ZVALUE=255
1.282692
1.078844
1.233816
1.096725
1.067519
1.326799
1.289845
1.747608
2.024770
4.322529
19.122958
45.556426
96.690655
207.199454
318.322778
497.995615
621.280670
745.636821
795.593858
743.383765
644.397736
513.935685
326.884985
207.817554
113.186836
89.090466
85.786581
99.838972
122.054815
136.266947
143.794417
141.758919
130.099654
109.922886
85.574985
60.306787
43.731928
28.341413
23.058653
17.795563
16.674995
16.631484
14.588833
15.981793
15.643835
16.088486
14.921427
14.483929
14.681816
13.313890
13.214946
13.715625
14.286637
12.727976
12.556911
12.601614
11.747479
11.671782
11.384487
11.051893
11.885762
11.369586
12.220740
11.665821
13.649464
12.712479
13.773441
13.575554
15.405416
16.453862
16.776919
17.874837
18.596649
20.581484
22.133589
22.490621
22.030473
22.862554
24.560690
24.405718
24.741888
24.921894
23.853779
25.791526
25.908947
25.373697
26.680827
27.282834
25.222898
25.274754
26.831627
26.768446
25.471449
26.335716
26.213527
26.409626
##ZVALUE=260
1.050830
0.935793
1.027584
1.083612
1.084805
0.978708
1.285672
1.530647
1.368523
1.382828
1.349449
1.956820
6.866455
29.867887
67.500472
161.461830
262.965560
438.627601
595.730543
785.598755
879.357457
892.531872
785.538554
644.868016
428.118706
288.085938
165.690780
104.344487
78.642964
83.813667
101.889968
127.127767
143.044591
153.270960
149.873495
136.664510
116.579533
89.292526
70.760846
47.715902
35.627484
24.945736
22.304654
18.881559
17.530918
17.487407
16.951561
16.410947
15.670657
15.383959
14.719963
14.363527
14.304519
13.179779
12.744665
12.756586
12.573600
12.334585
12.661815
12.138486
11.674762
11.605620
11.475682
11.641979
11.497736
12.650490
12.241602
12.506843
14.111996
14.660954
15.550852
16.940832
16.999841
18.045902
18.994808
20.774603
20.538568
21.296740
21.812916
22.149682
23.496747
23.886561
23.054481
23.383498
22.709966
23.560524
24.569631
23.040771
23.433566
23.983717
25.064945
24.369955
24.772882
24.191737
25.206804
26.436448
##ZVALUE=265
1.002550
1.144409
1.032948
0.837445
1.019835
0.858903
1.165867
0.926852
1.120567
1.170635
1.350641
1.235604
1.387596
1.665950
3.818870
20.700693
51.948428
127.553940
224.339962
426.127911
599.897504
772.306919
935.245752
978.076458
899.589658
772.178769
566.805601
407.202840
227.910876
142.223835
91.206431
72.688460
86.102486
116.854906
136.551857
154.322982
161.252618
157.545805
142.673850
115.996003
97.587705
68.711638
50.597787
34.458637
26.586652
21.062493
19.132495
17.735958
17.843843
16.159415
16.017556
14.585853
15.057921
13.850927
13.614893
13.146996
12.722611
12.100935
11.793971
11.733770
11.794567
11.615753
11.597872
11.926889
11.850595
11.731982
12.165904
13.137460
13.650656
14.466643
15.542507
16.400814
17.392635
17.833710
18.673539
18.414855
19.026995
19.450784
20.118952
19.753575
20.008683
20.979643
21.069646
21.536946
21.493435
21.244884
21.586418
22.917986
22.880435
22.716522
22.783875
22.860765
23.179650
23.236871
22.651553
23.334622
##ZVALUE=270
0.927448
1.076460
0.835657
0.832677
0.972748
0.933409
0.965595
0.950694
0.963807
1.090765
1.228452
1.312494
1.153946
1.563430
1.401901
1.680851
2.417564
12.545586
37.342906
108.519793
211.688876
366.182923
622.146726
816.153884
1011.329889
1015.892625
1015.892625
927.760005
714.167953
532.827973
365.894437
193.849802
115.356445
68.857670
70.010424
91.832876
113.592744
139.385462
153.945684
163.601637
160.369873
143.565536
122.338533
91.560483
70.195794
48.294663
35.866499
24.949908
19.946694
17.020702
15.426874
14.744997
13.373494
13.542771
13.811588
12.990832
12.896657
12.288690
12.451410
12.120605
12.066960
11.996627
11.437535
11.066794
11.420846
12.424588
12.255907
12.591481
13.543963
13.478994
14.665723
14.712811
16.127825
16.970634
17.800927
17.997622
18.688440
18.621683
18.431544
18.283725
19.481778
20.205975
20.186901
19.570589
20.931959
20.279884
21.065474
20.635724
21.281838
21.557808
21.494627
21.789670
22.320747
22.230744
21.850467
21.982789
##ZVALUE=275
0.882745
0.685453
0.870824
0.889897
0.769496
0.811815
0.751615
0.856519
0.753999
0.786781
0.882745
0.965595
0.926852
1.129508
1.233816
1.315475
1.313686
1.659989
1.706481
5.904436
24.351478
66.627860
179.916620
326.123834
570.836663
752.573013
947.320461
1015.895605
1015.895605
967.243910
838.827491
613.579750
437.222719
239.585638
142.503977
72.484612
56.443810
66.547990
85.631609
113.148689
133.107901
151.841640
159.107447
152.002573
138.142705
110.299587
90.584755
65.492988
49.640536
31.542778
21.936893
17.412901
14.397502
13.231635
12.428761
12.126565
11.750460
11.703968
11.264682
11.645555
11.469722
11.687875
11.230707
11.746883
12.040734
11.767745
12.068748
13.271570
13.327599
13.470650
14.714599
15.082955
15.925765
16.669631
16.858578
16.902685
17.307997
18.154979
18.370748
18.356442
19.170642
18.727779
19.384623
19.384623
19.068718
19.614697
20.239949
20.132661
20.290613
19.900799
20.192862
20.914674
20.729899
21.391511
21.215677
21.552444
##ZVALUE=280
0.726581
0.723600
0.693798
0.679493
0.736713
0.812411
0.538826
0.653863
0.690818
0.831485
0.813603
1.074672
1.083612
1.111627
1.092553
1.083612
1.113415
1.205802
1.249909
1.630783
1.631975
2.537966
15.381575
51.772594
146.169662
257.691741
463.999510
648.595691
882.951617
1004.737616
1015.893817
1015.893817
876.008868
702.638626
464.665890
305.460691
158.666968
88.717937
47.770739
45.229793
60.814619
78.333616
107.399821
127.386451
141.815543
148.956776
145.054460
131.809711
108.984709
86.179972
59.610605
44.670701
28.270483
20.475984
14.235973
12.607574
11.302829
11.122823
10.670424
10.938644
11.269450
10.816455
11.138916
11.326671
11.293888
12.141466
12.800694
12.410879
13.209581
14.488697
15.243888
15.146732
15.922785
16.167760
16.554594
17.357469
17.794967
18.773675
18.177629
18.278956
19.050837
19.236803
19.337535
18.798709
19.374490
19.882917
19.947886
20.041466
20.988584
20.670891
20.455718
20.407438
19.945502
19.822717
21.023750
20.024776
##ZVALUE=285
0.752807
0.681877
0.676513
0.560880
0.733733
0.660419
0.705719
0.849962
0.807643
0.749826
0.825524
0.656843
0.831485
0.872612
1.011491
0.839829
0.985861
1.108646
1.013875
1.081824
1.247525
1.299977
1.649857
1.685619
6.656647
23.524761
76.990724
152.858496
311.883688
478.244424
647.766590
868.530869
978.478789
1009.118557
938.880444
749.571919
577.033758
360.720754
223.476887
107.307434
58.991909
34.217834
34.908652
53.137541
71.821809
100.416541
118.548870
134.820938
141.087770
139.859915
126.909614
105.983615
87.166429
60.964823
42.844415
27.175546
18.723607
13.265610
11.070967
10.662675
10.536909
10.442734
10.859966
11.449456
11.420846
11.911988
12.045503
12.784600
13.321638
14.236569
14.916658
15.276670
15.435815
15.942454
16.323924
16.927719
17.824769
17.602444
17.737746
18.200874
19.236803
19.040704
19.621849
19.415617
20.090938
20.139813
20.142794
20.219684
20.354986
19.833446
20.539761
20.132661
19.898415
20.241737
19.806623
20.155907
##ZVALUE=290
0.563860
0.678897
0.595450
0.659823
0.646710
0.400543
0.662804
0.655651
0.757575
0.712872
0.769496
0.689626
0.698566
0.756979
0.794530
0.725985
0.563860
0.970960
0.976920
0.967979
0.870824
0.925660
1.124740
1.260638
1.476407
1.671910
2.307892
7.854700
37.270784
85.439682
163.176656
328.257680
486.200452
709.478855
840.326548
930.976868
910.977721
784.695745
644.266605
432.972908
287.401676
143.527985
77.773929
34.387708
24.511814
33.081770
46.417713
69.766641
87.467432
113.623738
127.998590
136.956573
136.829615
122.065544
105.713606
78.008771
59.873462
39.982796
28.098822
17.855763
14.195442
11.755824
10.985732
11.237860
11.340976
11.925697
12.254715
12.932420
13.330579
13.430715
14.358759
15.418530
15.645623
16.918778
16.704798
17.323494
17.580986
17.830729
18.252730
19.141436
19.056797
18.797517
19.908547
19.656420
19.899607
20.001531
20.432472
20.616651
20.695925
20.394921
20.381808
20.112991
19.730926
19.801855
20.140409
19.879937
##ZVALUE=295
0.629425
0.549555
0.545979
0.618696
0.598431
0.634789
0.701547
0.615716
0.676513
0.583529
0.747442
0.761747
0.598431
0.730753
0.761747
0.638962
0.752807
0.738502
0.826716
0.868440
0.937581
0.895858
1.104474
1.021624
1.028776
1.275539
1.317859
1.512766
1.689792
3.035665
11.965632
49.370527
114.792585
255.180597
404.003859
624.843836
771.043897
903.995633
933.972001
848.907828
725.539923
521.540642
363.773704
193.062425
107.920766
41.948557
23.666620
20.919442
27.592778
44.798851
61.199665
86.682439
103.967786
121.996999
129.404664
128.044486
118.712783
98.321438
80.592632
56.704879
41.493773
26.553869
19.672513
14.467835
12.649894
12.436509
12.479424
12.240410
13.170838
14.402866
14.420748
15.547872
15.279651
16.417503
17.378926
18.108487
17.741919
18.451810
18.675923
19.139647
19.766688
20.023584
20.069480
20.281672
20.232797
21.100640
21.294951
21.192431
20.529628
20.639896
20.242929
20.369887
20.429492
19.167662
20.074844
19.700527
##ZVALUE=300
0.513792
0.485778
0.436902
0.531673
0.580549
0.466704
0.548959
0.537634
0.520945
0.619888
0.633597
0.661612
0.637770
0.741482
0.744462
0.635982
0.812411
0.721812
0.627637
0.593662
0.785589
0.760555
0.809431
0.835657
0.975728
1.059771
1.097918
1.068711
0.988841
1.213551
1.447797
1.798868
7.528663
27.157664
86.871982
164.653659
326.803923
486.584902
695.994496
818.424821
909.210443
903.858542
777.315497
637.217760
424.327850
276.121497
141.083002
74.257851
29.165745
16.879439
17.839670
24.600625
39.845705
54.970980
77.897906
97.654462
116.753578
123.896599
121.735930
114.466548
98.074675
80.222487
57.344437
43.918490
28.921962
21.482706
16.165972
14.235973
13.767481
14.250875
14.486909
15.497804
15.903711
16.714931
17.607808
17.553568
17.771721
18.606782
19.069910
19.506812
20.359755
20.237565
20.403862
20.573735
21.082759
21.740794
21.537542
21.195412
20.761490
20.634532
21.461844
20.734668
20.326972
19.854903
20.471811
21.235943
##ZVALUE=305
0.427961
0.263453
0.463724
0.312924
0.489950
0.572801
0.382662
0.656843
0.550747
0.512600
0.634789
0.696778
0.359416
0.650883
0.410676
0.448823
0.642538
0.471473
0.795722
0.722408
0.736713
0.586510
0.645518
0.672936
0.772476
0.814795
0.914931
0.781417
0.892878
1.148582
1.100898
1.263618
1.292825
1.533628
3.114939
17.297864
46.923757
129.044652
229.056478
413.263440
576.328635
766.707659
873.690844
902.721882
842.024684
671.509504
521.138906
326.475501
206.092596
96.272826
47.761798
18.516779
13.510585
16.296506
23.436546
39.277673
54.626465
75.149536
92.964768
112.423897
119.306445
118.947625
110.255480
93.437433
78.553557
55.433512
42.043924
29.747486
22.664666
18.004775
16.305447
16.314983
15.961528
17.001629
17.333627
18.245578
18.580556
19.362569
19.530654
19.904971
20.412803
20.584464
21.153688
21.178722
21.384954
21.881461
21.970868
21.797419
21.504760
21.409988
21.291971
21.295547
21.077991
21.596551
20.859838
20.697713
##ZVALUE=310
0.474453
0.370741
0.627637
0.496507
0.467896
0.461936
0.484586
0.508428
0.449419
0.401735
0.546575
0.627637
0.575781
0.631809
0.360608
0.604987
0.241995
0.531673
0.335574
0.434518
0.502467
0.657439
0.746846
0.654459
0.655651
0.710487
0.729561
0.800490
0.739694
1.075864
0.958443
0.917912
0.893474
1.009703
1.347661
1.425743
1.617670
7.141829
24.487972
78.139901
152.722597
307.517648
460.580587
672.038794
803.083777
900.130868
888.208747
766.728520
633.205771
434.310436
292.561650
148.394704
79.235435
28.921962
13.973713
10.974407
14.378428
22.371411
32.016635
49.311519
65.847635
87.338686
102.258921
112.007856
114.534497
105.388761
96.291900
75.174570
60.545802
42.915940
32.915473
24.279952
20.753741
18.389821
17.746687
17.669797
18.341541
19.027591
18.928647
19.854903
20.281672
20.673871
21.539927
21.884441
22.035837
21.951795
21.549463
22.299886
22.235513
21.965504
21.574497
21.565557
21.867752
21.213889
21.147728
21.041632
##ZVALUE=315
0.432730
0.433922
0.613928
0.580549
0.444651
0.389814
0.389814
0.440478
0.483990
0.338554
0.560880
0.457764
0.426769
0.484586
0.420809
0.625849
0.538826
0.474453
0.585914
0.579953
0.634789
0.732541
0.600815
0.757575
0.601411
0.745654
0.762939
0.797510
0.708699
0.754595
0.795722
0.935793
0.880957
1.187921
0.762939
0.947714
1.259446
1.270771
1.596808
3.079772
12.008548
48.463941
107.023716
240.718722
378.950834
593.484640
731.001496
861.317515
892.313719
823.865533
707.698464
509.817004
362.316966
192.637444
105.515718
41.777492
18.711686
10.267496
10.546446
14.433861
19.978881
32.233000
45.355558
64.576864
80.382824
98.580718
107.322931
108.618736
103.724003
89.025497
76.346993
58.712959
46.181679
33.405423
26.506782
22.044778
19.830465
19.298792
18.960834
19.721985
20.565987
21.439791
21.594763
21.463633
22.082925
22.047758
22.399426
22.172928
22.699833
22.028685
21.905899
21.523833
21.613836
22.151470
21.889806
21.382570
##ZVALUE=320
0.352859
0.249743
0.494719
0.435710
0.485778
0.434518
0.562668
0.584722
0.456572
0.675917
0.420809
0.453591
0.405908
0.574589
0.476837
0.477433
0.491738
0.401735
0.456572
0.530481
0.426769
0.509620
0.617504
0.399947
0.647902
0.604987
0.629425
0.755787
0.658631
0.776649
0.808835
0.739694
0.807643
0.809431
0.809431
0.867844
1.017451
1.135468
1.049638
1.280904
1.224875
1.709461
5.224943
26.820898
68.257451
174.515843
285.667777
472.337008
622.325540
796.855688
867.802501
860.763788
775.343776
596.886873
438.383818
247.342587
141.717792
61.689615
29.997826
12.114644
9.493828
10.580420
13.548732
20.223856
28.304458
44.978857
58.652759
78.742504
91.546774
104.195476
106.095672
99.747777
90.002418
71.958899
58.746934
43.655634
34.398437
27.557611
23.586750
21.446943
20.474792
20.453930
20.959973
21.846890
21.705627
21.822453
22.819638
21.542907
21.835566
22.026896
21.636486
21.895766
21.600723
21.476746
21.574497
21.359921
##ZVALUE=325
0.392795
0.541806
0.526905
0.395775
0.446439
0.406504
0.366569
0.354648
0.431538
0.566840
0.374913
0.456572
0.584722
0.338554
0.567436
0.568628
0.319481
0.367761
0.343919
0.450611
0.413656
0.494719
0.373721
0.336766
0.649691
0.492930
0.716448
0.637770
0.673532
0.698566
0.652671
0.791550
0.607967
0.689626
0.699759
0.744462
0.767708
0.867844
0.759959
1.112819
1.003742
1.120567
1.068711
1.277924
2.678633
17.286539
45.367479
120.094419
212.862492
388.733745
538.528562
727.504492
825.057626
858.714581
803.430676
638.874769
482.001901
288.824439
177.591443
84.021688
41.472912
15.668869
10.040998
9.830594
10.726452
14.693737
19.860864
30.574799
42.196512
61.087608
75.070858
89.703798
98.162889
99.604726
95.374584
82.582831
70.980787
55.229664
44.767857
33.347607
27.767420
23.744702
22.595525
21.567941
21.315813
21.505952
21.568537
22.326708
22.009611
21.969676
21.425486
21.863580
21.930933
21.744967
21.318793
21.310449
##ZVALUE=330
0.472665
0.381470
0.482798
0.367761
0.443459
0.292659
0.250936
0.326633
0.303984
0.484586
0.487566
0.396967
0.453591
0.392795
0.493526
0.348687
0.562668
0.417829
0.430942
0.454783
0.460744
0.458956
0.529885
0.366569
0.529885
0.682473
0.537634
0.648499
0.446439
0.616908
0.533462
0.675917
0.540614
0.635982
0.782609
0.720620
0.920892
0.746846
0.745654
0.949502
0.776649
0.975728
1.051426
0.986457
1.112819
1.296997
1.709461
7.236600
23.752451
76.547861
149.299502
298.872590
441.756845
640.982985
766.170025
844.596028
822.803974
696.380734
564.466715
363.227725
236.557722
113.800764
59.608817
23.430586
12.292862
9.612441
10.179877
11.380911
14.133453
21.079779
28.772950
42.299628
55.309534
74.094534
84.972978
94.825625
95.720887
91.172457
82.058907
66.917539
55.116415
41.840672
34.682751
28.283596
24.832487
22.284985
21.697879
21.933913
21.919608
21.245480
21.344423
20.776987
21.177530
21.096468
20.883679
21.329522
##ZVALUE=335
0.438690
0.351667
0.311732
0.311732
0.472665
0.343919
0.431538
0.349879
0.402927
0.300407
0.364780
0.390410
0.488758
0.308752
0.458956
0.424981
0.389814
0.388622
0.405908
0.406504
0.477433
0.518560
0.508428
0.488758
0.459552
0.617504
0.564456
0.509620
0.512600
0.572801
0.650883
0.591874
0.499487
0.514984
0.529885
0.631809
0.564456
0.729561
0.703931
0.648499
0.704527
0.757575
0.851750
0.839829
0.957847
0.948906
1.009703
1.071692
1.361966
3.335476
12.158751
48.382878
102.614760
224.137902
358.498693
560.811758
697.813630
804.353952
821.691751
741.271973
618.491769
429.928899
291.255713
153.821707
82.624555
30.720830
15.370846
10.204911
10.148883
10.943413
12.279749
15.207529
19.958615
30.699968
39.940476
56.750774
68.492889
81.913471
88.557601
91.200471
86.751580
76.317787
66.924691
53.677559
45.002699
35.041571
29.062629
24.809837
22.929907
21.203756
20.811558
20.501614
20.300746
20.447969
20.023584
20.351410
##ZVALUE=340
0.227690
0.315905
0.199676
0.415444
0.271797
0.229478
0.385642
0.347495
0.302792
0.317693
0.451803
0.438690
0.338554
0.353456
0.384450
0.437498
0.345707
0.479817
0.350475
0.308752
0.319481
0.416636
0.533462
0.472665
0.587702
0.459552
0.362992
0.382662
0.406504
0.424981
0.571609
0.444651
0.613928
0.434518
0.616908
0.601411
0.668764
0.530481
0.636578
0.641942
0.816584
0.709891
0.791550
0.775456
0.744462
0.766516
0.886917
0.895858
0.836849
1.192689
1.189709
1.620650
5.964637
29.471517
70.913434
174.733996
291.478634
474.665761
615.004897
758.047700
805.381536
762.164593
666.936636
493.678451
347.216725
182.081461
102.482438
43.883920
20.548701
10.876656
10.114908
10.420680
11.141896
12.856722
15.235543
21.505952
28.559566
40.436983
52.241683
67.974925
78.500509
86.118579
87.107420
83.400607
75.807571
64.186454
54.460764
41.677952
34.801960
27.831793
24.232864
21.629930
20.432472
19.347668
19.541979
19.332767
##ZVALUE=345
0.396967
0.296831
0.473857
0.363588
0.344515
0.374913
0.383854
0.331998
0.336766
0.379682
0.282526
0.376701
0.247955
0.296831
0.240803
0.258684
0.301600
0.452995
0.455976
0.352859
0.376701
0.432730
0.448823
0.467896
0.279546
0.502467
0.408888
0.385642
0.468493
0.464916
0.618696
0.530481
0.494719
0.472665
0.463724
0.435710
0.476837
0.710487
0.578761
0.628829
0.524521
0.688434
0.515580
0.489950
0.672936
0.655651
0.754595
0.692606
0.879765
0.851750
0.905991
1.022816
1.148582
1.286864
2.638698
16.417503
45.880675
119.846463
210.936666
382.396579
522.021651
684.663653
761.972666
773.438811
707.162619
544.523597
406.664014
244.272947
139.564872
57.950616
28.119683
13.237596
10.529757
10.380745
10.691881
11.475682
12.272596
15.328526
19.442439
28.155446
37.169456
51.464438
61.525702
72.110891
78.326464
80.680847
78.114867
70.908666
62.643886
51.391721
42.032599
32.594800
27.538538
22.522807
20.259619
19.564629
##ZVALUE=350
0.247955
0.339746
0.385642
0.306964
0.360608
0.289679
0.473857
0.364780
0.302792
0.296831
0.291467
0.301600
0.392795
0.342727
0.375509
0.284910
0.334978
0.449419
0.495911
0.432730
0.264645
0.312924
0.433922
0.352859
0.378489
0.407696
0.380874
0.440478
0.415444
0.486970
0.367761
0.480413
0.549555
0.495911
0.473857
0.513792
0.400543
0.428557
0.504851
0.689626
0.642538
0.717640
0.546575
0.416636
0.557899
0.604987
0.644922
0.640750
0.553727
0.705719
0.855923
0.907779
0.985861
0.891685
1.071692
1.052618
1.895428
6.440878
28.734803
67.889690
163.053870
271.464586
446.830988
577.185750
715.273619
757.778883
714.691877
616.132617
433.266759
292.686820
150.081515
84.003806
35.765767
17.048717
10.209680
9.778738
10.314584
10.540485
11.092424
12.393594
15.242696
18.976927
25.753975
32.696724
44.391751
53.830743
64.693689
71.292520
73.772669
72.540641
66.355467
58.901906
47.795773
39.555430
31.245947
26.276708
##ZVALUE=355
0.322461
0.358820
0.391603
0.416636
0.419617
0.422597
0.407696
0.344515
0.403523
0.238419
0.531673
0.506639
0.466704
0.364780
0.183582
0.405908
0.265837
0.324845
0.403523
0.348687
0.459552
0.424981
0.512600
0.447631
0.456572
0.359416
0.411868
0.507832
0.443459
0.429749
0.536442
0.321865
0.492930
0.549555
0.494719
0.502467
0.461936
0.480413
0.613928
0.517964
0.645518
0.531673
0.631809
0.597835
0.516772
0.688434
0.558496
0.710487
0.642538
0.500679
0.589490
0.915527
0.829697
0.960827
0.841618
0.913739
0.965595
1.092553
1.208782
3.911853
14.149547
53.665638
108.632445
226.267576
352.245569
534.076691
648.015738
733.465552
731.793642
626.127720
511.840582
341.383815
220.056772
100.041628
49.714446
18.557906
10.975599
9.251833
9.628534
9.774566
10.166764
11.109710
11.817813
14.289618
17.283559
23.163557
29.687881
39.482713
47.854781
57.332516
63.573718
67.644715
66.845417
61.627626
55.750608
45.800805
##ZVALUE=360
0.331998
0.274777
0.583529
0.254512
0.367761
0.498891
0.408888
0.402927
0.413656
0.174642
0.421405
0.436902
0.383854
0.450611
0.422597
0.434518
0.420809
0.303984
0.221729
0.297427
0.267625
0.334978
0.318885
0.458956
0.353456
0.458956
0.488758
0.579953
0.497699
0.575781
0.403523
0.418425
0.426769
0.232458
0.432730
0.529885
0.497699
0.444651
0.414848
0.585914
0.454783
0.613928
0.641942
0.414848
0.591874
0.538826
0.588894
0.491738
0.467896
0.610948
0.651479
0.575781
0.575781
0.649691
0.862479
0.842810
0.840425
1.015663
0.997782
1.338720
1.273751
1.954436
6.206632
28.688908
68.907738
168.610811
274.129510
437.117815
572.024584
688.059926
721.246004
666.354895
565.207005
389.558673
263.499618
131.458640
69.913864
28.366446
13.948679
9.171963
9.165406
9.334683
9.508729
9.837747
10.259748
11.202693
12.017488
15.422702
18.534660
25.331974
32.111406
42.163730
49.196482
56.756735
60.197711
60.878992
##ZVALUE=365
0.276566
0.375509
0.297427
0.473857
0.299811
0.343919
0.375509
0.424981
0.286698
0.408888
0.345707
0.343919
0.529885
0.496507
0.363588
0.386834
0.351667
0.342727
0.360608
0.396967
0.376701
0.253916
0.396967
0.303984
0.421405
0.333786
0.391603
0.481606
0.449419
0.575781
0.503659
0.468493
0.420809
0.428557
0.404716
0.369549
0.531673
0.558496
0.460744
0.473857
0.527501
0.549555
0.569820
0.428557
0.450611
0.478625
0.704527
0.575781
0.660419
0.578761
0.534654
0.487566
0.596642
0.571609
0.680685
0.802875
0.913739
0.823736
0.947714
0.951886
0.884533
1.190901
1.252890
1.436472
2.662539
16.069412
43.249726
112.899542
204.452872
368.065834
494.973660
627.079010
688.786507
681.777000
602.196455
443.537831
317.843556
178.552866
98.970532
38.110614
17.664433
9.095669
8.286834
8.321404
8.316636
8.856654
9.137988
9.435415
10.033846
11.029840
12.723804
16.532540
20.866990
27.930737
34.953952
43.809414
##ZVALUE=370
0.201464
0.075698
0.015497
0.098944
0.117421
0.033975
-0.046492
0.191927
0.090599
0.191927
0.190735
0.071526
0.061989
0.204444
0.168681
0.177622
0.185966
0.295639
0.160933
0.229478
0.050664
0.172853
0.121593
0.213981
0.176430
0.172853
0.108480
0.240803
0.169873
0.204444
0.188947
0.208616
0.230670
0.239611
0.412464
0.180602
0.171661
0.182986
0.203848
0.287890
0.209808
0.388622
0.269413
0.274777
0.260472
0.197887
0.318885
0.157952
0.396967
0.493526
0.438690
0.314713
0.394583
0.468493
0.523925
0.433922
0.561476
0.536442
0.561476
0.700951
0.620484
0.641942
0.750422
0.775456
0.857711
0.895858
1.299977
8.044839
26.317835
81.029534
155.093670
293.335915
423.008800
585.763454
667.056441
688.140988
632.338524
498.637557
372.574925
214.499831
123.495460
51.261783
24.596453
10.247827
7.413626
7.123947
7.527471
7.921457
7.945895
8.115768
8.017421
8.878708
9.521842
11.074543
13.727546
18.731952
##ZVALUE=375
0.333786
0.311732
0.215769
0.319481
0.364780
0.133514
0.212789
0.311732
0.381470
0.306964
0.382662
0.255704
0.366569
0.303984
0.185966
0.431538
0.357628
0.378489
0.354648
0.283718
0.396967
0.327826
0.385642
0.346899
0.325441
0.406504
0.400543
0.474453
0.410676
0.438690
0.485778
0.460744
0.420809
0.297427
0.512600
0.408888
0.465512
0.459552
0.407696
0.442863
0.314713
0.487566
0.436902
0.478625
0.446439
0.340939
0.426769
0.342727
0.405908
0.516772
0.558496
0.685453
0.506639
0.533462
0.432730
0.525713
0.533462
0.639558
0.756979
0.503659
0.694990
0.639558
0.716448
0.927448
0.889897
0.819564
1.067519
1.233816
1.447797
3.322959
18.076897
46.132803
118.665695
211.653709
374.157429
498.224497
631.736517
683.473945
655.279756
571.314692
409.012437
289.322734
165.240765
94.608665
39.459467
18.515587
8.422732
7.190704
6.934404
7.242560
7.465482
7.628798
7.368922
7.978678
8.562803
8.996725
##ZVALUE=380
0.328422
0.283718
0.198483
0.258684
0.370741
0.313520
0.246763
0.272989
0.229478
0.270605
0.402927
0.277758
0.172853
0.227690
0.373721
0.417829
0.334978
0.380874
0.335574
0.428557
0.366569
0.352859
0.460744
0.395775
0.261664
0.436902
0.617504
0.503659
0.405908
0.223517
0.419617
0.367761
0.411868
0.428557
0.510812
0.490546
0.476837
0.293851
0.331998
0.548959
0.387430
0.329614
0.430942
0.320673
0.381470
0.465512
0.474453
0.536442
0.549555
0.523925
0.502467
0.501871
0.479817
0.392795
0.590682
0.382662
0.681877
0.579953
0.614524
0.420809
0.631809
0.653863
0.630617
0.557899
0.708699
0.519753
0.587702
0.913739
0.867844
1.025796
1.169443
2.091527
7.338524
34.816861
81.217885
187.085867
296.268463
455.741882
572.393537
665.598512
674.634576
592.405796
487.018824
329.806805
222.137570
111.147761
58.494806
22.114515
11.119843
7.038713
6.489754
6.473660
6.553531
6.673932
6.966591
7.128716
##ZVALUE=385
0.305772
0.161529
0.122786
0.242591
0.296831
0.291467
0.196695
0.388622
0.289679
0.409484
0.311732
0.258684
0.440478
0.400543
0.474453
0.430942
0.287890
0.230670
0.263453
0.228882
0.223517
0.291467
0.254512
0.410676
0.340939
0.252724
0.363588
0.350475
0.500679
0.440478
0.355840
0.362992
0.369549
0.516772
0.445843
0.485778
0.410676
0.337958
0.408888
0.357628
0.237823
0.388622
0.380874
0.335574
0.402927
0.476837
0.549555
0.559688
0.451803
0.429749
0.386834
0.491738
0.384450
0.295639
0.456572
0.541806
0.445843
0.493526
0.334978
0.465512
0.416636
0.561476
0.641942
0.589490
0.576973
0.596642
0.748634
0.842810
0.720620
0.813603
1.085997
1.002550
1.084805
1.343489
3.670454
20.001531
51.605701
129.918456
225.459933
391.528606
514.729023
635.674596
667.838454
636.376739
557.143688
411.579013
293.391943
160.891414
92.265606
39.467812
17.814636
7.294416
5.907416
5.701780
6.131530
6.243587
##ZVALUE=390
0.226498
0.188947
0.272989
0.239611
0.240803
0.256896
0.337958
0.182986
0.285506
0.295639
0.398755
0.299811
0.279546
0.308752
0.373721
0.446439
0.201464
0.453591
0.285506
0.310540
0.363588
0.270605
0.328422
0.343919
0.400543
0.268817
0.415444
0.394583
0.476837
0.350475
0.319481
0.393987
0.339746
0.457764
0.384450
0.511408
0.455976
0.330806
0.308752
0.391603
0.508428
0.279546
0.424981
0.446439
0.354648
0.484586
0.258684
0.425577
0.462532
0.346899
0.484586
0.566840
0.519753
0.553727
0.403523
0.389814
0.459552
0.491738
0.356436
0.418425
0.611544
0.656843
0.531673
0.588894
0.537634
0.509620
0.614524
0.684857
0.654459
0.831485
0.797510
1.072884
0.837445
0.964999
1.004934
1.153946
1.955628
11.564493
34.174919
94.472766
176.589489
329.594016
447.082520
577.053428
646.833777
665.921569
614.755750
484.266877
370.260477
226.574540
133.292675
55.866838
25.955439
9.097457
5.929470
5.461574
##ZVALUE=395
0.302792
0.126958
0.324845
0.207424
0.388622
0.285506
0.303984
0.231862
0.278950
0.273585
0.204444
0.342727
0.264645
0.212789
0.376701
0.328422
0.291467
0.372529
0.206828
0.341535
0.333786
0.304580
0.342727
0.366569
0.297427
0.345707
0.404716
0.439882
0.343919
0.365973
0.434518
0.360608
0.556707
0.527501
0.418425
0.399947
0.335574
0.355840
0.498891
0.517964
0.460744
0.379682
0.420809
0.247955
0.386834
0.372529
0.457764
0.419617
0.424981
0.385642
0.393987
0.582933
0.451803
0.450611
0.426769
0.318885
0.504851
0.541806
0.352859
0.479817
0.481606
0.548959
0.622869
0.583529
0.590682
0.626445
0.528693
0.562668
0.593662
0.729561
0.847578
0.851750
0.949502
1.030564
0.799894
0.748634
0.896454
1.024604
1.508594
5.833507
21.297932
72.264671
134.695768
252.117515
368.363857
529.241562
626.533031
682.235956
662.928820
564.604998
445.241928
281.674862
175.259709
77.389479
37.595630
13.542771
##ZVALUE=400
0.503659
0.517964
0.495911
0.462532
0.632405
0.443459
0.306964
0.411868
0.581741
0.525713
0.447631
0.274777
0.509620
0.466704
0.631809
0.629425
0.564456
0.591874
0.448823
0.441670
0.523925
0.440478
0.469685
0.534654
0.449419
0.508428
0.536442
0.645518
0.450611
0.627637
0.737906
0.652671
0.627637
0.555515
0.640750
0.752807
0.697970
0.647902
0.546575
0.525713
0.522733
0.619888
0.410676
0.529885
0.525713
0.562668
0.546575
0.431538
0.749826
0.519753
0.541806
0.500679
0.627637
0.650883
0.514984
0.609756
0.539422
0.701547
0.742674
0.651479
0.687838
0.746846
0.768900
0.704527
0.772476
0.793934
0.720620
0.693798
0.925660
0.965595
0.915527
0.902414
0.919700
0.890493
0.897646
0.889897
0.980496
0.947714
1.208782
1.257658
1.316667
2.404451
12.437701
34.964681
96.747875
175.512433
321.471691
440.166593
584.095716
650.757551
656.823516
598.702431
461.661816
340.410471
195.716619
117.496848
##END
