##TITLE=FQP00601
##FORMAT=SPECTACLE-ASCII V-1.2
##DATA TYPE=ULTRAVIOLET SPECTRUM
##SECOND TYPE=ULTRAVIOLET SPECTRUM
##DATE=12/26/17
##TIME=17:03:49
##SPECTROMETER/DATA SYSTEM=SPECTACLE
##XUNITS=NM EM
##YUNITS=ENERGY
##YFACTOR=1
##FIRSTX=220
##LASTX=410
##NPOINTS=96
##3DDATA=Equidistant
##ZUNITS=NM EX
##FIRSTZ=210
##LASTZ=400
##ZPOINTS=39
##XYDATA=(Y..Y)
##ZVALUE=210
2.151728
2.329946
1.749992
1.937747
2.013445
2.079606
2.675653
2.502799
2.779961
2.306700
2.769828
2.257824
3.141761
2.974868
3.608465
3.623962
3.299713
3.462434
4.076958
4.206896
4.139543
4.675984
5.567670
5.518794
5.766749
6.290674
5.756617
6.121993
6.805658
7.501841
7.377863
7.312894
7.776618
8.019805
8.684993
8.025765
8.197427
8.268952
8.560419
8.440614
8.596778
8.582473
9.768605
8.668900
10.054708
9.005666
9.319782
10.208488
10.201931
9.609461
9.685755
11.098981
10.874867
10.885000
10.706782
11.101961
10.986924
12.064576
11.189580
11.645555
11.798739
13.522506
11.731982
12.999773
14.592409
13.173819
13.337731
14.459491
18.013716
24.235845
26.361942
30.746460
38.198829
44.079423
50.321817
54.010749
59.268475
63.068867
61.614513
61.370730
58.500767
53.656697
46.045780
39.420724
32.188892
23.697615
20.618439
16.577840
16.025901
12.649894
13.423562
14.538765
12.965798
14.288425
13.238788
14.207959
##ZVALUE=215
12.262464
12.526512
11.031628
8.226633
6.565452
5.859733
5.415678
5.080700
5.780458
5.261898
5.654693
5.449653
5.024672
4.222989
4.486442
4.486442
4.189610
4.369617
4.799962
5.019903
5.171895
5.704761
5.047917
6.445646
6.567836
7.345676
6.913543
8.624792
7.360578
7.731915
7.509589
8.200407
8.289814
9.481907
9.141564
10.264516
9.720922
10.177493
10.364652
9.350777
11.096597
10.039806
11.164546
10.903478
11.578798
10.617971
11.053681
10.760427
12.194514
12.281537
12.407899
13.107657
11.837482
11.872649
12.669563
12.105703
13.304949
13.436675
12.343526
12.934804
13.033748
13.511777
14.679432
13.666749
13.509989
16.200542
15.166998
17.390847
19.681454
23.082495
27.866960
31.553507
34.789443
39.863586
47.318935
49.880743
54.025650
55.967569
56.868792
55.682659
52.858591
48.223734
42.969584
36.032796
31.002760
23.604631
18.751621
17.339587
15.249848
14.853477
13.825893
13.751984
12.972951
13.523698
13.553500
12.493730
##ZVALUE=220
42.281747
43.068528
45.912862
41.746497
37.346482
26.932955
22.873878
15.182495
12.563467
10.811687
11.128783
11.734962
11.365414
12.001991
9.502769
8.962750
6.824732
5.614758
5.869865
4.935861
4.693866
5.455613
5.585551
5.713701
6.259680
6.874800
6.117821
7.400513
7.449985
7.600784
6.543994
8.651614
8.566976
8.722544
8.753538
9.248853
9.999871
9.027719
9.437799
9.748936
9.210706
9.634495
10.641813
9.197593
8.701682
9.800792
10.651946
9.209514
10.234714
11.605620
10.525584
10.929704
9.631515
10.459423
9.949803
11.247993
10.881424
9.563565
10.282993
10.715723
12.054443
10.166764
11.694431
11.123419
10.869503
12.697577
12.764931
14.175773
16.177893
18.194914
18.637776
20.420551
24.450421
29.614568
31.617880
32.208562
33.814907
35.410523
35.991669
36.687851
35.551786
33.287406
27.102828
24.829507
20.010471
16.137958
14.381409
13.451576
12.313724
12.292862
11.852980
11.604428
11.926889
10.028481
11.513829
11.395812
##ZVALUE=225
72.659850
72.376728
100.093484
126.397610
140.275955
137.199759
131.246448
98.043680
71.700811
48.704743
32.293797
27.310848
23.707747
24.504662
24.563670
23.679733
21.820664
18.511415
13.401508
10.126829
8.078814
6.441474
5.847812
6.932616
7.039905
6.939769
8.491874
7.958412
9.232759
9.309649
10.079741
10.030866
10.060668
11.634827
11.246800
11.959672
11.493564
12.050867
10.770559
11.935830
13.547540
12.094975
11.002421
12.486577
11.681914
11.099577
11.324883
12.291670
11.211634
12.141466
12.765527
11.600852
12.833476
12.741685
11.792779
12.491941
12.704730
13.235807
12.725592
13.049841
12.465715
12.610555
13.132691
13.427734
14.064908
15.834570
15.438795
16.213655
16.361475
20.199418
23.787618
25.157928
30.408502
35.263896
38.367510
39.430857
41.838884
37.984848
39.914846
36.717653
35.449862
31.073689
28.705001
24.792552
22.947788
20.694733
20.021796
16.366839
16.751885
16.048551
15.943646
15.316606
14.567971
16.846657
16.626716
15.481710
##ZVALUE=230
65.910816
72.443485
121.355653
196.986794
266.481638
330.326557
367.223620
363.792777
329.799652
280.202627
186.433792
125.958920
70.884824
54.485798
43.924451
48.178434
49.101710
49.722791
46.954751
35.989881
27.809739
19.842982
14.831424
11.558533
9.413958
9.236932
9.810925
9.856820
11.943579
12.184978
12.861490
13.818741
13.093948
14.001727
13.371706
14.213920
14.596581
13.659596
13.600588
12.410879
13.870597
14.425516
13.996959
14.138818
13.295412
14.420748
14.213920
14.063716
13.690591
14.607906
13.876557
14.141798
13.762712
13.639927
14.922619
14.722943
15.243888
15.095472
15.832782
15.955567
16.816854
15.521646
17.759800
16.711950
16.787648
18.878579
18.636584
19.241571
21.937490
24.617910
26.810765
32.120943
36.282539
38.870573
40.006638
44.774413
45.182705
45.270920
44.672489
40.990710
40.247440
35.004616
34.190416
30.811429
28.036833
24.695992
24.383664
22.631884
23.026466
22.093654
22.047758
22.249818
21.715760
23.275614
21.451712
20.087957
##ZVALUE=235
23.314953
27.961731
54.707527
129.106641
202.722549
333.436728
444.998741
574.557781
629.611015
629.231930
546.993017
434.855819
293.642879
197.700858
119.810700
83.861947
72.980523
75.734854
76.468587
74.694753
75.204968
63.703656
52.128434
37.155747
26.360750
17.473698
12.192726
11.503696
10.329485
9.211898
10.967851
11.498928
11.371970
11.317730
11.382699
11.252761
11.814833
11.970997
11.611581
13.693571
12.151599
12.342930
12.193918
12.627840
12.628436
12.163520
13.045669
13.146996
13.139844
12.815595
12.366772
13.765693
13.171434
13.283491
13.371706
14.909506
14.467835
16.311407
14.811754
14.984608
16.129613
16.278625
17.714500
17.692447
19.224882
20.740628
21.696687
22.224784
24.491549
26.299953
30.994415
31.973720
37.082434
40.410757
44.391751
46.009421
49.017668
48.478842
49.026608
48.310757
44.137836
41.248798
37.753582
37.896633
33.919811
34.119487
31.951666
28.528571
28.873682
29.158592
27.516484
27.483702
28.166771
27.555823
28.618574
26.813745
##ZVALUE=240
2.885461
3.086925
10.368824
46.686530
100.120902
218.413472
366.751552
615.945458
807.463527
969.583988
1015.829444
1015.829444
913.701057
754.128695
521.816611
361.262560
205.669999
142.176747
113.049746
105.380416
109.137893
115.416646
114.936829
98.006725
84.908605
62.519908
48.121810
35.452843
23.541451
16.975999
13.595819
11.409521
12.580752
11.832714
11.938810
12.569427
12.833476
12.267828
13.039708
13.849735
13.086796
12.348890
11.981726
13.631582
13.183951
12.288690
13.070703
12.492537
12.507439
13.529658
13.441443
13.780594
14.327765
15.512705
15.216470
15.353560
15.534759
15.288591
16.091466
17.270446
16.121864
19.453764
19.095540
18.585920
19.178987
21.463633
22.246838
24.549961
24.485588
29.193759
30.970573
34.040809
37.888885
41.644573
45.331717
47.264695
47.526956
48.778653
48.590899
47.760606
46.013594
43.006539
42.480826
40.936470
35.576820
34.379959
36.072731
35.553575
35.163760
36.226511
32.656789
33.639669
34.088492
32.043457
33.714771
33.666492
##ZVALUE=245
1.740456
1.667738
2.084970
2.669692
6.417632
32.651424
85.185766
216.161609
362.866521
594.224930
784.618855
995.842814
1015.829444
1015.829444
996.428728
813.446641
650.282502
439.480543
304.527879
181.281567
127.974749
108.320713
110.659599
119.323730
126.355886
122.155547
108.731985
92.935562
69.603920
54.315925
34.400821
24.456978
16.704798
12.245774
10.154843
10.456443
10.210872
10.324717
11.155605
10.811687
10.083914
9.834766
11.259913
10.893941
11.376739
10.906458
11.198521
10.605454
9.978414
11.063814
11.389852
11.604428
11.224747
11.613965
11.259913
11.605620
12.930632
11.984706
12.742877
13.676882
13.681650
14.784932
15.380979
15.076995
16.505718
17.586946
17.616749
19.592643
20.527840
22.135973
26.104450
28.220415
31.585693
32.194853
37.270784
36.174655
40.029883
42.026639
40.675998
39.654970
37.814975
36.018491
36.241412
36.367774
33.080578
34.624934
32.047629
31.842589
33.618808
31.828880
32.697916
33.299923
33.264756
34.299493
32.330751
32.847524
##ZVALUE=250
1.490712
1.874566
1.678467
1.782775
1.949668
1.920462
3.846884
18.521547
83.006620
174.823999
401.026011
627.933741
868.556499
1015.829444
1015.829444
1015.829444
1015.829444
1015.829444
962.917805
649.190545
421.379805
261.281729
142.353773
107.001662
103.380680
117.943883
131.154656
134.127736
129.569769
117.518902
97.321868
79.230666
56.446791
37.191510
26.198626
15.242696
12.367964
10.261536
9.966493
10.049939
9.985566
10.413527
10.382533
10.783672
10.763407
10.349751
10.544658
10.188818
10.659695
9.921789
9.323955
11.126995
10.548830
10.828972
11.915565
10.992885
10.492802
11.485815
10.766983
12.124777
12.283921
13.875961
12.746453
13.393760
14.540553
15.976429
15.909672
18.273592
19.887686
21.228790
24.708509
26.930571
30.040741
32.688975
32.949448
34.657717
35.416484
36.493540
36.678910
36.046505
36.099553
34.590960
31.378865
32.030940
32.287836
32.064915
31.484962
30.932426
31.983852
32.884479
30.044913
32.021999
31.528473
31.176805
31.278729
31.369925
##ZVALUE=255
1.348853
1.515746
1.560450
1.838803
1.646876
1.719594
1.977682
2.566576
2.845526
6.659627
45.492649
128.659606
353.477597
613.351464
991.922021
1015.829444
1015.829444
1015.829444
1015.829444
1015.829444
1015.830040
969.469547
633.815527
317.875743
184.215903
104.416609
92.036724
109.138489
124.322772
138.048530
143.966675
139.512420
124.944448
102.446675
83.592534
56.379437
40.684938
24.804473
17.988682
13.458729
11.072755
11.066794
11.377931
11.271834
11.299849
11.975765
11.117458
11.089444
11.860728
11.012554
11.182427
10.625720
11.044741
11.370778
11.793971
11.793971
11.903644
11.967421
11.925697
12.177825
13.076663
13.237000
13.858676
13.927817
15.251637
15.654564
16.756654
17.231703
18.958449
21.893978
24.489760
27.246475
29.383898
32.283664
33.157468
34.978986
36.190748
34.060478
35.939813
34.773946
33.890605
31.593442
31.582713
31.756759
30.245781
29.450655
28.335452
31.103492
29.585958
31.898618
31.214952
30.074716
29.239655
31.271577
29.991865
31.348467
##ZVALUE=260
1.544952
1.409650
1.620650
1.563430
1.801848
1.710653
1.951456
2.218485
2.409816
3.007650
2.869964
4.961491
22.732615
113.066435
268.240571
681.298971
1015.833020
1015.833020
1015.833020
1015.833020
1015.833020
1015.833020
1015.833020
1015.833020
837.524533
506.591797
249.463916
143.357515
87.200999
88.063478
107.632875
129.853487
143.036842
150.092840
147.005916
131.672621
112.850666
82.710981
64.092875
39.123893
28.742552
19.008517
14.154911
12.262464
11.794567
11.231899
11.842847
11.611581
11.772513
11.538863
12.113452
11.750460
10.867715
10.907650
11.251569
10.922551
11.706948
11.826754
11.408925
11.804700
12.520552
12.055635
13.074875
12.918711
12.974739
14.823675
14.761686
16.524792
17.340779
20.489693
21.699667
24.120808
26.985407
28.897524
30.965805
32.797456
32.732487
34.174919
33.813715
33.255816
30.693412
29.530525
28.072000
28.072000
27.152896
27.943850
27.677417
27.076602
27.060509
26.557446
27.745962
28.767586
27.461648
29.349923
28.799772
28.953552
##ZVALUE=265
1.267791
1.287460
1.407862
1.459718
1.176000
1.634955
1.757741
1.589656
1.776814
1.953840
2.224445
2.295971
2.601743
3.226995
10.860562
65.945983
155.957937
398.934484
721.185803
1015.829444
1015.829444
1015.829444
1015.829444
1015.829444
1015.829444
1015.829444
871.711373
548.439622
268.078446
155.129433
97.544789
71.535707
82.030892
110.587478
130.803585
149.028897
152.019858
148.009658
133.797526
106.506944
84.515810
57.316422
39.975643
24.539828
17.118454
12.522936
11.325479
10.124445
9.427667
9.289980
9.605885
9.011626
9.506941
9.648800
9.348989
10.011792
9.582639
9.615421
9.320974
9.980798
10.230541
10.394454
10.850430
10.682940
11.573434
11.962652
13.573766
14.322996
15.189648
16.470551
16.565919
19.488931
19.439459
22.696853
22.878647
23.692846
24.457574
23.234487
24.835467
24.372935
24.888515
24.635792
24.133921
23.731589
23.540854
23.957491
24.479628
24.603605
23.780465
24.626851
23.834705
24.603605
24.992824
25.207996
25.366545
25.776625
##ZVALUE=270
0.800490
0.763535
0.854731
0.973940
1.030564
0.974536
1.240969
1.065731
1.163483
1.210570
1.214743
1.025796
1.373887
1.524687
1.745820
2.153516
2.549887
11.269450
38.290024
133.886933
290.965438
562.083721
991.536975
1015.830636
1015.830636
1015.830636
1015.830636
1015.830636
947.859883
653.032660
416.741967
203.014612
115.212798
63.730478
63.377619
84.808469
106.484890
133.013725
146.380663
152.214766
147.733688
130.315423
110.632777
84.455609
60.581565
37.440658
25.760531
16.245842
11.788607
8.753538
8.062720
7.573962
8.227825
7.944703
7.859468
8.269548
8.342862
8.891821
8.691549
9.263754
8.740425
9.014606
9.745955
9.779930
10.650754
10.378957
11.512637
12.196898
13.014674
13.515949
15.285611
16.202927
16.900897
18.340945
19.051433
19.374490
19.955635
20.819902
20.712614
21.371841
20.448565
20.911694
21.267533
20.703673
22.268891
21.744967
22.272468
22.234917
21.607876
22.951961
22.036433
22.849441
22.881627
22.857785
23.125410
24.109483
##ZVALUE=275
0.802875
0.653863
0.810623
0.921488
0.758767
0.888705
1.096725
1.147985
0.902414
1.202822
0.948906
1.554489
1.343489
1.288652
1.341701
1.558661
1.761913
2.019405
1.930594
5.948544
21.165609
69.089532
226.898789
463.617444
918.325782
1015.829444
1015.829444
1015.829444
1015.829444
1015.829444
1015.829444
835.506916
547.567010
271.050930
151.192546
70.775747
50.855875
61.020851
79.142451
106.183887
127.374530
147.322416
153.486729
145.857930
131.465793
104.456544
85.871816
58.817863
41.020513
25.054812
17.272830
11.720657
9.840727
8.275509
8.606911
8.849502
8.647442
8.535981
8.660555
8.699894
9.545684
9.405613
8.990765
9.988546
10.577440
11.777878
12.303591
13.380647
12.565851
14.202595
15.121698
15.820861
16.413927
18.604994
18.132925
19.012690
19.809604
20.712614
20.350814
20.550489
20.812750
20.453930
20.271540
20.591617
20.358562
20.717978
21.289587
21.794438
21.013618
21.612644
21.384954
22.018552
21.922588
22.163987
22.353530
22.340417
##ZVALUE=280
0.699759
0.734925
0.741482
0.718832
0.934601
0.803471
0.645518
0.792742
0.810623
0.853539
0.984669
1.062751
1.305938
1.231432
1.098514
1.350641
1.260638
1.459718
1.751781
1.720786
2.377629
2.864599
13.260841
46.509504
162.376761
332.811475
686.885715
994.179845
1015.829444
1015.829444
1015.829444
1015.829444
1015.829444
952.720642
661.065578
350.222588
204.072595
91.431737
51.796436
42.999983
55.479407
81.061721
101.567507
129.121542
142.624974
148.267746
143.934488
125.302672
107.844472
80.305934
59.654713
39.926767
26.630759
16.026497
11.539459
9.773970
8.260608
8.659959
9.025931
9.182692
9.342432
9.509921
10.195971
10.316968
10.589957
11.086464
12.089610
12.829900
13.542771
14.134645
14.624596
16.407967
16.995668
17.885566
17.770529
19.511580
19.253492
19.493699
19.470453
19.599795
19.597411
20.058751
20.280480
20.124912
20.101666
21.254420
19.847751
20.327568
20.974874
20.829439
20.996928
21.132827
21.109581
20.571947
21.249652
20.954609
##ZVALUE=285
0.778437
0.819564
0.679493
0.692606
0.728965
0.766516
1.022816
0.775456
0.871420
1.070499
0.779629
0.874996
1.180768
1.094937
1.132488
1.247525
1.305938
1.226664
1.356602
1.549721
1.561642
1.869798
2.224445
2.825856
7.176399
24.285913
82.998872
197.477937
546.658635
949.671865
1015.829444
1015.829444
1015.829444
1015.829444
1015.829444
1015.830040
951.585770
522.877574
303.159952
137.861967
69.294572
36.086440
37.117600
54.006577
75.097680
104.259849
123.160481
137.865543
144.190788
139.575601
129.240751
105.798841
86.072683
59.242845
42.389631
25.940537
17.818809
12.293458
10.514855
9.600520
9.834766
10.202527
10.051727
10.435581
10.923743
11.647940
12.268424
13.101697
13.838410
14.605522
15.222430
16.476512
16.920567
17.865896
18.097758
19.250512
19.040704
19.107461
19.637942
19.581914
19.735694
19.912720
20.160675
20.242929
20.119548
20.473599
20.101666
19.868612
20.482540
20.543933
20.684600
20.888448
20.556450
19.825697
20.657778
21.080971
##ZVALUE=290
0.607967
0.657439
0.705719
0.647902
0.656843
0.689626
0.650883
0.739694
0.699759
0.863671
0.669956
0.978708
0.798702
0.865459
0.685453
1.008511
0.897646
1.098514
1.156926
1.054406
1.361966
1.281500
1.686811
1.770854
1.881719
2.313852
3.107786
9.958744
42.911768
102.843642
213.746428
508.814454
836.555958
1015.823483
1015.823483
1015.823483
1015.823483
1015.823483
1015.824080
667.379498
416.309834
195.789933
99.063516
38.678646
26.784539
34.964681
48.123598
70.736408
91.113448
117.734671
133.129954
141.683817
138.892531
124.934912
108.322501
78.417659
59.947968
39.173961
27.755499
17.417669
13.719797
10.794997
10.392666
10.446906
10.798573
11.760592
11.748672
12.751818
13.016462
14.444590
14.126897
15.263557
16.046762
16.790628
16.727448
17.398596
17.815828
18.495917
18.572807
18.551946
18.994808
19.609928
19.316673
19.421577
19.547939
19.912720
20.246506
19.633770
20.264983
20.967722
19.414425
19.845963
19.818544
19.677877
19.629598
19.852519
##ZVALUE=295
0.483990
0.379682
0.503659
0.420809
0.569820
0.383854
0.357628
0.525713
0.559688
0.484586
0.684857
0.550747
0.515580
0.731945
0.660419
0.513792
0.651479
0.681877
0.692606
0.768900
0.641942
1.057982
0.997782
1.033545
1.067519
1.147985
1.426935
1.443624
1.691580
3.680587
21.040440
57.969689
128.971934
297.347903
471.827388
741.071701
924.741030
1015.830636
1015.830636
1015.830636
903.116465
643.959641
440.332890
228.655934
125.702620
49.282908
24.972558
20.937920
28.847456
45.528412
62.841773
90.074539
106.868744
125.854611
133.680701
130.337477
120.285749
98.841786
80.203414
58.010817
42.614937
26.974678
19.601583
14.008880
11.769533
11.470914
11.868477
12.455583
12.761950
13.327599
13.725758
14.882684
15.710592
16.170740
16.514659
17.567873
18.185973
18.398762
18.520951
18.799901
19.091964
19.651651
19.697547
20.091534
20.748973
20.194650
19.761920
20.485520
19.981861
20.129681
19.989610
20.162463
20.413995
19.476414
19.901991
19.619465
##ZVALUE=300
0.342727
0.370741
0.352859
0.454783
0.363588
0.353456
0.402927
0.591874
0.490546
0.565648
0.444651
0.519753
0.578761
0.693798
0.476837
0.553727
0.658631
0.560880
0.683665
0.611544
0.757575
0.810623
0.795722
0.953674
0.784993
1.131892
0.996590
1.344681
1.306534
1.363754
1.282692
2.137423
6.157756
36.321878
87.780952
219.432712
370.652676
623.379946
820.486546
1015.829444
1015.829444
1015.829444
993.442535
758.697987
552.324653
302.769542
180.816650
80.487728
38.664937
17.042756
17.057657
27.038455
38.954616
60.888529
79.046488
104.167461
118.226409
128.565431
126.264691
115.711689
100.951791
77.448487
60.137510
41.719675
30.285716
20.467639
16.420484
13.913512
13.953447
14.348626
14.490485
15.370846
15.796423
16.778708
17.442703
17.942786
18.301606
18.149614
18.797517
18.981695
19.346476
19.723773
20.738840
20.617843
21.529794
20.656586
21.124482
20.898581
20.836592
21.049976
20.503998
20.321608
20.265579
20.288825
20.443797
20.175576
##ZVALUE=305
0.477433
0.521541
0.415444
0.445843
0.571609
0.351667
0.450611
0.427961
0.373721
0.345707
0.357628
0.515580
0.569820
0.573993
0.320673
0.412464
0.349879
0.654459
0.483990
0.555515
0.682473
0.748634
0.595450
0.851750
0.863671
0.864863
1.073480
0.968575
1.088977
1.035929
1.154542
1.271963
1.528859
1.632571
4.445910
17.037988
67.110658
146.226883
318.570733
493.201017
762.411952
949.711800
1015.829444
1015.829444
1015.829444
887.279510
629.491806
434.737802
227.671862
126.028657
49.959421
22.945404
13.532639
16.087890
25.749803
37.260652
60.118437
77.065825
99.271536
112.321973
122.298598
121.433735
111.742616
98.570585
77.584982
61.067939
41.564703
31.302571
21.279454
17.543435
15.748739
16.380548
15.917420
16.454458
17.532706
17.814636
18.467903
18.967986
19.407868
19.940734
20.123720
20.984411
20.981431
21.586418
21.595955
21.441579
20.988584
21.801591
21.595955
21.018982
21.046996
20.949841
20.501614
20.089746
20.565987
20.794868
##ZVALUE=310
0.407696
0.454783
0.379682
0.399947
0.285506
0.324845
0.468493
0.378489
0.282526
0.345707
0.494719
0.542998
0.312924
0.457764
0.521541
0.486970
0.361800
0.444651
0.675917
0.513792
0.576973
0.613928
0.613928
0.635982
0.607967
0.741482
0.849962
0.776649
0.837445
0.876784
0.926852
0.952482
1.088977
1.278520
1.336932
1.763701
1.843572
8.570552
28.122663
96.849799
190.352798
393.750668
593.971610
867.465734
1015.829444
1015.829444
1015.829444
992.434621
820.424557
546.974540
363.748670
181.801915
96.705556
35.074949
15.845895
12.099743
14.731884
23.369789
33.467412
53.312778
70.149899
91.347694
105.036497
116.236806
118.124485
108.900666
99.036694
77.702999
61.802864
43.575764
32.803416
25.235415
21.278858
18.156767
18.121600
18.488765
18.972754
19.188523
19.350648
20.027757
20.760894
20.918846
20.728707
21.477938
21.764636
21.770000
22.443533
21.752715
22.137761
20.961761
21.909475
21.316409
21.657944
21.318793
21.735430
20.928979
##ZVALUE=315
0.531673
0.578761
0.632405
0.551939
0.706911
0.578761
0.569820
0.607967
0.610948
0.636578
0.536442
0.486970
0.655651
0.800490
0.696778
0.628829
0.716448
0.599623
0.696778
0.671744
0.888705
0.742674
0.896454
0.905991
0.724792
0.842810
0.799894
0.744462
0.923872
0.882745
1.080632
0.853539
1.007915
1.236796
1.222491
1.511574
1.612902
1.459718
1.975894
3.942847
13.979673
58.952570
130.428672
298.034549
487.470627
784.827471
968.054533
1016.038656
1016.038656
1016.038656
908.542871
649.378896
457.909703
244.578719
132.941604
50.531626
22.465587
11.032820
11.656880
15.653968
20.951629
34.048557
47.908425
67.730546
84.091425
102.663636
110.034943
111.358762
107.016563
92.116594
78.802705
60.207844
47.292709
33.418536
26.928782
21.772981
20.516515
19.641519
19.782782
20.364523
20.489693
21.314621
21.435618
21.636486
21.908879
22.219419
21.975636
22.133589
22.655725
22.328496
21.929741
21.931529
21.849871
22.124648
21.826625
21.527410
##ZVALUE=320
0.327826
0.219941
0.415444
0.372529
0.216961
0.365973
0.428557
0.359416
0.234842
0.298619
0.433922
0.428557
0.500679
0.395775
0.416636
0.549555
0.418425
0.509620
0.330806
0.577569
0.442863
0.443459
0.504851
0.517964
0.659823
0.570416
0.647902
0.643730
0.711679
0.719428
0.489950
0.788569
0.860691
0.847578
0.943542
0.982881
1.111627
1.168847
1.266599
1.500845
1.508594
2.131462
6.378889
33.473969
98.833442
298.461914
506.919622
849.743485
1015.833020
1015.833020
1015.833020
1015.833020
1015.833020
804.537535
569.756627
309.735537
177.041888
75.738430
34.919977
13.762712
10.652542
11.584759
14.267564
21.419525
29.677749
46.991706
61.835647
81.398487
95.349550
106.959939
109.858513
102.918744
93.713999
74.670911
61.098933
44.438839
35.721660
27.512908
23.684502
21.866560
21.218657
20.945668
21.201968
20.937920
21.745563
21.970868
22.593737
22.009611
22.517443
22.383928
21.981597
22.112727
21.698475
21.599531
21.738410
21.202564
##ZVALUE=325
0.329614
0.236630
0.277758
0.462532
0.327826
0.338554
0.373721
0.210404
0.382662
0.547767
0.548959
0.466704
0.335574
0.492930
0.410676
0.479817
0.560880
0.347495
0.760555
0.482798
0.531673
0.513792
0.615716
0.459552
0.456572
0.386834
0.550747
0.591874
0.727773
0.735521
0.824928
0.744462
0.703931
0.813603
0.783801
0.906587
0.908971
0.932813
1.008511
0.992417
1.342893
1.531839
1.474619
1.948476
3.561974
20.903945
64.754486
209.422708
414.755940
807.297826
1015.829444
1015.829444
1015.829444
1015.829444
1015.829444
969.468951
696.825981
401.172638
239.412785
106.116533
50.212741
17.271638
11.148453
10.498762
11.683702
15.723705
21.089911
32.917857
44.689775
63.132644
78.844428
94.588995
103.435516
105.425715
99.924803
86.379647
73.889494
56.759715
46.218634
34.631491
28.231740
24.452806
22.816658
22.082925
21.973848
21.627545
22.163987
22.169948
21.702647
21.814704
22.148490
21.602511
21.785498
21.939874
21.318793
21.488667
##ZVALUE=330
0.267625
0.439882
0.324845
0.356436
0.328422
0.298619
0.300407
0.298619
0.362992
0.349879
0.327826
0.265837
0.371933
0.393987
0.406504
0.476837
0.471473
0.323653
0.365973
0.398755
0.352859
0.486970
0.480413
0.539422
0.576973
0.504851
0.467896
0.395775
0.658631
0.572801
0.719428
0.745654
0.640750
0.685453
0.566840
0.613928
0.753999
0.966787
0.861883
0.994802
0.965595
1.188517
1.291633
1.529455
1.476407
1.717806
2.126694
9.574890
30.434728
103.721023
215.103626
485.785007
759.395957
1015.829444
1015.829444
1015.829444
1015.829444
1015.829444
845.848918
517.608523
319.140553
143.924952
72.595477
28.107762
14.466643
10.489821
10.973811
12.733936
15.430450
22.776723
30.459762
44.478774
57.931542
77.424645
89.484453
98.640919
99.145770
93.393922
83.860755
68.786740
55.914521
42.491555
35.372972
28.915405
25.240779
23.054481
22.380948
21.954775
21.405816
21.726489
21.658540
21.188855
21.180511
20.983815
21.252632
21.089911
##ZVALUE=335
0.246763
0.347495
0.171661
0.353456
0.249743
0.168681
0.286698
0.317693
0.363588
0.377893
0.241995
0.187755
0.172853
0.257492
0.338554
0.339746
0.338554
0.310540
0.320673
0.375509
0.296831
0.342727
0.419617
0.394583
0.378489
0.333786
0.259876
0.495911
0.345707
0.379682
0.402927
0.441670
0.492930
0.412464
0.489950
0.522733
0.660419
0.520945
0.758767
0.542998
0.722408
0.726581
0.632405
0.875592
1.030564
1.036525
1.081824
1.311898
1.603961
3.310442
18.179417
50.177574
144.054890
259.357691
487.783551
700.624585
965.006948
1015.829444
1015.829444
1013.519764
803.728700
599.637032
352.962613
212.511420
89.733601
43.950677
16.249418
10.843873
10.459423
11.343956
13.410449
15.600920
22.040606
29.753447
43.504834
55.646896
72.562695
84.018707
93.252659
94.363689
88.424683
81.001520
66.847801
57.135820
44.347644
36.778450
28.713942
25.570989
22.111535
21.442771
20.991564
20.259619
20.470619
20.356774
20.446777
20.199418
##ZVALUE=340
0.189543
0.269413
0.274777
0.395775
0.360608
0.204444
0.173450
0.361800
0.301600
0.179410
0.254512
0.338554
0.328422
0.266433
0.256896
0.293851
0.244975
0.297427
0.261664
0.317693
0.226498
0.269413
0.376701
0.474453
0.371933
0.385642
0.370741
0.427961
0.465512
0.455976
0.334978
0.387430
0.420809
0.492930
0.292659
0.492930
0.441670
0.585914
0.461936
0.541806
0.549555
0.581741
0.803471
0.667572
0.782609
0.666976
0.778437
0.951886
1.120567
1.158714
1.433492
2.002716
7.127523
35.742521
88.536739
223.477483
377.748609
627.018809
829.553008
1015.821695
1015.821695
1015.821695
916.516781
669.069886
465.452671
238.538980
131.344795
54.219961
24.077892
11.615753
10.745525
11.352897
11.652708
13.621449
16.015768
22.720695
29.269457
42.263865
54.131746
70.231557
80.495477
88.167787
88.829994
84.555745
77.583790
65.515637
54.549575
42.756796
35.486817
27.768612
24.727583
21.657944
20.129681
19.816756
19.711852
19.441843
##ZVALUE=345
0.270605
0.052452
0.120997
0.361800
0.411868
0.212789
0.132918
0.212789
0.347495
0.194907
0.202656
0.192523
0.341535
0.269413
0.302792
0.447631
0.368953
0.391603
0.290871
0.273585
0.321865
0.388622
0.310540
0.366569
0.493526
0.246763
0.334978
0.400543
0.395775
0.460744
0.430942
0.458956
0.414848
0.359416
0.497699
0.324845
0.501871
0.484586
0.589490
0.505447
0.487566
0.621676
0.579953
0.594854
0.666976
0.658631
0.579953
0.731945
0.796914
0.932813
0.897646
1.106858
1.207590
1.394749
2.954602
19.713640
55.624843
149.045587
271.117687
502.160788
700.596571
945.454836
1015.829444
1015.829444
1000.661850
771.495104
568.082929
332.234502
185.086727
73.845983
35.200715
14.828444
11.112690
11.006594
11.460781
12.062788
13.140440
16.037822
20.116568
29.744506
38.829446
52.900910
62.679648
73.935986
80.232620
82.382560
79.850554
73.230863
64.761639
51.926970
43.085814
32.747984
27.680993
22.551417
21.004677
19.377470
##ZVALUE=350
0.437498
0.414848
0.415444
0.279546
0.367761
0.508428
0.356436
0.353456
0.378489
0.384450
0.461936
0.466704
0.442863
0.496507
0.482798
0.389814
0.350475
0.521541
0.433922
0.453591
0.496507
0.493526
0.497699
0.409484
0.432730
0.484586
0.441670
0.399947
0.414848
0.562668
0.595450
0.581741
0.521541
0.520945
0.609756
0.555515
0.533462
0.642538
0.543594
0.555515
0.626445
0.696778
0.549555
0.745654
0.701547
0.704527
0.640750
0.867844
0.766516
0.917912
0.910759
1.051426
1.142621
1.125932
1.309514
1.420975
2.052784
9.685755
31.407475
101.251602
194.332004
390.294790
571.655631
816.605687
981.270671
1015.957594
1015.957594
879.855752
676.330924
399.660468
240.770578
109.015703
50.671697
17.653704
11.555552
10.775924
10.849833
11.157990
11.879802
13.219714
15.584826
20.939708
26.615858
36.116838
44.418573
56.978464
66.365004
74.897408
76.418519
74.943900
69.080591
58.695674
50.034523
39.200783
31.715631
26.025772
##ZVALUE=355
0.187755
0.266433
0.201464
0.262856
0.191927
0.325441
0.296831
0.342727
0.078678
0.217557
0.234842
0.301600
0.275970
0.212789
0.311732
0.302792
0.290871
0.202656
0.169873
0.276566
0.269413
0.248551
0.263453
0.229478
0.312924
0.434518
0.295639
0.306964
0.475645
0.440478
0.357628
0.456572
0.409484
0.357628
0.324845
0.314713
0.640750
0.483990
0.569820
0.295639
0.507832
0.531673
0.502467
0.516772
0.382662
0.567436
0.570416
0.602603
0.708699
0.683665
0.725985
0.646710
0.831485
0.990629
0.952482
0.903606
1.127720
1.171827
1.341701
4.654527
16.658902
65.261722
136.051774
286.184549
455.344915
717.850924
887.987018
1015.829444
1015.829444
922.015905
755.115747
504.238009
319.082737
139.958858
67.464709
22.529960
11.960864
9.850860
9.945631
10.065436
11.062622
11.417866
12.285709
14.629960
17.306805
23.952723
30.358434
40.992498
49.611926
59.353709
66.112876
69.362521
69.097877
62.560439
56.210756
46.538711
##ZVALUE=360
0.321865
0.273585
0.345707
0.333786
0.235438
0.299811
0.342727
0.261664
0.196695
0.180602
0.241995
0.338554
0.231862
0.320673
0.389814
0.309944
0.476837
0.507832
0.311732
0.360608
0.367761
0.498891
0.363588
0.249743
0.404716
0.252724
0.284910
0.362992
0.301600
0.439882
0.374913
0.501871
0.450611
0.424981
0.428557
0.637770
0.330806
0.431538
0.427961
0.486970
0.452995
0.563860
0.592470
0.576973
0.528693
0.547767
0.571609
0.635982
0.645518
0.658631
0.711679
0.772476
0.695586
0.700951
0.744462
0.946522
0.992417
0.972748
1.186728
1.360774
1.428723
2.017617
9.177923
28.629899
95.253587
186.766982
370.620489
551.639795
807.156563
958.618522
1015.878916
986.284614
813.235641
625.740886
371.323824
221.747756
93.368888
41.511655
14.453530
9.773970
9.107590
9.785891
9.812713
10.161996
10.680556
11.348724
12.536645
14.977455
20.266771
25.374889
34.566522
42.174459
52.013993
58.540702
63.259602
63.084960
##ZVALUE=365
0.372529
0.212789
0.190735
0.308752
0.394583
0.162721
0.235438
0.267625
0.487566
0.276566
0.206828
0.260472
0.250936
0.256896
0.259876
0.276566
0.434518
0.313520
0.317693
0.376701
0.249743
0.377893
0.237823
0.264645
0.254512
0.348687
0.460744
0.361800
0.353456
0.321865
0.444651
0.420809
0.408888
0.440478
0.406504
0.308752
0.408888
0.489950
0.452995
0.362992
0.242591
0.410676
0.638962
0.430942
0.586510
0.594854
0.409484
0.574589
0.573993
0.688434
0.548959
0.559688
0.644922
0.578761
0.767708
0.837445
0.804663
0.923872
0.879765
0.936985
1.029968
1.129508
1.341701
1.691580
3.321767
18.890500
52.042603
139.566660
262.851715
485.660434
671.488643
888.868570
994.861722
997.297764
896.739960
690.585971
497.081876
263.894796
143.253803
52.972436
22.295713
9.662509
8.571744
8.728504
8.665919
9.023547
9.190440
9.734631
9.887815
11.071563
12.969971
16.874671
21.652579
29.862523
36.697984
45.682788
##ZVALUE=370
0.284910
0.203848
0.147820
0.235438
0.223517
0.299811
0.352859
0.229478
0.157952
0.263453
0.229478
0.277758
0.278950
0.278950
0.305772
0.436902
0.284910
0.302792
0.280738
0.398755
0.331998
0.375509
0.287890
0.239611
0.304580
0.308752
0.294447
0.361800
0.349879
0.400543
0.239611
0.230670
0.265837
0.348687
0.463724
0.388622
0.361800
0.355840
0.250936
0.112653
0.384450
0.318885
0.399947
0.414848
0.415444
0.424981
0.723600
0.445843
0.324845
0.615716
0.618696
0.639558
0.577569
0.619888
0.609756
0.666976
0.581741
0.623465
0.811815
0.678897
0.717640
1.004934
1.049638
1.054406
1.328588
1.363754
2.358556
8.117557
40.343404
99.645853
241.156816
391.154885
627.073646
814.525485
990.954638
1015.829444
953.618884
802.865624
545.172691
356.523991
167.119503
86.427927
32.507777
14.779568
8.363724
8.010864
8.134842
8.211732
8.271933
8.238554
8.604527
9.046793
10.143518
11.622906
15.201569
18.915534
##ZVALUE=375
0.249743
0.246763
0.224710
0.358820
0.235438
0.194907
0.263453
0.184774
0.252724
0.277758
0.301600
0.282526
0.301600
0.235438
0.321865
0.257492
0.191927
0.245571
0.381470
0.377893
0.237823
0.508428
0.398755
0.324845
0.323653
0.316501
0.339746
0.362992
0.367761
0.354648
0.365973
0.377893
0.297427
0.496507
0.350475
0.429749
0.379682
0.423789
0.446439
0.466704
0.449419
0.382662
0.475645
0.363588
0.257492
0.505447
0.404716
0.375509
0.514984
0.438690
0.526905
0.487566
0.462532
0.458956
0.462532
0.682473
0.523925
0.604987
0.630617
0.721812
0.707507
0.597835
0.658631
0.891685
0.829697
0.874996
0.915527
1.319647
1.554489
4.986525
17.196536
64.410567
139.283538
315.233469
492.978692
742.131472
894.915462
999.187827
994.396806
842.780471
666.405559
419.018865
267.318487
133.107901
66.922903
21.540523
10.233521
7.559657
7.447600
7.441640
7.551908
7.712841
7.989407
8.231997
8.319616
9.362698
##ZVALUE=380
0.209808
0.201464
0.090599
0.215769
0.168681
0.225902
0.083447
0.101924
0.205636
0.308752
0.049472
0.239611
0.162721
0.226498
0.274777
0.249743
0.112653
0.076890
0.215769
0.054836
0.214577
0.251532
0.119805
0.269413
0.143647
0.310540
0.374913
0.097752
0.166893
0.234842
0.303984
0.215769
0.174642
0.219941
0.196695
0.260472
0.334978
0.400543
0.148416
0.279546
0.353456
0.364780
0.280738
0.315905
0.399947
0.401735
0.290871
0.503659
0.278950
0.418425
0.421405
0.306964
0.405908
0.443459
0.471473
0.426769
0.465512
0.420809
0.513792
0.566840
0.653863
0.627637
0.714660
0.653863
0.673532
0.775456
0.886917
0.938773
1.042485
1.214743
1.509786
2.686977
9.456873
46.199560
108.200908
255.130529
412.840843
639.969707
811.414719
958.247781
976.395011
869.903564
735.010505
530.914664
362.620950
183.365941
95.327497
33.730865
14.566779
7.245541
6.722808
6.856918
6.851554
6.879568
7.018447
7.357597
##ZVALUE=385
0.229478
0.215769
0.076890
0.221729
0.241995
0.210404
0.162721
0.039935
0.155568
0.169873
0.024438
0.322461
0.227690
0.165701
0.242591
0.362992
0.170469
0.247955
0.190735
0.078678
0.374913
0.360608
0.244975
0.287890
0.171661
0.255704
0.192523
0.112653
0.197887
0.198483
0.181794
0.277758
0.308752
0.291467
0.220537
0.330806
0.278950
0.318885
0.355840
0.230670
0.164509
0.376701
0.370741
0.344515
0.389814
0.344515
0.360608
0.441670
0.518560
0.456572
0.327826
0.441670
0.338554
0.248551
0.249743
0.422597
0.390410
0.441670
0.511408
0.486970
0.571609
0.326633
0.545979
0.506639
0.548959
0.777841
0.645518
0.795722
0.982881
1.032948
1.140833
1.054406
1.313686
1.560450
5.259514
19.140840
71.126819
154.056549
333.113670
512.451530
754.771829
886.939764
968.569517
942.989588
805.493593
653.738976
426.594615
277.714729
129.332542
65.575838
22.524595
9.654760
6.186962
6.106496
6.191730
6.246567
##ZVALUE=390
0.115633
0.174642
0.107884
0.399947
0.148416
0.236630
0.199676
0.152588
0.188947
0.304580
0.213981
0.192523
0.277758
0.219941
0.173450
0.161529
0.201464
0.231862
0.110865
0.145435
0.280738
0.294447
0.274777
0.171661
0.173450
0.320673
0.155568
0.290871
0.194907
0.171661
0.120997
0.203848
0.280738
0.365973
0.297427
0.124574
0.252724
0.416636
0.293851
0.143647
0.188947
0.237823
0.328422
0.257492
0.351667
0.351667
0.293851
0.308752
0.257492
0.394583
0.388622
0.368953
0.278950
0.426769
0.334978
0.536442
0.315905
0.482798
0.388622
0.352859
0.458956
0.357628
0.382662
0.348687
0.410676
0.532866
0.704527
0.749826
0.725985
0.818968
0.892878
1.179576
1.062751
1.136661
1.161695
1.448989
2.336502
13.102889
41.455626
131.068826
249.221921
472.127795
645.834804
840.392709
947.628021
979.157686
906.676650
728.137493
566.424727
352.395773
209.754705
89.157820
40.831566
12.217760
6.613731
5.734563
##ZVALUE=395
0.015497
0.150800
0.110865
0.044703
0.189543
0.198483
0.214577
0.265837
0.202656
0.171661
0.111461
0.130534
0.103712
0.319481
0.238419
0.144839
0.309944
0.059605
0.226498
0.171661
0.157952
0.233650
0.152588
0.286698
0.258684
0.159740
0.128746
0.222921
0.173450
0.282526
0.193715
0.258684
0.184774
0.272989
0.267625
0.263453
0.203848
0.266433
0.190735
0.211596
0.213981
0.223517
0.119805
0.317693
0.182986
0.113845
0.256896
0.392795
0.178814
0.301600
0.258684
0.335574
0.393987
0.399947
0.380874
0.349879
0.558496
0.362992
0.484586
0.443459
0.442863
0.438690
0.298619
0.301600
0.378489
0.718832
0.625849
0.530481
0.650883
0.825524
0.755787
0.769496
0.902414
0.906587
1.037717
0.972748
1.077652
1.215935
1.640916
7.631779
27.173758
94.248652
182.039738
347.178578
517.200828
756.202936
901.404023
992.391706
969.539881
825.215578
656.370521
419.117808
266.503692
121.744871
60.729980
20.779967
##ZVALUE=400
0.190735
0.044703
0.146627
0.152588
0.178814
0.129938
0.269413
0.056624
0.214577
0.259876
0.066757
0.122786
0.047684
0.077486
0.005960
0.195503
0.242591
0.201464
0.105500
0.310540
0.325441
0.182986
0.063777
0.187755
0.246763
0.276566
0.014901
0.163913
0.167489
0.202656
0.208616
0.340939
0.400543
0.178814
0.179410
0.147820
0.210404
0.176430
0.103712
0.183582
0.198483
0.263453
0.149608
0.302792
0.261664
0.335574
0.347495
0.256896
0.223517
0.327826
0.447631
0.331998
0.298619
0.447631
0.483990
0.420809
0.283718
0.395775
0.298619
0.462532
0.408888
0.474453
0.403523
0.510812
0.490546
0.600815
0.580549
0.652671
0.595450
0.616908
0.818968
0.776649
0.676513
0.869632
0.769496
0.933409
0.827909
1.091957
1.115799
1.152754
1.248717
3.762841
14.545918
56.621432
120.590925
267.253518
422.270894
657.137036
812.516809
946.653485
966.641903
860.024691
723.807812
508.798957
347.974896
184.578896
##END
