##TITLE=FQP00602
##FORMAT=SPECTACLE-ASCII V-1.2
##DATA TYPE=ULTRAVIOLET SPECTRUM
##SECOND TYPE=ULTRAVIOLET SPECTRUM
##DATE=12/26/17
##TIME=17:07:25
##SPECTROMETER/DATA SYSTEM=SPECTACLE
##XUNITS=NM EM
##YUNITS=ENERGY
##YFACTOR=1
##FIRSTX=220
##LASTX=410
##NPOINTS=96
##3DDATA=Equidistant
##ZUNITS=NM EX
##FIRSTZ=210
##LASTZ=400
##ZPOINTS=39
##XYDATA=(Y..Y)
##ZVALUE=210
1.671910
2.433658
2.492666
2.107620
2.902746
2.536774
2.762675
2.748966
2.201796
2.544522
2.239943
2.314448
2.397895
2.325773
2.620816
3.056526
2.503991
2.868772
3.214478
4.004836
3.344417
3.847480
4.483461
4.707575
3.752708
4.028678
4.409552
4.987717
4.893541
5.141497
5.281568
6.508827
6.933808
6.092787
5.898476
5.724430
6.111860
6.702542
6.893873
5.636811
6.272793
6.413460
6.272793
6.023645
6.055832
6.035566
7.246733
5.946755
6.702542
5.935431
6.577969
6.546974
7.588863
7.109642
6.326437
6.203651
6.707907
7.143617
7.363558
6.584525
6.893873
7.510781
7.606745
6.787777
7.600784
7.887483
8.761883
9.146929
10.407567
13.387799
14.624596
19.439459
20.401478
23.257732
24.589896
26.868582
28.052926
28.454661
28.163791
25.876760
24.048686
20.195842
17.179847
14.420748
11.926889
9.367466
8.255839
6.993413
7.103682
8.342862
7.294416
7.247925
8.092523
7.373691
8.159876
9.163618
##ZVALUE=215
10.370612
8.378625
7.862449
6.194711
5.354881
4.489422
4.124641
4.519820
4.710555
5.125999
4.589558
4.108548
4.472733
3.560781
3.184676
3.649592
2.830625
2.918839
3.072619
4.181862
3.432631
4.076958
4.643798
4.370809
4.890561
4.887581
4.822612
5.882978
6.641746
6.313920
6.319880
7.042885
8.010864
7.507801
7.580519
8.609891
7.195473
7.561445
7.638931
8.313656
7.545948
6.303787
7.569790
7.711649
6.629825
7.399917
7.431507
7.020831
6.441474
7.589459
7.730722
8.247495
7.611513
6.991625
6.958842
7.437468
7.984638
8.327961
7.154942
7.469654
6.468892
8.146763
8.528829
7.842779
7.937551
7.671714
7.920861
8.579493
9.796619
13.799667
15.126467
16.948581
19.106865
21.484494
23.328662
23.651719
26.022792
25.524497
23.895502
20.086765
19.722581
17.112494
15.376806
13.090968
11.431575
9.358525
8.361936
8.026958
7.021427
6.488562
7.492900
6.526709
6.636977
6.820560
7.579923
6.915927
##ZVALUE=220
28.995872
27.773976
30.796528
29.999614
25.943518
18.644929
14.096498
13.342500
10.805726
10.350943
11.326671
11.576414
10.715723
9.809732
9.345412
7.081628
6.370544
5.542636
4.542470
3.491640
3.762841
4.512668
4.181862
5.187988
4.881620
4.977584
5.835891
7.213950
8.127689
8.920431
8.930564
8.483529
10.104775
9.751916
9.741783
10.603666
9.796619
10.495782
10.180473
11.017919
10.620952
9.672642
8.476973
8.591413
8.504987
7.705688
8.093715
8.415580
7.712841
9.313822
9.032488
8.995533
7.642508
7.763505
7.315874
7.873774
7.047653
8.322597
8.770823
7.792711
7.436872
8.253455
9.132624
7.525682
8.119941
9.044409
7.998943
8.958578
9.508729
11.156797
11.790991
14.605522
14.340878
16.431808
17.611980
19.691586
18.148422
19.110441
18.318892
15.871525
16.318560
14.130473
12.722611
12.188554
9.741783
9.595752
9.260774
9.228587
7.806420
7.930994
7.736683
7.738471
8.732677
8.192658
7.144809
8.066893
##ZVALUE=225
47.094822
49.214959
62.601566
73.038936
76.775551
77.694654
67.135692
49.469471
40.810704
27.779937
22.428632
22.532940
24.791956
24.954677
24.620891
24.714470
20.511746
15.957952
11.879802
8.456707
5.595684
4.682541
4.451871
5.136728
5.163550
5.873442
6.740689
7.173419
8.228421
9.634495
9.128451
10.903478
12.368560
11.691451
11.751652
12.488961
12.195706
12.555718
12.117624
11.777878
11.689663
11.171699
9.927750
8.887649
10.010600
10.304451
9.797812
9.026527
8.510947
9.538531
8.900762
8.314848
8.705854
9.203553
8.981824
9.466410
8.489490
8.623600
8.996725
8.634925
7.966757
8.464456
8.601546
9.874701
9.622574
11.405945
9.617805
10.689497
11.796951
12.556911
14.381409
15.896559
16.632676
17.474890
17.405748
19.192696
17.942786
18.258691
17.949939
18.248558
16.659498
15.472770
15.850663
14.218688
14.220476
13.214946
11.856556
11.236668
11.424422
12.061596
11.746883
11.282563
10.696650
10.277629
10.652542
10.633469
##ZVALUE=230
49.867630
54.994822
88.156462
138.578415
171.764493
208.686590
220.910907
218.693614
190.918446
154.774785
102.307796
71.389675
47.020912
43.652654
43.166876
45.825839
49.374700
48.540831
42.484999
33.288598
27.818680
17.283559
12.272000
8.184910
8.069873
7.551908
6.621480
7.593632
11.216998
9.917617
11.983514
11.061430
13.024807
14.325976
14.622808
14.239550
14.398694
14.079809
14.277697
13.684630
12.918711
13.967752
11.530519
13.300776
13.056993
12.983680
11.577606
10.937452
10.539889
10.749698
10.570884
10.410547
10.758638
10.271668
9.544492
11.800528
10.826588
11.415482
11.711717
11.213422
13.280511
11.873841
11.289716
12.283921
13.706684
13.865829
15.272498
13.888478
15.675426
16.298890
18.300414
18.989444
21.133423
23.854971
22.747517
24.203658
25.388598
24.962425
26.475787
25.393963
22.174716
22.159815
21.823645
22.319555
20.235777
18.061996
19.503832
18.432736
17.716885
19.274950
17.632842
18.106699
17.921925
18.220544
17.045736
17.458797
##ZVALUE=235
15.541911
18.244982
38.499832
86.728930
139.696002
217.403769
279.420614
355.270505
387.432575
385.023952
340.294838
283.134580
185.042620
132.598877
87.211728
70.035458
69.921613
72.843432
78.145862
77.629685
73.777437
60.281754
49.939752
35.526752
25.132895
15.920997
11.683702
9.349585
10.008812
10.198951
10.829568
10.289550
11.319518
10.748506
11.626482
13.009906
12.861490
11.943579
11.882782
13.369918
12.418628
13.129711
12.327433
11.230707
12.663603
12.894869
12.111664
11.741519
11.990666
10.586977
12.249947
11.565685
10.876656
13.291836
12.956858
12.753606
12.354851
12.688637
12.872815
13.869405
13.145804
15.170574
14.812946
14.898777
15.500784
16.409755
16.757846
19.929409
19.195676
19.710660
23.920536
25.409460
26.571751
27.739406
29.561520
28.251410
27.908683
27.094483
29.738545
27.804971
27.233958
27.514696
27.700663
25.655627
26.217699
24.111867
25.461912
23.968816
23.539662
24.895668
25.554895
24.196506
24.000406
24.006963
23.930669
24.659634
##ZVALUE=240
2.322793
2.345443
7.149577
19.461513
54.354668
104.248524
209.891796
308.069587
451.568961
535.420775
597.155690
588.521957
534.532666
434.193015
328.321457
200.504661
144.412518
103.221536
93.763471
99.213719
106.068850
112.614632
106.707811
98.764896
77.152848
64.074993
44.127703
31.603575
20.676851
14.479756
9.522438
8.953810
8.377433
10.029674
10.457635
10.196567
11.485815
10.682940
11.203885
12.841821
11.822581
12.048483
12.875795
10.951757
11.934638
11.612773
12.260675
13.002753
13.594627
12.562871
12.364984
12.222528
11.898875
12.387633
12.145638
12.639761
13.763905
14.277697
13.897419
13.825893
13.942719
15.542507
16.214848
16.488433
17.069578
17.745495
18.587708
19.776821
23.255944
22.703409
25.857687
27.802587
27.277470
30.905604
31.608939
31.820536
32.582879
33.643842
32.951832
35.599470
33.705831
32.434464
31.881928
30.532479
33.408999
31.193495
31.862855
30.916929
30.792952
30.587912
30.682683
32.025576
30.125976
32.200813
31.878948
30.302405
##ZVALUE=245
1.665950
1.295805
1.568794
2.064705
3.467798
15.176535
36.647916
100.537539
180.991888
279.836655
438.197851
550.457835
667.579770
689.680576
648.602843
576.848984
426.830649
307.094455
216.495991
124.858618
100.488663
94.738603
108.999610
121.245980
122.689605
114.885569
107.714534
84.760785
69.723725
48.371553
34.976602
21.528602
14.136434
11.498928
9.643435
10.267496
10.210872
10.414720
11.044741
11.932850
11.901855
12.207627
11.857748
11.092424
11.884570
12.047887
12.040734
11.581779
11.877418
11.894703
11.471510
11.715889
12.462735
12.484789
11.065602
11.933446
12.317896
12.179613
11.593699
12.950897
12.585521
12.176633
15.139580
15.138984
14.733672
15.481710
15.996695
18.396974
19.859672
20.399690
22.365451
21.972656
24.372935
26.273727
27.631521
28.787851
29.102564
28.516650
29.996634
31.638741
31.791925
29.648542
31.354427
29.761791
30.052662
31.701922
30.788779
31.391978
30.041933
31.022429
28.817654
30.296445
31.363964
30.656457
30.126572
31.011701
##ZVALUE=250
1.289845
1.244545
1.474619
1.139641
1.230836
1.680851
2.397895
10.546446
29.287934
80.345869
156.361461
303.950906
424.325466
591.917634
698.034763
773.355961
767.768025
677.551627
575.956702
386.435986
259.839892
177.760720
110.457540
91.853738
97.238421
116.005540
125.753880
133.129954
129.304528
117.280483
97.110868
78.392625
58.699846
36.768913
25.274754
16.686916
13.025999
11.698604
10.541677
10.889769
11.712909
11.422634
11.190772
11.503696
12.201667
12.241602
11.183619
12.186766
11.796951
12.010932
11.041760
11.315942
11.227727
11.925697
11.196733
11.030436
10.867715
10.352731
11.443496
11.194944
11.908412
11.451840
11.266470
12.029409
13.659596
14.828444
14.207959
16.190410
16.592741
17.527938
19.054413
21.497607
22.579432
23.831725
24.413466
25.712848
25.968552
25.921464
26.986599
27.862787
25.869608
27.497411
26.652813
27.661920
27.460456
28.671622
27.652979
27.756691
28.450489
28.289557
28.974414
29.349923
29.625893
28.280616
29.591918
31.458735
##ZVALUE=255
1.306534
1.501441
1.138449
1.129508
0.874996
1.100898
1.139641
1.438856
1.758933
4.960895
27.277470
65.799952
128.414631
263.704658
393.039584
587.653518
710.037947
831.590891
870.246887
800.097585
689.697862
544.800758
334.183574
212.690830
118.882656
90.871453
86.729527
99.656582
124.079585
135.620832
141.050816
139.411688
128.580928
103.673935
82.078576
57.662725
40.431619
25.678873
18.500686
14.271736
12.132525
12.209415
11.677742
13.097525
12.031794
12.213588
13.028979
11.572838
11.008978
12.157559
11.425614
12.067556
11.312962
10.701418
10.371804
10.032654
9.500980
9.899735
10.708570
9.844899
10.220408
10.905862
10.832548
11.129975
12.168884
12.147427
12.683868
12.820959
14.142990
16.410947
16.913414
17.933846
19.969940
20.264983
21.548867
21.204948
22.333860
23.709536
22.637844
22.916794
24.285913
23.295879
24.565458
23.757815
26.024580
25.363564
26.415586
27.075410
27.369857
26.485920
26.791692
26.806593
27.977824
27.438998
27.879477
28.072596
##ZVALUE=260
0.932813
1.004934
0.997782
1.103878
1.061559
1.003742
1.186728
1.337528
1.411438
1.437664
1.537800
3.389716
12.500882
47.232509
101.301670
221.370459
353.240967
549.197793
709.863901
882.561803
960.707664
955.810547
834.591985
682.832003
440.783501
298.117995
175.573826
112.788677
78.999996
82.965493
105.657578
125.638843
140.855908
151.206851
146.692991
130.360723
112.607479
86.510777
64.433813
43.090582
31.095743
19.373894
15.374422
13.721585
13.416409
12.506843
12.892485
11.715889
11.875629
11.194944
10.789633
10.809898
11.026859
10.397434
10.143518
10.644794
9.764433
9.470582
10.246634
9.810925
10.308623
10.010600
10.160804
10.618567
10.505915
11.546612
12.293458
12.983680
13.646483
14.418960
14.994740
15.868545
17.429590
18.076897
19.275546
20.070672
20.880699
20.381808
21.780729
22.820830
21.883845
23.018718
23.139715
24.276972
23.564696
24.496913
24.460554
24.197698
24.659634
25.592446
25.683641
26.070476
26.017427
26.071668
25.976896
25.912523
##ZVALUE=265
0.799894
0.789762
0.884533
0.813603
1.065731
1.044869
0.953674
0.956655
1.306534
1.151562
1.370907
1.166463
1.485944
2.044439
4.982948
27.617812
62.182546
156.340599
271.461606
485.336781
673.343539
843.788981
998.233557
1015.829444
926.121473
788.278580
580.751896
404.833555
230.489969
142.734647
93.287826
71.745515
83.686709
111.345649
131.034851
151.784420
154.475570
151.302814
136.064887
111.112595
87.534785
59.765577
43.680668
27.849674
18.965602
14.751554
13.122559
11.931658
11.573434
11.878610
10.839701
10.970831
11.401772
10.414720
10.221601
10.438561
10.470748
10.140538
9.565949
9.742975
10.291934
10.037422
10.052919
10.692477
10.697842
10.862947
12.107491
12.415648
13.289452
14.064908
15.245676
15.140772
15.662909
17.999411
18.029809
18.165708
19.169450
19.474626
20.558834
20.643473
21.160841
20.990968
21.786690
21.661520
22.635460
23.073554
22.369623
22.895932
22.308826
23.606420
23.227930
25.047660
24.488568
24.589896
24.102926
24.973750
##ZVALUE=270
0.600815
0.890493
0.694990
0.896454
0.827909
1.002550
0.896454
1.087785
1.097918
0.981688
0.890493
1.016855
1.218915
1.375675
1.297593
1.550913
2.405643
12.669563
37.320852
116.769671
220.242739
374.156833
628.322959
825.210810
1012.080908
1015.829444
1015.829444
951.923728
730.930567
543.733835
371.736884
195.508003
115.488768
67.223907
65.256953
88.355541
110.991001
135.766864
151.408911
160.910487
153.957605
135.372877
114.590526
84.368587
63.857436
41.294694
28.650761
18.943548
15.559793
11.647940
11.343956
10.913610
10.552406
10.578632
10.249615
10.108948
9.967685
10.000467
10.286570
9.681582
10.443926
10.327697
10.344982
10.775924
10.875463
11.415482
11.497736
11.886954
13.149977
13.345480
14.119744
15.742779
15.482903
17.018914
17.635822
18.243790
18.911958
18.879771
19.343495
20.088553
20.181537
20.336509
20.056963
20.476580
21.689534
22.091866
21.243691
22.248626
22.666454
22.438765
22.669435
22.930503
23.264885
22.903681
23.162961
22.941828
##ZVALUE=275
0.705719
0.692606
0.583529
0.737906
0.874996
0.675917
0.843406
0.753999
0.819564
0.782609
0.645518
0.840425
0.856519
1.123548
1.218915
1.145601
1.324415
1.419783
1.857877
5.804896
22.676587
62.791705
176.873803
316.751599
563.552976
750.010014
962.554812
1015.829444
1015.829444
1015.829444
934.339762
679.307580
481.948853
257.124901
148.991942
73.153973
53.314567
61.635971
82.146525
110.339522
129.918456
148.668885
155.265927
148.302913
136.951804
106.883645
87.151527
60.442686
44.702888
27.713776
19.702911
13.468862
11.239648
10.492802
10.821819
10.059476
10.295510
10.061860
10.470748
10.799766
10.146499
10.455847
10.432601
10.881424
11.251569
11.146665
11.941791
12.080669
13.308525
13.444424
14.468431
15.383959
16.278625
17.153621
17.576814
17.694831
18.423796
18.916726
18.961430
18.935800
19.705892
20.122528
19.736886
20.723939
21.076798
21.100640
20.908713
22.040606
21.047592
21.658540
21.260977
21.502972
21.580458
21.395683
21.904707
22.017956
##ZVALUE=280
0.559688
0.507832
0.607967
0.495911
0.606775
0.777841
0.842810
0.703931
0.875592
0.801682
0.784993
1.089573
0.916719
0.948906
0.765920
0.930429
1.195669
1.348853
1.289845
1.405478
1.555681
2.292991
13.534427
46.325922
142.515898
248.930454
451.360941
645.309687
901.759863
1015.875936
1015.875936
1015.875936
991.674662
807.178020
531.822443
352.766514
176.501870
96.111894
49.110651
43.030977
59.506893
78.501701
108.682513
127.859712
145.538449
150.587559
143.377781
131.415725
108.639598
85.374713
59.158802
43.441653
27.265549
18.769503
12.808442
10.743737
10.379553
10.238886
10.211468
10.034442
10.320544
10.896921
11.049509
11.254549
11.355877
11.760592
11.882782
12.879968
13.139844
13.667941
15.247464
15.244484
16.505718
16.810894
18.018484
18.424988
17.631650
18.427968
18.387437
19.925833
19.525886
19.597411
19.804835
20.316839
20.929575
20.419955
21.025538
21.365881
20.849705
20.595789
21.969676
21.502972
21.622777
21.933913
21.423697
22.109747
##ZVALUE=285
0.681877
0.445843
0.635982
0.550747
0.470877
0.650883
0.686646
0.722408
0.629425
0.760555
0.731945
0.789762
0.771880
0.709891
0.918508
1.029968
1.043677
0.932813
1.204610
1.307726
1.169443
1.273751
1.676679
1.742840
7.332563
23.976564
81.898570
166.883469
345.269442
522.505641
778.331757
967.102647
1015.829444
1015.829444
1015.829444
914.801955
711.188912
441.350937
277.770758
130.387545
68.680644
35.701990
35.909414
55.969954
75.618625
103.689432
120.812654
141.181946
146.598816
141.014457
128.505826
108.388662
88.777542
60.552955
43.284893
27.164817
18.166900
12.784600
10.761619
10.218620
10.721684
10.056496
11.120439
10.571480
11.565685
12.172461
12.266636
12.742877
13.914704
14.277697
14.957786
15.224814
16.288757
17.269850
17.353892
18.107891
18.537641
19.117594
18.933415
18.897653
19.670725
20.423532
20.489693
21.158457
21.274686
20.856857
20.234585
21.265745
21.064878
21.219850
20.883679
21.661520
20.788908
21.256804
21.122694
21.590590
##ZVALUE=290
0.615716
0.461936
0.530481
0.446439
0.497699
0.596642
0.556707
0.529885
0.634789
0.673532
0.570416
0.611544
0.678897
0.675917
0.927448
0.766516
0.664592
0.766516
0.734925
0.753999
1.100898
0.916719
1.233816
1.345873
1.378655
1.455545
2.791882
10.484457
49.951673
108.956695
242.374539
407.887697
611.724854
903.874636
1015.829444
1015.829444
1015.829444
1004.434824
832.566619
557.136536
370.984674
186.734796
96.002817
38.414598
26.640892
34.221411
48.251748
71.319938
92.023611
116.884708
133.430958
140.424967
140.157938
126.213431
107.244849
80.963969
61.138868
40.750504
27.780533
18.843412
14.321804
11.898875
10.875463
10.994673
11.761785
12.542605
12.865663
13.487935
13.355613
14.802814
15.847683
16.513467
17.065406
17.999411
17.712712
18.627644
19.091964
19.283891
19.464493
19.612908
19.538999
21.307468
20.815730
20.521879
21.311641
21.333694
20.643473
21.449924
21.287799
22.049546
21.690726
21.321774
21.529794
21.511912
21.405816
20.787716
##ZVALUE=295
0.529885
0.542998
0.461936
0.533462
0.509620
0.484586
0.554919
0.460744
0.463724
0.668764
0.612736
0.560880
0.490546
0.601411
0.704527
0.573993
0.629425
0.796914
0.824928
0.756979
0.808835
0.949502
1.057982
1.125932
1.243949
1.194477
1.485944
1.454949
1.898408
4.202724
16.158819
66.876411
147.672892
334.025621
526.129007
810.453892
995.178819
1015.820503
1015.820503
1015.820503
939.714909
674.908757
465.433002
246.381760
135.108829
51.402450
26.503801
22.242665
29.870868
47.053695
64.664483
90.428591
108.507872
127.786994
135.431886
131.643414
120.377541
101.621747
81.010461
58.542490
42.676926
26.911497
20.280480
15.269518
13.277531
12.994409
12.698770
13.188720
14.149547
14.690757
15.336871
16.195774
16.826987
17.598867
18.446445
18.975735
18.949509
19.686818
19.822717
19.924641
20.877719
20.678639
21.100640
21.150708
21.591783
22.153854
21.770000
21.876693
22.032857
21.531582
21.768808
21.422505
21.111965
20.961761
21.644831
22.117496
##ZVALUE=300
0.521541
0.510812
0.573993
0.551939
0.470877
0.602603
0.426769
0.607967
0.572801
0.646710
0.483990
0.626445
0.618696
0.634789
0.499487
0.623465
0.637770
0.754595
0.704527
0.782609
0.734925
0.675917
0.838637
0.908971
0.913739
0.938773
0.911951
1.229644
1.375675
1.351833
1.633763
2.052784
7.026792
41.243434
99.482536
241.866708
403.601527
670.661926
882.857442
1015.829444
1015.829444
1015.829444
1013.403535
783.842802
574.600697
322.708488
192.665458
84.473491
40.318966
18.038750
17.330647
27.557611
39.949417
61.449409
80.619454
104.684830
119.350553
129.636526
126.990676
116.983652
102.596879
78.982711
60.985684
43.137670
31.350851
21.128654
17.167926
14.828444
14.589429
15.529990
15.724897
16.118884
17.060637
17.911792
18.487573
19.213557
19.453764
19.631982
20.110607
21.109581
21.295547
21.605492
21.193624
21.951795
21.869540
22.201538
22.017956
22.590756
22.896528
22.399426
22.216439
21.746755
21.900535
22.263527
21.809936
21.875501
##ZVALUE=305
0.338554
0.385642
0.533462
0.386834
0.555515
0.526905
0.375509
0.452995
0.465512
0.443459
0.582933
0.504851
0.612736
0.488758
0.499487
0.692606
0.669956
0.505447
0.565648
0.754595
0.619888
0.623465
0.628829
0.827909
0.904799
0.929832
0.944734
0.926852
1.003742
1.004934
1.118779
1.292825
1.469851
1.981854
3.809929
24.768710
66.374540
178.049803
316.536427
567.418933
778.622627
1010.953784
1015.859842
1015.859842
1015.859842
887.215734
686.003566
431.708694
268.081427
119.094849
59.157610
21.347404
13.933778
17.350912
24.630427
41.457415
56.593418
79.509616
98.209977
114.971995
122.354627
121.312737
113.932490
97.364783
81.714988
58.690906
43.875575
30.735731
23.994446
18.527508
16.976595
16.650558
17.169714
17.557740
18.470883
19.050837
19.720793
20.045638
20.932555
21.159649
21.758676
21.582842
22.092462
22.843480
22.475719
22.628903
23.747683
22.949576
22.521615
22.125840
22.639632
22.432804
22.405982
21.962523
22.377968
22.086501
##ZVALUE=310
0.539422
0.633597
0.567436
0.618696
0.642538
0.520945
0.671744
0.472665
0.447631
0.564456
0.499487
0.544786
0.572801
0.702739
0.516772
0.680685
0.550747
0.754595
0.653863
0.755787
0.663996
0.834465
0.658631
0.862479
0.827909
0.940561
1.016855
1.016855
1.049638
1.080632
0.909567
1.116991
1.229644
1.398921
1.577735
1.753569
2.069473
10.358691
35.404563
111.650825
215.218663
432.634950
635.187626
918.128490
1015.945673
1015.945673
1015.945673
1015.945673
852.430463
562.686920
369.397998
185.088515
98.522902
34.754872
15.903711
12.420416
15.719533
24.362803
34.574866
54.406524
70.080757
93.870759
105.871558
116.648674
118.581653
109.771490
98.012686
78.581572
62.678456
44.695735
34.164786
25.892854
21.764636
19.299984
19.053817
19.112825
19.886494
20.078421
20.597577
21.148920
21.705627
22.285581
23.166537
22.757649
23.087859
23.131967
23.652911
23.026466
23.522973
23.022890
23.166537
22.935867
23.163557
23.091435
22.775531
23.095608
##ZVALUE=315
0.640750
0.551939
0.628829
0.730753
0.542998
0.676513
0.677705
0.809431
0.601411
0.605583
0.745654
0.793934
0.706911
0.641942
0.827909
0.695586
0.726581
0.675917
0.687838
0.932813
0.869632
0.890493
0.755787
0.850558
0.784993
0.989437
0.915527
0.945926
1.011491
1.036525
1.108646
1.061559
1.189709
1.314878
1.345873
1.505613
1.525879
1.816750
1.849532
4.606843
17.783642
71.811676
157.232881
344.139934
536.555648
825.642943
1004.289985
1016.085744
1016.085744
1016.085744
955.348611
685.656667
476.795435
252.460837
137.267709
50.740838
22.490621
11.617541
11.781454
15.925765
21.781921
35.055876
48.877001
68.050623
84.306002
103.421807
112.194419
113.140941
107.956529
93.004704
79.887509
60.206652
47.542453
34.457445
27.530789
23.163557
21.700859
20.704865
20.841956
21.363497
21.447539
22.542477
22.438765
22.349954
23.195744
23.776889
24.191737
23.306608
24.259686
23.534894
23.709536
23.983717
23.252964
23.393631
23.290515
23.289919
##ZVALUE=320
0.327826
0.340939
0.227690
0.330806
0.275970
0.466704
0.174642
0.327826
0.417829
0.444651
0.364780
0.511408
0.443459
0.489950
0.398755
0.405908
0.450611
0.349879
0.448823
0.585914
0.363588
0.491738
0.490546
0.495911
0.546575
0.391603
0.614524
0.743866
0.710487
0.665784
0.758767
0.763535
0.806451
0.643730
0.745654
1.000762
1.009703
1.160502
1.343489
1.278520
1.753569
2.290606
7.648468
41.145682
102.158785
256.228447
415.210724
671.286583
875.684023
1015.829444
1015.829444
1015.829444
1015.829444
809.537768
587.280393
322.553515
185.013413
78.876615
35.794973
13.142824
10.724664
11.480451
14.594793
21.606684
30.065775
47.430992
62.201619
81.976652
95.370412
107.454658
108.624697
103.991628
93.433857
75.451732
61.258674
45.797825
36.322474
28.579831
24.464726
22.774935
22.056699
22.231936
22.347569
22.930503
23.280978
23.428798
23.592710
23.478866
23.264885
23.208857
23.396611
23.183823
23.746490
23.099780
22.820830
22.395849
##ZVALUE=325
0.312924
0.438690
0.293851
0.202656
0.259876
0.227690
0.298619
0.207424
0.284910
0.269413
0.419617
0.344515
0.392795
0.454783
0.547767
0.313520
0.452995
0.461936
0.558496
0.474453
0.247955
0.612736
0.384450
0.516772
0.494719
0.446439
0.648499
0.686646
0.412464
0.627637
0.706911
0.770688
0.646710
0.684857
0.772476
0.769496
0.866652
1.107454
0.949502
1.214743
1.176596
1.308918
1.343489
1.359582
4.704595
19.696951
76.097846
156.484842
337.739587
538.011789
825.845599
1002.060771
1015.830636
1015.830636
1015.830636
929.445028
629.951954
434.513688
231.820941
127.621889
47.585964
20.375848
10.966659
10.366440
11.516809
14.402866
21.535754
29.993653
47.758818
62.765479
82.465410
93.925595
103.038549
105.436444
98.430514
88.649988
73.115826
60.635805
44.855475
36.027431
28.524995
25.840998
23.566484
22.819638
22.176504
23.030639
22.500753
22.638440
23.157597
23.048520
22.825599
22.929907
23.036599
22.932887
22.665858
22.855997
##ZVALUE=330
0.316501
0.332594
0.389814
0.361800
0.328422
0.452995
0.307560
0.288486
0.264645
0.493526
0.347495
0.368953
0.345707
0.315905
0.560880
0.623465
0.431538
0.425577
0.592470
0.537634
0.460744
0.550747
0.435710
0.412464
0.375509
0.681877
0.589490
0.575781
0.598431
0.486970
0.665784
0.473857
0.757575
0.641942
0.752807
0.797510
0.771880
0.884533
0.961423
0.837445
0.985861
0.936985
1.104474
1.169443
1.395941
1.311898
2.095699
11.686683
37.710667
120.482445
230.656862
451.462865
649.970770
930.544734
1015.869975
1015.869975
1015.869975
965.299010
775.350928
508.036613
327.036977
151.828527
77.540874
28.483868
14.147758
10.580420
10.596514
12.377501
15.454888
22.471547
31.141639
46.473742
60.342550
78.640580
89.261532
99.578500
101.169944
93.839765
85.460544
69.273710
57.839751
43.381453
36.163926
29.312968
26.438832
23.465753
22.693872
22.559762
22.295713
22.365451
22.204518
22.106767
22.867918
22.005439
22.271872
21.933913
##ZVALUE=335
0.473857
0.435710
0.318885
0.276566
0.415444
0.593662
0.458956
0.506639
0.434518
0.465512
0.500679
0.454783
0.444651
0.559688
0.420809
0.462532
0.457764
0.349879
0.475645
0.285506
0.589490
0.642538
0.560880
0.620484
0.548959
0.616908
0.612736
0.523925
0.810623
0.871420
0.634789
0.566840
0.604987
0.686646
0.824928
0.748634
0.823736
0.763535
0.760555
0.805855
1.118779
1.054406
1.065731
1.118779
1.210570
1.385808
1.318455
1.705885
1.822710
4.982948
18.971562
75.496435
156.326890
342.717767
538.521409
826.311707
1004.339457
1015.985012
1015.985012
1015.985012
877.692699
594.386458
402.373672
212.810636
112.184882
39.397478
18.054843
11.166930
11.290908
11.798739
13.047457
16.661882
21.350980
31.887889
42.388439
59.548616
72.546601
86.856484
93.409419
93.499422
90.915561
79.331994
69.398880
55.970550
46.923757
36.197901
30.071735
25.848746
23.714900
22.185445
22.008419
21.727681
21.740794
21.426678
21.325946
21.540523
##ZVALUE=340
0.395775
0.373721
0.364780
0.559688
0.436902
0.488758
0.284910
0.344515
0.233650
0.425577
0.362992
0.394583
0.448823
0.443459
0.447631
0.591874
0.482798
0.276566
0.453591
0.357628
0.327826
0.585914
0.490546
0.561476
0.481606
0.438690
0.644922
0.547767
0.525713
0.696778
0.554919
0.749826
0.713468
0.748634
0.766516
0.672936
0.800490
0.728965
0.918508
0.688434
0.866652
0.761747
0.675917
0.844598
0.954866
1.082420
1.084805
1.123548
1.218915
1.540780
1.652837
2.521873
8.965731
47.432780
114.876628
277.597904
451.548696
712.646842
912.421942
1015.955806
1015.955806
1015.955806
938.403606
693.960786
486.892462
254.927874
141.458511
59.238672
25.832653
12.050867
11.217594
11.736751
12.410879
13.849735
16.657710
22.919774
30.120611
43.450594
53.914785
70.173740
80.901980
89.481473
90.132952
86.169839
79.063773
66.412687
56.107640
43.528676
35.773516
28.918982
25.468469
22.215843
21.041632
21.281838
20.522475
20.853877
##ZVALUE=345
0.537634
0.349879
0.490546
0.405908
0.613928
0.595450
0.593662
0.552535
0.503659
0.603795
0.531673
0.560880
0.423789
0.386834
0.529885
0.486970
0.549555
0.606775
0.569820
0.504851
0.675917
0.454783
0.633597
0.548959
0.573993
0.626445
0.646710
0.570416
0.643730
0.689626
0.688434
0.738502
0.705719
0.824928
0.755787
0.711679
0.737906
0.925660
0.898838
0.890493
0.812411
0.958443
0.946522
0.861883
1.005530
1.213551
1.040697
1.061559
1.255870
1.363754
1.352429
1.628995
1.577735
1.930594
4.116893
27.162433
73.437691
188.720822
331.625938
584.943891
784.273744
1006.691456
1016.080976
1016.080976
1006.386876
780.177712
577.183962
342.705846
195.892453
79.218745
37.619472
15.561581
11.716485
11.667609
11.808872
12.080669
13.717413
16.642809
20.730495
29.822588
39.542913
54.046512
64.893961
74.978471
81.603527
84.461570
82.256794
73.894858
65.754652
53.572655
43.786764
34.114718
28.956532
23.967624
22.053719
20.216703
##ZVALUE=350
0.209808
0.140667
0.186563
0.119805
0.087619
0.230670
0.303984
0.274777
0.322461
0.342727
0.300407
0.419617
0.374913
0.298619
0.287890
0.273585
0.204444
0.158548
0.241995
0.346899
0.288486
0.002980
0.356436
0.353456
0.351667
0.301600
0.503659
0.439882
0.441670
0.390410
0.401735
0.344515
0.444651
0.516772
0.570416
0.471473
0.468493
0.642538
0.489950
0.526905
0.575781
0.484586
0.539422
0.398755
0.807643
0.664592
0.732541
0.703931
0.683665
0.808835
0.922680
0.958443
0.922680
1.054406
1.311898
1.383424
2.642870
9.938478
47.559738
111.185908
263.463855
431.918502
695.549846
887.670517
1015.830636
1015.830636
1015.830636
902.679563
629.639030
423.874855
216.999650
120.078921
48.292875
21.523833
11.183619
10.883808
11.152625
11.235476
12.013912
13.214946
16.127825
19.712448
27.141571
35.013556
46.685934
56.072474
68.049431
74.122548
77.299476
75.650811
69.147944
60.238838
49.815774
41.264892
31.989813
27.530789
##ZVALUE=355
0.297427
0.276566
0.229478
0.140667
0.341535
0.293851
0.354648
0.370741
0.378489
0.258684
0.329614
0.321865
0.397563
0.376701
0.194907
0.337958
0.239611
0.270605
0.269413
0.425577
0.370741
0.429749
0.310540
0.519753
0.327826
0.255704
0.390410
0.463724
0.524521
0.451803
0.320673
0.331998
0.502467
0.345707
0.444651
0.415444
0.479817
0.524521
0.489950
0.466704
0.687838
0.485778
0.570416
0.590682
0.700951
0.627637
0.658631
0.728965
0.743866
0.787973
0.674725
0.709891
0.970960
1.071692
1.030564
1.101494
1.062751
1.289845
1.828671
6.088614
23.183823
88.222623
177.763700
362.543464
550.130010
814.148784
988.634825
1015.829444
1015.829444
937.099457
753.234625
495.662689
317.222476
141.183734
68.744421
23.181438
12.858510
10.259748
9.959936
10.827780
10.866523
11.649728
12.775660
14.856458
18.312931
24.211407
31.179786
41.675568
49.923658
59.991479
66.333413
70.338845
69.024563
63.775778
58.113933
48.123598
##ZVALUE=360
0.234842
0.113845
0.278950
0.154972
0.279546
0.306964
0.383854
0.278950
0.307560
0.339746
0.250936
0.199676
0.281930
0.300407
0.405908
0.245571
0.291467
0.373721
0.421405
0.473857
0.295639
0.364780
0.382662
0.475645
0.403523
0.541806
0.393987
0.351667
0.500679
0.389814
0.401735
0.368953
0.351667
0.519753
0.459552
0.579953
0.472665
0.540614
0.318885
0.497699
0.533462
0.488758
0.489950
0.471473
0.495911
0.505447
0.552535
0.616908
0.532866
0.717640
0.708699
0.697970
0.781417
0.810623
1.025796
0.796914
0.946522
1.001954
1.132488
1.331568
1.635551
2.741814
10.023713
46.813488
110.464692
266.538858
438.991785
714.214444
906.669497
1015.829444
1015.829444
1005.558968
858.182907
581.117868
385.899544
190.573931
100.213885
38.229823
17.126799
10.032654
9.623766
9.800792
10.011792
10.306835
10.629892
11.634827
12.931824
15.632510
19.298792
26.953816
33.891797
43.975711
51.502585
59.117675
62.824488
63.421726
##ZVALUE=365
0.230670
0.161529
0.352859
0.310540
0.172853
0.164509
0.195503
0.258684
0.302792
0.208616
0.190735
0.317693
0.374913
0.388622
0.310540
0.363588
0.433922
0.239611
0.323653
0.275970
0.338554
0.188947
0.326633
0.285506
0.336766
0.296831
0.339746
0.466704
0.507832
0.410676
0.312924
0.427961
0.255704
0.527501
0.485778
0.328422
0.452995
0.502467
0.420809
0.438690
0.440478
0.493526
0.587702
0.541806
0.692606
0.603795
0.440478
0.647902
0.556707
0.613928
0.684857
0.673532
0.681877
0.787973
0.762939
0.759959
0.850558
0.848770
1.005530
1.131892
1.387596
1.502633
1.526475
1.682639
5.030632
20.054579
80.431700
170.952678
376.550555
578.308702
845.181942
995.517969
1015.830636
1015.830636
915.198922
730.573535
463.936925
286.272764
128.165483
61.409473
19.888878
10.889769
8.887649
8.886456
8.848906
9.263754
9.522438
9.751916
10.771751
11.291504
13.470650
16.583800
22.649765
28.595924
38.231611
45.066476
##ZVALUE=370
0.211596
0.331998
0.372529
0.270605
0.212789
0.294447
0.211596
0.300407
0.384450
0.219941
0.223517
0.346899
0.197887
0.119805
0.318885
0.472665
0.160933
0.289679
0.209808
0.294447
0.212789
0.355840
0.378489
0.304580
0.249743
0.291467
0.391603
0.323653
0.331998
0.337958
0.513792
0.395775
0.432730
0.503659
0.397563
0.412464
0.419617
0.429749
0.414848
0.408888
0.379682
0.540614
0.471473
0.425577
0.349879
0.448823
0.440478
0.618696
0.650883
0.439882
0.584722
0.566840
0.639558
0.648499
0.631809
0.809431
0.738502
0.751615
0.835657
0.926852
0.967979
0.853539
0.998974
1.315475
1.356602
1.655817
2.335906
14.172792
47.378540
142.662525
267.412663
496.389866
700.365901
958.657861
1015.829444
1015.829444
993.431807
774.812698
572.392941
323.590636
186.084509
75.122714
34.065843
12.265444
8.827448
8.099675
8.196831
8.294582
8.381605
8.585453
8.946657
9.504557
10.462999
11.920929
14.532804
19.817948
##ZVALUE=375
0.234842
0.173450
0.292659
0.312924
0.239611
0.310540
0.175834
0.248551
0.182986
0.217557
0.187755
0.275970
0.277758
0.160933
0.359416
0.204444
0.319481
0.206828
0.249743
0.190735
0.293851
0.347495
0.228882
0.385642
0.339746
0.141859
0.217557
0.401735
0.283718
0.313520
0.289679
0.397563
0.321865
0.277758
0.376701
0.456572
0.400543
0.528693
0.415444
0.261664
0.387430
0.265837
0.450611
0.352859
0.292659
0.331998
0.394583
0.516772
0.362992
0.449419
0.593662
0.538826
0.523925
0.604987
0.713468
0.620484
0.581741
0.536442
0.640750
0.714660
0.803471
0.603795
0.787973
0.855923
0.942945
0.982881
1.205802
1.488924
1.830459
5.374551
32.488704
82.710981
208.487511
363.731980
627.978444
827.283859
1015.672684
1015.830636
1015.830636
910.219550
642.952919
452.347994
253.147483
142.573714
56.278706
24.585724
9.515882
7.700920
7.411838
7.624626
7.605553
8.111596
7.947683
8.205771
8.737445
9.103417
##ZVALUE=380
0.261664
0.129938
0.096560
0.170469
0.307560
0.167489
0.128746
0.151992
0.284910
0.105500
0.169873
0.194907
0.387430
0.431538
0.271797
0.158548
0.266433
0.248551
0.112653
0.189543
0.302792
0.131726
0.417829
0.411868
0.124574
0.238419
0.245571
0.256896
0.194907
0.359416
0.430942
0.290871
0.273585
0.354648
0.323653
0.208616
0.251532
0.240803
0.399947
0.334978
0.282526
0.299811
0.383854
0.264645
0.314713
0.238419
0.274777
0.301600
0.308752
0.403523
0.444651
0.422597
0.413656
0.593662
0.382662
0.518560
0.557899
0.660419
0.530481
0.529885
0.683665
0.512600
0.744462
0.746846
0.672936
0.952482
0.937581
1.181960
1.265407
1.581907
1.681447
3.179908
12.850761
63.752532
144.033432
327.259898
512.909889
774.170756
957.389474
1015.830636
1015.830636
935.345888
766.506791
533.216000
357.133746
177.108645
91.578960
32.141805
14.045835
7.467866
6.833673
6.963611
6.828904
7.240772
7.139444
7.568598
##ZVALUE=385
0.030994
0.103712
-0.050664
0.041723
0.030994
0.000000
0.177622
0.138879
0.020862
0.132918
0.003576
0.043511
-0.036955
0.083447
0.183582
0.106692
0.111461
0.207424
0.179410
0.096560
0.027418
0.063777
0.104904
0.158548
0.230670
0.194907
0.125766
0.002980
0.140667
0.175834
0.071526
0.034571
0.122786
0.206828
0.180602
0.119805
0.158548
0.181794
0.155568
0.123978
0.215769
0.235438
0.183582
0.091791
0.132918
0.278950
0.379682
0.301600
0.197887
0.267625
0.273585
0.200868
0.457764
0.157952
0.305772
0.355840
0.384450
0.394583
0.308752
0.414848
0.409484
0.465512
0.427961
0.393987
0.482798
0.600815
0.811815
0.776649
0.760555
0.852942
1.036525
1.205802
1.473427
1.765490
5.510449
35.076737
91.692805
226.024985
391.914845
669.729710
869.094729
1015.705466
1015.705466
1015.705466
899.511576
652.945638
461.179018
249.972939
142.373443
58.705807
24.194717
8.129478
6.306767
6.126761
5.827546
6.311536
##ZVALUE=390
0.258684
0.217557
0.093579
0.247955
0.007749
0.104904
0.259876
0.122786
0.161529
0.324845
0.313520
0.236630
0.046492
0.290871
0.268817
0.248551
0.193715
0.242591
0.250936
0.312924
0.186563
0.130534
0.229478
0.361800
0.001788
0.229478
0.260472
0.132918
0.185966
0.157952
0.256896
0.209808
0.234842
0.260472
0.286698
0.293851
0.292659
0.263453
0.367761
0.324845
0.447631
0.282526
0.382662
0.331998
0.255704
0.245571
0.515580
0.253916
0.376701
0.375509
0.322461
0.421405
0.421405
0.465512
0.352859
0.442863
0.350475
0.507832
0.415444
0.524521
0.376701
0.466704
0.448823
0.652671
0.547767
0.758767
0.735521
0.915527
0.918508
1.039505
1.124740
1.271963
1.313686
1.131892
1.375675
1.618862
2.815723
18.664002
57.856441
170.949697
314.371586
568.298697
770.391822
993.503928
1015.829444
1015.829444
996.357799
780.678391
592.407584
359.450579
208.770633
84.977746
39.389729
13.046861
6.964803
5.952716
##ZVALUE=395
0.056624
0.234842
0.245571
0.163913
0.055432
0.104904
0.336766
0.185966
0.373721
0.150800
0.191927
0.222921
0.166893
0.181794
0.182986
0.139475
0.093579
0.063777
0.227690
-0.023842
0.189543
0.265837
0.330806
0.247955
0.317693
0.260472
0.214577
0.220537
0.444651
0.256896
0.235438
0.280738
0.131726
0.220537
0.421405
0.363588
0.419617
0.359416
0.436902
0.433922
0.246763
0.332594
0.301600
0.296831
0.193715
0.310540
0.334978
0.487566
0.342727
0.192523
0.453591
0.278950
0.414848
0.445843
0.378489
0.423789
0.593662
0.415444
0.411868
0.534654
0.436902
0.475645
0.551939
0.442863
0.421405
0.461936
0.678897
0.844598
0.889897
1.088977
1.044869
1.091957
1.075864
1.099706
1.127720
1.153946
1.268983
1.555681
1.838803
9.825826
36.755800
126.308799
244.011879
465.508699
663.898587
924.474001
1015.829444
1015.829444
1015.829444
920.279622
709.099770
433.541536
275.609493
129.182935
61.968565
20.458698
##ZVALUE=400
0.127554
0.197887
0.235438
0.266433
0.164509
0.243783
0.232458
0.251532
0.150800
0.093579
0.234842
0.291467
0.171661
0.094771
0.190735
0.150800
0.208616
0.222921
0.293851
0.253916
0.160933
0.117421
0.215769
0.307560
0.197887
0.231862
0.178814
0.250936
0.242591
0.222921
0.312924
0.196695
0.233650
0.240803
0.331998
0.391603
0.197887
0.305772
0.312924
0.171661
0.229478
0.262856
0.237823
0.261664
0.349879
0.318885
0.356436
0.400543
0.327826
0.190735
0.401735
0.381470
0.256896
0.384450
0.388622
0.327826
0.374913
0.361800
0.358820
0.421405
0.490546
0.574589
0.578761
0.429749
0.540614
0.570416
0.654459
0.684857
0.757575
0.641942
0.915527
0.879765
0.879765
0.903606
0.904799
0.962615
1.061559
0.989437
1.211762
1.377463
1.686811
5.295873
20.475984
74.557662
159.781575
346.315503
537.652969
803.412795
970.791578
1015.829444
1015.829444
956.605673
775.465965
507.421494
333.661437
167.114735
##END
