##TITLE=FQP00301
##FORMAT=SPECTACLE-ASCII V-1.2
##DATA TYPE=ULTRAVIOLET SPECTRUM
##SECOND TYPE=ULTRAVIOLET SPECTRUM
##DATE=12/26/17
##TIME=12:56:52
##SPECTROMETER/DATA SYSTEM=SPECTACLE
##XUNITS=NM EM
##YUNITS=ENERGY
##YFACTOR=1
##FIRSTX=220
##LASTX=410
##NPOINTS=96
##3DDATA=Equidistant
##ZUNITS=NM EX
##FIRSTZ=210
##LASTZ=400
##ZPOINTS=39
##XYDATA=(Y..Y)
##ZVALUE=210
1.904964
1.749992
2.466440
1.900792
1.744628
2.394915
2.933741
2.232790
2.962947
2.738833
2.539754
3.078580
2.526641
3.152490
3.030896
2.919436
3.126860
2.970695
3.871918
3.435612
3.988743
4.859567
3.940463
5.239844
4.992485
5.448461
5.028844
7.084608
6.692410
7.801652
7.700920
6.804466
6.670952
6.689429
8.629560
8.352995
8.814931
7.890463
6.824732
8.279681
9.451509
9.642839
7.807612
8.580685
8.196831
9.452701
10.166764
10.034442
9.338856
10.301471
8.824468
10.148883
10.441542
9.977818
9.715557
11.242628
10.410547
10.335445
10.635853
10.685921
9.555817
10.350943
11.981726
11.803508
10.029674
11.374950
12.828708
14.274716
16.298890
20.258427
22.686720
26.328564
32.817721
36.511421
42.730570
47.260523
47.448874
48.522949
49.076676
49.327612
44.864416
44.102669
37.433505
31.369925
24.835467
19.231439
15.999675
12.037754
12.251735
10.606647
10.340810
11.090636
11.780858
10.471940
11.006594
11.022687
##ZVALUE=215
10.346770
9.899735
8.320808
7.649660
6.021857
5.693436
4.445910
5.479455
5.637407
5.594492
5.714893
4.856586
5.339980
4.251599
3.762841
3.604889
4.048944
4.705787
3.903508
4.761815
4.297495
4.322529
5.707741
6.408691
6.226897
6.577969
6.787777
7.154942
7.704496
8.082986
8.663535
9.237528
9.405613
9.741783
9.051561
9.332895
9.746552
9.752512
10.219812
9.761453
9.742975
10.114908
10.028481
10.347962
9.872913
11.203885
10.759830
10.416508
10.598898
10.923743
10.745525
10.820627
10.910630
10.814667
10.822415
10.848641
11.470914
10.688901
12.526512
12.071729
11.436939
13.205409
11.057854
12.355447
13.276935
14.609694
13.873577
13.095737
15.900731
19.508600
23.624897
26.572943
28.609633
33.907890
35.824776
38.290620
39.617419
40.403605
43.777823
43.495893
39.539933
32.200813
30.950904
24.373531
21.806955
17.492771
17.245412
13.359785
10.955930
10.596514
10.200739
10.957718
10.691881
10.225773
10.592937
11.782646
##ZVALUE=220
32.182932
35.081506
37.129521
38.421750
35.345554
29.681921
26.716590
18.286705
13.384819
13.363957
11.735559
11.669993
13.044477
11.473894
10.274649
7.061958
6.379485
5.149841
4.876852
4.873872
4.628897
5.185604
5.020499
5.961657
6.376505
6.959438
6.890893
8.365512
7.865429
8.927584
10.254979
10.371804
10.954738
10.474920
11.370778
11.360645
11.331439
10.938644
11.524558
12.412667
11.839867
11.027455
10.438561
12.158751
10.973811
12.096763
11.346936
11.637807
10.684729
12.246966
11.422634
11.337996
10.843873
12.398958
10.595918
9.847879
11.679530
11.581779
11.476874
10.936856
11.604428
12.073517
12.059808
11.653900
12.353659
13.100505
12.784600
14.821887
15.739799
15.482903
19.170642
23.253560
24.914742
29.732585
32.918453
35.556555
36.488771
34.966469
39.498806
36.193728
33.743978
30.440688
28.138757
24.879575
21.697879
17.007589
15.141964
13.847947
13.972521
12.437701
12.625456
11.629462
11.400580
11.911988
11.340976
11.329651
##ZVALUE=225
57.550669
64.557791
83.493590
107.633471
124.283433
124.029517
118.963718
92.094541
72.793961
51.505566
33.586621
25.639534
22.907853
25.254488
25.618672
23.452640
20.483732
17.324686
14.128685
9.073615
7.954836
6.694794
6.210804
6.055832
6.933808
7.306933
7.530451
8.948445
8.273721
9.306669
11.766553
12.737513
12.197495
12.990832
12.857914
13.466477
14.043450
14.580488
12.697577
15.227795
13.804436
14.213920
12.318492
14.606714
12.487769
12.995601
13.244748
12.530684
12.176633
11.975765
12.935996
12.584925
12.821555
12.231469
12.826920
13.439655
12.916923
13.329983
11.832714
12.093782
13.064742
13.349652
13.742447
13.919473
13.283491
15.783906
13.275743
15.959740
17.154813
18.951893
21.259785
25.386810
26.398897
30.095577
29.830933
31.744838
35.799742
34.509897
32.309890
30.965805
30.571818
28.331876
25.500655
23.244619
22.363663
18.162727
17.685890
16.137958
16.467571
15.119910
15.254617
14.384985
13.484955
13.160706
13.800859
14.004707
##ZVALUE=230
53.816438
59.670806
97.070932
155.809522
204.595923
254.995823
277.958512
281.607509
252.821445
206.233859
148.207545
100.652575
60.255527
50.116777
45.903921
46.968460
52.856803
50.827861
46.667457
38.324594
27.980804
19.321442
12.771487
9.319782
8.193851
6.877780
8.650422
9.393692
10.124445
11.210442
11.358857
10.926723
13.067722
14.187694
12.574792
12.675524
14.681816
13.864636
15.145540
13.241768
13.209581
13.031960
14.061928
13.649464
13.655424
14.926791
13.504624
13.640523
13.378859
12.978911
13.647676
13.298988
13.492703
15.160441
13.575554
13.690591
14.214516
14.680624
14.147758
14.265776
16.633868
16.299486
15.668869
17.369986
16.605854
16.356707
17.076731
19.204617
20.300746
21.754503
24.221539
27.278662
30.791759
31.687617
34.975410
33.522844
36.169887
37.919879
35.260916
34.188628
33.757687
31.604767
32.097697
28.399825
24.779439
23.405552
23.496747
22.415519
21.867752
19.478798
22.871494
18.997788
19.363761
20.194650
19.440651
19.370914
##ZVALUE=235
16.386509
18.060803
48.913956
98.996758
192.997456
292.918682
430.154800
517.252684
579.527617
581.747890
499.562621
405.716896
298.554897
182.237625
120.763779
79.309940
70.402622
75.059533
80.743432
86.451769
75.790882
68.366528
54.113865
38.737655
23.631454
19.837618
14.198422
11.734962
10.616779
10.745525
10.051727
11.399984
11.668801
12.360811
11.726618
12.081861
13.486743
13.670921
12.569427
13.515949
14.930964
13.238788
13.368726
13.446808
14.110804
13.949871
14.488697
13.623834
14.560819
14.940500
14.072657
14.288425
14.095902
14.598966
14.483929
14.955997
14.741421
16.278625
15.514493
16.701818
16.697645
16.330481
17.901659
18.927455
19.291639
20.464659
22.570491
23.709536
25.219917
26.787519
28.654933
32.428503
37.657619
38.162470
38.733482
41.876435
43.359995
41.228533
43.538809
40.380955
41.481853
38.610697
36.845803
37.398934
32.966733
32.522678
30.022860
28.596520
27.647614
28.100610
27.694702
27.670860
27.474761
28.028488
27.631521
26.373863
##ZVALUE=240
1.811981
2.165437
7.472634
23.609996
68.878531
134.061575
269.817710
404.113531
599.261522
727.853775
810.075998
796.156526
709.410906
554.377437
413.829684
256.634951
173.224807
112.297535
96.764565
98.861456
107.334852
113.759637
108.608603
101.755857
82.577467
64.166784
48.743486
33.649802
20.509958
15.141964
12.581944
11.300445
10.941625
10.704994
12.285709
11.461973
11.687875
11.204481
12.138486
11.951923
12.445450
12.863874
13.338923
12.646914
12.531877
12.295842
12.964606
12.811422
13.938546
13.497472
14.311671
11.855960
13.184547
13.325810
13.173819
13.073683
13.660789
15.845895
15.136600
15.324950
16.424656
17.127991
18.340945
16.959906
17.002821
20.678639
21.924973
21.876693
22.069812
24.271607
30.292869
30.562878
31.362772
35.087466
35.868883
36.394000
36.275983
38.921833
37.389994
36.828518
36.403537
38.637519
32.986999
33.554435
33.384562
33.928752
33.859611
32.947659
31.457543
31.179786
30.514598
30.413866
29.281974
29.769540
31.341910
30.564666
##ZVALUE=245
1.733899
1.389980
1.629591
1.700521
4.295707
14.519691
53.036809
113.694668
260.154009
414.848924
660.737753
808.112025
921.950936
966.659784
894.542933
720.138550
562.626719
357.297659
238.372684
136.940479
106.191635
97.968578
105.671883
119.700432
123.580694
122.335553
110.664964
94.250441
67.506433
54.315925
38.534403
23.489594
16.781688
10.783672
10.698438
10.081530
11.021495
10.056496
10.141730
9.501576
10.723472
10.272861
9.960532
10.369420
10.768771
10.154843
10.828972
11.340976
10.564923
10.209680
10.478497
10.161996
11.586547
11.036992
10.465980
11.868477
10.763407
11.734962
10.983944
12.259483
11.802912
12.065768
12.704730
13.773441
15.063882
14.367700
17.978549
18.206835
18.933415
21.588802
22.257566
26.110411
26.015639
27.384758
30.580759
30.329823
31.968951
31.472445
33.045411
32.296777
30.629635
29.989481
30.332804
29.264688
30.766726
28.613806
31.070709
28.827786
28.059483
30.127764
31.044483
29.194951
29.848814
30.513406
29.376745
30.684471
##ZVALUE=250
1.328588
1.452565
1.246929
1.588464
1.875758
1.636744
2.385974
8.186698
35.795569
85.087419
222.958922
395.315886
590.503812
863.147974
1002.276540
1015.897989
1015.897989
916.847587
742.687583
470.939875
315.772891
193.239450
110.595822
90.487599
98.563433
116.076469
127.808452
133.556724
131.244659
118.835568
103.544593
77.419877
58.523417
37.005544
24.263859
15.318990
12.545586
9.863973
10.646582
9.943843
10.286570
10.718703
11.008978
12.438893
11.090636
10.288954
10.648966
10.311604
10.092854
10.717511
10.360479
10.115504
11.069775
10.281801
11.097789
10.326505
10.376573
11.002421
10.724664
10.711551
11.149645
11.569858
11.486411
12.325644
13.623834
14.373660
14.744997
15.794635
17.250776
17.614961
18.981695
20.548701
22.353530
25.589466
27.276874
27.119517
26.950836
28.808713
27.599931
28.394461
27.256608
28.359890
28.066635
27.768612
26.588440
27.581453
27.360916
26.741624
27.433634
28.840899
26.908517
27.564764
27.069449
27.388930
27.903914
28.869510
##ZVALUE=255
1.367927
1.239777
1.391768
1.259446
1.229644
1.144409
1.478791
1.633763
1.871586
4.576445
24.853945
68.964958
149.500966
322.561860
505.588055
768.903494
931.899548
1015.900970
1015.900970
969.858766
804.075599
616.383553
364.326835
224.415660
120.359659
90.330839
85.831881
98.801851
123.177767
134.854913
141.721964
139.339566
128.653646
105.105639
81.758499
54.644942
40.812492
25.248528
17.967820
12.622476
11.502504
11.808872
11.898875
11.513829
11.635423
11.134744
11.171699
10.102987
10.137558
10.563731
10.609627
10.087490
10.086894
10.324717
9.969473
9.683967
8.959770
9.434819
9.934902
9.562969
10.308623
10.212660
11.491776
11.423826
10.943413
12.243986
11.621714
13.698936
14.699697
16.019940
16.367435
18.434525
19.044876
20.160675
21.315813
22.579432
23.078918
23.222566
24.289489
24.480820
23.582578
25.239587
22.819638
24.179816
24.901628
25.929809
25.450587
25.766492
25.248528
25.516748
26.450753
25.170445
24.941564
24.586916
24.549961
25.981665
##ZVALUE=260
1.029968
0.977516
1.170635
1.160502
1.033545
1.021624
0.974536
1.046658
1.141429
1.385808
1.644492
2.534986
7.658005
36.329627
83.996654
208.897591
346.081853
563.439727
733.621716
927.971601
1008.980870
993.179679
844.171643
685.042739
441.551805
294.123888
166.463852
106.484890
77.318549
80.321431
97.243786
121.130943
136.991739
149.272680
147.112608
130.256414
111.460686
83.851814
63.455701
41.979551
27.941465
18.857718
14.995933
12.278557
11.334419
10.770559
11.413693
11.132956
11.587739
10.434985
10.410547
10.220408
9.147525
9.457469
9.414554
9.074807
9.984970
9.180903
9.195805
8.920431
9.500980
9.169579
10.010600
9.734631
10.085702
11.209846
11.321902
11.768937
12.880564
13.790727
14.168620
15.519857
16.723871
17.364621
17.752647
18.761754
19.739866
19.345880
21.190643
21.508932
20.755529
21.705627
21.551847
21.418929
21.663904
22.470951
23.905635
23.270845
23.294687
23.012757
22.816658
24.150610
24.029613
25.585890
24.665594
24.192929
##ZVALUE=265
0.964999
0.988841
0.646710
0.849962
0.964999
1.239777
1.082420
1.200438
1.044869
1.453757
1.454949
1.556873
1.419783
1.836419
3.813505
19.573569
49.439669
131.972432
255.372524
500.699878
712.250471
920.701623
1015.902758
1015.902758
988.854766
831.015706
594.728589
407.927632
215.546489
132.197738
89.794993
69.703460
79.914927
107.638836
128.836632
146.607757
151.274800
148.773789
135.302544
108.753443
86.432695
61.204433
45.207739
28.172731
19.960999
14.871955
12.835860
11.463761
11.597872
11.140704
10.406971
10.846853
10.025501
10.442734
9.734631
9.674430
9.449720
9.430647
8.474588
9.068847
9.485483
9.763837
9.406805
9.697676
9.562969
9.749532
10.500550
10.494590
12.105703
12.636781
13.490915
14.043450
15.257597
16.345978
16.607642
17.300844
17.839670
19.198656
18.120408
18.492937
18.779635
19.969940
20.358562
19.955635
20.486712
20.120740
21.254420
21.429658
21.135807
21.695495
22.632480
22.283792
23.286939
22.546649
23.069978
22.631884
##ZVALUE=270
0.922680
0.881553
1.007915
0.874996
0.991821
1.030564
1.180768
1.122952
1.185536
1.137853
1.152754
1.379848
1.591444
1.296997
1.717806
1.736879
2.308488
9.296536
26.194453
86.330771
185.406804
346.141458
639.025569
869.824886
1015.991569
1015.991569
1015.991569
993.688703
745.343566
540.599823
366.987586
187.379718
110.083818
64.025521
61.843991
83.924532
104.642510
132.784843
146.681666
154.188871
150.066614
132.726431
113.638639
85.025430
63.186884
41.299462
30.251741
19.202828
14.816523
11.770725
10.887980
10.994673
10.066628
9.742975
10.272861
9.625554
9.526610
9.419918
9.130836
8.991957
9.315610
9.415746
9.244680
10.189414
9.986758
10.396838
10.658503
11.500716
11.391640
12.250543
12.954473
13.828874
14.978647
14.844537
15.738606
15.966892
16.227961
17.304420
17.754436
18.531680
18.209815
18.354654
18.415451
18.925667
19.413829
19.990802
19.120574
20.105839
20.228624
20.924807
20.428896
21.098852
21.645427
20.737648
21.468997
21.864772
##ZVALUE=275
0.772476
0.696778
0.736713
0.742674
0.862479
0.901818
0.919700
0.869632
0.798702
0.933409
1.045465
1.125932
1.108646
0.962615
1.122952
1.236796
1.303554
1.489520
1.539588
4.208684
15.338659
45.097470
133.957863
259.374976
510.602593
706.180930
934.345722
1015.897989
1015.897989
1015.897989
909.588933
654.359460
451.253653
234.555602
137.514472
67.447424
50.249696
60.222745
76.039433
106.197000
127.806664
144.585967
151.559711
145.504475
132.570863
109.456778
87.650418
60.259700
45.090914
27.179718
18.821955
13.375878
11.115670
10.111928
9.326935
9.128451
9.277463
9.042621
9.219646
9.160638
9.991527
9.633899
9.330511
10.006428
9.764433
10.378957
10.695457
11.083484
11.527538
12.454987
13.320446
13.657808
14.263988
14.593601
14.837980
16.230941
16.544461
16.787648
16.865730
16.907454
17.909408
17.921925
18.231869
18.991828
19.045472
18.573999
19.296408
20.004511
19.497871
19.333959
19.963980
18.897653
19.433498
19.487739
20.165443
19.512773
##ZVALUE=280
0.848770
0.772476
0.642538
0.573993
0.714660
0.722408
0.750422
0.884533
0.749826
0.708699
0.833869
0.851750
0.974536
0.842810
0.875592
1.015663
1.125932
1.005530
1.327991
1.290441
1.342893
2.397895
9.494424
31.950474
100.853443
185.082555
347.681642
505.672693
714.739561
843.521953
938.073993
934.968591
815.160871
665.416718
444.981456
296.617746
152.735710
83.238482
43.782592
40.993690
55.993795
75.629950
101.626515
121.341944
139.527917
144.295692
140.498877
129.127502
105.677843
83.807707
56.323409
41.383505
24.569631
17.391443
11.634827
10.005832
9.302497
9.080768
8.613467
8.906722
9.099841
9.181499
10.011792
9.534955
9.765625
10.438561
10.601878
11.328459
11.595488
12.285709
13.099909
13.596416
14.059544
13.828874
15.419722
15.618801
15.802979
16.066432
16.542673
17.157793
16.975999
17.167926
17.152429
18.085837
17.904639
18.539429
18.018484
18.189549
18.641949
18.843412
18.639565
19.224882
18.972754
19.336939
19.157529
19.160509
##ZVALUE=285
0.626445
0.618696
0.566840
0.698566
0.452995
0.575781
0.654459
0.605583
0.646710
0.682473
0.783801
0.787973
0.768900
0.793934
0.947714
0.896454
0.928640
0.944734
0.908971
1.021624
1.133680
1.218915
1.407862
1.749992
4.734993
16.339421
55.475831
118.004680
256.375670
393.147469
547.232628
759.635568
884.205699
944.833755
900.242925
735.751987
580.605865
365.583897
231.004953
112.324953
58.954954
32.896996
32.982826
50.367713
69.264770
98.165870
116.452575
132.007003
140.565634
137.471557
126.671791
104.495883
84.024668
57.808757
41.610599
25.560856
17.513633
11.589527
9.914637
9.406805
9.362698
9.256601
9.264946
9.584427
9.825826
11.173487
11.089444
11.611581
11.806488
12.831688
12.875795
13.530850
13.666749
14.742613
15.120506
16.046762
16.396642
16.666651
16.866922
16.942620
17.039776
18.119812
18.090606
17.965436
17.799735
18.607974
18.438697
19.112825
18.532872
18.585920
19.230843
18.400550
18.057823
18.037558
18.866658
18.723607
##ZVALUE=290
0.574589
0.393987
0.560880
0.537634
0.532866
0.554919
0.635982
0.737906
0.660419
0.792742
0.578761
0.692606
0.715852
0.578761
0.711679
0.698566
0.628829
0.957847
1.007915
0.915527
1.066923
1.121759
1.200438
1.245737
1.342893
1.555681
2.274513
6.913543
33.953786
75.726509
174.290538
298.029780
460.515618
691.136718
835.779905
944.820642
937.488675
817.078948
669.359565
454.007983
301.889777
153.320432
79.671741
33.296943
24.449825
32.053590
43.749809
66.804886
86.304545
109.771490
124.342442
134.620667
134.019852
122.052431
105.354786
76.731443
58.227777
37.324429
26.725531
17.178655
12.993813
10.280609
10.124445
10.133982
10.170937
11.067986
11.355877
11.897683
12.542605
12.661815
13.708472
14.241934
14.351606
15.619993
16.178489
16.209483
16.015768
16.935468
16.574860
17.264485
18.057823
18.868446
18.393993
18.489957
18.894672
18.799901
18.716455
18.374920
19.338727
17.817616
18.348694
18.688440
18.526912
18.557906
19.033551
18.934608
##ZVALUE=295
0.602603
0.665784
0.603795
0.590682
0.429749
0.684857
0.531673
0.463724
0.654459
0.730753
0.570416
0.604987
0.508428
0.624657
0.723600
0.825524
0.610948
0.617504
0.751615
0.946522
0.800490
0.806451
0.852942
1.028776
1.201630
1.193881
1.582503
1.213551
1.576543
2.867579
16.136765
45.328736
102.107525
241.584778
385.362506
613.263845
766.251683
919.443965
961.450934
886.780024
762.429833
551.020503
379.540920
199.792981
110.003948
45.248866
24.431944
19.954443
27.319789
43.504834
60.077906
84.688663
103.483796
120.477676
129.149556
126.446486
116.601586
95.988512
78.300834
56.035519
41.543841
25.969744
19.309521
13.584495
11.980534
11.697412
10.955930
11.960864
12.371540
13.393760
13.517737
14.392734
14.904737
15.727878
16.144514
15.958548
16.645789
17.343760
17.481446
17.731786
18.284917
18.302798
18.582940
18.975735
18.825531
19.431710
18.990636
18.733740
18.953681
18.337965
18.336773
18.355846
18.455982
17.925501
18.795729
18.419623
##ZVALUE=300
0.601411
0.519753
0.309944
0.527501
0.467896
0.414848
0.680685
0.565648
0.422597
0.502467
0.754595
0.584722
0.490546
0.655651
0.648499
0.664592
0.669956
0.669956
0.814795
0.803471
0.806451
0.918508
0.759959
0.889897
0.810623
0.927448
0.979900
1.197457
1.223683
1.208782
1.324415
1.590848
7.346869
24.848580
82.174540
157.206655
318.282843
481.727719
706.726909
845.367908
944.217443
939.531922
823.544860
677.516460
451.800823
297.958851
149.771571
81.490874
31.306744
16.625524
17.571449
24.208426
38.738847
54.986477
78.960657
96.371770
115.069747
121.547580
121.602416
113.855004
95.341802
79.853535
57.420731
43.369532
27.915835
21.158457
15.196800
13.746619
12.828708
13.002753
13.897419
13.965964
15.014410
15.607476
16.375780
16.698837
17.383695
17.536879
18.081665
18.516779
18.932819
18.838644
18.637776
19.007921
19.531846
19.467473
19.338727
19.513965
19.500852
19.288659
18.757582
19.174814
18.970966
18.963814
19.025803
19.220710
##ZVALUE=305
0.545979
0.618696
0.457764
0.534654
0.440478
0.593662
0.518560
0.595450
0.514984
0.508428
0.539422
0.607967
0.441670
0.521541
0.563860
0.576973
0.644922
0.610948
0.762939
0.745654
0.768900
0.742674
0.790954
0.723600
0.682473
0.954866
0.641942
0.921488
0.986457
1.215935
1.066923
1.259446
1.384616
1.352429
3.537536
12.738705
51.996708
114.195943
250.508785
390.539765
611.678958
769.302845
920.800567
954.539776
880.014896
753.220916
543.686748
384.402871
205.657482
113.760829
42.840838
21.087527
13.007522
15.252829
24.395585
35.984516
55.999756
71.821809
92.789531
106.798410
117.861629
116.056800
108.735561
95.734596
74.333549
58.743954
40.563941
30.136704
21.008849
17.255545
15.723705
14.966726
15.233755
15.655756
16.825795
16.955733
17.030835
17.884970
18.090606
18.311739
19.314885
19.690990
19.883513
19.619465
19.564629
20.901561
19.935966
19.670725
20.238757
19.952655
19.494891
19.861460
19.355416
19.789934
19.376874
19.208789
##ZVALUE=310
0.538826
0.457764
0.388622
0.306964
0.370741
0.458956
0.577569
0.465512
0.522733
0.427961
0.467896
0.525713
0.484586
0.550747
0.668764
0.439882
0.603795
0.616908
0.573993
0.667572
0.682473
0.622869
0.742674
0.683665
0.586510
0.731945
0.782609
0.921488
0.827909
0.898838
0.882745
0.943542
1.067519
1.288652
1.316667
1.448989
1.640916
6.746650
22.566915
75.876713
149.835944
308.455825
468.216538
696.991682
839.247704
956.575871
946.880579
832.325816
688.557029
461.919904
308.031440
155.925751
83.800554
31.414628
14.795661
10.537505
14.034510
22.221804
31.668544
49.671531
65.117478
85.652471
100.557804
111.092925
112.816691
104.568601
94.819665
76.739788
60.638785
42.870641
32.215714
23.814440
19.989610
17.419457
17.065406
17.294884
17.360449
17.639995
18.525720
19.303560
19.829869
19.945502
20.345449
20.550489
20.648837
21.320581
21.094680
20.312667
21.114945
20.807981
20.422935
20.243526
20.033717
20.537972
19.832850
19.862652
##ZVALUE=315
0.380874
0.455976
0.380874
0.374913
0.384450
0.435710
0.452995
0.459552
0.438690
0.411868
0.564456
0.442863
0.527501
0.556707
0.580549
0.443459
0.590682
0.542998
0.453591
0.399947
0.533462
0.506639
0.491738
0.630617
0.675917
0.686646
0.745654
0.632405
0.748634
0.905991
0.845790
0.933409
0.831485
0.981688
1.177788
1.216531
1.276731
1.397729
1.326799
3.169775
11.176467
47.449470
106.581450
242.606997
387.003422
613.157749
768.976808
907.172561
948.826671
883.258581
761.734843
550.171733
386.882424
206.555724
113.809705
42.902827
19.315481
10.022521
10.397434
14.324784
19.668937
32.683611
44.073462
64.236522
79.988837
98.075867
106.513500
108.291507
103.018880
89.207888
74.655414
56.924820
44.320822
31.342506
26.046634
21.315813
19.546747
18.915534
18.662810
18.739700
19.672513
19.817948
20.703673
21.026731
20.854473
21.002889
20.925999
20.960569
21.099448
20.423532
20.518899
20.953417
20.434856
20.645857
20.162463
20.311475
##ZVALUE=320
0.286698
0.335574
0.244975
0.138879
0.134706
0.341535
0.349879
0.392795
0.253916
0.477433
0.402927
0.339746
0.434518
0.373721
0.443459
0.375509
0.541806
0.339746
0.484586
0.492930
0.428557
0.491738
0.374913
0.448823
0.613928
0.529885
0.498891
0.486970
0.662804
0.588894
0.540614
0.571609
0.558496
0.684857
0.646710
0.734925
0.875592
0.968575
0.996590
0.987649
1.161695
1.624823
4.813671
26.792884
67.819953
175.974965
292.258859
489.012003
653.981566
845.091939
930.182934
926.765800
848.541856
654.007792
480.899811
271.459818
156.937838
68.231821
31.710863
11.807680
9.502769
10.506511
12.939572
19.426942
28.066635
45.420527
58.397651
77.245831
91.137886
102.254748
104.312897
98.949671
89.716911
72.337985
58.473945
42.271614
33.986568
25.988817
22.328496
20.426512
19.679666
20.182729
20.290613
20.501614
20.738840
20.829439
20.936728
20.734668
20.858645
21.158457
21.005869
20.823479
20.916462
20.419955
20.281672
20.092726
##ZVALUE=325
0.682473
0.577569
0.627637
0.493526
0.687838
0.672936
0.656843
0.742674
0.683665
0.689626
0.774860
0.695586
0.640750
0.726581
0.714660
0.694990
0.716448
0.691414
0.731945
0.657439
0.691414
0.511408
0.661612
0.659823
0.889897
0.778437
0.924468
0.978708
0.904799
0.870824
0.871420
0.804663
0.982881
1.136661
1.138449
1.053810
1.193881
1.018643
1.248717
1.289845
1.397729
1.468658
1.448989
1.695752
3.351569
13.130903
51.575899
105.562806
236.264467
380.698442
604.157448
755.239725
899.630785
943.979621
881.008506
762.990713
548.076630
397.310853
223.838687
126.269460
47.858953
20.082593
10.514855
9.596944
11.269450
13.912916
20.468831
28.344989
44.097900
59.404969
77.629685
88.696480
97.857714
100.178719
94.503760
85.652471
69.550872
57.028532
42.187572
34.375787
26.475787
23.857951
21.449924
21.230578
21.201968
21.393895
20.749569
21.079779
20.879507
20.817518
21.399856
20.432472
21.077991
20.915866
20.809770
20.334721
##ZVALUE=330
0.569820
0.321865
0.486970
0.412464
0.408888
0.377893
0.425577
0.437498
0.493526
0.411868
0.353456
0.452995
0.358820
0.532866
0.548959
0.501871
0.418425
0.514984
0.424981
0.354648
0.415444
0.501871
0.507832
0.516772
0.525713
0.519753
0.629425
0.700951
0.630617
0.531673
0.711679
0.600815
0.656843
0.781417
0.721812
0.672936
0.620484
0.557899
0.707507
0.897646
0.900626
0.870824
0.793934
1.114607
1.286864
1.059771
1.586676
7.291436
23.586750
77.608824
152.886510
307.485461
457.441807
680.540800
820.465684
919.760466
910.852551
798.161030
665.331483
465.780497
322.591662
168.265700
91.537833
32.795668
14.081597
9.422898
9.804964
11.467934
14.264584
20.884871
28.344989
41.904449
54.665804
73.018670
83.643794
93.648434
95.614791
90.414882
81.725717
66.103935
54.243803
40.861964
33.928752
27.497411
24.194717
21.925569
20.924807
20.913482
20.281672
20.486712
20.426512
20.232797
20.482540
20.120740
19.852519
19.745827
##ZVALUE=335
0.421405
0.331998
0.453591
0.443459
0.434518
0.498891
0.448823
0.232458
0.473857
0.364780
0.597835
0.434518
0.474453
0.339746
0.491738
0.429749
0.438690
0.290871
0.470877
0.387430
0.446439
0.692606
0.506639
0.551939
0.559688
0.524521
0.596642
0.514984
0.608563
0.551939
0.614524
0.656843
0.553727
0.715852
0.637770
0.575781
0.635982
0.705719
0.747442
0.688434
0.796914
0.903606
0.813603
0.844598
0.942945
1.055598
0.989437
1.193881
1.326799
3.477931
12.470484
48.830509
104.996562
233.093500
378.114581
601.063967
752.191544
879.893899
903.888941
822.419524
704.678893
506.870747
359.760523
201.686621
113.811493
43.953657
18.600821
10.344982
9.653568
10.567904
11.905432
15.192628
20.061731
29.959679
40.007830
55.977702
68.209767
81.205964
88.747740
90.643764
86.942911
75.774789
65.882802
52.766800
42.923689
33.279657
27.864575
23.448467
21.635890
20.363927
19.741654
19.507408
19.620657
19.281507
19.333959
19.392967
##ZVALUE=340
0.451803
0.136495
0.359416
0.361800
0.301600
0.323653
0.324845
0.399947
0.276566
0.430942
0.451803
0.293851
0.388622
0.403523
0.417829
0.518560
0.494719
0.359416
0.402927
0.440478
0.422597
0.539422
0.395775
0.444651
0.392795
0.377893
0.615716
0.617504
0.560880
0.524521
0.447631
0.655651
0.649691
0.539422
0.460744
0.560880
0.639558
0.691414
0.493526
0.353456
0.554919
0.728965
0.828505
0.805855
0.877976
0.860691
0.872612
0.967979
0.869632
1.169443
1.165867
1.653433
7.762909
24.486780
79.565644
159.923434
328.232646
476.233959
671.899915
794.900656
879.479647
857.905746
728.699565
585.981607
379.800797
247.997642
123.274922
64.653754
22.589564
11.723638
9.950995
10.192990
11.316538
12.462735
15.812516
19.909739
29.121637
38.482547
53.834915
65.168738
78.311563
83.590746
84.496737
82.564950
73.962808
64.718723
51.847696
42.636991
32.952428
27.135611
22.738576
20.870566
19.419789
18.865466
18.700957
18.657446
##ZVALUE=345
0.340939
0.330806
0.379682
0.450611
0.421405
0.567436
0.436902
0.317693
0.329614
0.391603
0.402927
0.270605
0.277758
0.373721
0.459552
0.381470
0.329614
0.423789
0.415444
0.460744
0.360608
0.573993
0.477433
0.467896
0.481606
0.264645
0.471473
0.547767
0.558496
0.513792
0.511408
0.646710
0.423789
0.562668
0.496507
0.642538
0.639558
0.652671
0.609756
0.569820
0.681877
0.604987
0.643730
0.661612
0.676513
0.668764
0.849962
0.866652
0.781417
0.814795
0.936985
1.029968
1.146793
1.319647
2.678633
15.927553
44.650435
120.052695
215.838552
395.276546
545.920730
730.675459
823.862553
844.028592
785.130858
611.110926
456.947684
278.645754
161.800981
70.010424
35.211444
14.650822
10.583997
10.437965
10.658503
11.424422
12.354851
15.193820
19.318461
27.994514
37.054420
50.702691
59.552789
70.686936
76.372623
79.634786
77.810884
69.122910
62.763691
50.375462
41.625500
31.945705
26.741624
21.931529
19.999743
18.461943
##ZVALUE=350
0.092983
0.083447
0.121593
0.245571
0.011921
0.102520
0.239611
0.222921
0.214577
0.137687
0.090599
0.089407
0.112653
0.248551
0.171661
0.233650
0.184774
0.302792
0.106692
0.182986
0.152588
0.137687
0.289679
0.274777
0.272989
0.165701
0.356436
0.166893
0.123978
0.298619
0.290871
0.181794
0.299811
0.195503
0.228882
0.349879
0.378489
0.386834
0.295639
0.404716
0.265837
0.280738
0.359416
0.455976
0.400543
0.460744
0.511408
0.539422
0.417829
0.679493
0.544786
0.803471
0.623465
0.797510
0.855923
0.933409
1.347661
8.048415
25.585890
79.822540
152.395964
310.576558
455.494523
637.796521
758.529902
831.494927
802.477002
673.680902
523.183942
313.968658
192.978978
85.250735
40.938854
15.410781
10.325909
9.454489
9.707808
10.191798
10.834932
12.284517
14.263988
19.367933
24.447441
33.411980
42.319894
53.867698
62.700510
70.322752
72.935820
71.252584
65.820813
56.467652
48.479438
37.763715
30.954480
25.331974
##ZVALUE=355
0.258684
0.308752
0.268817
0.221729
0.352859
0.294447
0.365973
0.278950
0.394583
0.214577
0.299811
0.416636
0.215769
0.241995
0.291467
0.326633
0.170469
0.292659
0.296831
0.389814
0.325441
0.263453
0.442863
0.358820
0.469685
0.314713
0.211596
0.324845
0.447631
0.262856
0.378489
0.364780
0.460744
0.429749
0.218749
0.427961
0.470877
0.287890
0.405908
0.398755
0.436902
0.454783
0.388622
0.539422
0.672936
0.639558
0.554919
0.594854
0.469685
0.532866
0.614524
0.805855
0.812411
0.803471
0.848770
0.925660
1.026988
1.089573
1.273751
3.530979
13.048649
51.768422
108.546615
227.515697
361.116529
560.925007
687.837601
789.795518
798.027515
695.303679
568.102598
379.557610
241.467953
108.343959
52.809715
19.057989
10.976791
9.184480
9.185672
9.573698
9.839535
10.876656
11.455417
13.768673
16.285777
22.241473
28.317571
38.911700
46.785474
56.934953
62.861443
66.396594
65.710545
59.791803
53.739548
44.429898
##ZVALUE=360
0.253916
0.267625
0.434518
0.269413
0.375509
0.325441
0.321865
0.280738
0.162721
0.423789
0.265837
0.324845
0.367761
0.289679
0.337958
0.361800
0.241995
0.405908
0.452995
0.400543
0.315905
0.338554
0.451803
0.422597
0.391603
0.507832
0.579953
0.385642
0.498891
0.361800
0.338554
0.501871
0.621676
0.551939
0.490546
0.360608
0.374913
0.506639
0.629425
0.465512
0.464916
0.661612
0.559688
0.594854
0.597835
0.528693
0.464916
0.483990
0.568628
0.282526
0.590682
0.792742
0.748634
0.795722
0.824928
0.804663
0.733733
0.855923
1.086593
1.007915
1.255870
1.610518
6.924868
22.784472
74.704885
144.767761
287.321806
428.350568
620.434880
725.315809
775.581598
735.218525
589.926839
451.923609
280.621648
169.632435
73.065758
33.504963
12.739897
8.984804
8.752942
8.928776
9.091496
9.586811
9.827614
10.473728
11.818409
14.107823
18.959641
24.077892
32.467842
40.070415
49.536824
55.298805
59.641600
60.012937
##ZVALUE=365
0.293851
0.319481
0.216961
0.229478
0.324845
0.438690
0.260472
0.302792
0.285506
0.347495
0.295639
0.262856
0.360608
0.494719
0.324845
0.340939
0.410676
0.340939
0.480413
0.272989
0.420809
0.434518
0.430942
0.361800
0.448823
0.532866
0.412464
0.268817
0.447631
0.427961
0.434518
0.309944
0.353456
0.338554
0.486970
0.462532
0.517964
0.551939
0.474453
0.459552
0.424981
0.574589
0.446439
0.539422
0.502467
0.497699
0.680685
0.532866
0.662804
0.714660
0.674725
0.747442
0.641942
0.738502
0.609756
0.675917
0.968575
0.773668
0.957847
1.076460
0.800490
0.955462
1.184940
1.482964
2.711415
14.952421
40.881634
108.712912
202.215910
373.763442
508.551002
662.188530
737.625957
732.702017
652.278662
482.635498
345.228910
193.932652
105.561614
40.747523
18.541813
9.169579
8.407831
8.061528
8.094907
8.892417
8.871555
9.173751
9.628534
10.679960
12.407899
16.198754
20.717978
28.882623
35.236478
43.996572
##ZVALUE=370
0.309944
0.339746
0.335574
0.474453
0.265837
0.431538
0.392795
0.319481
0.304580
0.295639
0.305772
0.341535
0.285506
0.390410
0.401735
0.552535
0.290871
0.323653
0.544786
0.450611
0.317693
0.468493
0.306964
0.323653
0.419617
0.363588
0.420809
0.444651
0.430942
0.372529
0.363588
0.505447
0.411868
0.358820
0.511408
0.456572
0.498891
0.491738
0.548959
0.429749
0.339746
0.495911
0.521541
0.473857
0.516772
0.425577
0.557899
0.512600
0.556707
0.457764
0.729561
0.415444
0.530481
0.546575
0.384450
0.723600
0.748634
0.739694
0.710487
0.745654
0.722408
0.815988
0.832677
0.896454
1.143813
1.234412
1.746416
7.483959
25.069714
81.216693
153.218508
295.722485
433.085561
614.447594
709.432960
740.754604
687.795877
545.144677
409.010649
234.110951
135.293603
55.927634
26.440620
10.950565
7.836819
7.487535
7.372499
7.530451
7.919669
8.015633
8.640885
8.875728
9.403825
11.239648
13.623834
18.400550
##ZVALUE=375
0.367761
0.295639
0.252724
0.331998
0.232458
0.165701
0.402927
0.334978
0.315905
0.352859
0.267625
0.384450
0.222921
0.450611
0.292659
0.181794
0.207424
0.515580
0.474453
0.284910
0.426769
0.284910
0.369549
0.364780
0.442863
0.410676
0.413656
0.424981
0.437498
0.310540
0.387430
0.398755
0.506639
0.393987
0.464916
0.398755
0.512600
0.318885
0.442863
0.565648
0.282526
0.431538
0.516772
0.552535
0.549555
0.473857
0.335574
0.493526
0.565648
0.397563
0.464916
0.460744
0.624657
0.504851
0.639558
0.687838
0.492930
0.578761
0.757575
0.688434
0.735521
0.711679
0.702739
0.759959
0.846982
0.896454
1.024604
1.263618
1.375675
4.009008
13.555884
49.076676
103.122592
230.786800
359.559655
545.569658
658.318996
732.823014
718.479753
598.235726
466.344953
288.164616
182.416439
91.522932
46.920776
17.525554
9.255409
6.754994
6.971955
6.954670
7.288456
7.399917
7.433891
7.748604
8.172989
9.132624
##ZVALUE=380
0.323653
0.315905
0.185966
0.251532
0.270605
0.300407
0.405908
0.433922
0.370741
0.302792
0.273585
0.314713
0.360608
0.319481
0.314713
0.370741
0.330806
0.337958
0.342727
0.422597
0.395775
0.436902
0.529885
0.391603
0.464916
0.484586
0.354648
0.379682
0.314713
0.452995
0.443459
0.472665
0.439882
0.379682
0.463724
0.394583
0.365973
0.272989
0.357628
0.317693
0.381470
0.368953
0.287890
0.537634
0.375509
0.505447
0.338554
0.541806
0.385642
0.337958
0.473857
0.500679
0.478625
0.536442
0.534654
0.498891
0.537634
0.470877
0.584722
0.604987
0.564456
0.645518
0.808835
0.756979
0.672936
0.691414
0.666976
0.812411
1.097918
1.228452
1.263618
2.106428
7.048845
33.919811
79.965591
187.911987
305.351615
478.684902
610.789657
721.402764
729.677677
637.422800
525.437593
367.963910
248.901844
123.142004
65.013766
24.381876
11.603832
6.748438
6.425977
6.617904
6.552935
6.532669
6.855726
7.002950
##ZVALUE=385
0.331998
0.268817
0.140667
0.270605
0.424981
0.398755
0.342727
0.402927
0.235438
0.356436
0.348687
0.481606
0.402927
0.302792
0.380874
0.222921
0.311732
0.320673
0.370741
0.317693
0.384450
0.377893
0.308752
0.390410
0.382662
0.480413
0.416636
0.370741
0.271797
0.242591
0.372529
0.410676
0.456572
0.493526
0.401735
0.415444
0.609756
0.458956
0.376701
0.484586
0.414848
0.305772
0.310540
0.455976
0.459552
0.348687
0.306964
0.474453
0.477433
0.456572
0.435710
0.425577
0.432730
0.401735
0.508428
0.454783
0.581741
0.576973
0.465512
0.561476
0.625849
0.630617
0.606775
0.615716
0.550747
0.673532
0.849962
0.940561
0.892878
0.979900
1.006722
1.124740
1.303554
1.406670
3.938675
14.395714
54.166913
116.083622
251.442790
383.798480
565.853715
668.720603
724.288821
703.610778
592.591763
471.048951
301.232934
192.828774
88.872910
44.538975
16.293526
8.101463
5.883574
6.069541
5.927682
5.848408
##ZVALUE=390
0.260472
0.247955
0.366569
0.368953
0.258684
0.153780
0.334978
0.108480
0.220537
0.202656
0.301600
0.287890
0.347495
0.330806
0.392795
0.293851
0.337958
0.187755
0.304580
0.216961
0.181794
0.145435
0.347495
0.486970
0.421405
0.383854
0.350475
0.308752
0.313520
0.333786
0.307560
0.262856
0.254512
0.397563
0.532866
0.416636
0.386834
0.380874
0.500679
0.344515
0.418425
0.309944
0.364780
0.459552
0.364780
0.342727
0.405908
0.394583
0.544786
0.544786
0.406504
0.374913
0.559688
0.461936
0.513792
0.353456
0.483990
0.516772
0.407696
0.499487
0.570416
0.558496
0.540614
0.431538
0.459552
0.597835
0.602603
0.742674
0.946522
0.951886
0.684857
0.905991
0.965595
0.905991
0.869632
1.075864
1.909733
9.956956
31.144619
97.273588
184.340477
348.828435
477.091670
621.078014
699.455738
724.304914
671.709776
529.442430
403.956771
245.514512
144.490004
59.872866
27.777553
9.558797
5.800724
5.465746
##ZVALUE=395
0.286698
0.302792
0.259876
0.167489
0.243783
0.356436
0.270605
0.299811
0.435710
0.366569
0.288486
0.369549
0.298619
0.287890
0.461936
0.251532
0.332594
0.374913
0.352859
0.364780
0.248551
0.275970
0.290871
0.378489
0.408888
0.399947
0.370741
0.396967
0.308752
0.217557
0.454783
0.245571
0.166893
0.255704
0.508428
0.440478
0.370741
0.542998
0.375509
0.320673
0.271797
0.460744
0.441670
0.483990
0.275970
0.442863
0.528693
0.357628
0.395775
0.488758
0.503659
0.420809
0.418425
0.398755
0.469685
0.375509
0.369549
0.481606
0.618696
0.527501
0.522733
0.421405
0.557899
0.556707
0.552535
0.600815
0.523925
0.741482
0.691414
0.926852
0.837445
0.776649
0.770688
0.951886
0.895858
0.917912
0.947714
0.956655
1.353621
5.711913
20.370483
70.097446
133.660436
256.858468
382.929444
560.137630
671.456456
743.008852
723.356605
614.254475
482.389927
299.902558
186.479688
83.105564
40.366650
14.615655
##ZVALUE=400
0.284910
0.350475
0.298619
0.128746
0.183582
0.294447
0.303984
0.151992
0.406504
0.314713
0.243783
0.325441
0.464916
0.258684
0.272989
0.263453
0.379682
0.306964
0.344515
0.256896
0.263453
0.303984
0.297427
0.467896
0.330806
0.378489
0.260472
0.413656
0.343919
0.266433
0.414848
0.312924
0.385642
0.317693
0.339746
0.423789
0.402927
0.303984
0.395775
0.335574
0.387430
0.232458
0.406504
0.321865
0.372529
0.538826
0.450611
0.376701
0.491738
0.425577
0.338554
0.412464
0.488758
0.387430
0.412464
0.473857
0.467896
0.500679
0.446439
0.422597
0.524521
0.522733
0.505447
0.463724
0.558496
0.380874
0.609756
0.689626
0.767708
0.677705
0.808835
0.859499
0.853539
0.777841
0.772476
0.801682
0.809431
1.002550
0.784993
1.078844
1.119971
2.854466
10.708570
41.889548
90.455413
199.147463
315.472484
488.696694
607.484579
708.677769
720.873475
638.791919
531.201959
365.641713
241.547823
121.418834
##END
