##TITLE=FQP00352
##FORMAT=SPECTACLE-ASCII V-1.2
##DATA TYPE=ULTRAVIOLET SPECTRUM
##SECOND TYPE=ULTRAVIOLET SPECTRUM
##DATE=12/26/17
##TIME=13:17:44
##SPECTROMETER/DATA SYSTEM=SPECTACLE
##XUNITS=NM EM
##YUNITS=ENERGY
##YFACTOR=1
##FIRSTX=220
##LASTX=410
##NPOINTS=96
##3DDATA=Equidistant
##ZUNITS=NM EX
##FIRSTZ=210
##LASTZ=400
##ZPOINTS=39
##XYDATA=(Y..Y)
##ZVALUE=210
1.773834
2.543926
2.305508
1.882911
1.915693
2.692938
2.340674
2.999902
2.377629
2.498627
2.539754
2.986789
3.130436
1.943707
2.306700
2.635717
2.531409
2.599955
2.854466
3.091693
2.672672
3.095865
3.235936
3.866553
3.675818
3.927946
3.292561
4.664660
4.902482
4.905462
5.406737
5.617738
4.988909
5.472898
5.395412
6.731749
5.874634
6.053448
6.199479
5.944967
5.532503
5.771518
6.364584
5.447865
5.882978
5.438924
5.421638
5.093813
5.443692
5.859733
5.095601
4.673600
5.636811
5.418658
5.674958
5.619526
5.954504
5.338788
4.908442
5.457997
6.040931
5.524755
5.228519
4.518628
5.262494
5.212426
5.280972
7.184744
6.837845
8.705854
9.662509
10.819435
13.144612
14.977455
16.489625
16.167760
18.483996
21.888614
20.346642
19.945502
19.500852
17.194748
13.402700
11.928678
10.680556
7.844567
7.208586
5.790591
5.900860
4.955530
5.678535
5.329847
5.479455
5.946755
5.814433
6.181598
##ZVALUE=215
5.435944
5.836487
5.630851
3.711581
3.837943
4.346967
5.324483
4.651546
4.785657
5.883574
4.694462
4.637837
3.931522
2.921820
2.765656
2.952814
2.629757
2.952814
2.728701
3.068447
2.997518
3.272891
3.784895
3.106594
3.774762
4.838705
5.491972
6.016493
6.142855
6.523728
7.389784
6.919503
7.835627
8.670688
8.673668
8.148551
9.050965
8.858442
8.425713
8.778572
8.263588
7.918477
7.518530
7.270575
7.080436
6.668568
6.748438
5.792975
6.664991
6.216764
6.352663
6.295443
5.816817
5.790591
5.713701
6.115437
5.252957
6.135702
5.498528
5.251765
5.946755
5.815625
4.766583
5.074739
5.019903
5.585551
6.004572
6.402731
6.369948
7.325411
8.824468
8.810759
10.204911
11.888742
13.330579
14.909506
17.458797
16.746521
17.149448
17.911792
15.917420
12.875795
12.026429
10.321736
8.827448
7.169843
5.920529
6.043911
4.832745
4.744530
5.048513
4.400611
4.409552
4.551411
4.834533
5.082488
##ZVALUE=220
19.277930
19.719601
20.392537
19.252896
19.134879
17.102957
11.892915
10.944605
9.874701
10.505915
9.676814
11.866689
10.664463
10.344982
9.742975
6.545782
5.452633
4.270673
3.419518
3.515482
3.050566
3.476739
4.375577
3.108978
4.721880
5.441904
6.580949
6.695986
7.668734
8.707643
9.929538
11.453629
12.092590
12.038946
12.701750
12.457967
13.344884
12.117624
11.211634
12.571812
11.044741
10.619760
10.413527
9.777546
9.586811
8.209944
8.642673
8.009672
7.415414
7.365942
7.244945
7.838607
7.398725
8.040667
7.219911
6.554723
7.250905
6.545782
6.483793
5.952716
6.585717
6.907582
6.554723
5.926490
5.848408
6.910563
6.932616
6.745458
8.226633
8.493662
9.642839
10.570884
11.150837
12.030602
12.250543
12.720823
14.428496
14.255643
14.704466
12.757778
12.298822
12.242794
10.873675
8.672476
7.490516
6.779432
6.001592
6.044507
5.690455
5.095601
5.466938
4.643798
5.345941
5.764961
5.755424
5.390644
##ZVALUE=225
35.027862
36.314726
45.454502
55.268407
63.734651
62.530637
57.776570
43.154955
38.118958
28.974414
20.642877
22.741556
23.591518
23.501515
24.624467
22.469759
20.219684
16.512871
12.635589
7.661581
5.515814
4.578829
4.072785
3.971457
4.438758
6.097555
7.084608
7.214546
9.674430
10.686517
12.395978
12.941957
12.738705
14.354587
15.156865
16.570687
16.077757
16.444921
15.640855
15.574694
12.755990
13.818741
13.277531
12.334585
12.244582
11.739731
10.377765
9.327531
8.846521
9.388924
8.829832
8.014441
8.704662
8.055568
9.145737
8.311868
9.021759
8.696914
7.715821
8.064508
6.745458
8.401871
7.289648
8.146763
9.377599
8.254647
8.468628
7.392764
9.064674
9.874701
11.074543
11.958480
12.407899
13.490915
15.023947
12.616515
13.229847
13.364553
13.134480
13.027787
12.293458
11.059642
11.262894
8.944869
8.496642
6.982684
8.156896
8.280873
7.264614
7.940531
7.716417
7.637739
6.493926
7.440448
6.771684
7.060766
##ZVALUE=230
27.832985
34.815669
53.584576
84.372759
109.149814
137.377977
148.155689
151.587725
143.920779
120.334625
89.198947
66.753626
47.195554
44.309497
41.557550
46.399832
48.708916
48.908591
42.109489
34.163594
26.311874
18.004775
13.527870
7.227659
5.867481
5.814433
7.245541
8.108616
9.164810
9.290576
11.679530
11.495948
12.830496
14.998913
14.063716
13.316870
13.794899
15.339851
14.225841
13.789535
13.468862
12.588501
12.907982
12.140870
13.789535
11.796951
11.002421
10.234714
10.951757
10.234714
10.593534
10.240674
10.842681
10.588765
10.761619
10.667443
9.646416
10.173917
10.718703
10.826588
10.477901
10.437965
10.811687
10.903478
9.937882
9.525418
10.290742
11.561513
11.323690
11.563897
13.133883
14.131665
14.670491
16.604662
15.999675
16.856790
16.511679
16.690493
16.440749
15.024543
15.442967
14.070868
12.707710
13.053417
11.320710
10.819435
10.423660
9.922981
10.611415
9.617805
9.493828
8.541942
8.959770
9.568930
9.641647
9.608865
##ZVALUE=235
10.721684
13.676882
28.054714
65.698624
105.022788
170.470476
216.471553
287.434459
308.755636
313.149691
282.356739
241.741538
164.819956
116.251707
85.341930
71.747899
67.315698
73.992610
80.556870
81.123710
75.464845
63.463449
54.008961
34.142733
25.937557
15.059710
11.173487
8.069873
7.974505
8.717775
9.077787
8.771420
10.974407
10.858774
11.273623
10.815859
10.258555
11.297464
12.085438
11.664629
12.146831
12.026429
11.392832
10.896921
11.467934
11.717677
11.313558
10.981560
11.181831
10.859966
10.754466
12.068748
11.764765
11.724830
11.821985
12.214780
13.152957
11.859536
12.367964
12.357831
12.867451
12.452602
11.764765
12.858510
12.689829
14.135838
13.336539
13.472438
12.950897
15.226603
16.139746
16.951561
18.638968
18.920898
21.534562
19.371510
18.301606
19.583702
20.035505
20.354986
16.840696
17.570853
18.000603
15.349984
14.119744
13.316870
15.300512
14.118552
12.812614
13.991594
12.827516
13.958812
14.858842
12.664795
12.907982
12.162924
##ZVALUE=240
2.137423
2.161860
5.666614
15.497804
38.094521
75.311661
147.131681
227.422714
347.738862
418.794751
479.037762
476.731658
441.287756
354.173779
275.121927
178.975463
126.145482
97.805858
88.197589
96.849799
104.942918
111.587644
110.546947
100.229979
78.975558
64.233541
43.963790
32.176971
19.422770
15.785694
11.496544
8.740425
9.137988
10.356903
9.702444
10.589957
10.010600
12.166500
11.328459
12.101531
12.223721
11.919737
13.157725
12.441874
12.718439
12.346506
11.414886
11.810660
12.769699
13.276935
13.653636
13.871789
12.991428
15.038848
12.507439
14.843941
15.155673
16.245842
15.277863
14.910698
14.100671
15.978813
15.984774
14.049411
15.574694
15.113950
16.627908
16.478896
16.749501
19.024611
18.153787
19.085407
21.618605
21.568537
22.025704
22.361875
22.463799
22.148490
20.968914
23.047924
19.903779
19.940734
20.067692
19.273758
18.575788
17.830729
17.502904
16.106963
15.500784
17.636418
16.927719
16.848445
16.936660
17.320514
16.647577
16.196966
##ZVALUE=245
1.431704
1.427531
1.617670
1.938939
3.581643
12.122989
28.496981
79.911947
142.673850
226.014853
360.552669
468.884706
552.895665
573.347807
540.801883
463.205576
348.982811
255.638957
164.238811
114.445686
94.265938
93.998909
106.583834
120.874643
123.986602
122.569799
106.828809
90.434551
70.546865
49.028993
38.387775
21.531582
15.869737
11.564493
11.145473
11.135936
10.823607
11.640787
10.949969
11.925697
12.040734
12.213588
12.642741
12.433529
13.023615
12.346506
13.872981
12.859702
13.158917
13.121963
13.491511
14.307499
14.115572
14.146566
13.562441
13.894439
15.085936
14.000535
14.529824
14.561415
14.121532
13.282895
14.405847
13.971925
15.446544
14.278889
15.439987
15.624762
15.098453
16.746521
18.300414
17.668605
17.505884
17.908812
21.054745
19.747615
18.225908
21.013618
20.053983
19.399524
18.757582
19.998550
18.507838
17.927885
16.279817
17.286539
18.882751
16.722679
15.139580
16.269684
16.391873
17.143488
15.844703
16.007423
15.890598
15.372634
##ZVALUE=250
1.379848
1.529455
1.571774
1.553893
1.423955
1.497865
2.188683
7.549524
27.360916
59.504509
140.389800
235.464573
343.523622
495.431423
584.206581
647.181869
645.752549
571.088791
474.557877
332.076550
221.003890
147.723556
101.079941
87.824464
100.918412
119.229555
133.910775
136.647820
131.748915
121.908784
106.450915
79.384446
57.963729
38.982630
28.746724
18.035769
16.472936
14.152527
13.495684
13.345480
14.383793
14.912486
13.847947
14.946461
13.979673
14.193654
13.333559
13.598800
14.298558
13.865829
14.111996
15.205741
14.165640
12.966990
13.184547
13.612509
13.487935
13.040900
12.633801
12.272596
13.084412
12.768507
13.501644
12.797713
12.753606
12.369752
12.811422
14.610887
13.811588
14.556646
15.386939
15.479922
16.901493
17.704964
16.950965
16.671419
17.937422
17.664433
17.988682
16.753674
18.109679
16.636848
16.218424
16.534925
16.762614
15.756488
16.699433
16.239882
16.050935
14.261603
16.229749
16.568899
15.297532
15.470982
15.655756
15.648603
##ZVALUE=255
1.025796
1.008511
0.852942
0.857711
0.978708
1.398921
1.149774
1.026988
1.819730
3.562570
18.336773
45.027733
94.652772
197.319984
315.600634
482.505560
592.248440
696.398020
725.078583
672.636628
569.983721
451.121926
286.600590
187.098980
106.946826
86.029768
86.953640
101.600885
128.021836
139.572620
148.953795
145.555735
131.574869
110.992789
87.325573
62.384605
45.434833
30.823946
23.460984
18.268824
18.024445
16.736984
16.237497
16.750693
16.049743
15.219450
15.371442
15.096664
15.111566
15.309453
13.254881
13.445616
13.809800
12.690425
12.222528
12.386441
11.833906
12.160540
11.766553
12.268424
11.763573
12.219548
12.020469
11.774898
11.849999
10.765791
11.368990
11.590719
11.640787
12.789965
12.917519
14.089942
13.696551
13.251901
15.006661
15.326738
15.337467
15.346408
14.682412
15.094876
15.194416
15.134811
13.564825
15.162826
14.956594
14.733672
15.072823
14.627576
15.377998
14.285445
15.044808
13.469458
14.651418
14.530420
15.180707
14.007688
##ZVALUE=260
1.016855
1.062751
0.991821
0.988841
1.261830
1.081824
1.124740
1.316667
1.635551
1.392961
1.667738
1.967549
9.162426
25.887489
69.620609
140.279531
283.574462
411.276817
533.952713
693.549514
766.374469
753.410459
679.315925
520.573854
379.127860
225.296617
151.711702
92.790723
79.225898
87.704659
107.754469
134.587884
151.637793
157.823563
156.419873
139.577985
121.497512
90.033412
71.291924
49.935579
36.184788
25.262833
21.217465
18.278956
18.159747
16.817451
15.934706
16.455650
15.950799
15.410781
14.641881
13.818741
12.781620
12.714863
12.397766
12.407899
11.590719
10.989904
10.873675
11.412501
10.742545
10.741949
10.650754
10.957718
10.521412
10.185838
10.780692
10.749698
10.945797
11.477470
11.285543
12.081861
11.961460
12.887716
12.561679
12.471676
13.595819
12.542605
13.649464
13.556480
13.038516
13.306737
13.389587
13.318658
12.625456
13.562441
13.203621
13.303757
12.949705
13.186932
12.996793
13.647676
13.636947
13.985634
14.104843
13.974905
##ZVALUE=265
0.893474
0.761747
0.977516
0.770688
0.974536
0.951886
0.882745
0.984669
1.053810
1.311898
1.089573
1.379848
1.406670
1.591444
3.637671
18.798709
45.774579
114.388466
205.734968
377.271771
527.576804
665.442944
792.526603
816.891789
735.976696
632.561445
468.179584
333.416462
195.178986
125.347972
86.802840
78.470707
91.681480
118.787885
142.815709
163.033009
164.506435
158.507824
144.675970
119.308829
96.605420
67.950487
49.187541
31.946898
25.319457
19.268990
16.933680
16.528964
15.400648
14.233589
14.416575
13.628602
12.911558
12.853742
12.117624
13.000965
11.687875
11.416674
11.181831
10.390878
10.476708
10.359883
10.568500
10.030866
10.154843
9.897947
10.229945
10.642409
10.334849
10.804534
11.841655
10.553598
11.140704
11.598468
12.709498
11.579990
11.843443
11.469722
12.603998
11.925697
12.511611
12.384653
12.694597
12.128949
12.807846
12.600422
12.988448
12.296438
12.549758
12.660623
12.982488
12.417436
12.435913
11.834502
12.218952
12.527704
##ZVALUE=270
0.830889
0.582933
0.874996
0.759959
0.916719
0.928640
1.029968
0.877976
1.048446
1.205802
1.117587
1.150966
1.207590
1.393557
1.315475
1.569986
2.339482
7.578731
30.904412
76.216459
153.961778
317.255855
470.379591
668.485761
786.801577
856.034756
839.648843
735.388994
608.714819
424.325466
292.791724
159.574747
102.061629
70.138574
72.620511
94.977617
115.719438
144.870877
159.591436
163.718462
160.794854
143.009424
122.435689
92.317462
68.883896
45.792460
31.371713
21.849871
17.870665
14.370680
13.852715
12.909770
12.505651
12.149811
11.598468
11.243820
11.166930
11.933446
10.733604
11.673570
11.318922
10.932684
10.657907
10.438561
10.275841
10.259748
9.774566
10.512471
10.484457
10.524988
10.743737
10.990500
11.460781
12.118816
12.175441
11.812449
11.759996
11.551976
11.972785
12.005568
11.034608
11.834502
11.897683
10.600686
11.520982
11.582971
11.738539
11.779666
11.022687
11.601448
11.966825
11.420846
11.710525
11.432767
11.584759
11.319518
##ZVALUE=275
0.693798
0.647902
0.502467
0.690818
0.725985
0.804663
0.792742
0.673532
0.520945
0.794530
0.700951
0.894666
0.745654
1.035929
0.928640
1.153946
1.191497
1.285672
1.497865
4.161596
15.079975
46.351552
129.555464
239.270926
436.926484
580.554605
749.177933
855.106711
887.318850
833.135843
736.652613
543.713570
389.959812
213.922858
128.925443
68.670511
55.728555
66.853762
84.103942
114.690661
131.458640
151.293874
155.931711
149.379969
136.214495
108.999610
88.047981
64.333677
45.911670
29.437542
22.201538
14.742613
12.452602
11.996627
11.111498
11.240840
11.060834
10.486841
10.603666
11.176467
11.197925
11.420846
10.724664
11.116862
10.889769
10.689497
10.702610
10.681748
10.721684
11.837482
11.197925
11.839867
11.813641
11.523962
12.127757
12.233853
12.636781
12.015700
11.547804
11.953712
11.440516
11.764765
10.979772
11.310577
11.325479
11.011958
10.980964
10.786653
11.353493
10.960698
10.643601
10.803938
10.922551
10.851622
10.878444
10.770559
##ZVALUE=280
0.682473
0.702739
0.691414
0.851750
0.671744
0.752807
0.763535
0.668764
0.847578
0.819564
0.698566
0.909567
0.908971
1.022816
1.067519
1.075864
1.180768
1.147985
1.397729
1.342893
1.467466
1.774430
9.743571
32.827854
103.913546
185.708404
337.935686
492.373705
686.841607
814.123750
891.462564
885.131955
795.094967
606.740713
449.153781
259.946585
159.157515
75.765848
46.854615
43.290854
55.635571
81.260800
102.017522
128.547549
142.254829
150.141716
143.642426
127.756000
108.796954
82.068443
62.774420
41.241646
28.592944
18.022656
14.187694
11.687875
11.389852
10.727644
11.117458
11.237860
11.605620
11.672974
11.532903
11.945963
12.185574
11.784434
11.894703
11.973977
12.094975
12.256503
12.385845
12.582541
12.994409
12.582541
12.405515
12.983680
12.542605
11.807680
12.843609
11.969805
11.479855
12.280941
11.663437
11.576414
11.039972
11.259913
10.803938
11.561513
10.908842
10.586977
10.835528
10.490417
10.664463
11.055470
10.203719
11.063814
##ZVALUE=285
0.676513
0.767708
0.772476
0.705719
0.744462
0.739694
0.694990
0.748634
0.725985
0.927448
0.858903
0.840425
0.836849
0.835657
0.884533
1.127720
0.951886
1.090765
1.033545
1.178980
1.241565
1.260638
1.655817
1.816750
4.847646
16.637444
56.508780
117.125511
248.632431
390.080810
544.042587
746.310949
859.288573
914.594531
864.146948
701.352954
551.259518
347.687006
215.141773
102.781653
55.304766
31.761527
33.549666
51.542521
69.948435
100.185871
121.222734
135.043859
142.547488
140.553713
130.524635
106.606483
87.574720
60.922503
43.812990
27.385950
19.339919
15.121698
13.310909
12.580752
12.719631
13.208985
13.002753
12.634993
13.075471
13.027787
13.071895
13.505816
13.386607
13.709664
13.404489
13.956428
14.349818
13.330579
13.607740
13.571978
13.043880
13.262630
13.176799
12.953877
12.649894
12.467504
11.918545
11.961460
12.002587
11.586547
11.913776
11.542439
11.118650
10.889769
10.842681
10.523796
10.970831
10.305643
10.376573
10.657907
##ZVALUE=290
0.758767
0.609756
0.644922
0.743866
0.625849
0.737906
0.542998
0.659823
0.609756
0.739694
0.761747
0.763535
0.786781
0.768900
0.911951
0.737906
0.878572
0.791550
0.925660
1.062751
1.191497
0.779629
1.070499
1.280904
1.690984
1.477599
2.114773
7.134676
33.236742
75.076818
173.474550
288.819671
494.912863
661.020875
838.546753
907.069445
903.644562
808.815956
618.651509
465.597510
272.668004
164.528489
72.981715
37.412643
24.337769
31.275749
48.040748
64.977407
92.221498
112.865567
133.036971
140.666962
138.520002
127.896667
107.572675
86.458921
61.209798
46.054721
30.838847
23.265481
17.590523
15.042424
14.501810
13.871789
14.304519
13.742447
14.549494
14.699697
14.377832
15.086532
15.221834
14.893413
14.668703
15.004873
14.741421
14.298558
14.750957
14.488697
13.193488
13.629794
13.213754
13.549924
12.175441
12.176633
12.276769
11.607409
12.087822
11.665821
11.367798
11.261702
10.907650
11.280775
10.518432
10.504723
10.524988
10.815859
##ZVALUE=295
0.641942
0.589490
0.513792
0.504851
0.483990
0.502467
0.635982
0.568628
0.647902
0.564456
0.767708
0.844598
0.610948
0.631809
0.730753
0.703931
0.703931
0.799894
0.771880
0.908971
0.779629
0.991821
0.853539
0.943542
1.311898
1.335740
1.453757
1.582503
1.393557
3.057718
10.808706
46.147704
103.843808
239.262581
383.918881
602.378845
753.583908
893.327594
923.486948
851.871967
732.324719
524.452925
363.569856
194.643736
107.985735
42.361617
23.663640
20.955801
28.306842
46.895742
64.125657
89.751482
108.063817
127.899647
134.691000
134.706497
123.382807
103.662610
85.387826
61.831474
46.397448
31.581521
24.208426
19.072890
16.776919
15.237927
15.493631
15.203953
15.461445
15.603900
15.969872
15.738606
15.456676
15.171766
15.899539
14.831424
14.908910
14.323592
14.232993
14.478564
13.598800
13.158917
12.886524
13.080835
13.259649
12.662411
11.936426
11.756420
12.314916
11.283755
10.948777
11.111498
10.752678
10.899901
10.103583
10.121465
##ZVALUE=300
0.670552
0.523925
0.674725
0.681877
0.595450
0.516772
0.671744
0.565648
0.642538
0.607967
0.596642
0.807643
0.753999
0.595450
0.613928
0.648499
0.770688
0.519753
0.693798
0.666976
0.645518
0.826716
0.870824
0.962615
0.946522
1.070499
1.001954
1.151562
1.168847
1.153946
1.562834
1.607537
6.408691
24.319887
81.995726
157.074928
317.036510
477.545857
692.197680
817.446709
917.313695
904.820561
789.238811
646.981001
430.939794
282.156467
143.834949
76.883435
29.659867
18.715858
20.078421
27.121902
43.917894
59.410930
83.514452
102.317929
121.942759
129.987597
129.188895
124.197602
105.481744
86.554885
63.335896
49.199462
34.268498
25.546551
19.311905
17.096996
16.184449
15.899539
16.005635
14.912486
15.348792
15.215874
15.291572
15.010834
15.021563
14.647841
14.102459
14.034510
13.445616
13.145804
13.327599
13.237000
12.464523
12.708902
12.163520
12.533665
11.800528
11.315942
10.784864
10.920763
10.889769
10.540485
10.550618
10.656714
##ZVALUE=305
0.521541
0.500679
0.590682
0.596642
0.391603
0.553727
0.633597
0.454783
0.457764
0.613928
0.456572
0.642538
0.460744
0.531673
0.596642
0.688434
0.690818
0.780821
0.799894
0.768900
0.809431
0.740886
0.667572
0.879765
0.858903
0.870824
0.992417
1.004934
1.131892
1.174808
1.137853
1.468658
1.382828
1.645684
2.867579
16.673803
45.657754
128.390789
227.660537
416.038632
577.632785
778.160691
883.085728
923.081636
860.731602
683.535933
532.490015
342.600942
211.894512
98.285675
49.780607
20.679832
15.679598
19.607544
27.724504
43.143630
58.794618
81.769824
98.776817
117.692947
125.492811
123.280883
116.698742
97.965598
81.956983
60.382485
46.560764
31.541586
23.657680
18.346906
16.181469
15.171766
14.891624
14.508963
14.516711
13.823509
13.764501
13.674498
13.600588
13.356805
13.359785
13.406873
12.907982
12.685657
12.646914
12.184978
12.444854
12.153983
11.675954
11.148453
10.968447
10.868907
10.411739
10.422468
10.426641
10.060668
##ZVALUE=310
0.464916
0.533462
0.335574
0.675917
0.468493
0.687838
0.450611
0.485778
0.517964
0.511408
0.611544
0.657439
0.646710
0.626445
0.555515
0.668764
0.713468
0.637770
0.619888
0.643730
0.703931
0.670552
0.808835
0.822544
0.755787
0.698566
0.853539
0.652671
1.014471
0.925660
0.973940
0.963807
1.113415
1.118779
1.426935
1.546741
1.762509
6.753802
22.882819
77.643991
151.348710
306.996703
468.259454
687.233806
820.674896
912.498832
901.941657
787.111521
654.288530
443.023443
297.355652
149.754882
82.334876
31.767488
17.418861
14.978647
18.333793
26.626587
36.688447
55.064559
69.695711
92.535615
104.659796
114.918947
118.016601
108.792782
97.356439
78.224540
61.278939
42.463541
31.836629
22.669435
18.454790
14.667511
13.506413
12.771487
12.445450
12.393594
12.326837
12.514591
12.403727
11.929870
12.024641
11.951923
11.762977
11.538863
11.988878
11.578798
11.351705
11.201501
10.833740
10.546446
10.405779
9.948611
10.114908
9.833574
##ZVALUE=315
0.628829
0.475645
0.405908
0.673532
0.604987
0.637770
0.603795
0.498891
0.452995
0.732541
0.452995
0.373721
0.543594
0.602603
0.510812
0.522733
0.515580
0.484586
0.517964
0.673532
0.631809
0.658631
0.822544
0.651479
0.880957
0.825524
0.791550
0.780821
0.938773
0.829697
0.880957
1.049638
0.928640
0.970960
1.007915
1.157522
1.251698
1.329780
1.585484
3.098845
11.613965
48.185587
105.535984
237.627625
383.707881
608.097911
752.710700
879.065990
920.884609
856.187940
738.595724
530.332923
377.856493
203.836560
110.804439
43.378472
20.876527
12.602806
13.269782
17.065406
22.889972
35.549998
47.886968
67.808628
82.490444
101.354718
108.444691
110.054612
104.901791
88.226795
74.285865
55.498481
41.635633
27.697682
21.073818
15.961528
13.161898
12.045503
11.586547
11.431575
11.541843
11.405945
11.008978
11.313558
11.384487
10.985732
10.954738
10.894537
10.665655
10.518432
10.620952
10.588765
10.168552
9.818673
9.951591
10.201931
##ZVALUE=320
0.475645
0.559688
0.413656
0.394583
0.539422
0.451803
0.505447
0.605583
0.623465
0.506639
0.524521
0.615716
0.581741
0.506639
0.623465
0.471473
0.636578
0.388622
0.474453
0.548959
0.550747
0.647902
0.565648
0.692606
0.767708
0.735521
0.700951
0.727773
0.552535
0.722408
0.735521
0.923872
0.837445
0.905991
0.911951
0.918508
0.967979
1.047850
1.161695
1.171827
1.446605
1.591444
6.504655
22.595525
77.859759
155.052543
308.250785
457.078815
668.271780
805.554986
907.676816
900.164843
782.507658
643.872023
434.535742
283.240676
132.574439
70.905685
27.586818
14.640689
10.244846
11.008978
14.323592
19.302964
30.557513
41.867495
60.649514
75.974464
92.806816
100.715756
102.066994
97.095966
84.070563
70.231557
51.775575
39.082766
26.711822
19.345880
14.026761
11.938810
10.874867
10.567904
10.303855
10.185838
10.351539
10.346770
10.328889
10.215640
10.088682
10.182858
9.652972
9.736419
9.901524
9.795427
9.924769
9.702444
##ZVALUE=325
0.424981
0.415444
0.388622
0.325441
0.484586
0.487566
0.603795
0.411868
0.593662
0.531673
0.571609
0.451803
0.623465
0.357628
0.442863
0.390410
0.633597
0.537634
0.682473
0.667572
0.716448
0.710487
0.669956
0.681877
0.746846
0.665784
0.573993
0.572801
0.698566
0.747442
0.896454
0.959635
0.730753
0.792742
0.829697
0.875592
0.995994
0.922680
0.913739
0.995994
1.097918
1.130700
1.368523
1.559854
2.880692
17.424822
46.085715
120.604634
218.896866
408.959985
565.519929
757.429600
857.582688
888.680816
833.595991
658.410788
501.523614
309.405923
189.297795
82.974434
40.085912
15.397668
9.338856
8.558631
9.502769
12.872815
17.641783
27.281642
38.502812
57.923794
71.793795
86.482763
93.836784
95.749497
89.798570
76.173544
64.053535
47.880411
36.020875
23.237467
17.567873
13.002753
10.847449
10.607839
9.885430
9.700656
9.381771
9.756684
9.577870
9.386539
9.655952
9.360909
9.547472
9.343624
9.255409
9.313822
##ZVALUE=330
0.478625
0.320673
0.390410
0.391603
0.416636
0.357628
0.454783
0.504851
0.424981
0.263453
0.387430
0.493526
0.542998
0.370741
0.482798
0.442863
0.378489
0.424981
0.451803
0.577569
0.680685
0.397563
0.542998
0.557899
0.603795
0.617504
0.652671
0.559688
0.615716
0.745654
0.445843
0.703931
0.603795
0.886917
0.705719
0.799894
0.873804
0.650883
0.674725
0.975728
0.789762
0.871420
1.014471
1.200438
1.233816
1.389980
1.814961
7.412434
24.829507
82.081556
157.659650
313.672423
461.367965
665.069818
794.774890
878.523588
855.201483
725.519657
585.196018
377.712846
243.545771
114.789009
58.472753
21.388531
11.073947
7.917881
7.422566
9.041429
11.256933
17.325878
24.819970
38.206577
50.170422
67.761540
80.232620
88.838935
89.212656
83.662868
73.781610
58.216453
46.154857
32.017827
24.137497
16.552806
13.311505
11.085868
10.213852
9.429455
9.539723
8.813739
9.117723
9.289980
8.996725
9.095669
8.733869
8.661747
##ZVALUE=335
0.563860
0.417829
0.522733
0.348687
0.430942
0.503659
0.501871
0.437498
0.506639
0.434518
0.522733
0.457764
0.412464
0.661612
0.621676
0.571609
0.551939
0.586510
0.256896
0.494719
0.751615
0.425577
0.559688
0.487566
0.589490
0.530481
0.573993
0.516772
0.446439
0.570416
0.678897
0.645518
0.668764
0.617504
0.541806
0.558496
0.584722
0.676513
0.746846
0.801682
0.724792
0.828505
1.029968
0.815988
0.901818
0.953674
1.235604
1.219511
1.442432
2.565980
15.816689
44.004917
120.535493
216.444731
394.119620
556.687713
749.671459
835.528970
857.166648
793.545842
631.266832
478.067994
289.228559
175.625682
73.888898
35.011768
12.861490
8.054972
7.294416
7.583499
8.843541
11.289716
16.670823
23.626685
36.708713
48.071742
64.705610
74.684620
82.950592
83.635449
78.006983
69.409609
56.520700
46.143532
33.086538
24.939775
16.876459
13.655424
10.735989
9.895563
9.409785
8.987784
8.997917
8.853674
8.776784
8.731484
##ZVALUE=340
0.361800
0.372529
0.414848
0.443459
0.388622
0.437498
0.329614
0.528693
0.486970
0.555515
0.443459
0.520945
0.431538
0.342727
0.527501
0.470877
0.429749
0.510812
0.611544
0.541806
0.414848
0.375509
0.423789
0.620484
0.530481
0.491738
0.419617
0.408888
0.447631
0.476837
0.604987
0.577569
0.395775
0.443459
0.521541
0.586510
0.651479
0.333786
0.817776
0.578761
0.811815
0.877976
0.879765
0.827909
0.679493
0.802875
0.931621
1.056790
1.223683
1.117587
1.389980
1.706481
8.051991
25.563836
82.678795
163.413882
333.740711
479.911566
665.510893
782.060623
851.386786
821.259022
683.827996
547.244549
350.473523
219.953656
99.203587
48.628449
15.974641
8.897781
7.308722
7.559657
7.642508
8.585453
11.514425
15.463829
24.893880
33.950806
49.164891
59.753656
71.255565
76.964498
77.858567
74.851513
65.927505
55.840611
42.357445
33.553839
23.431778
17.260909
12.813807
10.484457
9.409785
9.293556
8.625984
8.554459
##ZVALUE=345
0.450611
0.436902
0.361800
0.475645
0.485778
0.486970
0.329614
0.382662
0.240803
0.252724
0.267625
0.327826
0.419617
0.349879
0.507832
0.507832
0.478625
0.425577
0.386834
0.508428
0.329614
0.471473
0.568628
0.442863
0.467896
0.497699
0.415444
0.555515
0.404716
0.555515
0.437498
0.513792
0.486970
0.561476
0.633597
0.577569
0.601411
0.623465
0.647902
0.638962
0.598431
0.704527
0.604987
0.711679
0.755787
0.745654
0.776649
0.855923
0.871420
1.032948
1.216531
1.124740
1.272559
1.433492
3.493428
13.416409
55.757761
113.760829
238.942504
371.427536
568.252802
703.063011
813.969970
826.105475
735.019445
610.963702
417.246819
276.815891
126.982927
63.481927
22.097826
10.992885
7.198453
7.514954
7.215738
7.114410
8.154511
10.344982
14.903545
20.978451
32.842755
41.997433
54.935813
62.856674
71.143508
73.299408
70.608854
64.305663
53.118467
42.579770
31.080842
23.569465
16.570687
12.849569
10.379553
9.416938
##ZVALUE=350
0.382662
0.504851
0.418425
0.313520
0.318885
0.352859
0.475645
0.417829
0.392795
0.272989
0.477433
0.509620
0.387430
0.450611
0.363588
0.514984
0.507832
0.527501
0.503659
0.387430
0.288486
0.438690
0.482798
0.545979
0.512600
0.505447
0.520945
0.411868
0.355840
0.508428
0.613928
0.552535
0.546575
0.398755
0.636578
0.454783
0.561476
0.534654
0.500679
0.606775
0.567436
0.583529
0.541806
0.712872
0.690818
0.828505
0.709891
0.795722
0.688434
0.796914
0.980496
0.862479
0.909567
0.941753
1.114607
1.298785
1.655817
8.072853
26.280880
84.734559
160.281658
312.922597
451.402664
634.031892
742.895603
805.440545
772.835612
642.520785
496.701598
299.252868
184.251666
83.669424
39.461851
13.508797
7.913709
6.706715
6.666780
6.672740
6.829500
7.663965
9.585619
14.004707
19.306540
28.863549
37.575960
49.030781
57.455897
64.356923
66.991448
65.006614
59.780478
49.397945
40.768981
30.941963
23.677945
16.405582
##ZVALUE=355
0.401735
0.433922
0.324845
0.307560
0.384450
0.357628
0.438690
0.466704
0.463724
0.370741
0.386834
0.501871
0.453591
0.556707
0.363588
0.289679
0.442863
0.353456
0.473857
0.466704
0.494719
0.475645
0.347495
0.535846
0.636578
0.408888
0.444651
0.455976
0.583529
0.516772
0.443459
0.567436
0.494719
0.348687
0.500679
0.431538
0.466704
0.533462
0.596642
0.625849
0.439882
0.526905
0.670552
0.588894
0.660419
0.618696
0.697970
0.659823
0.780821
0.737906
0.643730
0.868440
0.773668
0.828505
1.116991
0.932813
1.100898
1.211762
1.462698
4.099607
14.244914
54.671764
112.738609
237.075686
366.997719
557.789803
691.596866
792.729855
786.705017
685.585737
557.968616
369.572639
244.454741
108.286738
52.093863
17.304420
8.666515
6.562471
6.461740
6.239414
6.388426
6.460547
7.261634
9.339452
11.924505
17.510653
23.484826
33.805966
42.637587
52.266717
57.700872
60.666800
60.903430
54.770708
48.429966
38.445592
##ZVALUE=360
0.327826
0.442863
0.392795
0.460744
0.385642
0.421405
0.369549
0.462532
0.411868
0.392795
0.345707
0.529885
0.263453
0.514984
0.384450
0.498891
0.404716
0.416636
0.399947
0.417829
0.433922
0.425577
0.509620
0.488758
0.371933
0.579953
0.632405
0.563860
0.369549
0.616908
0.668764
0.584722
0.522733
0.505447
0.546575
0.538826
0.574589
0.554919
0.639558
0.476837
0.567436
0.588894
0.625849
0.567436
0.552535
0.493526
0.548959
0.640750
0.703931
0.547767
0.581741
0.653863
0.740886
1.032948
0.794530
0.828505
0.992417
0.943542
0.981688
1.225471
1.410842
1.965761
6.074905
28.373599
68.782568
168.172717
280.256867
451.649427
591.812730
726.936460
760.826468
705.193877
601.805449
411.505699
274.197459
134.127736
70.142746
26.979446
11.734962
6.601810
6.225705
6.233454
5.924702
6.101727
6.042719
6.658435
8.000731
9.990931
13.480783
20.048618
26.392937
36.922693
44.026971
51.873922
54.896474
55.083632
##ZVALUE=365
0.432730
0.284910
0.308752
0.452995
0.400543
0.379682
0.346899
0.461936
0.417829
0.345707
0.320673
0.486970
0.354648
0.484586
0.433922
0.455976
0.381470
0.464916
0.400543
0.412464
0.589490
0.438690
0.490546
0.424981
0.517964
0.593662
0.669956
0.528693
0.487566
0.346899
0.451803
0.475645
0.672936
0.455976
0.436902
0.381470
0.474453
0.796914
0.492930
0.661612
0.531673
0.630617
0.519753
0.707507
0.602603
0.523925
0.625849
0.748634
0.612736
0.718832
0.571609
0.637770
0.583529
0.771880
0.708699
0.741482
0.737906
0.861883
0.870824
0.973940
0.978708
1.018643
1.244545
1.425743
2.823472
15.879869
42.805672
112.399459
206.314921
379.295945
514.009595
655.055642
723.901987
709.878802
623.360872
457.531810
325.210690
181.280971
99.051595
36.944747
15.687943
6.985664
5.930662
5.702972
5.543828
5.553961
5.473495
5.485415
5.914569
6.855726
8.399487
12.259483
16.591549
24.410486
31.438470
39.574504
##ZVALUE=370
0.294447
0.305772
0.496507
0.456572
0.393987
0.509620
0.391603
0.360608
0.337958
0.265837
0.292659
0.347495
0.369549
0.471473
0.453591
0.478625
0.374913
0.412464
0.515580
0.618696
0.453591
0.325441
0.393987
0.506639
0.406504
0.475645
0.399947
0.397563
0.415444
0.368953
0.581741
0.451803
0.450611
0.527501
0.455976
0.290871
0.573993
0.516772
0.656843
0.517964
0.519753
0.506639
0.586510
0.606775
0.582933
0.502467
0.671744
0.641942
0.786781
0.625849
0.605583
0.614524
0.475645
0.598431
0.711679
0.705719
0.780821
0.575781
0.929832
0.865459
0.660419
0.933409
1.057982
1.045465
1.074672
1.254678
2.025962
6.401539
33.076406
76.218843
170.824528
282.822847
466.173887
589.972734
690.668821
712.184906
648.362637
536.642671
356.273651
232.329965
109.396577
56.675673
22.446513
10.211468
5.915761
5.236864
5.162954
5.348921
5.220771
5.332828
5.245805
5.297661
6.248951
7.584691
10.921955
14.142990
##ZVALUE=375
0.333786
0.455976
0.272989
0.455976
0.255704
0.411868
0.342727
0.403523
0.402927
0.416636
0.501871
0.479817
0.240803
0.325441
0.229478
0.379682
0.387430
0.250936
0.438690
0.299811
0.348687
0.565648
0.438690
0.542998
0.510812
0.451803
0.476837
0.459552
0.408888
0.443459
0.354648
0.580549
0.388622
0.461936
0.423789
0.385642
0.423789
0.432730
0.517964
0.418425
0.478625
0.418425
0.587702
0.442863
0.596642
0.466704
0.563860
0.617504
0.514984
0.442863
0.663996
0.545979
0.650883
0.577569
0.560880
0.630617
0.587702
0.649691
0.675917
0.784993
0.524521
0.824928
0.649691
0.847578
0.656843
0.990629
0.992417
1.220703
1.409650
4.111528
13.566613
49.620867
105.552673
234.297514
364.024639
545.639992
653.906465
728.263855
712.298751
589.771867
455.347896
278.719664
176.723003
87.278485
44.120550
15.157461
7.461905
5.196929
4.980564
4.895926
4.503727
4.773736
4.965663
4.822612
5.048513
5.783439
##ZVALUE=380
0.268817
0.370741
0.360608
0.343919
0.297427
0.481606
0.346899
0.392795
0.326633
0.455976
0.466704
0.423789
0.309944
0.393987
0.267625
0.319481
0.371933
0.416636
0.405908
0.218749
0.332594
0.412464
0.403523
0.538826
0.468493
0.423789
0.539422
0.575781
0.440478
0.504851
0.434518
0.372529
0.354648
0.413656
0.440478
0.458956
0.549555
0.370741
0.354648
0.338554
0.546575
0.369549
0.443459
0.585914
0.560880
0.647902
0.593662
0.566840
0.409484
0.434518
0.609756
0.450611
0.447631
0.634789
0.502467
0.564456
0.554919
0.488758
0.526905
0.520945
0.688434
0.659823
0.551939
0.732541
0.745654
0.739694
0.919700
0.853539
0.964999
1.242757
1.233816
2.035499
9.516478
29.807687
91.427565
168.540478
316.458941
453.000665
614.341497
691.894889
699.846745
631.721616
495.187640
371.363759
219.026804
129.496455
54.130554
25.730729
8.464456
5.208850
4.571676
4.500747
4.610419
4.664660
4.694462
4.601479
##ZVALUE=385
0.416636
0.332594
0.277758
0.292659
0.370741
0.313520
0.360608
0.336766
0.321865
0.363588
0.428557
0.265837
0.323653
0.235438
0.299811
0.366569
0.328422
0.426769
0.344515
0.417829
0.394583
0.459552
0.535846
0.432730
0.355840
0.382662
0.363588
0.357628
0.442863
0.451803
0.415444
0.287890
0.398755
0.528693
0.484586
0.340939
0.372529
0.468493
0.257492
0.487566
0.521541
0.571609
0.397563
0.364780
0.448823
0.514984
0.399947
0.521541
0.511408
0.270605
0.413656
0.473857
0.387430
0.470877
0.597835
0.494719
0.508428
0.601411
0.620484
0.575781
0.545979
0.644922
0.624657
0.619888
0.571609
0.692606
0.789762
0.712872
0.760555
0.916719
1.104474
1.143813
1.107454
1.423955
3.581643
19.646883
52.444935
132.613778
229.092836
400.426984
530.949831
659.716725
699.085593
658.909678
574.386716
420.741439
297.662616
163.429976
92.962980
39.239526
16.702414
5.962849
4.579425
4.294515
4.208684
4.565716
##ZVALUE=390
0.232458
0.338554
0.433922
0.443459
0.347495
0.455976
0.284910
0.259876
0.390410
0.410676
0.410676
0.213981
0.351667
0.341535
0.263453
0.260472
0.379682
0.156760
0.183582
0.313520
0.439882
0.253916
0.310540
0.240803
0.370741
0.391603
0.361800
0.395775
0.350475
0.342727
0.530481
0.439882
0.431538
0.462532
0.473857
0.454783
0.391603
0.521541
0.468493
0.347495
0.311732
0.512600
0.452995
0.408888
0.469685
0.456572
0.450611
0.453591
0.474453
0.476837
0.447631
0.448823
0.385642
0.510812
0.401735
0.442863
0.490546
0.448823
0.404716
0.501871
0.628829
0.547767
0.593662
0.564456
0.693798
0.642538
0.686646
0.922680
0.890493
0.854731
1.021624
1.086593
1.038909
1.010895
1.223683
0.964999
1.834631
10.026693
31.434894
97.596645
182.110667
341.826677
466.008782
599.955916
674.250722
694.195628
640.786886
503.752828
384.196639
234.967470
136.771798
56.933761
26.360750
8.546710
4.833937
4.229546
##ZVALUE=395
0.466704
0.273585
0.334978
0.426769
0.463724
0.371933
0.380874
0.428557
0.514984
0.307560
0.431538
0.217557
0.465512
0.306964
0.349879
0.229478
0.250936
0.464916
0.153780
0.319481
0.325441
0.365973
0.400543
0.339746
0.408888
0.351667
0.401735
0.342727
0.304580
0.424981
0.450611
0.446439
0.423789
0.468493
0.502467
0.476837
0.408888
0.239611
0.472665
0.526905
0.302792
0.535846
0.567436
0.561476
0.545979
0.484586
0.641942
0.459552
0.448823
0.437498
0.488758
0.368953
0.489950
0.458956
0.471473
0.594854
0.388622
0.636578
0.667572
0.510812
0.592470
0.499487
0.548959
0.540614
0.708699
0.529885
0.684857
0.543594
0.770688
0.782609
0.862479
0.840425
0.757575
0.977516
0.956655
1.015663
1.054406
1.044869
1.539588
5.936623
20.720959
71.235895
134.341717
255.217552
375.261903
542.581677
642.776489
702.759027
684.055686
578.655601
454.861522
283.433795
178.007483
78.998804
37.636757
13.173819
##ZVALUE=400
0.342727
0.189543
0.301600
0.440478
0.154972
0.266433
0.319481
0.338554
0.316501
0.314713
0.345707
0.354648
0.339746
0.328422
0.438690
0.315905
0.467896
0.345707
0.291467
0.500679
0.437498
0.295639
0.366569
0.260472
0.410676
0.495911
0.323653
0.401735
0.354648
0.421405
0.499487
0.458956
0.443459
0.481606
0.610948
0.399947
0.489950
0.542998
0.443459
0.532866
0.503659
0.531673
0.462532
0.408888
0.622869
0.409484
0.369549
0.548959
0.318885
0.513792
0.504851
0.502467
0.365973
0.312924
0.394583
0.566840
0.513792
0.481606
0.451803
0.508428
0.626445
0.609756
0.543594
0.398755
0.595450
0.553727
0.600815
0.608563
0.617504
0.644922
0.760555
0.800490
0.762939
0.797510
0.769496
0.778437
0.768900
0.626445
0.907779
1.129508
1.257658
2.238750
12.166500
34.320951
96.002817
176.431537
327.405930
451.954007
603.090525
672.140718
681.947470
623.365641
481.447577
353.813767
203.392506
122.000575
##END
