##TITLE=FSH752
##FORMAT=SPECTACLE-ASCII V-1.2
##DATA TYPE=ULTRAVIOLET SPECTRUM
##SECOND TYPE=ULTRAVIOLET SPECTRUM
##DATE=12/26/17
##TIME=17:40:55
##SPECTROMETER/DATA SYSTEM=SPECTACLE
##XUNITS=NM EM
##YUNITS=ENERGY
##YFACTOR=1
##FIRSTX=220
##LASTX=410
##NPOINTS=96
##3DDATA=Equidistant
##ZUNITS=NM EX
##FIRSTZ=210
##LASTZ=400
##ZPOINTS=39
##XYDATA=(Y..Y)
##ZVALUE=210
12.582541
10.543466
9.632707
8.210540
7.405877
6.756783
7.244945
5.945563
4.948974
3.927946
3.761649
3.789663
3.360510
3.720522
3.169775
2.869964
2.912879
2.938509
3.925562
3.503561
4.818439
4.026890
5.122423
5.900860
5.661845
7.568598
8.941889
12.404919
14.312863
15.697479
21.777749
22.344589
23.529530
25.046468
26.119947
26.260614
26.481748
26.221871
27.845502
23.966432
24.431944
24.452806
22.633672
21.656752
20.444989
19.280910
17.487407
17.946959
16.050935
15.386939
15.212893
15.876889
14.750957
14.251471
13.133883
13.426542
11.753440
10.728836
10.439754
11.856556
10.619760
11.354685
9.713769
11.822581
10.879636
11.071563
11.564493
12.420416
13.307929
16.271472
18.280745
22.058487
25.075674
27.823448
28.847456
31.051636
34.142733
33.914447
31.471848
28.951764
26.411414
23.821592
20.537972
18.363595
15.099645
12.584925
10.860562
11.504889
11.392832
11.817813
11.682510
15.420914
16.563535
20.149946
22.277832
24.026632
##ZVALUE=215
42.031407
43.103695
31.613708
25.582910
19.022822
15.601516
12.973547
11.669993
10.936856
10.949969
10.357499
7.393956
6.167889
5.095601
3.928542
4.376769
3.439784
3.843904
3.568530
3.857613
4.944801
4.517436
5.871654
5.550981
6.337762
8.538961
10.858774
12.617707
18.374920
20.792484
25.995970
26.575923
29.060841
30.243993
34.619570
33.295751
34.301877
33.538938
31.836629
32.716990
30.295849
30.285716
29.258728
27.327538
25.560856
23.961663
22.725463
21.149516
21.531582
20.812750
17.932653
18.547773
16.061664
16.899705
15.801787
14.858842
13.836622
13.596416
13.767481
13.094544
12.061596
13.732910
12.959838
12.535453
11.168718
12.520552
12.495518
12.519956
15.752912
16.926527
18.809438
20.920634
21.806955
24.382472
26.823878
28.957725
31.089783
27.811527
28.782487
25.181770
24.819970
22.147894
19.955635
18.060803
15.178919
12.359619
12.345910
11.053681
9.178519
9.613633
9.169579
9.124875
9.466410
9.131432
11.625886
12.988448
##ZVALUE=220
114.459991
110.650659
107.848644
94.005466
75.185895
55.194497
39.479733
27.427673
24.081469
21.757483
20.448565
20.454526
18.493533
16.941428
13.435483
10.614991
7.510781
6.736517
5.331635
4.086494
4.675984
4.608631
4.737973
5.597472
7.778406
10.556579
11.958480
17.229915
18.762946
24.932623
30.432940
35.163760
38.526654
39.225817
42.328835
41.572452
44.962764
43.231845
40.299892
42.472482
40.503740
38.045645
35.373569
32.528639
31.090975
28.945804
28.775930
25.035739
23.533702
22.719502
22.910833
19.389987
20.044446
18.442869
17.737746
17.890930
15.617609
15.801787
15.083551
14.314651
14.934540
15.164614
13.904572
14.826655
13.877749
15.135407
14.353991
14.250875
17.195940
19.138455
19.663572
23.490787
25.216937
30.053854
31.571984
30.406713
31.070709
30.863881
32.312870
29.170513
29.127598
24.249554
21.903515
19.577742
16.965866
14.852881
13.028979
11.907816
11.215806
10.629892
10.224581
10.029674
9.396672
10.032654
9.206533
9.541512
##ZVALUE=225
169.830918
174.810886
207.479596
225.172639
226.851702
201.209784
168.234706
117.160678
83.412528
51.293969
41.415691
35.627484
33.508539
34.734607
34.097433
31.861663
24.242997
21.441579
13.707876
10.444522
7.471442
6.341934
5.874634
5.637407
7.637739
8.652806
12.152791
17.227530
22.619963
25.969744
30.172467
35.531521
38.066506
41.412711
41.890740
42.610765
44.677854
41.336417
41.783452
40.540695
37.005544
35.059452
34.546852
36.758780
30.882955
29.327869
26.451945
27.149916
25.963783
23.393631
23.487806
21.024942
19.480586
20.179749
18.813610
18.583536
18.173456
17.818809
16.901493
17.469525
16.196966
15.793443
15.784502
16.486645
14.999509
15.482903
14.769435
15.355945
16.636848
19.163489
20.013452
22.124648
24.750829
26.026964
27.136803
27.995706
30.064583
28.229952
27.316809
25.873780
25.708675
23.401976
21.527410
19.053817
16.606450
14.624596
14.126897
12.564659
12.104511
12.184978
11.502504
11.412501
11.251569
11.342764
11.165738
9.931922
##ZVALUE=230
117.279887
123.738647
183.178782
275.645852
337.407589
378.241539
377.709866
333.618522
280.023813
219.505429
144.221783
96.483827
65.766573
54.273605
52.624941
56.875944
57.659745
53.501725
50.302744
40.790439
29.494762
19.276738
14.065504
9.649992
8.066893
10.395646
11.199713
13.937950
17.692447
20.765662
23.823977
25.607944
27.235746
31.451583
29.908419
31.655431
34.243464
34.062862
29.780865
32.508969
29.492974
28.854609
27.146935
27.177930
26.445985
23.724437
23.436546
21.835566
18.865466
19.929409
19.681454
19.754767
18.432736
18.894672
17.015934
17.192960
17.157793
16.198754
16.054511
16.522408
17.604828
15.991926
14.224648
15.246868
14.941692
15.523434
14.825463
16.548634
16.668439
19.300580
19.942522
20.654798
20.878911
25.063753
22.761822
25.354624
23.240447
23.442507
24.349689
22.447705
21.838546
21.670461
19.201636
17.377734
15.976429
14.119744
14.055967
12.920499
12.845993
12.433529
12.019873
12.323856
10.621548
11.064410
9.723902
10.616779
##ZVALUE=235
29.564500
32.725930
64.526796
145.322680
219.238997
326.813459
407.189727
478.719473
497.250557
453.462005
382.258892
305.527449
194.562674
137.340426
95.596910
75.928569
73.930621
82.069635
85.041523
84.396601
76.551437
63.403845
46.470761
34.623742
22.613406
17.662644
13.298988
10.226965
12.158751
12.029409
11.996627
15.562773
15.972853
16.260743
17.125607
18.737912
19.011497
17.804503
19.157529
18.985868
18.853545
18.061996
19.694567
17.001629
17.189980
17.207861
16.917586
17.053485
15.256405
15.157461
15.375614
15.476942
14.170408
16.148686
14.866590
14.486909
14.900565
15.332699
14.445782
15.002489
14.360547
15.490651
14.191866
13.948679
14.046431
14.659762
16.243458
16.208887
15.402436
16.212463
17.089844
17.778873
18.423796
20.022988
22.064447
21.188855
20.605922
22.324920
19.847751
20.010471
19.968748
15.914440
15.487671
14.652610
15.171766
12.994409
12.820959
13.604760
11.703968
11.809468
13.084412
11.542439
12.101531
11.696815
13.022423
11.502504
##ZVALUE=240
2.111793
2.959967
10.141730
28.314590
87.022781
147.129893
277.117491
396.036506
555.193424
637.014508
689.850450
661.633611
585.134625
447.817445
338.730812
203.524828
149.160624
102.290511
92.651844
99.320412
110.118985
114.922523
112.786889
98.383427
80.403686
65.453649
46.091676
33.799410
21.323562
16.502738
13.739467
13.610721
13.163686
14.454722
15.166998
14.237761
17.373562
16.043782
17.190576
17.095804
15.865564
18.341541
17.745495
17.256737
18.379688
15.962720
17.014742
16.572475
15.563965
17.828941
17.198920
15.047789
17.548800
15.566945
15.841722
15.985966
15.330911
16.602874
15.295744
15.857816
15.492439
15.122890
15.410781
15.211701
16.162992
16.612411
17.145872
17.869473
17.391443
19.565821
20.871758
21.336675
23.162961
24.923682
24.436712
26.954412
26.896000
27.754903
26.470423
23.852587
23.547411
23.792982
20.099878
18.346906
17.736554
17.050505
14.753938
17.369986
15.464425
15.299916
13.999939
15.661716
14.267564
14.250875
13.883710
14.768839
##ZVALUE=245
1.845956
1.827478
1.641512
2.235770
8.053780
27.441978
79.134703
144.058466
286.741853
420.270562
626.515746
760.409832
866.896510
913.740993
858.436823
733.811855
588.951707
410.590768
284.207463
165.106654
115.240812
100.906491
113.578439
122.477412
125.942826
121.772885
111.526847
91.078877
71.343780
56.066513
41.044950
28.259754
22.884607
16.538501
15.574694
17.616749
16.149879
16.727448
17.680526
17.018914
17.574430
16.734600
18.519759
17.602444
17.640591
17.963648
17.581582
18.604994
16.573668
15.997887
15.956759
15.894771
15.829802
13.720989
14.385581
14.414787
15.068650
13.875961
13.977885
13.795495
13.679862
14.089942
13.131499
13.728738
12.805462
14.004707
12.357831
14.652610
14.301538
16.314983
16.515851
19.027591
20.994544
22.990704
22.858977
23.356676
22.747517
24.204850
24.303794
22.481680
22.177696
18.911958
18.204451
16.012788
16.879439
16.723871
15.369654
13.434887
14.258623
14.662743
13.993979
13.452768
12.987852
12.095571
13.315678
13.560653
##ZVALUE=250
1.343489
0.984669
1.176000
1.513958
1.880527
1.474619
2.502799
8.716583
31.685829
70.238709
174.742937
295.269489
455.421805
684.015751
837.109685
967.280865
982.621908
890.039802
750.236511
513.549447
340.703726
220.749974
121.318698
95.786452
102.718472
117.812753
132.763982
137.378573
134.043694
123.059750
107.144713
83.540678
65.881610
44.671893
34.370422
25.389791
21.727681
20.092726
19.421577
20.751953
19.909739
20.737648
19.495487
20.198822
20.261407
19.218922
19.067526
18.555522
17.862916
16.132593
16.898513
16.456842
15.998483
15.400648
15.083551
14.840961
13.435483
13.454556
12.082458
13.799667
13.040900
12.780428
12.570620
12.420416
11.316538
12.598634
13.493896
13.362765
13.940930
13.515949
15.300512
16.191602
17.362833
18.330812
17.429590
18.310547
18.411875
19.241571
17.753839
18.020868
16.397834
15.489459
15.273690
14.356971
13.469458
13.449788
13.266802
11.817813
11.593699
12.787580
12.509823
12.859702
11.745691
12.309551
13.141632
11.361837
##ZVALUE=255
1.100898
1.376867
1.146793
1.165867
1.394749
1.253486
1.658797
1.750588
2.107620
4.034638
20.916462
52.186847
119.198561
275.298953
436.084867
697.226524
877.760649
1013.046503
1015.829444
957.431793
803.850889
619.907975
371.937752
230.117440
124.880672
91.690421
88.205934
105.173588
129.310489
141.522884
152.901411
147.883892
139.690638
116.959810
95.456839
70.043802
53.939819
40.577650
32.293797
28.291941
25.341511
25.590658
25.107861
24.450421
22.792816
23.353696
21.836758
21.303892
19.969940
18.405914
18.760562
17.433763
16.987920
15.951991
15.992522
14.207959
14.052987
13.566613
13.463497
12.717843
11.984706
12.601614
11.795759
11.712909
11.326671
10.353923
11.712909
11.713505
11.258721
11.937618
12.527704
12.509823
14.712811
15.329719
15.137792
14.953613
16.314983
15.446544
15.974641
13.458729
14.154911
13.205409
12.404919
11.844635
11.931658
11.844635
11.270642
10.032654
10.545850
10.201931
10.523796
10.432601
10.294914
10.152459
10.096431
9.881854
##ZVALUE=260
1.013875
0.946522
1.017451
1.094937
1.109838
1.287460
1.267791
1.534820
1.554489
1.574755
1.557469
2.830625
7.718801
34.150481
81.698895
220.121741
383.454561
651.847720
875.542760
1015.829444
1015.829444
1015.829444
969.517827
763.858557
487.031937
324.999690
183.160901
118.227601
88.372827
94.353557
113.193989
142.550468
155.715942
169.785619
168.487430
152.678490
136.784911
106.060505
85.011721
62.151551
51.423907
39.536953
33.518672
30.943751
27.375817
27.262568
25.486946
25.384426
23.714900
22.829771
21.153688
20.796657
19.259453
17.758608
17.030835
15.610456
15.609860
13.802648
13.120770
12.829900
13.329983
11.153817
11.788607
11.668801
11.128783
11.025667
11.344552
11.216998
10.787845
11.636615
11.483431
12.117624
12.877584
12.940764
13.893843
13.251901
13.195872
12.973547
13.486743
12.242794
11.455417
11.700988
11.079907
10.542870
10.418892
9.875894
10.451674
9.477735
9.426475
9.460449
9.581447
9.476542
10.213852
9.081960
9.533763
9.384751
##ZVALUE=265
0.822544
0.869632
0.685453
0.829697
1.001954
1.142621
1.364946
1.065731
0.935793
1.123548
1.660585
1.742840
1.476407
2.319813
4.098415
22.119880
55.048466
143.953562
271.632671
527.486801
760.470033
978.114605
1015.829444
1015.829444
1015.829444
879.229903
633.510947
436.558723
240.716934
152.793527
99.896789
91.884732
102.441907
135.228634
160.389543
179.144740
183.774829
180.589557
163.277984
138.725638
114.214420
86.385608
68.015456
48.556924
39.882660
33.195615
29.876828
27.511716
25.283694
24.447441
23.239851
22.096634
20.583868
19.633770
17.573833
16.903877
15.970469
14.924407
13.780594
13.188720
13.148785
12.216568
11.860728
11.175871
11.210442
11.079907
10.375977
10.056496
10.607839
9.802580
10.246634
10.474920
11.663437
11.202693
11.806488
11.383891
10.741949
10.949969
10.701418
10.439754
9.899735
9.639859
9.305477
9.481907
9.471774
8.939505
8.785725
8.722544
8.934736
8.241534
9.358525
9.084940
8.903742
8.389950
8.589625
8.513927
##ZVALUE=270
0.801682
0.832677
0.727773
0.877976
0.823736
0.904799
0.770688
1.004934
1.010895
0.880957
1.184940
1.198649
1.228452
1.204610
1.616478
1.857877
2.478957
10.338426
29.778481
97.000599
200.477839
359.310508
664.206743
904.971957
1015.829444
1015.829444
1015.829444
1015.829444
886.363983
662.847757
453.799963
241.050720
144.220591
94.156861
93.036890
117.783546
137.849450
164.748430
180.394650
185.273886
179.774761
159.352422
138.418674
108.045936
84.348917
58.593750
46.622753
36.045909
29.089451
25.722980
23.285747
21.827817
19.719601
19.262433
18.772483
16.474724
15.546679
14.552474
13.775826
13.573766
12.690425
12.090802
11.838675
10.654926
10.389686
10.378957
10.633469
10.209680
10.346770
10.283589
10.801554
10.940433
11.034608
11.339784
11.997819
11.227727
10.900497
10.328889
10.832548
10.528564
9.870529
9.269714
8.954406
8.630753
8.604527
8.499622
9.207726
8.264780
8.385777
8.376837
8.434653
8.548498
8.394718
8.158684
8.173585
8.300543
##ZVALUE=275
0.587702
0.754595
0.883937
1.004934
0.879765
0.917912
0.763535
1.065731
0.741482
0.938773
0.955462
1.149774
1.010895
0.864863
1.031756
1.235604
1.187921
1.612902
1.856685
4.955530
18.279552
51.027536
152.292848
302.264690
595.965981
822.250843
1015.830636
1015.830636
1015.830636
1015.830636
1015.830636
817.189813
573.988557
304.878950
178.175569
93.935728
74.871778
83.828568
102.730989
132.957697
152.616501
169.378519
173.908472
166.255832
149.890780
122.982860
100.535750
72.675943
54.067969
38.025975
29.779673
21.656752
18.398762
17.687678
15.925765
15.034676
13.975501
13.841987
13.440847
12.915730
12.079477
11.674762
11.259913
10.226965
10.308623
10.275841
10.302663
9.899735
10.251999
10.203719
10.572672
10.198951
10.942817
11.020899
10.976791
10.992885
10.614991
9.655952
9.794831
9.555817
9.543896
8.808970
8.897781
8.585453
8.545518
8.371472
8.362532
8.414984
7.602572
8.885860
8.058548
7.922649
8.484721
7.936954
8.214712
7.767677
##ZVALUE=280
0.716448
0.756979
0.625849
0.755787
0.830889
0.768900
0.808835
0.871420
0.707507
0.775456
0.900626
0.835657
1.176596
1.008511
1.089573
1.156926
1.347661
1.145601
1.369715
1.453757
1.588464
2.236962
11.791587
38.333535
120.937824
236.081481
470.459461
714.627504
1009.826660
1015.905738
1015.905738
1015.905738
1015.905738
878.018737
640.231967
357.078910
211.496949
99.406838
61.847568
54.615736
66.324472
92.859864
114.320517
139.485598
153.558850
159.919858
153.780580
136.220455
117.474794
87.535977
66.036582
44.709444
32.550693
20.777583
16.186833
12.995601
12.102723
11.243820
11.299849
10.535717
10.999441
10.560751
10.009408
9.896755
9.594560
9.316802
9.292960
9.075999
9.359717
9.493828
9.863973
10.227561
10.303855
9.695888
10.539889
10.133982
9.456873
9.767413
9.450912
9.192824
9.417534
8.564591
8.170605
8.489490
8.458495
7.886887
7.805824
7.970929
8.192658
8.586645
8.098483
7.826686
7.599592
7.554889
7.695556
7.843971
##ZVALUE=285
0.578761
0.577569
0.505447
0.481606
0.487566
0.832677
0.590682
0.684857
0.481606
0.502467
0.697970
0.691414
0.794530
0.691414
0.684857
0.801682
0.665784
0.808835
1.003742
1.072884
1.361966
1.368523
1.512766
2.005696
5.469918
18.787980
64.909458
144.535899
343.238711
547.848940
844.385028
1015.829444
1015.829444
1015.829444
1015.829444
926.622748
707.450509
431.846976
267.001987
126.794577
68.177581
37.999749
39.168000
57.757497
77.852607
105.673671
125.593543
142.599940
147.769451
143.475533
131.276846
107.237697
87.220669
60.719848
43.955445
26.975870
18.109679
12.634993
10.497570
9.320974
9.542704
8.561611
8.747578
8.868575
8.290410
8.408427
8.740425
8.569956
8.738637
8.824468
8.764863
8.855462
9.558797
9.459853
9.647608
9.455681
9.386539
8.845925
8.939505
8.871555
8.620620
8.432865
8.769631
8.306503
8.525848
8.389950
8.536577
7.924438
7.657409
8.033514
7.717609
7.874966
7.916689
7.544756
7.519722
7.697940
##ZVALUE=290
0.563860
0.670552
0.742674
0.659823
0.520945
0.652671
0.756979
0.800490
0.757575
0.701547
0.708699
0.837445
0.800490
0.864863
0.899434
0.815988
0.811815
0.879765
1.013875
0.834465
0.966787
1.047850
1.277924
1.268983
1.486540
1.589656
2.519488
8.202791
37.767887
89.183450
228.727460
404.526591
711.243749
961.723924
1015.935540
1015.935540
1015.935540
1015.935540
791.369081
581.677556
332.599878
196.929574
84.930658
44.031739
27.452707
33.214688
50.658584
68.976879
96.555948
116.020441
135.096908
140.707493
138.486624
126.493573
102.806687
83.554983
57.307482
41.440725
26.627779
18.937588
11.575818
9.295940
8.349419
8.145571
7.800460
7.928610
8.304715
8.004904
8.695722
8.545518
8.270741
8.701682
8.964539
9.272695
8.868575
8.899570
9.196997
8.925796
8.534789
8.862615
8.185506
8.107424
8.340478
8.276701
7.987618
8.042455
8.478761
7.884502
7.920861
7.915497
7.519722
7.685423
7.479787
7.570982
7.741451
7.789731
##ZVALUE=295
0.398755
0.530481
0.472665
0.681877
0.513792
0.511408
0.546575
0.569820
0.545979
0.512600
0.562668
0.503659
0.453591
0.549555
0.810623
0.751615
0.781417
0.710487
0.816584
0.747442
0.892878
0.956655
1.101494
1.053810
1.003742
1.263618
1.246929
1.500845
1.827478
3.527403
13.300776
55.610538
133.459568
334.597826
542.054772
863.250494
1015.842557
1015.842557
1015.842557
1015.842557
947.563648
659.626722
451.628566
238.278508
129.095912
48.546791
26.790500
21.638870
29.682517
47.476888
64.450502
89.892745
109.085441
126.297474
133.919716
131.730437
121.429563
100.512505
80.104470
56.915879
40.187836
24.844408
17.250776
11.283755
9.120703
7.957816
7.624626
7.370710
8.163452
7.763505
8.267760
8.022785
8.503795
8.969903
8.749962
8.478761
8.759499
8.556843
8.424520
8.046627
8.115768
8.300543
8.108616
8.005500
8.082986
8.158684
8.268952
7.958412
7.989407
7.755756
7.883906
7.886887
7.839799
7.824898
7.447600
7.375479
##ZVALUE=300
0.408888
0.478625
0.362992
0.289679
0.321865
0.461936
0.401735
0.479817
0.669956
0.455976
0.455976
0.419617
0.466704
0.456572
0.466704
0.664592
0.479817
0.736713
0.657439
0.772476
0.663996
0.516772
0.920892
0.826716
0.959635
0.921488
1.051426
1.120567
1.508594
1.464486
1.846552
2.009869
6.796718
38.352609
91.914535
239.919424
415.656567
713.222623
943.401456
1015.829444
1015.829444
1015.829444
1015.829444
775.420666
562.480688
308.785439
182.871819
79.342723
38.723946
18.223524
17.976761
27.730465
39.276481
61.333776
79.921484
103.679895
117.238760
127.206445
126.088858
113.935471
100.824833
75.914860
57.284832
38.723946
26.240945
16.380548
11.607409
8.542538
7.656813
7.753968
7.878542
7.893443
8.012652
8.450747
8.038878
8.001924
8.433461
8.243918
8.325577
8.135438
8.093715
7.733703
8.141994
8.124709
7.961988
8.076429
7.676482
7.553697
7.498860
7.976890
7.814765
7.481575
7.198453
7.603765
7.660985
7.217526
##ZVALUE=305
0.439882
0.470877
0.554919
0.445843
0.574589
0.593662
0.467896
0.494719
0.516772
0.669956
0.477433
0.719428
0.649691
0.599623
0.737906
0.630617
0.656843
0.752807
0.674725
0.764728
0.552535
0.843406
0.736713
0.855923
0.905991
0.764728
0.997782
1.046658
1.107454
1.048446
1.132488
1.260638
1.500845
1.960993
3.931522
23.518801
65.167546
179.692507
325.556993
595.125556
821.099877
1015.935540
1015.935540
1015.935540
1015.935540
869.023800
666.530728
415.589809
259.314775
115.232468
56.452751
20.886660
14.009476
17.347932
24.364591
39.745569
55.573583
77.505708
95.170736
112.638474
120.142698
118.175745
110.322833
91.916919
75.792670
52.452683
38.452744
24.685860
16.350746
10.910630
9.007454
7.783771
8.090734
7.890463
7.945895
7.823706
7.568598
7.489920
7.492900
7.653832
8.158684
7.930994
7.692575
7.615685
7.300973
7.855892
7.753968
7.674694
7.735491
7.504821
7.596612
7.370710
7.353425
7.393956
7.369518
7.357597
##ZVALUE=310
0.156760
0.279546
0.096560
0.242591
0.034571
0.228882
0.345707
0.308752
0.223517
0.136495
0.324845
0.216961
0.331998
0.224710
0.151992
0.229478
0.169873
0.209808
0.264645
0.188947
0.340939
0.379682
0.397563
0.476837
0.320673
0.462532
0.569820
0.596642
0.656843
0.679493
0.903606
1.040697
0.994802
1.018643
1.254678
1.369715
1.728535
9.174943
33.068657
110.238791
212.900639
429.135561
636.546612
908.486843
1015.640497
1015.640497
1015.640497
995.461941
819.087625
542.065501
358.986855
178.249478
94.230771
33.574700
15.193820
11.311769
14.216900
22.432804
31.799674
50.109625
66.272616
88.628531
102.394819
112.304688
113.381743
105.021000
91.514587
72.067976
55.249929
36.207438
25.802851
16.237497
11.533499
8.548498
7.607937
7.246733
7.117987
7.069707
6.865859
6.926656
6.854534
7.175803
6.969571
7.001758
7.290840
7.093549
7.294416
7.147789
6.837845
6.991625
7.065535
7.023811
6.927848
6.895661
6.759763
6.424785
##ZVALUE=315
0.317693
0.233650
0.289679
0.260472
0.253916
0.319481
0.383854
0.305772
0.256896
0.388622
0.318885
0.348687
0.400543
0.448823
0.404716
0.460744
0.426769
0.410676
0.466704
0.390410
0.609756
0.546575
0.655651
0.523925
0.589490
0.617504
0.396967
0.653863
0.652671
0.667572
0.772476
0.919700
0.953674
1.122952
0.819564
1.116991
1.173615
1.254678
1.575947
3.320575
19.867420
59.209466
167.080760
298.712850
550.335050
763.057470
999.675989
1015.829444
1015.829444
1015.829444
894.410014
695.531964
430.623889
266.350508
120.790005
57.942867
17.654896
10.126829
9.850860
12.846589
20.036697
29.360652
46.892762
62.330961
83.078742
95.470548
105.089545
107.653737
99.164844
87.402463
66.110492
53.044558
35.546422
24.789572
15.399456
11.376739
8.574724
7.105470
6.729960
6.386638
6.606579
6.734729
6.643534
6.807446
6.838441
6.917715
7.140636
6.952882
6.935596
7.176995
7.130504
7.179976
6.858706
6.972551
6.939769
7.122755
##ZVALUE=320
0.337958
0.273585
0.358820
0.306964
0.211596
0.249743
0.336766
0.213981
0.393987
0.282526
0.368953
0.390410
0.361800
0.339746
0.241995
0.511408
0.329614
0.269413
0.487566
0.447631
0.450611
0.609756
0.434518
0.662804
0.579953
0.567436
0.624657
0.692606
0.597835
0.462532
0.744462
0.734925
0.808835
0.897646
0.909567
0.938773
1.058578
1.351833
1.183748
1.220703
1.508594
2.126694
6.707907
38.002729
95.337629
244.069695
397.202969
651.874542
863.181949
1015.829444
1015.829444
1015.829444
1012.865901
786.149502
571.056604
314.807892
179.143548
75.858831
34.118891
11.664629
8.623600
9.431839
11.668801
18.565655
26.151538
41.923523
56.769848
77.763796
90.637803
100.661516
100.781918
95.409751
84.622502
65.359473
50.815940
33.376813
23.744702
15.511513
10.966659
8.186698
7.276535
6.565452
6.550550
6.867647
6.557703
6.649494
6.968975
6.798506
6.670952
6.308556
6.539822
6.931424
6.428957
6.598830
6.545782
6.643534
##ZVALUE=325
0.261664
0.267625
0.383854
0.251532
0.378489
0.304580
0.236630
0.344515
0.387430
0.424981
0.298619
0.223517
0.379682
0.334978
0.363588
0.311732
0.365973
0.227690
0.328422
0.362992
0.474453
0.325441
0.497699
0.577569
0.534654
0.565648
0.497699
0.539422
0.460744
0.480413
0.584722
0.611544
0.620484
0.673532
0.945926
0.837445
0.617504
0.806451
0.915527
1.169443
1.071692
1.186728
1.411438
1.497865
3.464818
20.603538
55.558681
154.454708
289.025903
565.263629
814.138651
1015.830636
1015.830636
1015.830636
1015.830636
916.497707
677.810907
405.727625
239.463449
103.889704
49.550533
16.263723
8.711815
7.540584
8.554459
11.328459
16.980767
27.195811
38.435459
57.456493
70.719719
86.247921
93.919635
95.813870
89.882612
75.862408
62.257648
45.304894
33.452511
20.491481
14.188886
10.014772
8.052588
6.922483
6.693602
6.610751
6.664991
6.414652
6.334782
6.358624
6.360412
6.410480
6.476641
6.184578
6.457567
6.302595
##ZVALUE=330
0.405908
0.268817
0.296831
0.297427
0.343919
0.340939
0.452995
0.303984
0.240803
0.246763
0.301600
0.449419
0.256896
0.347495
0.380874
0.253916
0.356436
0.383854
0.382662
0.342727
0.358820
0.320673
0.351667
0.476837
0.501871
0.594854
0.468493
0.447631
0.501871
0.637770
0.508428
0.593662
0.669956
0.626445
0.666976
0.639558
0.788569
0.686646
0.882745
0.782609
0.884533
0.843406
0.952482
1.222491
1.300573
1.683831
2.079606
8.618832
28.926730
101.659894
207.734704
449.275970
693.136454
1006.941795
1015.866995
1015.866995
1015.866995
1012.136936
808.363557
499.039888
313.630700
143.263936
72.263479
25.420785
11.310577
7.594824
7.305741
8.284450
10.575652
17.212629
24.392605
37.751794
51.136613
69.124699
79.981685
88.788867
88.736415
82.633495
72.664618
56.723952
43.264627
29.022694
21.218657
14.361739
10.925531
8.057952
7.063746
6.483793
6.609559
6.412864
6.258488
6.274581
6.143451
6.246567
6.305575
6.196499
##ZVALUE=335
0.256896
0.313520
0.179410
0.258684
0.318885
0.212789
0.423789
0.251532
0.147820
0.348687
0.252724
0.200868
0.216961
0.270605
0.309944
0.250936
0.512600
0.355840
0.280738
0.432730
0.404716
0.295639
0.441670
0.337958
0.257492
0.237823
0.432730
0.324845
0.388622
0.389814
0.482798
0.509620
0.485778
0.544786
0.509620
0.661612
0.568628
0.487566
0.751615
0.703931
0.755787
0.889897
0.812411
1.025796
0.831485
1.263618
1.300573
1.436472
1.546741
4.261732
14.337897
61.494708
139.256716
340.806842
577.366948
941.028595
1015.829444
1015.829444
1015.829444
1015.829444
933.218598
607.802868
401.963592
202.964544
104.348660
34.783483
14.895797
7.964969
7.012486
6.939769
7.561445
10.800958
14.672875
24.421811
34.786463
50.704479
62.711835
74.885488
81.311464
82.450509
76.828599
64.886808
55.189729
41.534901
31.752586
20.796657
14.981627
10.521412
8.186698
6.810427
6.285906
6.016493
5.911589
5.878806
6.037951
6.005764
##ZVALUE=340
0.155568
0.172853
0.031590
0.208616
0.123978
0.200868
0.342727
0.372529
0.356436
0.204444
0.294447
0.245571
0.322461
0.223517
0.277758
0.348687
0.347495
0.247955
0.363588
0.211596
0.344515
0.239611
0.318885
0.350475
0.376701
0.233650
0.220537
0.417829
0.322461
0.315905
0.425577
0.479817
0.364780
0.546575
0.505447
0.479817
0.574589
0.519753
0.364780
0.547767
0.755787
0.747442
0.697970
1.017451
0.903606
0.879765
0.967979
1.043677
1.201630
1.395941
1.626611
2.390742
7.240772
36.936402
97.081661
266.205668
471.665859
801.963806
1014.480591
1015.830636
1015.830636
1015.830636
994.935036
713.038445
486.613512
245.806575
135.414004
54.327846
22.320747
8.821487
6.948709
6.530881
6.750822
7.757545
9.875894
15.511513
21.888614
33.424497
45.586824
61.090589
69.778562
77.292919
77.606440
72.981715
65.357685
52.917600
42.295456
29.464960
21.662712
14.731884
10.707974
7.679462
6.683469
5.987883
5.857944
5.935431
##ZVALUE=345
0.242591
0.317693
0.225902
0.248551
0.152588
0.218749
0.317693
0.039935
0.273585
0.285506
0.360608
0.257492
0.285506
0.152588
0.263453
0.299811
0.204444
0.385642
0.374913
0.203848
0.377893
0.229478
0.365973
0.243783
0.249743
0.336766
0.206828
0.317693
0.242591
0.338554
0.448823
0.363588
0.270605
0.515580
0.545979
0.421405
0.469685
0.460744
0.429749
0.449419
0.469685
0.678897
0.596642
0.820756
0.645518
0.685453
0.796914
0.969768
1.052618
1.073480
1.251698
1.407862
1.407862
1.455545
3.390908
20.208955
59.455633
172.072649
327.153802
618.522763
856.915712
1015.829444
1015.829444
1015.829444
1015.829444
795.531869
579.900742
338.727832
191.729665
78.240633
36.280751
12.148619
7.376671
6.832480
6.380677
6.507635
6.846786
9.227991
12.813807
21.248460
29.906631
44.022799
53.664446
63.159466
69.552660
71.717501
68.900585
60.784817
52.344799
39.925575
30.671954
19.973516
14.725924
10.237694
7.730722
6.504655
##ZVALUE=350
0.216961
0.265837
0.331998
0.202656
0.284910
0.255704
0.235438
0.092983
0.079870
0.339746
0.120997
0.345707
0.195503
0.233650
0.054836
0.396967
0.107884
0.215769
0.303984
0.260472
0.348687
0.306964
0.308752
0.243783
0.276566
0.380874
0.273585
0.314713
0.396967
0.343919
0.244975
0.339746
0.551939
0.417829
0.449419
0.440478
0.300407
0.406504
0.373721
0.548959
0.379682
0.509620
0.633597
0.616908
0.525713
0.673532
0.749826
0.742674
0.678897
0.676513
0.820756
0.796914
0.930429
1.081824
1.176000
1.335740
1.951456
9.763837
32.885671
109.595656
216.284990
438.388586
640.688539
893.089771
1015.830636
1015.830636
1015.830636
853.740573
650.038719
387.684703
237.672925
110.159516
51.159859
15.303493
7.612705
6.210804
5.710721
5.540848
5.557537
6.483793
8.285642
12.946725
18.112659
27.216673
35.276413
47.545433
56.043863
64.177513
65.653920
63.987970
58.230758
47.737956
38.563609
27.615428
20.844936
13.824701
##ZVALUE=355
0.209808
0.093579
0.263453
0.224710
0.264645
0.252724
0.315905
0.183582
0.279546
0.308752
0.173450
0.182986
0.182986
0.315905
0.250936
0.222921
0.280738
0.230670
0.477433
0.255704
0.303984
0.309944
0.322461
0.366569
0.354648
0.331998
0.391603
0.299811
0.327826
0.380874
0.370741
0.459552
0.499487
0.440478
0.493526
0.282526
0.515580
0.461936
0.372529
0.414848
0.385642
0.391603
0.522733
0.622869
0.606775
0.423789
0.446439
0.630617
0.611544
0.684857
0.760555
0.801682
0.662804
0.823736
0.785589
0.950694
1.139641
1.319647
1.447797
4.739761
17.690659
72.433949
151.220560
325.656533
514.204502
790.590644
957.721472
1015.829444
1015.829444
893.052816
717.864037
469.725728
296.892524
130.810738
62.620640
19.399524
8.930564
5.789995
5.549788
5.223751
5.219579
5.231500
6.029606
7.779598
10.092854
15.790462
22.196770
33.125877
40.642619
50.508976
56.213737
59.509873
58.526993
53.076744
46.017766
36.310554
##ZVALUE=360
0.156760
0.292659
0.138879
0.167489
0.203848
0.132918
0.358820
0.250936
0.177622
0.290871
0.191927
0.187755
0.221729
0.252724
0.175834
0.283718
0.170469
0.133514
0.200868
0.229478
0.300407
0.303984
0.436902
0.313520
0.161529
0.279546
0.368953
0.410676
0.313520
0.326633
0.322461
0.447631
0.295639
0.269413
0.422597
0.292659
0.548959
0.388622
0.595450
0.422597
0.492930
0.497699
0.460744
0.402927
0.476837
0.417829
0.563860
0.413656
0.540614
0.510812
0.675917
0.674725
0.857711
0.800490
0.693798
0.809431
0.889897
0.974536
0.937581
1.245737
1.344681
2.284646
7.467866
35.541654
89.827776
229.654908
381.724834
619.215965
813.161731
994.148850
1015.829444
945.416689
792.343020
539.706945
362.725854
187.717676
97.820759
32.783747
13.012886
6.213784
5.535483
5.157590
5.105734
5.039573
4.736781
5.315542
6.266832
8.783937
12.185574
18.732548
25.558472
36.335588
43.407679
50.854683
53.638816
53.983927
##ZVALUE=365
0.149608
0.211596
0.410676
0.286698
0.215769
0.272989
0.227690
0.198483
0.230670
0.307560
0.115633
0.116825
0.078678
0.187755
0.191927
0.137687
0.269413
0.325441
0.279546
0.294447
0.224710
0.254512
0.227690
0.166893
0.425577
0.337958
0.310540
0.339746
0.373721
0.269413
0.226498
0.295639
0.384450
0.315905
0.334978
0.357628
0.479817
0.599623
0.499487
0.459552
0.444651
0.389814
0.338554
0.455976
0.538826
0.572801
0.409484
0.610948
0.570416
0.644922
0.766516
0.620484
0.444651
0.734925
0.748634
0.767708
0.758767
0.872612
0.892878
1.046658
1.117587
1.304746
1.367927
1.557469
3.421903
19.667745
54.514408
149.214864
279.082656
515.530705
696.612000
900.945663
991.171002
976.364613
861.417651
634.706616
450.018644
247.587562
133.744478
47.604442
18.999577
6.706715
5.225539
4.701614
4.708767
4.645586
4.362464
4.324913
4.501939
5.599856
7.312894
10.747910
14.897585
22.425652
28.987527
37.428737
##ZVALUE=370
0.356436
0.324845
0.331998
0.373721
0.243783
0.185966
0.328422
0.274777
0.331998
0.197887
0.317693
0.271797
0.261664
0.276566
0.462532
0.468493
0.424981
0.344515
0.275970
0.350475
0.266433
0.320673
0.459552
0.517964
0.361800
0.305772
0.455976
0.354648
0.400543
0.370741
0.400543
0.428557
0.387430
0.466704
0.305772
0.397563
0.388622
0.589490
0.507832
0.406504
0.383854
0.361800
0.467896
0.554919
0.438690
0.576973
0.421405
0.576973
0.459552
0.508428
0.539422
0.679493
0.615716
0.734925
0.521541
0.816584
0.823736
0.757575
0.790954
1.005530
0.846982
0.878572
1.033545
1.143813
1.170635
1.338720
2.036691
9.982586
33.739805
112.200975
212.877989
410.766006
597.409010
840.730667
960.045457
992.529988
914.098620
723.498464
534.734726
297.885537
166.687965
64.956546
29.418468
10.068417
5.621910
4.848838
4.499555
4.393458
4.089475
4.100800
4.130602
4.181862
4.792809
6.712675
9.089708
13.905764
##ZVALUE=375
0.103712
0.214577
0.088811
0.174642
-0.019670
0.202656
0.204444
0.418425
0.227690
0.192523
0.203848
0.272989
0.192523
0.165701
0.282526
0.143647
0.250936
0.121593
0.067949
0.194907
0.196695
0.378489
0.326633
0.222921
0.169873
0.403523
0.246763
0.141859
0.165701
0.251532
0.408888
0.221729
0.425577
0.333786
0.345707
0.295639
0.219941
0.261664
0.360608
0.361800
0.242591
0.369549
0.159740
0.378489
0.303984
0.369549
0.291467
0.529885
0.530481
0.442863
0.541806
0.463724
0.420809
0.363588
0.445843
0.557899
0.638962
0.494719
0.609756
0.618696
0.597835
0.720620
0.820756
0.765920
0.730753
0.865459
1.101494
1.387596
1.594424
4.045963
24.046898
62.131882
163.444877
294.621587
528.542995
709.314942
914.767981
992.978811
957.210660
828.336477
593.016744
416.106582
233.178735
131.109953
51.153898
21.238923
6.656647
4.627705
4.264712
3.915429
3.604889
3.849864
3.529787
3.621578
3.961921
3.973842
##ZVALUE=380
0.246763
0.323653
0.256896
0.276566
0.063777
0.114441
0.202656
0.133514
0.127554
0.130534
0.318885
0.138879
0.115633
0.359416
0.070930
0.107884
0.133514
0.188947
0.297427
0.213981
0.294447
0.400543
0.250936
0.275970
0.254512
0.213981
0.298619
0.216961
0.240803
0.230670
0.280738
0.394583
0.417829
0.334978
0.517964
0.368953
0.382662
0.340939
0.467896
0.410676
0.413656
0.378489
0.410676
0.323653
0.375509
0.344515
0.427961
0.436902
0.387430
0.545979
0.473857
0.382662
0.416636
0.319481
0.289679
0.417829
0.335574
0.421405
0.544786
0.552535
0.718832
0.525713
0.511408
0.534654
0.606775
0.825524
0.716448
0.802875
1.011491
1.345873
1.577735
2.240539
12.339950
38.807392
122.466683
227.029920
441.123843
637.725592
868.693590
976.545811
983.647704
890.240669
700.957775
526.589751
306.803584
178.929567
73.729753
33.369660
9.523630
4.937649
4.280806
3.910661
3.670454
3.402829
3.589988
3.473759
##ZVALUE=385
0.169873
0.143647
0.078678
0.146627
0.174642
0.182986
0.005960
0.057817
0.080466
0.061989
0.138879
0.287890
0.145435
0.255704
0.133514
0.226498
0.129938
0.133514
0.183582
0.184774
0.241995
0.220537
0.204444
0.191927
0.307560
0.262856
0.399947
0.469685
0.461936
0.468493
0.428557
0.483990
0.549555
0.601411
0.692606
0.647902
0.614524
0.486970
0.512600
0.522733
0.556707
0.533462
0.461936
0.505447
0.314713
0.556707
0.580549
0.388622
0.560880
0.458956
0.481606
0.442863
0.396967
0.520945
0.511408
0.489950
0.492930
0.559688
0.316501
0.657439
0.467896
0.675917
0.528693
0.419617
0.556707
0.571609
0.788569
0.806451
0.903606
0.983477
1.274943
1.182556
1.247525
1.451969
5.396605
19.604564
79.485774
171.848536
362.166762
537.571907
763.452649
905.562639
986.180902
951.705575
801.028013
637.124777
403.586626
254.207850
115.474463
54.610968
16.206503
6.414652
3.897548
3.788471
3.707409
3.371835
##ZVALUE=390
0.090599
0.034571
0.179410
0.213981
0.135899
0.022650
0.210404
0.140667
0.192523
0.171661
0.090599
0.128746
0.231862
0.194907
0.271797
0.221729
0.256896
0.373721
0.251532
0.252724
0.205636
0.027418
0.210404
0.224710
0.082850
0.182986
0.390410
0.433922
0.479817
0.788569
0.650883
1.011491
1.202822
1.046658
1.092553
0.899434
1.001954
1.104474
0.960827
1.005530
0.925660
0.857711
0.920892
0.776649
0.694990
0.760555
0.734925
0.644922
0.598431
0.604987
0.643730
0.627637
0.572801
0.524521
0.493526
0.599623
0.617504
0.485778
0.474453
0.579953
0.596642
0.530481
0.613928
0.594854
0.568628
0.507832
0.420809
0.680685
0.858903
0.892878
0.984669
0.963807
1.144409
1.061559
1.255870
1.222491
2.167821
13.271570
42.631626
130.601525
249.349475
475.137830
660.351515
873.926878
972.219706
993.994474
911.085606
719.142556
547.499657
333.529711
191.530585
77.395439
35.592914
10.875463
4.946589
3.640652
##ZVALUE=395
0.235438
0.333786
0.107884
0.204444
0.028610
0.063777
0.152588
0.186563
0.100732
0.243783
0.163913
0.145435
0.001788
0.168681
0.250936
0.187755
0.275970
0.236630
0.112653
0.046492
0.184774
0.169873
0.269413
0.057817
0.283718
0.270605
0.401735
0.684857
0.789762
0.971556
0.902414
1.017451
1.394749
1.510978
1.416802
1.478791
1.448989
1.540780
1.369715
1.386404
1.498461
1.387596
1.232624
1.164675
1.097918
1.011491
1.032948
0.922680
0.746846
0.634789
0.713468
0.847578
0.648499
0.528693
0.458956
0.558496
0.535846
0.462532
0.560880
0.515580
0.417829
0.493526
0.580549
0.588894
0.692606
0.570416
0.695586
0.647902
0.868440
0.791550
0.996590
0.919700
0.810623
0.896454
0.821948
0.914931
0.950694
1.140833
1.683831
5.658865
33.506751
82.513690
194.757581
334.010720
569.903851
754.087567
953.421593
1015.829444
979.354978
855.595469
627.094507
438.555479
231.376886
122.828484
44.762492
18.798709
##ZVALUE=400
0.145435
0.203848
0.174642
0.170469
0.187755
0.234842
0.162721
0.140667
0.126958
0.049472
0.197887
0.271797
0.058413
0.168681
0.194907
0.228882
0.153780
0.198483
0.290871
0.210404
0.191927
0.212789
0.115633
0.299811
0.104904
0.281930
0.513792
0.498891
0.805855
0.899434
1.085997
1.336932
1.478791
1.678467
1.896620
1.723766
1.910925
1.784563
1.748800
1.570582
1.456738
1.528859
1.287460
1.483560
1.236796
1.076460
1.204610
1.004934
0.945926
1.031756
0.751615
0.904799
0.548959
0.693798
0.566840
0.657439
0.591874
0.634789
0.524521
0.423789
0.506639
0.560880
0.484586
0.506639
0.596642
0.499487
0.702739
0.648499
0.660419
0.782609
0.931621
0.852942
0.869632
0.838637
0.926852
0.816584
0.945926
0.985861
0.983477
0.956655
1.289845
2.967715
16.178489
46.224594
133.243799
247.724652
465.006828
646.264553
871.127844
976.420641
989.771485
903.756022
692.870617
511.027575
289.094448
171.380639
##END
