##TITLE=KDZ01
##FORMAT=SPECTACLE-ASCII V-1.2
##DATA TYPE=ULTRAVIOLET SPECTRUM
##SECOND TYPE=ULTRAVIOLET SPECTRUM
##DATE=12/26/17
##TIME=13:26:03
##SPECTROMETER/DATA SYSTEM=SPECTACLE
##XUNITS=NM EM
##YUNITS=ENERGY
##YFACTOR=1
##FIRSTX=220
##LASTX=410
##NPOINTS=96
##3DDATA=Equidistant
##ZUNITS=NM EX
##FIRSTZ=210
##LASTZ=400
##ZPOINTS=39
##XYDATA=(Y..Y)
##ZVALUE=210
2.533793
2.163649
2.741814
2.637506
2.722740
2.836585
3.604889
3.165603
2.665520
2.333522
2.421737
2.252460
2.801418
2.425909
2.186894
2.367496
2.938509
2.953410
3.104806
3.252625
4.013777
3.039837
3.422499
3.302693
3.237724
4.096627
4.483461
4.154444
4.040599
4.262924
4.586577
5.111694
5.554557
5.316734
5.773902
5.320907
5.395412
5.591512
5.668998
5.834699
6.347895
5.767941
6.260872
5.541444
5.594492
6.047487
5.749464
6.633997
6.301999
6.270409
6.531477
6.963611
6.708503
6.546974
6.452799
7.046461
6.846786
5.539656
6.765723
6.299615
6.688833
7.337928
7.492900
7.218719
7.059574
7.739663
7.603765
8.890629
11.056662
12.063980
13.026595
15.791655
18.781424
20.022988
21.035671
22.813678
23.499727
21.872520
21.886826
20.232797
17.605424
15.492439
15.524626
13.109446
11.366606
9.181499
8.141994
7.791519
7.955432
7.203817
7.011890
8.012652
7.118583
7.192492
7.374883
8.397698
##ZVALUE=215
10.246634
8.982420
8.471608
7.162690
7.024407
5.886555
6.222725
6.239414
7.666945
7.976890
5.875826
6.423593
5.760789
4.487634
4.349947
3.475547
3.730655
4.142523
3.734827
3.615618
4.392862
4.178882
4.024506
4.995465
5.140901
5.112886
5.513430
5.831718
5.139709
5.789995
6.379485
6.882548
5.972981
6.587505
6.305575
6.241798
6.777644
6.535649
7.280707
6.945729
6.986856
6.833673
7.260442
7.625818
6.692410
7.555485
8.021593
8.464456
7.368922
7.429719
7.207990
7.522702
7.900000
8.172989
7.471442
9.163618
8.473992
8.631945
8.769631
8.105636
8.068681
8.703470
8.272529
7.476807
9.242892
9.717941
9.151697
9.941459
11.363626
13.449788
13.606548
16.392469
18.624663
20.514727
20.982623
20.976663
24.338961
23.279786
22.410750
20.698905
19.785762
17.785430
16.343594
13.883710
13.322830
10.580420
9.756684
9.289980
8.861423
8.864999
8.280873
8.275509
8.922815
8.642673
8.331537
8.813739
##ZVALUE=220
25.296807
24.817586
28.683543
27.468801
24.462938
19.717813
17.232895
14.694929
12.444854
12.054443
13.590455
13.847947
13.799667
11.927485
9.435415
8.148551
6.109476
4.129410
3.572702
4.132986
3.033876
3.989935
3.755689
3.467798
3.714561
4.271865
4.580617
4.799962
5.356669
6.325841
6.244779
5.499721
6.356835
6.645918
6.418824
6.838441
6.743670
7.323623
7.318854
6.197691
8.106828
7.965565
7.188916
6.846786
7.516742
7.372499
7.223487
7.510781
7.545948
7.072687
7.525682
7.691979
7.329583
6.748438
7.385612
8.059740
8.039474
8.653998
7.474422
8.370876
8.366704
8.697510
8.595586
9.136796
9.372830
10.118484
10.065436
9.971857
11.573434
13.330579
13.309717
16.412735
17.717481
19.943714
22.476912
22.720695
23.222566
22.685528
22.993684
19.871593
20.116568
17.037988
15.349984
12.759566
11.980534
11.858940
9.317994
9.191632
7.869601
9.263754
8.844733
8.145571
7.892847
8.954406
7.286668
7.610917
##ZVALUE=225
44.531822
45.754910
58.089495
72.342753
79.401731
79.357624
72.038770
57.538748
43.841600
33.339858
26.452541
25.691986
25.898814
28.251410
30.073524
25.782585
20.106435
16.721487
13.695955
9.301901
5.893707
5.544424
4.938841
4.228950
4.119873
4.881620
5.865693
5.016923
5.300641
6.335974
5.445480
6.055832
6.902814
7.255673
7.406473
8.576512
7.615685
8.224845
8.042455
8.459687
8.984804
8.883476
9.036660
9.264946
9.154677
8.176565
10.073781
8.136630
7.678866
8.613467
8.288622
8.985996
9.599924
8.880496
9.172559
9.757876
9.767413
9.203553
9.022951
10.654926
9.928942
9.841919
9.489655
10.761619
10.748506
12.609959
12.676716
12.306571
13.446808
14.274716
15.728474
19.074678
18.126965
20.522475
22.994876
21.449924
21.963716
21.655560
19.905567
18.443465
19.072890
17.166734
15.836954
13.483763
12.906790
11.182427
10.547638
9.967685
10.811687
10.760427
10.023713
9.699464
8.914471
8.839965
9.728670
10.587573
##ZVALUE=230
39.540529
42.865872
64.060688
109.061599
141.757727
177.335739
187.539458
182.807446
168.379545
143.588781
98.454952
71.885586
50.980449
46.055913
46.013594
49.662590
51.474571
50.651431
46.445727
36.580563
26.191473
17.406940
13.480783
8.256435
5.712509
6.057620
6.343722
5.941987
6.886721
6.553531
6.292462
7.559657
7.358789
7.555485
7.735491
8.331537
9.482503
8.651614
9.654760
9.000897
8.564591
9.281635
8.800626
8.903742
9.006858
8.019805
8.288622
8.914471
9.496808
8.900762
10.050535
10.951757
10.465980
10.230541
10.168552
11.873841
11.224747
10.861754
11.618733
11.811852
11.180639
11.425614
11.766553
12.468696
12.157559
11.887550
13.064742
14.299750
16.123652
14.911890
17.511845
20.305514
23.721457
23.548603
23.245811
26.344657
24.371743
24.923682
21.364689
22.251606
21.233559
20.477772
18.733740
17.432570
16.298890
14.308691
12.539625
12.973547
13.527870
12.366772
12.538433
13.669729
13.576746
12.172461
12.452602
11.772513
##ZVALUE=235
14.385581
15.189648
38.847923
74.175596
135.557652
191.829801
275.758505
325.555801
365.759730
362.402797
322.046876
263.702869
201.260448
127.377510
94.432831
73.541999
72.689652
80.897808
83.122849
82.850456
77.513456
71.080923
52.433610
39.218664
23.185611
17.213821
10.755658
8.111596
7.282495
6.635785
6.015897
8.554459
7.873774
7.937551
7.629991
8.269548
7.037520
8.364916
9.335876
8.875728
8.763671
8.989573
9.485483
9.442568
10.031462
8.958578
9.794831
9.964705
9.521842
10.559559
10.691881
10.147691
10.828972
11.358857
13.266802
11.464953
11.790991
13.061762
12.600422
12.333989
13.688803
14.308691
14.186502
14.273524
13.817549
15.018582
15.069842
15.845895
17.414689
20.557642
20.692945
23.115873
23.086667
27.379990
27.923584
27.237535
27.281642
26.098490
25.503635
22.818446
22.920966
22.100806
21.003485
19.090772
17.699599
17.012954
15.632510
16.881824
16.675591
16.587973
15.058517
17.100573
14.973879
15.445948
16.109943
15.171766
##ZVALUE=240
2.254844
2.303720
5.442500
20.279884
44.918656
103.230476
166.671872
292.752981
389.918685
479.908586
559.828877
570.034981
511.599779
431.295633
317.465663
226.370692
142.566562
111.915469
96.876621
98.825693
105.711818
117.006898
113.002658
97.693801
79.353452
60.998797
46.439767
29.798746
19.461513
13.591647
10.100603
8.231997
7.307529
8.466840
8.834600
9.099841
8.296967
8.611679
9.032488
7.959604
8.639693
8.184910
9.316802
9.251833
8.833408
10.472536
10.341406
9.972453
8.989573
9.768605
9.985566
9.921789
11.700988
10.966659
11.538863
12.063980
11.145473
11.695623
12.051463
12.626648
11.817813
13.448596
14.523864
13.100505
14.658570
14.403462
16.736984
15.829802
17.401576
21.099448
21.994710
22.700429
24.755001
27.193427
28.378963
28.072000
28.597713
27.323961
27.039647
25.402904
24.170876
21.228790
22.341609
21.018982
20.152926
20.724535
20.369887
17.931461
17.868876
16.486645
17.841458
17.087460
16.841888
18.570423
16.547441
19.179583
##ZVALUE=245
1.771450
1.862645
1.450777
2.077818
4.929900
12.201667
43.040514
86.569786
190.641880
293.566585
465.621948
576.849580
667.924881
712.186694
675.828457
572.379827
461.051464
312.457681
217.717886
132.135749
106.606483
97.047687
108.054876
123.934746
126.217604
124.283433
108.553767
92.037916
69.516897
55.747628
36.494732
23.241639
14.451742
10.380745
7.827878
7.894635
7.716417
8.595586
8.133650
7.805824
7.999539
7.795691
7.624626
8.459687
8.135438
8.513927
9.264946
8.780956
8.358955
9.275675
9.746552
10.044575
9.890795
9.543896
10.281801
10.245442
10.177493
9.773970
10.251999
10.564923
11.133552
12.216568
10.822415
12.440681
12.226701
12.991428
13.995767
14.321804
14.810562
16.954541
18.807650
20.614862
22.859573
22.852421
25.309920
24.339557
24.636984
26.327968
24.082661
23.036599
21.803975
21.069646
20.097494
19.500852
18.574595
19.274950
18.296838
17.447472
17.598867
17.206669
18.211603
16.777515
16.311407
16.648769
15.870929
17.367601
##ZVALUE=250
1.469851
1.607537
1.921654
2.094507
1.423955
1.734495
2.769828
8.086562
33.757687
74.251890
176.914930
292.863846
426.017642
612.971783
735.284686
815.754533
814.743638
727.770925
615.744591
419.896841
291.503668
191.112757
115.316510
97.453594
101.411939
114.129782
130.419731
134.063959
128.715634
120.605826
102.105737
76.958537
58.879852
34.588575
23.737550
14.068484
10.307431
8.312464
8.547902
7.634759
8.562803
8.381605
8.264780
8.103848
7.447600
9.144545
8.430481
8.739829
8.809566
8.661747
7.767677
8.668900
8.635521
8.914471
8.482933
8.774996
8.718967
8.763671
9.367466
9.943843
8.895993
9.357929
10.189414
10.760427
10.527968
11.457801
12.139678
12.876987
13.395548
14.695525
15.231967
17.391443
18.324852
20.346642
20.994544
20.890832
20.438433
19.580722
20.324588
18.818974
18.693805
16.338825
17.298460
15.872717
16.559958
16.542673
16.280413
17.085671
16.289949
15.168786
15.506744
15.816689
15.657544
15.635490
16.786456
15.124679
##ZVALUE=255
1.134872
1.269579
1.244545
1.401901
1.515746
1.377463
1.310706
1.381636
1.700521
5.090833
16.474724
59.280992
123.571754
392.149687
410.728455
562.870502
816.186666
902.139544
937.819481
889.725685
776.159763
618.529916
391.348600
248.305798
99.527836
97.188950
95.366836
100.932717
118.237734
141.407847
145.868659
138.573647
107.199550
105.339885
77.244639
39.606690
36.776662
18.727779
13.802648
11.451840
7.837415
7.886887
7.787943
8.157492
7.437468
7.902980
7.722974
8.371472
8.420944
7.326603
8.241534
8.104444
7.702708
7.599592
8.233786
7.829666
8.388758
8.219481
9.141564
8.361936
8.899570
9.270906
8.626580
9.536743
9.503961
9.357929
10.787845
10.439754
12.695789
13.174415
13.530850
14.475584
16.575456
16.631484
17.575622
17.997622
17.252564
17.797947
16.726851
16.384721
15.831590
15.300512
15.054941
15.041828
14.765859
14.603734
14.146566
13.385415
14.387965
13.799667
13.712645
14.248490
14.879704
13.709664
13.978481
14.394522
##ZVALUE=260
1.093745
0.920892
1.099706
0.952482
1.069903
1.182556
1.109838
1.294613
1.617670
1.669526
1.767874
2.903938
8.232594
35.063624
82.641840
200.680494
334.186554
557.280779
736.137033
970.011950
1015.789509
1015.789509
948.130488
775.490999
516.075492
351.413488
199.194551
125.053525
81.050992
81.448555
96.035600
124.132633
139.357448
148.684978
144.310594
129.397511
110.278726
81.849694
61.389804
36.682487
24.839640
15.800595
10.864735
9.064674
8.348823
7.680655
8.716583
8.123517
8.331537
7.918477
8.068681
7.993579
8.385777
8.714795
7.833838
8.067489
7.563829
8.921623
8.168817
8.496642
8.431673
8.305907
8.508563
8.738637
9.000897
9.216666
9.518862
9.192824
10.652542
11.011958
11.767745
13.449788
13.670921
14.918447
15.400648
16.167760
15.874505
15.730858
15.210509
14.366508
14.410615
13.904572
13.027787
13.242960
13.080835
13.293624
13.043880
13.114810
12.623668
14.019608
12.559891
12.789965
13.131499
12.977719
13.349652
13.601780
##ZVALUE=265
1.194477
1.470447
1.101494
1.222491
1.302958
1.193881
0.857711
1.382828
1.384616
1.177788
1.660585
1.523495
1.873970
1.796484
5.243421
19.402504
74.472427
144.843459
252.275467
491.249561
712.386966
987.796783
1015.897989
1015.897989
1015.897989
906.502008
717.045665
453.226566
292.721987
151.777864
94.801784
71.371794
79.931617
108.396411
127.974749
146.835446
151.063800
146.295428
134.579539
108.529925
83.848834
56.306720
39.603710
23.421645
16.383529
10.906458
8.634925
8.195639
8.245707
8.286834
8.146763
8.606911
8.178949
8.930564
8.015633
8.444786
8.406639
8.234978
8.803606
8.337498
8.828640
8.351803
8.661747
8.469820
8.954406
9.411573
9.023547
9.331703
10.145903
11.020899
11.749864
12.577772
13.649464
14.083982
14.598966
13.832450
14.360547
13.288856
13.674498
13.595819
12.548566
12.606978
12.539625
11.870861
12.427568
11.995435
12.399554
11.324883
12.003779
10.398626
12.068748
12.063980
11.936426
11.955500
12.236834
12.178421
##ZVALUE=270
1.298785
1.043677
1.346469
1.104474
1.376867
1.453757
1.588464
1.332760
1.416802
1.400709
1.675487
1.670718
1.691580
1.957417
1.810789
2.125502
2.683997
11.097789
33.653975
114.868879
224.177837
395.362973
705.986023
945.501924
1016.157866
1016.157866
1016.157866
1016.157866
895.452499
669.547915
457.205772
235.275626
131.718516
69.683790
61.505437
84.261894
105.383992
131.489635
147.545934
155.227780
152.308941
131.805539
113.724470
84.517598
61.854720
38.920641
26.077628
16.589761
12.079477
10.059476
8.732677
8.809566
8.825660
9.212494
8.953810
8.632541
9.167790
8.666515
8.926988
8.747578
8.786917
8.621812
9.134412
8.711815
8.569956
9.205937
9.102821
9.597540
9.841919
10.965466
11.522770
12.165904
12.872815
13.056993
13.662577
13.106465
13.873577
12.728572
12.545586
12.822747
12.083650
12.274981
11.730790
11.615753
11.558533
11.349916
11.650920
11.247993
11.295676
11.641979
11.639595
11.332631
12.051463
12.112856
11.223555
11.491776
##ZVALUE=275
0.966787
0.999570
1.061559
0.959635
0.905991
1.064539
1.108646
1.143813
1.257658
1.077652
1.245737
1.127720
1.199841
1.514554
1.427531
1.626611
1.613498
1.923442
1.947880
5.137920
19.830465
60.404539
178.631544
334.720612
622.619987
848.461986
1015.897989
1015.897989
1015.897989
1015.897989
1015.897989
857.921839
607.227683
322.760940
181.057453
79.997778
54.232478
58.850646
76.657534
109.156966
128.415823
148.049593
153.876543
148.093700
131.676793
107.206702
86.005926
59.870481
41.527748
25.259852
17.421842
12.256503
10.466576
8.778572
8.945465
9.260774
8.679628
8.411407
8.701682
9.141564
8.732677
8.483529
9.232759
8.539557
8.432865
9.171963
9.366870
9.465814
9.952784
10.433793
11.136532
11.757612
12.650490
12.534857
12.917519
12.794733
13.146996
12.059808
12.223721
11.625886
11.905432
11.442900
10.880828
10.825992
10.932684
10.327697
10.445714
10.839701
11.004806
10.445714
10.900497
10.032654
10.791421
10.759830
10.629892
10.524988
##ZVALUE=280
0.790954
0.903606
0.963807
0.945926
1.177788
0.962615
1.075864
0.984669
0.990629
1.029968
1.081824
1.274943
1.229644
1.288652
1.198649
1.166463
1.389980
1.460910
1.579523
1.712441
1.848936
2.899766
14.933944
48.029423
145.903826
267.722011
505.960584
736.971498
1015.874743
1015.874743
1015.874743
1015.874743
1015.874743
985.615849
737.371445
422.429442
245.906711
106.027722
57.535768
43.264627
54.411888
80.478787
101.804733
129.553676
143.697858
149.050951
145.120621
127.210617
109.880567
81.261992
60.450435
38.455725
27.002692
16.836524
12.209415
9.635687
8.904934
8.877516
8.603930
8.851886
8.547902
8.767843
9.043813
9.118915
9.051561
8.594990
8.886456
9.388924
9.898543
10.049939
10.760427
10.912418
11.711717
11.853576
12.025833
12.023449
12.353659
11.816621
11.535883
11.107922
11.213422
11.053681
10.447502
10.548830
10.777712
10.501742
10.369420
10.484457
10.006428
10.240674
10.463595
10.193586
10.134578
9.988546
10.160804
9.859800
##ZVALUE=285
0.902414
0.826716
0.873804
0.893474
0.814795
0.819564
0.794530
0.842810
0.937581
0.859499
1.041889
1.038909
1.006722
1.118779
1.401901
1.353621
1.124740
1.239777
1.384616
1.385808
1.597404
1.718998
2.041459
2.132654
6.216764
22.585988
81.055760
170.034766
367.990732
584.997535
842.613578
1015.897989
1015.897989
1015.897989
1015.897989
1015.897989
934.799910
581.422448
359.821916
164.664984
82.238913
37.711859
35.559535
52.555799
71.920753
101.361871
121.958852
138.977766
145.283937
141.022801
129.956603
108.794570
87.593794
60.631633
42.251945
25.929809
18.042922
12.332797
10.308623
8.811951
8.965731
8.792877
8.401871
8.708835
8.678436
8.808970
9.153485
9.453893
9.524822
10.055900
10.402799
10.733604
11.531711
11.509657
11.615753
11.643767
11.171699
10.919571
10.965466
10.559559
10.796785
10.295510
9.828806
10.110736
10.115504
9.929538
10.065436
9.712577
9.595752
10.160804
10.180473
10.014772
10.112524
9.859800
10.110736
10.167956
##ZVALUE=290
0.785589
0.749826
0.897646
0.979900
0.847578
0.974536
0.930429
0.792742
0.937581
0.971556
0.820756
1.062751
1.041889
1.052618
0.908971
1.171827
1.226664
1.048446
1.217723
1.264811
1.337528
1.283884
1.589656
1.661777
1.654625
2.004504
2.956986
9.673834
48.512816
113.497972
269.416571
465.918779
724.111795
1015.897989
1015.897989
1015.897989
1015.897989
1015.897989
1015.897989
764.349699
504.660010
248.484612
124.461651
45.690536
28.276443
34.298897
47.642589
71.658492
90.104938
116.144419
130.301714
141.124725
136.087537
124.356747
107.302666
80.433488
60.374737
39.195418
27.533770
17.183423
12.204647
9.515882
8.825660
8.233786
8.332729
8.115768
8.432865
9.003878
9.158850
9.260774
9.615421
10.181665
10.476708
11.050701
11.004806
10.816455
10.752678
10.449886
10.567904
10.130405
9.898543
10.173917
10.032654
10.123849
9.959936
10.110736
10.174513
10.175705
9.472966
9.719729
9.846687
10.125637
9.905696
9.718537
10.209680
9.860992
##ZVALUE=295
0.775456
0.750422
0.767708
0.896454
0.874996
0.798702
0.977516
0.834465
0.839829
0.837445
0.899434
0.925660
0.900626
0.888705
1.010895
1.050830
1.136661
1.007915
1.080632
1.285672
1.167655
1.167655
1.213551
1.365542
1.617670
1.686811
1.778603
1.870990
2.451539
4.238486
23.977757
69.471598
161.767006
385.636687
615.290999
981.803536
1015.938520
1015.938520
1015.938520
1015.938520
1015.938520
967.961550
681.116581
358.637571
197.817683
73.219538
33.127666
21.755695
29.322505
45.510530
63.531995
89.101791
107.586980
126.194954
133.955479
131.351948
120.587945
100.671649
80.989003
57.221651
42.425990
25.318861
17.528534
12.125969
9.342432
8.713603
8.445978
8.377433
8.839965
9.202957
9.534955
9.641647
10.175705
10.348558
10.197759
10.705590
10.340810
10.304451
10.251999
10.182858
10.113716
9.850860
9.939671
10.135770
10.071993
10.056496
9.985566
9.942651
10.068417
10.775924
10.366440
9.897947
9.730458
9.875894
9.774566
9.886622
##ZVALUE=300
0.649691
0.607967
0.706911
0.962615
0.583529
0.674725
0.638962
0.825524
0.790954
0.751615
0.714660
0.885725
0.831485
0.846982
0.876784
0.890493
0.993609
1.006722
1.122952
0.958443
0.964999
1.155734
1.133680
1.276731
1.220703
1.439452
1.390576
1.729727
1.939535
2.048612
2.264977
2.594590
10.291934
37.288666
124.468803
247.977376
521.591902
800.983906
1015.897989
1015.897989
1015.897989
1015.897989
1015.897989
1015.897393
820.171833
538.549423
272.186995
144.050717
51.607490
23.048520
19.434690
25.804639
41.958690
57.089925
81.419945
100.122690
119.533539
126.918554
125.980973
116.631985
96.572638
80.066919
57.607889
41.304827
25.304556
17.960668
12.014508
10.003448
8.653998
8.570552
8.571744
9.521842
9.647608
9.909868
10.077953
10.171533
9.880662
10.130405
9.729862
9.666681
9.757876
10.114908
9.897947
9.996891
9.598732
9.669662
9.961724
9.626746
9.847879
9.877682
9.718537
10.145903
10.037422
9.696484
9.690523
9.520650
##ZVALUE=305
0.793934
0.799894
0.706911
0.759959
0.837445
0.711679
0.803471
0.742674
0.829697
0.838637
0.737906
0.724792
0.637770
0.954866
0.920892
0.881553
0.832677
0.816584
0.828505
0.951886
1.084805
1.147985
1.075864
1.134872
1.051426
1.367927
1.078844
1.408458
1.372695
1.374483
1.703501
1.922846
2.031922
2.498627
4.244447
24.521947
68.943501
200.529695
373.679399
711.293817
989.425778
1015.897989
1015.897989
1015.897989
1015.897989
1015.897989
1015.897989
682.260990
437.605977
205.020905
97.802877
31.097531
15.555620
18.289685
25.144815
39.581656
55.674911
78.844428
94.548464
111.859441
121.010542
118.464828
110.268593
93.554854
77.052712
53.219795
38.790703
25.789738
17.878413
12.257695
10.539889
9.530783
9.675622
9.571910
9.766817
9.748936
10.036826
10.032654
9.822845
9.848475
9.598732
9.926558
9.932518
9.481907
9.540915
9.465814
9.966493
9.992719
9.855628
9.923577
9.863973
9.531975
9.668469
9.733438
9.689927
9.804964
##ZVALUE=310
0.742674
0.600815
0.678897
0.608563
0.723600
0.853539
0.664592
0.763535
0.787973
0.798702
0.653863
0.713468
0.743866
0.747442
0.872612
0.708699
0.820756
0.885725
0.857711
0.889897
0.941753
1.022816
0.929832
0.872612
1.029968
1.107454
1.349449
1.039505
1.200438
1.189709
1.734495
1.562834
1.420975
1.810789
1.919866
2.335906
2.527833
10.372996
37.753582
127.169490
253.922939
531.214476
812.788606
1015.897989
1015.897989
1015.897989
1015.897989
1015.897989
1015.897989
907.197595
618.776679
324.884653
173.382759
59.301853
22.365451
12.645721
15.244484
22.947788
33.067465
50.374866
66.742897
89.114904
102.083683
112.197995
114.809871
105.433464
93.035698
73.490739
57.487488
37.662983
28.148890
18.439889
13.780594
11.135936
10.119677
9.843707
9.667873
9.217858
9.573698
9.451509
9.467602
9.682775
9.670854
9.948611
10.107756
9.962916
9.774566
9.706616
9.857416
9.944439
9.766817
9.896755
10.049939
9.381771
9.247661
9.537935
##ZVALUE=315
0.671744
0.721812
0.742674
0.629425
0.611544
0.533462
0.627637
0.748634
0.797510
0.643730
0.555515
0.731945
0.650883
0.824928
0.877976
0.658631
0.953674
0.792742
0.911951
0.834465
0.940561
0.868440
0.908971
0.941753
1.074672
0.980496
1.140833
1.069903
1.076460
1.003742
1.353621
1.364946
1.444817
1.440644
1.655817
1.688600
1.856685
2.015829
2.517700
4.112720
24.500489
71.003437
208.537579
383.164883
730.100870
1007.511616
1015.897989
1015.897989
1015.897989
1015.897989
1015.897989
1015.897989
702.221990
450.769663
215.293765
103.081465
28.977990
12.909770
11.364818
14.276505
21.579862
30.029416
46.796799
62.011480
82.646608
95.641613
106.966496
109.141469
99.749565
88.673830
68.915486
54.028630
37.869811
27.825832
18.001795
14.108419
11.467934
9.972453
9.147525
9.605885
9.717941
9.469986
9.587407
9.621978
9.746552
9.451509
9.753704
9.720922
9.732842
10.072589
10.125637
9.749532
9.593964
9.570718
9.336472
9.427667
##ZVALUE=320
0.524521
0.535846
0.662804
0.595450
0.583529
0.574589
0.716448
0.650883
0.693798
0.627637
0.750422
0.676513
0.602603
0.739694
0.674725
0.894666
0.721812
0.771880
0.633597
0.722408
0.740886
0.727773
0.925660
0.859499
0.889897
1.071692
0.957847
1.029968
0.939965
1.229644
0.896454
1.026988
1.183748
1.401901
1.459718
1.497865
1.304746
1.679659
1.703501
2.002716
2.134442
2.771616
8.327961
48.136711
125.435591
321.434736
536.366701
899.572968
1015.897989
1015.897989
1015.897989
1015.897989
1015.897989
1015.897989
948.549509
546.166897
320.026875
134.080648
57.963729
16.697645
10.323524
10.656714
13.089776
19.062757
27.065873
43.263435
57.218671
75.354576
89.827776
100.577474
102.429986
95.644593
85.802674
67.984462
52.195787
35.851598
26.451945
17.936826
13.941526
10.298491
9.952784
9.367466
9.297729
9.250641
9.289980
9.596944
9.264946
9.328723
9.327531
9.441972
9.346604
9.989738
9.366870
9.633899
9.514689
9.582639
##ZVALUE=325
0.666976
0.627637
0.570416
0.646710
0.614524
0.658631
0.618696
0.531673
0.617504
0.568628
0.668764
0.687838
0.588894
0.752807
0.707507
0.744462
0.706911
0.772476
0.708699
0.775456
0.738502
0.790954
0.790954
0.858903
0.834465
0.904799
0.880957
0.924468
1.006722
1.054406
1.125932
1.021624
0.973940
0.998974
1.155734
1.275539
1.359582
1.557469
1.543760
1.690984
1.773834
1.795888
1.949668
2.566576
4.731417
31.792521
86.249709
232.469440
419.650674
777.771473
1015.887856
1015.887856
1015.887856
1015.887856
1015.887856
1015.887856
1006.741524
657.146573
404.681563
179.736614
83.045959
24.369955
11.358857
9.193420
9.867549
13.253689
17.699599
27.544498
39.296746
58.584809
72.263479
87.496638
94.881654
96.101761
90.362430
77.014565
64.698458
47.982931
35.987496
23.422837
16.992688
12.592673
10.787845
9.751916
9.375811
9.155869
9.550452
9.475946
9.258986
9.216666
9.114742
9.333491
8.783937
9.160638
9.121895
9.166598
##ZVALUE=330
0.615716
0.678897
0.656843
0.549555
0.454783
0.571609
0.601411
0.696778
0.658631
0.478625
0.604987
0.649691
0.667572
0.516772
0.569820
0.670552
0.658631
0.620484
0.587702
0.535846
0.729561
0.686646
0.744462
0.841618
0.781417
0.788569
1.045465
0.863671
0.858903
0.905991
0.773668
0.798702
0.949502
1.183748
0.992417
1.302958
1.167655
1.183748
1.321435
1.392961
1.381636
1.487732
1.633763
1.853704
1.980662
2.169609
2.569556
14.076829
47.931671
154.978633
300.956964
606.006980
885.151625
1015.897989
1015.897989
1015.897989
1015.897989
1015.897989
1015.897989
788.725615
514.366627
243.189931
119.700432
39.851665
15.232563
8.496642
8.514524
9.566545
11.708736
18.052459
25.566816
38.667917
51.790476
69.478750
81.154704
90.392828
90.560913
84.268451
74.847937
58.194995
46.485662
31.742454
23.971796
17.149448
13.730526
11.078715
9.847879
9.278655
8.968711
9.160638
8.961558
8.932948
8.574724
8.648634
8.906722
8.795857
##ZVALUE=335
0.576973
0.671744
0.651479
0.582933
0.588894
0.448823
0.646710
0.584722
0.458956
0.580549
0.726581
0.654459
0.575781
0.611544
0.751615
0.845790
0.665784
0.478625
0.681877
0.547767
0.622869
0.710487
0.644922
0.761747
0.748634
0.738502
0.811815
0.629425
0.883937
0.734925
0.759959
0.715852
0.797510
0.953674
0.859499
0.885725
0.918508
1.133680
1.120567
1.272559
1.044869
1.220703
1.318455
1.497865
1.449585
1.642704
1.917481
1.961589
2.564788
6.166697
23.214817
96.738935
206.558704
465.368629
741.888881
1015.897989
1015.897989
1015.897989
1015.897989
1015.897989
1015.897989
932.314992
636.242628
333.749652
171.691775
55.703521
21.738410
9.473562
8.377433
8.820891
9.571910
12.131929
16.375780
26.385784
36.022663
51.908493
64.032674
76.475739
82.993507
84.413886
79.873800
67.651868
57.355762
43.870807
33.927560
23.311973
17.783642
13.169646
10.960698
9.529591
9.092689
9.037852
8.420944
8.563995
8.695722
8.664727
##ZVALUE=340
0.547767
0.604987
0.480413
0.421405
0.678897
0.432730
0.534654
0.531673
0.635982
0.646710
0.558496
0.654459
0.396967
0.475645
0.509620
0.662804
0.531673
0.425577
0.604987
0.775456
0.638962
0.676513
0.654459
0.599623
0.814795
0.858903
0.783801
0.799894
0.749826
0.742674
0.886917
0.858903
0.964999
0.740886
0.826716
1.011491
0.970960
0.719428
1.003742
1.051426
0.931621
1.186728
1.054406
1.194477
1.134872
1.452565
1.529455
1.695752
1.686811
1.919866
2.224445
3.255010
11.260509
58.195591
145.774484
361.504555
615.310669
987.177491
1015.897989
1015.897989
1015.897989
1015.897989
1015.897989
1015.897989
781.343579
408.721566
224.426985
89.976788
34.239888
11.052489
8.975863
8.402467
8.697510
9.703636
11.492968
17.434955
23.589730
35.649538
47.012568
62.002540
71.132779
78.969598
79.520941
74.600577
67.013502
54.636598
44.232607
32.429695
24.610758
17.427802
13.371706
10.508895
9.285808
8.572936
8.353591
8.559823
##ZVALUE=345
0.510812
0.557899
0.406504
0.669956
0.480413
0.484586
0.483990
0.631809
0.553727
0.655651
0.522733
0.528693
0.643730
0.428557
0.365973
0.507832
0.576973
0.744462
0.574589
0.648499
0.723600
0.691414
0.618696
0.616908
0.671744
0.775456
0.708699
0.503659
0.636578
0.801682
0.756979
0.652671
0.769496
0.758767
0.838637
0.849962
0.751615
0.804663
1.058578
1.043677
1.001954
1.046658
1.067519
1.092553
1.021624
1.188517
1.408458
1.222491
1.363754
1.425743
1.571774
1.834631
2.031922
2.233982
5.072951
34.707785
95.576644
252.183676
451.044440
816.931725
1015.897989
1015.897989
1015.897989
1015.897989
1015.897989
1015.897989
919.420719
554.285645
318.419933
123.722553
54.445863
16.826987
9.535551
8.437634
8.144975
8.107424
8.770823
10.837913
14.349818
22.457838
30.739903
44.062734
54.285526
66.525936
71.076751
72.873831
71.091652
62.451959
54.203868
42.218566
32.377839
22.789836
17.843843
12.302995
10.044575
9.092689
##ZVALUE=350
0.534654
0.523925
0.540614
0.581741
0.559688
0.477433
0.427961
0.551939
0.532866
0.525713
0.579953
0.713468
0.813603
0.609756
0.686646
0.441670
0.593662
0.454783
0.405908
0.616908
0.559688
0.682473
0.651479
0.606775
0.622869
0.562668
0.650883
0.577569
0.663996
0.607967
0.659823
0.792742
0.752807
0.858903
0.892878
0.905991
0.817776
0.884533
0.850558
0.797510
0.963807
0.884533
1.159906
1.101494
0.922680
1.084805
1.191497
1.206994
1.176000
1.343489
1.475811
1.469851
1.724958
1.926422
1.900792
2.184510
3.003478
16.951561
56.726933
180.902481
343.346596
673.987865
966.916680
1015.897989
1015.897989
1015.897989
1015.897989
1015.897989
1015.897989
659.051538
407.418609
186.671615
86.321831
22.931695
10.280609
8.064508
7.735491
7.565618
7.511973
8.539557
10.025501
14.937520
19.756556
28.425455
37.428737
49.329996
57.423711
65.199733
67.662597
64.680576
59.467554
49.072504
40.830970
29.497743
23.361444
16.538501
##ZVALUE=355
0.447631
0.591874
0.635982
0.546575
0.612736
0.735521
0.598431
0.413656
0.619888
0.425577
0.525713
0.496507
0.731945
0.671744
0.673532
0.675917
0.454783
0.564456
0.676513
0.733733
0.657439
0.607967
0.557899
0.584722
0.650883
0.623465
0.670552
0.489950
0.551939
0.643730
0.718832
0.609756
0.789762
0.774860
0.687838
0.719428
0.804663
0.785589
0.836849
0.963807
0.946522
1.031756
0.913739
0.885725
1.105666
1.159906
0.963807
1.128912
0.934601
1.224875
1.184940
1.142621
1.502633
1.555681
1.538992
1.675487
1.828671
2.196431
2.497435
8.030534
30.182600
118.270516
242.072940
506.365895
786.501765
1015.897989
1015.897989
1015.897989
1015.897989
1015.897989
1015.897393
864.918828
557.767749
244.384408
111.851692
32.309890
12.416840
8.090734
7.343888
7.032752
7.034540
7.091761
7.760525
9.614825
11.731982
18.180609
24.084449
33.860803
41.890740
51.394701
57.736635
61.255693
60.344934
55.138469
48.593879
38.842559
##ZVALUE=360
0.586510
0.555515
0.443459
0.495911
0.420809
0.571609
0.406504
0.515580
0.488758
0.398755
0.544786
0.623465
0.603795
0.494719
0.780821
0.645518
0.576973
0.746846
0.591874
0.477433
0.464916
0.694990
0.699759
0.728965
0.455976
0.681877
0.714660
0.559688
0.722408
0.534654
0.616908
0.642538
0.747442
0.826716
0.788569
0.798702
0.861883
1.077652
0.903606
0.857711
0.760555
0.929832
0.959635
0.849962
1.022816
0.884533
0.874996
0.932813
0.958443
0.995994
1.128912
1.273751
1.218915
1.269579
1.327991
1.474619
1.502633
1.838803
1.765490
2.158880
2.291799
3.957748
13.221502
64.661503
157.105923
383.538008
623.248816
979.889035
1015.854478
1015.854478
1015.854478
1015.854478
1015.854478
914.753675
619.254708
304.251909
159.771442
56.932569
20.827651
8.138418
7.209778
6.960630
6.561875
6.473660
6.749630
6.967783
7.832646
10.819435
13.547540
19.925833
27.239919
36.345720
43.907762
52.081943
55.864453
54.992437
##ZVALUE=365
0.576973
0.670552
0.501871
0.692606
0.502467
0.455976
0.605583
0.437498
0.736713
0.439882
0.655651
0.531673
0.357628
0.644922
0.722408
0.554919
0.655651
0.697970
0.690818
0.582933
0.510812
0.625849
0.601411
0.713468
0.688434
0.613928
0.626445
0.647902
0.725985
0.657439
0.867844
0.778437
0.743866
0.792742
0.754595
0.791550
0.713468
0.843406
1.013875
0.649691
0.781417
0.998974
0.788569
0.837445
0.918508
0.925660
1.164675
0.985861
1.205802
1.080632
1.178980
1.194477
1.233816
1.099706
1.453757
1.399517
1.451969
1.577735
1.583695
1.709461
1.960993
2.145767
2.307892
2.720952
6.940961
27.186871
109.489560
242.623687
556.155443
856.432915
1015.897989
1015.897989
1015.897989
1015.897989
1015.897989
1015.897989
742.145777
457.366705
199.845433
93.691945
26.196837
10.671616
7.263422
6.738901
6.291866
6.153584
5.920529
5.966425
6.215572
6.798506
8.760691
11.828542
17.390847
22.842884
32.081604
38.443804
##ZVALUE=370
0.601411
0.604987
0.595450
0.447631
0.498891
0.523925
0.697970
0.395775
0.566840
0.602603
0.649691
0.675917
0.466704
0.534654
0.692606
0.561476
0.489950
0.746846
0.573993
0.640750
0.696778
0.645518
0.672936
0.557899
0.609756
0.550747
0.716448
0.613928
0.722408
0.642538
0.786781
0.631809
0.625849
0.743866
0.826716
0.739694
0.851750
0.934601
0.897646
0.811815
0.717640
0.837445
0.746846
0.876784
0.894666
0.984669
0.961423
0.848770
0.788569
0.928640
0.971556
0.981688
1.085997
1.092553
1.096725
1.107454
1.251698
1.205802
1.348853
1.453757
1.516938
1.676679
1.903772
1.856685
2.135634
2.455711
3.507733
19.629598
71.997643
236.769915
434.533954
798.195601
1015.887856
1015.887856
1015.887856
1015.887856
1015.887856
1015.887856
906.354785
507.658720
284.587741
111.634731
49.265623
15.931726
7.964969
6.143451
5.810857
5.811453
5.713701
5.454421
5.398989
5.870461
6.317496
7.667542
10.329485
14.700890
##ZVALUE=375
0.564456
0.642538
0.452995
0.509620
0.515580
0.569820
0.530481
0.462532
0.617504
0.611544
0.637770
0.682473
0.544786
0.547767
0.579953
0.610948
0.598431
0.426769
0.565648
0.574589
0.427961
0.506639
0.730753
0.545979
0.517964
0.533462
0.668764
0.645518
0.747442
0.601411
0.721812
0.657439
0.747442
0.702739
0.557899
0.679493
0.732541
0.639558
0.794530
0.833869
0.570416
0.673532
0.738502
0.792742
0.673532
0.759959
0.732541
0.751615
0.787973
0.768900
0.940561
0.847578
0.955462
0.956655
0.797510
0.958443
1.095533
0.999570
1.094937
1.263618
1.237988
1.444817
1.493692
1.384616
1.512766
1.773834
2.215505
2.260804
2.724528
8.777976
33.226609
127.379894
273.048878
608.838797
930.604935
1015.895009
1015.895009
1015.895009
1015.895009
1015.895009
1015.895009
661.361814
414.578915
201.421976
98.806620
29.623508
11.319518
6.205440
5.821586
5.712509
5.329847
5.233884
5.226731
4.979968
5.063415
5.539656
##ZVALUE=380
0.529885
0.341535
0.441670
0.601411
0.379682
0.433922
0.444651
0.471473
0.550747
0.478625
0.574589
0.338554
0.592470
0.508428
0.350475
0.440478
0.535846
0.612736
0.544786
0.407696
0.466704
0.571609
0.394583
0.519753
0.646710
0.580549
0.714660
0.598431
0.585914
0.642538
0.469685
0.477433
0.615716
0.664592
0.577569
0.546575
0.582933
0.748634
0.611544
0.692606
0.687838
0.690818
0.854731
0.869632
0.755787
0.706911
0.737906
0.858903
0.802875
0.758767
0.829697
0.900626
0.866652
0.688434
0.813603
1.037717
0.955462
0.820756
1.000762
0.967979
1.126528
1.051426
1.056790
1.289845
1.194477
1.382828
1.468658
1.812577
2.071857
2.423525
2.557635
4.539490
16.907454
88.447928
210.776925
501.089692
805.330873
1015.897989
1015.897989
1015.897989
1015.897989
1015.897989
1015.897989
869.292021
580.962896
278.885961
139.194727
46.156645
17.479658
6.810427
5.716681
5.418658
5.008578
4.926920
4.688501
4.862547
##ZVALUE=385
0.377893
0.415444
0.339746
0.354648
0.238419
0.398755
0.488758
0.308752
0.327826
0.468493
0.379682
0.404716
0.438690
0.424981
0.354648
0.432730
0.479817
0.475645
0.460744
0.288486
0.457764
0.360608
0.506639
0.279546
0.394583
0.446439
0.415444
0.384450
0.362992
0.560880
0.464916
0.407696
0.545979
0.510812
0.552535
0.518560
0.522733
0.576973
0.580549
0.732541
0.554919
0.677705
0.533462
0.379682
0.511408
0.674725
0.637770
0.500679
0.408888
0.579953
0.803471
0.728965
0.775456
0.669956
0.767708
0.775456
0.827909
0.957847
0.755787
0.783801
0.868440
0.921488
1.006722
0.885725
0.889897
1.173615
1.297593
1.386404
1.500845
1.733899
2.085567
2.074838
2.268553
2.805591
7.809997
46.545863
127.829909
350.237489
610.920787
1005.484462
1015.839577
1015.839577
1015.839577
1015.839577
1015.839577
1015.839577
751.283765
403.749943
225.484967
91.188550
35.705566
8.953810
5.650520
4.882812
4.603863
4.677773
##ZVALUE=390
0.351667
0.408888
0.425577
0.474453
0.357628
0.406504
0.451803
0.546575
0.478625
0.507832
0.471473
0.539422
0.536442
0.500679
0.609756
0.472665
0.606775
0.310540
0.464916
0.324845
0.595450
0.571609
0.643730
0.554919
0.561476
0.334978
0.418425
0.501871
0.558496
0.502467
0.556707
0.491738
0.586510
0.585914
0.684857
0.615716
0.661612
0.661612
0.569820
0.662804
0.585914
0.531673
0.651479
0.498891
0.539422
0.583529
0.561476
0.696778
0.706911
0.601411
0.715852
0.732541
0.721812
0.731945
0.786781
0.842810
0.876784
0.862479
0.855923
0.928640
1.067519
1.056790
0.913739
1.057982
1.183748
1.137853
1.245737
1.426935
1.621842
1.762509
1.973510
1.912713
1.969934
2.188683
2.275705
2.499819
4.121661
25.683641
86.093545
279.410481
524.754524
965.972543
1015.888453
1015.888453
1015.888453
1015.888453
1015.888453
1015.889049
1015.888453
695.682764
409.977436
164.584517
71.153641
16.862750
6.769896
5.051494
##ZVALUE=395
0.586510
0.705719
0.529885
0.588894
0.503659
0.536442
0.557899
0.515580
0.333786
0.666976
0.676513
0.527501
0.707507
0.534654
0.712872
0.601411
0.539422
0.692606
0.621676
0.665784
0.653863
0.706911
0.705719
0.607967
0.818968
0.646710
0.610948
0.763535
0.683665
0.737906
0.769496
0.647902
0.679493
0.610948
0.681877
0.749826
0.740886
0.783801
0.749826
0.822544
0.711679
0.803471
0.780821
0.890493
0.791550
0.841618
0.877976
0.990629
0.814795
0.818968
0.841618
0.869632
0.957847
0.891685
0.793934
0.885725
0.920892
1.107454
1.054406
0.964999
1.017451
0.960827
1.104474
1.232624
1.115799
1.341701
1.348853
1.396537
1.695752
1.878738
1.878738
1.628995
2.062917
1.973510
2.088547
2.186894
2.119541
2.310872
3.138781
14.619827
54.694414
202.946067
392.544866
744.538903
1016.053557
1016.053557
1016.053557
1016.053557
1016.053557
1016.053557
1016.053557
756.483674
464.109778
197.347999
92.354417
27.562976
##ZVALUE=400
0.438690
0.324845
0.392795
0.532866
0.469685
0.446439
0.395775
0.400543
0.517964
0.372529
0.433922
0.604987
0.589490
0.398755
0.367761
0.606775
0.679493
0.495911
0.537634
0.547767
0.541806
0.642538
0.472665
0.376701
0.539422
0.489950
0.436902
0.448823
0.437498
0.383854
0.621676
0.535846
0.625849
0.687838
0.665784
0.392795
0.484586
0.565648
0.513792
0.590682
0.568628
0.492930
0.664592
0.571609
0.693798
0.507832
0.718832
0.741482
0.613928
0.657439
0.636578
0.793934
0.659823
0.709891
0.796914
0.676513
0.860691
0.673532
0.819564
0.748634
0.834465
0.857711
0.961423
0.889897
0.886917
1.168847
1.131892
1.310706
1.249909
1.592636
1.644492
1.614690
1.689792
1.738667
1.657605
1.609921
1.698732
1.889467
2.003908
2.169609
2.618432
6.738901
28.671622
120.794773
265.299678
581.252575
922.300816
1015.897989
1015.897989
1015.897989
1015.897989
1015.897989
1015.897989
956.249833
629.763603
312.203765
##END
