##TITLE=QP00651
##FORMAT=SPECTACLE-ASCII V-1.2
##DATA TYPE=ULTRAVIOLET SPECTRUM
##SECOND TYPE=ULTRAVIOLET SPECTRUM
##DATE=12/26/17
##TIME=16:10:14
##SPECTROMETER/DATA SYSTEM=SPECTACLE
##XUNITS=NM EM
##YUNITS=ENERGY
##YFACTOR=1
##FIRSTX=220
##LASTX=410
##NPOINTS=96
##3DDATA=Equidistant
##ZUNITS=NM EX
##FIRSTZ=210
##LASTZ=400
##ZPOINTS=39
##XYDATA=(Y..Y)
##ZVALUE=210
2.664924
2.293587
1.866817
2.833605
2.493858
2.428889
2.957582
3.231764
2.444983
2.319813
2.245903
2.352595
2.351999
2.447963
1.899600
2.854466
3.143549
3.376603
3.436804
2.949834
3.068447
3.119707
3.532767
3.805757
4.374981
4.077554
4.770756
4.603863
4.416704
5.453825
5.197525
5.128980
4.864931
5.436540
5.786419
6.021857
6.530881
5.978942
5.768538
6.267428
5.745888
6.510615
6.581545
7.375479
7.115602
7.382631
8.084774
7.134676
7.161498
8.237958
7.641912
8.480549
8.926988
8.484721
8.628964
9.302497
8.703470
9.976625
9.112954
8.596778
9.568930
8.775592
9.754896
9.156466
9.266734
9.122491
10.197759
11.146665
13.070703
14.007688
19.834638
22.929907
25.145411
28.217435
28.238893
31.134486
33.907890
31.363964
31.149983
27.481914
25.446415
24.352670
22.232533
18.452406
14.247894
13.904572
11.713505
10.439754
9.520650
8.651614
9.179711
8.039474
9.612441
7.795691
9.343624
10.365844
##ZVALUE=215
7.721782
7.095933
5.820990
5.442500
5.263686
4.378557
4.619956
4.640818
6.084442
5.606413
4.981756
4.371405
4.143715
3.126860
3.097653
2.811551
3.150702
3.248453
3.606677
2.981424
4.131794
3.177524
3.985763
4.408956
4.527569
4.425645
4.742742
4.962683
5.190969
5.756617
5.767941
6.357431
6.230474
6.956458
6.688833
6.034970
6.051660
6.866455
6.684661
7.352829
7.767677
7.354617
6.932616
6.466508
7.393956
8.128881
7.435679
9.113550
8.442998
7.631779
8.653998
7.724762
8.559823
9.873509
8.949637
8.374453
8.955598
8.485913
8.917451
8.868575
9.456873
9.638667
9.526610
9.713769
10.070801
10.370612
10.237694
10.992885
12.840629
16.269684
18.633604
20.718575
23.199916
27.885437
28.178692
30.178428
30.695796
31.424761
29.266477
26.230812
27.057528
21.229982
18.935800
17.584562
15.305877
12.398958
11.121631
10.735989
10.623932
9.391904
8.550882
9.608865
8.942485
7.855892
9.302497
8.410811
##ZVALUE=220
23.652911
24.450421
24.844408
25.797486
21.563768
19.491911
16.515851
11.768937
11.743903
10.379553
11.562705
12.222528
11.786819
10.548830
8.554459
7.510781
6.090999
4.918575
4.807711
4.053712
3.561974
3.401637
4.467964
4.087687
5.384684
4.952550
5.327463
4.979968
5.420446
5.749464
5.478859
5.911589
7.204413
6.187558
6.584525
6.421804
7.532835
7.446408
7.722974
7.348657
6.774664
8.421540
7.722974
8.523464
8.402467
8.254647
8.624792
7.482767
8.581877
9.051561
9.464622
8.543730
9.669662
8.908510
10.161996
9.593964
9.244680
9.571910
9.804964
8.897781
9.515882
10.059476
9.489655
9.342432
10.369420
10.663867
11.138916
11.645555
12.881756
15.060902
18.086433
20.722747
24.021864
27.276874
31.194687
33.187866
33.212900
29.610991
28.706789
28.708577
25.907755
24.598837
20.197630
19.711852
15.293956
13.616681
12.691617
11.078715
10.485649
11.405945
9.081960
9.485483
9.734631
8.923411
8.862615
8.381605
##ZVALUE=225
43.976903
46.141744
60.384870
72.433949
80.693960
80.795884
74.422956
61.296821
42.557716
34.717917
26.577711
22.963881
23.200512
25.319457
25.152564
24.220943
20.625591
17.243624
11.616945
9.154677
6.578565
5.682707
4.595518
4.864931
5.687475
4.655719
6.168485
5.686879
6.334782
6.510615
6.588697
5.959868
6.542802
6.707907
7.763505
7.529855
8.005500
8.735657
8.155704
8.109808
8.578897
8.332729
8.388758
8.497834
8.585453
8.719563
9.680986
8.705854
9.521842
9.838939
9.256601
8.555651
9.664893
9.306669
9.951591
9.994507
10.520816
10.835528
11.264682
10.814667
11.262894
11.682510
12.025833
11.247993
11.423826
11.655688
12.312531
12.924671
15.633702
16.390681
19.497871
20.592809
24.665594
26.500821
29.597878
29.176474
29.096603
28.489828
26.421547
23.637414
24.403930
20.986795
18.180609
16.399622
17.124414
14.554858
12.757778
12.076497
11.617541
10.282993
11.372566
11.712909
10.817647
9.911656
9.702444
9.398460
##ZVALUE=230
41.672587
42.039752
69.988966
110.921860
142.602921
185.316801
197.756886
197.530985
181.167722
151.033998
107.334852
78.185797
55.259466
46.570897
46.886802
48.183799
49.810410
48.123598
45.739412
34.370422
29.478669
17.925501
12.983680
9.465814
6.307960
6.670952
6.695986
6.464720
6.645918
6.837845
6.794930
7.662773
7.427931
7.539988
7.730722
8.409619
7.394552
8.425713
8.697510
8.617640
9.069443
8.833408
8.516908
9.515882
9.287596
9.284616
9.428859
10.018945
9.878874
9.507537
10.298491
10.080934
10.537505
9.606481
10.891557
10.637641
11.155605
11.577606
11.807680
11.620522
11.393428
13.089776
12.136698
12.137890
13.238788
13.659596
13.233423
16.369820
16.197562
17.359853
20.238757
23.127794
23.108721
27.555823
30.038953
30.199885
30.474663
27.306676
28.124452
25.599599
24.857521
23.113489
21.171570
17.888546
16.302466
15.641451
15.397668
13.515949
14.490485
13.191700
13.286471
12.179613
14.061928
14.511943
13.328791
12.544990
##ZVALUE=235
13.798475
17.096996
41.296482
76.971650
147.070885
201.708674
298.579931
355.537534
405.277014
407.611728
360.148549
300.604701
230.212808
146.985650
104.947686
79.763532
70.598722
75.190663
81.470609
77.626705
74.375868
68.318844
51.960945
39.721727
25.560856
16.813874
11.756420
9.797812
7.672906
8.242726
7.953644
7.567406
7.816553
8.820891
8.981824
8.595586
8.779764
9.369850
8.569956
8.814931
8.505583
8.866787
9.839535
9.369850
10.087490
9.823442
9.970665
10.062456
10.734797
10.923743
10.853410
11.621714
12.804866
11.084676
10.818839
12.546778
10.771751
11.625886
12.506843
12.984872
13.046861
13.425946
14.333725
14.052987
15.760660
14.749765
17.138720
17.900467
18.237829
20.350814
22.314787
24.782419
26.856661
29.385686
31.054616
31.333566
31.823516
32.715797
31.250715
30.968785
28.366446
25.762916
25.504827
21.568537
21.246672
18.711686
17.887950
19.156933
17.898679
17.140508
17.931461
17.532706
17.810464
15.958548
14.287829
17.464757
##ZVALUE=240
1.939535
2.134442
7.705688
21.234751
77.016950
123.076439
197.047591
334.200859
452.687740
563.834906
648.521781
651.987791
592.243671
509.197712
374.020934
272.588730
166.313648
118.745565
97.058415
96.332431
113.915801
114.845634
112.439990
102.337003
85.837841
63.582659
50.036907
32.329559
22.032857
14.959574
10.641813
9.531975
9.347796
8.736849
9.493828
9.111762
10.233521
9.837747
9.576678
9.695888
9.751916
10.677576
10.273457
10.722876
11.415482
10.467768
11.953712
11.546612
10.538697
11.101961
12.012720
10.781884
10.733604
12.390614
13.001561
11.363626
12.589693
12.553930
13.636947
13.787746
13.799667
14.372468
14.938712
14.641881
15.706420
15.532970
16.110539
18.319488
19.177794
20.522475
24.234653
28.320551
27.791858
32.738447
33.185482
33.691525
35.278797
32.571554
31.260848
29.874444
29.114485
28.292537
25.472641
23.786426
21.968484
24.047494
21.436810
19.851923
19.255877
19.860864
19.512773
19.862652
21.348596
19.128919
20.075440
19.828677
##ZVALUE=245
1.565814
1.711845
1.858473
1.964569
5.376935
15.522838
50.328970
102.349520
228.295922
349.254012
540.955663
682.754517
774.888992
831.120610
793.087482
673.483014
546.608567
375.675559
263.767838
155.035853
111.936927
99.552870
111.547709
122.477412
129.362941
125.589967
112.615824
96.957684
70.695877
54.520965
39.357543
23.754835
17.026663
10.936856
8.901954
8.509755
9.095669
8.940697
9.138584
8.757710
9.723902
9.050965
9.080768
8.318424
8.931756
10.272861
10.550618
9.981990
9.592772
9.296536
9.780526
9.260774
11.054873
10.385513
10.143518
10.978580
10.892749
11.577606
12.294650
12.229681
11.733770
12.184978
12.641549
13.502836
14.453530
14.182925
15.026927
16.792417
18.244982
19.563437
21.722913
25.164485
27.247667
28.669834
30.886531
30.383468
30.341744
29.278994
27.566552
28.151870
27.161837
24.229884
24.342537
22.996664
22.425652
21.107793
19.927621
20.972490
20.342469
19.656420
19.984841
20.410419
19.252896
19.396544
18.617511
19.724965
##ZVALUE=250
1.628995
1.453757
1.442432
1.781583
1.475811
1.991987
2.912879
9.764433
41.116476
90.095997
212.094784
350.855589
511.710644
730.295777
861.557722
986.245871
983.544588
874.556899
744.299889
527.907014
360.839963
238.983631
131.781697
101.732612
104.349852
119.569898
133.460760
138.699412
131.196976
120.968819
105.670691
78.262687
57.123899
35.564899
23.776889
14.093518
10.515451
9.115934
8.518696
8.408427
8.716583
8.798838
7.602572
8.813739
8.630753
7.744431
8.337498
9.244680
8.995533
7.995963
8.397698
8.298755
9.180903
9.221435
9.136796
9.405613
9.340644
9.388924
9.654760
9.397864
10.716915
9.660721
10.281801
10.539889
10.344982
13.313890
12.424588
13.918877
15.866756
16.576648
19.289851
21.030903
22.223592
25.242567
25.811791
26.967525
25.259852
24.949908
24.967790
23.670793
21.036863
21.313429
20.857453
21.028519
19.183755
19.229650
18.481612
18.537641
18.690825
16.965866
17.581582
17.610788
19.725561
17.644763
18.049479
17.126799
##ZVALUE=255
1.395941
1.435876
1.680851
1.703501
1.740456
1.608729
1.828671
2.057552
2.798438
5.222559
28.348565
67.603588
138.555765
309.290886
475.159883
727.749467
907.713771
1016.044021
1016.044021
1016.044021
931.180716
748.479962
475.030541
303.591490
161.164999
109.292865
93.799829
102.510452
123.893619
138.214827
146.155953
142.005682
129.222870
104.686618
80.013871
56.165457
38.300753
23.077726
15.181899
9.685755
8.019805
8.426905
7.737875
8.485913
8.148551
7.849932
7.768869
7.943511
8.105636
7.855892
8.051991
8.088946
7.815957
7.347465
8.565784
8.519888
8.658767
8.570552
8.893609
9.546876
9.208918
9.184480
9.104609
9.721518
10.305643
10.896921
10.865927
12.766719
12.673736
15.066862
16.487837
17.750859
19.293427
20.469427
22.266507
21.814704
23.303628
21.444559
21.264553
20.533800
20.325780
19.097924
17.942786
17.789602
17.827749
16.387701
16.336441
16.375780
17.503500
16.264915
16.597509
17.307997
16.771555
16.157627
16.897917
16.601682
##ZVALUE=260
1.567602
1.350641
1.330972
1.584888
1.551509
1.578927
1.693964
1.642704
1.880527
1.808405
2.117753
3.221631
10.060668
44.132471
100.143552
247.331858
405.073762
664.907694
887.030959
1016.030908
1016.030908
1016.030908
1016.030908
968.371034
660.188794
452.677011
255.544782
153.941512
92.678666
86.269975
105.038881
127.859712
141.048431
150.631666
145.010948
130.081773
111.418962
81.012845
60.429573
37.308931
25.578737
15.266538
10.362864
7.542968
7.007718
7.821918
7.621646
7.563829
8.094907
7.576942
7.599592
7.417798
7.115602
7.451773
7.482767
7.413626
7.788539
8.067489
8.548498
7.855892
8.161664
8.494854
8.694530
8.709431
9.107590
9.679794
9.768605
11.007786
11.536479
12.784600
13.979673
15.696883
17.237663
17.061830
18.392801
19.119978
18.554926
18.270612
17.563701
17.803907
16.767979
16.499758
15.615821
15.958548
14.711618
15.604496
15.575886
14.608502
15.809536
14.307499
15.758872
14.927983
14.560819
15.048981
16.367435
15.280843
##ZVALUE=265
1.163483
1.353621
1.098514
1.317859
1.292825
1.334548
1.263618
1.342893
1.356602
1.456738
1.668930
1.689792
2.070665
2.300739
6.931424
25.102496
91.042519
182.912946
323.713422
627.525449
908.738971
1015.897989
1015.897989
1015.897989
1015.897989
1015.897989
910.481811
584.353805
382.598639
196.069479
115.382671
77.171922
82.952976
109.067559
129.061937
148.544908
155.738592
145.855546
130.933523
107.375979
83.797574
55.601001
38.719773
21.795630
14.927983
8.440614
7.884502
6.660819
7.323623
6.916523
6.963611
7.529855
6.837845
7.015467
7.409453
7.667542
7.103682
7.054806
7.280707
8.353591
7.201433
7.794499
7.895827
8.009672
8.409619
8.929968
9.128451
9.857416
11.354685
12.344718
13.237596
14.030933
15.369654
15.876889
16.498566
16.337633
16.540885
15.781522
15.408993
15.019774
14.714599
14.735460
14.252663
14.352798
13.340712
13.426542
13.467669
13.124943
13.370514
13.501644
13.409853
13.921857
14.063716
14.246702
13.749599
13.466477
##ZVALUE=270
1.141429
1.039505
1.061559
1.149774
1.087785
1.345873
0.976920
1.267791
1.350641
1.219511
1.558661
1.471639
1.323819
1.657605
1.860857
2.296567
3.152490
14.682412
44.503808
144.733787
288.700461
504.248738
884.241462
1015.897989
1015.897989
1015.897989
1015.897989
1015.897989
1015.897989
880.236030
598.898530
317.817926
174.572468
78.992844
66.014528
84.294677
107.726455
131.166577
147.935748
154.669881
150.508881
132.296681
111.282468
82.343817
60.586929
35.556555
24.354458
14.741421
9.824634
7.928610
7.076859
6.883740
6.969571
7.327795
6.729960
7.061958
7.242560
6.708503
7.678866
7.635951
7.519722
7.726550
7.688999
7.465482
8.141994
8.019805
7.998943
9.237528
10.231733
11.175871
11.220574
12.735724
13.702512
14.854670
15.279651
14.830828
14.662743
14.691949
14.584661
14.096498
14.146566
13.113618
12.760758
12.373924
12.379885
12.845993
12.643933
12.670755
12.013912
12.667775
12.837648
12.368560
12.625456
13.182759
13.012886
12.933612
##ZVALUE=275
0.984669
1.204610
0.932813
1.050830
0.881553
0.970960
1.271963
1.312494
1.140833
0.911951
1.141429
1.405478
1.611710
1.535416
1.552701
1.709461
2.027750
2.353787
2.547503
6.727576
27.736425
81.947446
239.786506
447.070003
835.685730
1015.897989
1015.897989
1015.897989
1015.897989
1015.897989
1015.897989
1015.897989
786.459446
422.074795
239.912868
99.464655
61.228871
60.672760
78.448653
107.525587
127.636790
146.753788
153.761506
147.779584
132.981539
104.909539
84.013939
58.020949
41.161776
23.233891
16.386509
10.273457
8.479953
7.318854
7.070899
6.685853
7.367730
7.110834
7.367730
7.565618
7.853508
7.623434
7.920861
7.891655
8.429885
8.128881
8.727908
9.122491
9.341836
10.175705
11.774898
12.988448
13.710856
13.691783
14.840961
14.744997
14.487505
14.167428
13.443828
13.434887
13.131499
12.341738
11.301637
11.778474
11.413693
11.644959
11.312962
11.242628
11.461973
11.368990
11.034608
11.323690
11.674762
11.885762
11.441708
12.094975
##ZVALUE=280
1.129508
1.103878
1.212955
1.403689
1.179576
1.194477
1.393557
1.176000
1.373887
1.323819
1.357794
1.391768
1.478791
1.652837
1.957417
1.786947
1.875758
1.821518
1.912713
2.326965
2.596974
3.085732
17.567873
60.076714
189.497471
358.088017
666.827559
973.267555
1016.153693
1016.153693
1016.153693
1016.153693
1016.153693
1016.153693
962.520838
552.937984
323.175788
140.798688
69.399476
45.216680
54.204464
81.181526
104.031563
130.278468
145.620704
148.381591
146.780610
129.207969
111.317635
80.515742
61.599612
39.083958
25.631785
15.494823
10.861754
8.040667
7.213950
7.668734
7.435679
7.468462
7.490516
7.795691
8.329749
7.962584
8.078814
8.135438
8.621812
9.002686
9.944439
10.600686
11.309981
12.065768
12.046695
12.749434
12.924671
13.387799
13.363957
12.842417
12.884736
12.877584
11.942983
11.593699
11.381507
11.070967
11.154413
11.407733
11.343956
11.134744
11.199713
10.757446
11.427999
11.415482
11.036992
11.262894
11.228919
11.015534
##ZVALUE=285
0.763535
1.034737
1.053810
1.060963
1.076460
0.901818
0.947714
0.805855
1.245737
1.035929
0.872612
1.181960
1.294613
1.098514
1.272559
1.128912
1.543760
1.353621
1.493692
1.551509
1.932979
2.026558
2.210736
2.584457
8.798838
30.902624
109.570622
233.978629
517.001748
808.666945
1015.897989
1015.897989
1015.897989
1015.897989
1015.897989
1015.897989
1015.897989
769.121647
477.218628
219.139457
107.652545
43.420792
37.495494
54.599643
73.908567
102.219582
119.995475
138.981938
146.801472
141.914487
131.368637
106.788874
86.951852
60.570836
42.238832
24.828911
16.546845
10.901690
8.794665
7.444620
7.664561
7.878542
7.620454
8.118749
7.701516
8.164644
8.141994
8.858442
9.066463
10.057688
10.691881
11.390448
11.520982
12.318492
12.635589
12.444854
12.229681
11.919737
11.628866
11.531711
11.567473
11.691451
10.839701
10.589957
10.499954
10.674596
10.867715
10.624528
10.754466
10.371804
10.741949
10.460615
10.818839
9.927750
10.248423
10.105968
##ZVALUE=290
0.767708
0.816584
0.850558
1.084805
0.894666
0.817776
0.884533
0.860691
0.918508
1.017451
1.023412
1.162887
0.945926
0.912547
1.039505
1.205802
1.335740
1.156926
1.261830
1.549721
1.443624
1.641512
1.855493
2.154708
2.236962
2.550483
3.441572
17.639995
55.048466
174.382925
337.241888
694.441795
1002.546549
1015.897989
1015.897989
1015.897989
1015.897989
1015.897989
1015.897989
980.947018
669.652820
329.919457
171.071887
61.310530
32.033920
35.130978
48.491955
72.478652
93.163848
117.516518
133.183002
142.322779
140.434504
125.909448
108.850002
80.903769
60.638785
39.896965
27.870536
16.885996
11.922717
9.113550
8.366704
8.072853
7.939935
8.077621
8.285642
8.768439
9.151697
9.857416
10.141730
10.354519
11.269450
11.495948
12.031794
12.441874
11.505485
11.337996
11.118650
10.716915
10.743737
10.738969
10.754466
10.669827
10.576844
10.632873
10.339618
10.316968
10.317564
9.962916
10.064840
10.096431
10.385513
10.536909
10.413527
9.899735
##ZVALUE=295
0.930429
0.750422
0.742674
0.863671
0.932813
0.993609
0.910759
0.980496
0.851750
1.025796
1.025796
1.107454
1.012683
0.937581
0.929832
1.039505
1.126528
1.171827
1.126528
1.167655
1.182556
1.418591
1.739860
1.665950
2.004504
1.986623
2.224445
2.488494
2.924800
5.447865
22.716522
98.422766
227.427483
539.027452
871.571898
1015.869975
1015.869975
1015.869975
1015.869975
1015.869975
1015.869975
1015.869975
880.084634
466.611981
254.379511
88.308454
40.189624
24.426579
29.442906
48.591495
65.400600
90.987682
110.734701
127.750635
135.397911
132.194757
121.638775
99.703670
82.239509
57.636499
41.381717
25.708675
18.061996
12.115836
9.885430
8.855462
9.039640
9.056926
9.103417
9.663701
10.420680
10.672808
11.433959
11.462569
11.824965
11.759996
11.733770
10.904670
11.430979
10.668635
10.790825
10.402799
10.726452
10.132790
10.325909
10.440946
10.201931
10.511875
9.973645
10.203719
10.178685
9.837747
9.598732
9.976625
10.267496
9.783506
##ZVALUE=300
0.764728
0.746846
0.763535
0.997782
0.796914
0.795722
0.850558
0.823736
0.745654
0.840425
0.984669
0.934601
1.009703
0.891685
0.797510
1.146793
0.883937
1.182556
1.118779
1.112819
1.253486
1.207590
1.344681
1.416802
1.451969
1.651645
1.783967
1.805425
2.212524
2.120733
2.757907
3.407598
9.675622
63.598752
160.373449
411.628485
701.494813
1015.897989
1015.897989
1015.897989
1015.897989
1015.897989
1015.897989
1015.897989
1015.897989
625.446439
370.107889
165.176988
73.758960
24.412870
19.722581
28.514862
40.543675
61.551929
81.402659
106.098652
120.008588
128.790736
128.285885
116.161704
103.029609
79.373717
59.945583
40.640831
29.057860
17.940998
13.247728
10.425448
10.180473
10.374784
10.787845
10.735989
10.692477
11.773705
11.731982
11.342764
11.530519
11.165738
11.153817
10.998845
10.867715
10.744929
10.508895
10.620952
10.939837
10.350943
10.779500
10.012984
10.538697
10.389686
10.286570
9.873509
9.833574
10.160804
10.163784
9.590983
##ZVALUE=305
0.553727
0.692606
0.684857
0.611544
0.690818
0.855923
0.713468
0.810623
0.858903
0.770688
0.917912
0.840425
0.969768
0.971556
0.965595
1.002550
1.001954
0.893474
1.083612
1.287460
1.289845
1.433492
1.145601
1.232624
1.364946
1.505613
1.686811
1.620650
1.659989
1.857877
2.248883
2.261996
2.853870
2.827644
5.661845
37.494898
108.069777
312.950611
575.690866
1012.114882
1015.897989
1015.897989
1015.897989
1015.897989
1015.897989
1015.897989
1015.897989
831.880569
509.681702
229.397416
109.513998
35.498738
18.003583
19.314885
26.030540
42.456985
57.782531
80.378652
98.576546
115.203857
122.070909
120.663643
113.588572
95.988512
78.372955
55.188537
40.578842
26.744604
19.528866
13.879538
12.223721
11.116862
11.181831
11.832714
11.484623
11.485815
10.996461
11.112690
11.354685
10.905862
10.804534
10.782480
10.747910
10.550618
10.552406
10.396838
10.648966
10.533929
10.200739
10.584593
10.176897
10.168552
10.068417
9.541512
10.071993
9.888411
##ZVALUE=310
0.745654
0.786781
0.642538
0.750422
0.844598
0.759959
0.661612
0.818968
0.726581
0.886917
0.767708
0.780821
0.868440
0.827909
0.734925
1.114607
0.885725
0.680685
0.948906
1.102686
1.101494
1.311898
1.155734
1.187921
1.235604
1.253486
1.533628
1.517534
1.349449
1.551509
1.838803
1.852512
1.910925
2.037883
2.413988
2.740622
3.281832
15.410781
55.212975
195.822716
396.466851
834.771991
1015.897989
1015.897989
1015.897989
1015.897989
1015.897989
1015.897989
1015.897989
1015.897989
764.803886
371.430516
188.473463
61.940551
24.090409
13.965964
16.943812
25.067925
34.433603
53.132772
69.686770
91.363788
104.793906
115.733743
117.226839
108.428597
95.072985
75.755715
59.202909
39.594769
30.461550
19.985437
16.103983
13.223886
12.298822
11.573434
10.946989
11.097789
10.815859
10.918975
10.409951
10.665655
10.491610
10.325909
10.361671
10.368824
10.560751
10.313988
10.433793
10.684729
10.408759
10.404587
9.967685
9.797812
9.786487
9.904504
##ZVALUE=315
0.741482
0.649691
0.763535
0.705719
0.610948
0.715852
0.745654
0.751615
0.745654
0.803471
0.694990
0.819564
0.738502
0.852942
0.839829
0.867844
0.787973
0.878572
0.975728
0.923872
1.091957
1.073480
1.160502
1.129508
1.196861
1.070499
1.310706
1.146793
1.457930
1.494884
1.500845
1.714826
1.646876
1.826882
2.036691
1.975894
2.496839
2.761483
3.044605
6.861687
26.995540
119.165778
270.304680
630.820990
991.894007
1015.898585
1015.898585
1015.898585
1015.898585
1015.898585
1015.898585
1015.898585
1004.171968
550.302863
289.423466
98.281503
37.532449
14.113784
13.428926
16.757846
22.122860
34.511685
46.523809
66.567659
81.720948
100.828409
109.179616
109.837651
104.388595
89.198947
75.579882
56.485534
42.445660
28.220415
20.462871
14.971495
12.795925
11.368990
10.771751
10.497570
10.391474
10.451674
10.579824
10.457635
10.189414
10.710955
10.650754
10.659695
10.446906
10.730624
10.592937
9.858608
10.023713
9.730458
10.081530
9.645820
##ZVALUE=320
0.619888
0.643730
0.632405
0.673532
0.653863
0.581741
0.685453
0.620484
0.645518
0.691414
0.610948
0.826716
0.721812
0.759959
0.748634
0.860691
0.815988
0.731945
0.873804
0.905991
1.047850
1.027584
0.934601
0.950694
1.011491
1.038909
1.206994
1.220703
1.133680
1.271963
1.292825
1.338720
1.416802
1.527667
1.659989
1.744628
1.935959
2.148747
2.414584
2.433658
2.827644
3.776550
12.246966
68.153739
175.879002
473.289490
799.891949
1015.893817
1015.893817
1015.893817
1015.893817
1015.893817
1015.893817
1015.893817
1015.893817
721.488595
408.043861
165.841579
68.894625
19.489527
12.111664
12.323856
14.964938
20.831823
29.316545
44.298768
59.359670
80.054998
93.970895
104.196668
106.276870
100.800991
88.554621
70.843697
56.047440
38.324594
28.093457
19.206405
14.817715
12.127757
11.262894
10.504723
10.483861
10.789633
10.557771
10.531545
10.202527
10.250807
10.297894
10.122657
9.713769
9.887815
10.042787
10.029674
10.133982
9.996891
##ZVALUE=325
0.570416
0.544786
0.461936
0.696778
0.587702
0.460744
0.553727
0.562668
0.694990
0.506639
0.712872
0.647902
0.601411
0.728965
0.732541
0.715852
0.672936
0.715852
0.629425
0.879765
0.830889
0.839829
0.752807
0.948906
0.899434
0.958443
0.846982
0.883937
0.998974
0.965595
0.778437
1.130700
1.181960
1.136661
1.317859
1.546741
1.379848
1.577735
1.513958
2.062917
2.024770
2.037883
2.520680
3.334880
6.400943
45.495629
119.666457
322.765708
592.174530
1015.779972
1015.779972
1015.779972
1015.779972
1015.779972
1015.779972
1015.779972
1015.779972
890.156031
532.869697
227.115750
35.052896
31.838417
12.368560
10.458827
11.386871
13.591647
19.800663
27.576685
45.074821
59.199929
77.129602
88.725686
99.415779
100.029707
93.523860
82.597733
65.056682
50.668716
34.616590
25.415421
17.245412
13.706684
11.704564
10.993481
10.364652
10.280609
9.996891
10.225773
10.068417
9.766817
9.821653
9.559989
9.605885
9.653568
9.520650
9.964705
##ZVALUE=330
0.355840
0.390410
0.423789
0.580549
0.402927
0.361800
0.549555
0.540614
0.532866
0.591874
0.512600
0.616908
0.453591
0.553727
0.506639
0.479817
0.584722
0.492930
0.508428
0.625849
0.779629
0.584722
0.665784
0.701547
0.675917
0.777841
0.913739
0.709891
0.963807
0.875592
0.949502
0.933409
1.077652
1.296997
1.019835
1.241565
1.284480
1.444817
1.518726
1.582503
1.652837
1.710653
1.942515
2.136827
2.600551
2.862811
3.935695
19.738674
67.631602
225.144029
434.519649
877.730846
1015.751958
1015.751958
1015.751958
1015.751958
1015.751958
1015.751958
1015.751958
1015.751958
727.872849
330.600739
160.494447
50.853491
18.427968
10.505915
10.156631
10.973811
13.451576
20.101666
27.659535
41.556954
55.427551
72.636604
84.171891
91.429949
93.359947
86.893439
77.496767
60.552955
47.345757
32.897592
24.900436
18.377900
14.498830
11.880994
10.659695
10.329485
9.726882
9.838939
9.940863
9.472966
9.469986
9.327531
9.158850
9.318590
##ZVALUE=335
0.566840
0.581741
0.505447
0.682473
0.582933
0.621676
0.557899
0.623465
0.694990
0.492930
0.543594
0.479817
0.615716
0.619888
0.595450
0.803471
0.674725
0.624657
0.647902
0.786781
0.645518
0.592470
0.859499
0.952482
0.843406
0.798702
0.891685
0.768900
1.049638
0.950694
1.031756
0.874996
0.808835
0.940561
1.103878
1.139641
1.054406
1.256466
1.316667
1.467466
1.315475
1.615882
1.904964
1.637936
1.848936
2.115965
2.462864
2.575517
3.096461
8.709431
34.478903
143.361688
303.492546
667.240620
1009.633541
1015.852690
1015.852690
1015.852690
1015.852690
1015.852690
1015.852690
1015.852690
929.285884
487.443805
251.752734
79.473853
28.972626
11.987686
10.276437
10.401607
11.301637
14.234781
18.945932
29.409528
38.998723
53.917766
65.222979
79.759955
85.706711
86.972713
81.527829
70.815682
60.120821
46.149492
36.276579
24.845600
19.133687
14.181733
11.757612
10.226965
9.979606
9.382963
9.350777
9.535551
9.582639
9.387732
##ZVALUE=340
0.519753
0.616908
0.524521
0.362992
0.669956
0.508428
0.597835
0.565648
0.598431
0.556707
0.900626
0.713468
0.768900
0.741482
0.718832
0.685453
0.724792
0.518560
0.546575
0.688434
0.741482
0.694990
0.742674
0.816584
0.737906
0.921488
0.763535
0.925660
0.943542
1.053810
1.044869
0.936985
0.839829
0.975728
0.998974
1.131892
1.036525
0.997782
1.323819
1.261830
1.306534
1.445413
1.524687
1.874566
1.823902
1.734495
1.956820
2.171993
2.375841
2.569556
2.993941
4.640818
17.118454
93.665719
231.345892
571.198463
954.258442
1015.897989
1015.897989
1015.897989
1015.897989
1015.897989
1015.897989
1015.897989
1015.897989
603.029728
332.862735
130.524635
48.191547
13.985634
11.085868
10.638833
10.770559
11.772513
13.842583
19.448996
25.752783
37.048459
48.568845
64.516664
74.142814
80.851912
80.944896
77.361465
69.612861
56.918859
46.796799
33.316612
26.083589
18.361807
14.265776
10.968447
10.243654
9.448528
9.241700
9.119511
##ZVALUE=345
0.622869
0.552535
0.654459
0.602603
0.526905
0.713468
0.539422
0.638962
0.447631
0.644922
0.573993
0.700951
0.680685
0.557899
0.698566
0.548959
0.716448
0.833869
0.660419
0.564456
0.760555
0.638962
0.545979
0.624657
0.788569
0.667572
0.825524
0.754595
0.814795
0.811815
0.914931
0.884533
0.849962
1.029968
1.064539
0.937581
1.178980
1.070499
1.178980
1.155734
1.130700
1.157522
1.154542
1.436472
1.554489
1.627803
1.709461
1.669526
2.077818
1.944900
2.158880
2.595782
2.955794
3.554821
7.863641
56.334734
159.355402
415.022969
737.485886
1015.897989
1015.897989
1015.897989
1015.897989
1015.897989
1015.897989
1015.897989
1015.897989
772.431493
439.869761
183.160901
76.828599
21.138787
12.053847
10.566711
10.334849
10.512471
10.359883
12.596846
16.227961
24.162531
32.936931
46.598911
57.008862
68.483949
74.317455
75.910687
73.570609
65.040588
56.472421
43.416619
33.762455
24.167895
18.355846
13.850927
11.568666
9.834766
##ZVALUE=350
0.633597
0.623465
0.585914
0.607967
0.623465
0.653863
0.598431
0.643730
0.723600
0.699759
0.569820
0.547767
0.621676
0.611544
0.724792
0.586510
0.586510
0.513792
0.680685
0.697970
0.680685
0.504851
0.700951
0.677705
0.699759
0.779629
0.799894
0.833869
0.707507
0.704527
0.807643
0.822544
0.944734
0.763535
0.952482
0.858903
0.906587
1.015663
1.060963
1.084805
1.203418
1.328588
1.363754
1.265407
1.193881
1.424551
1.439452
1.506805
1.655817
1.736879
1.902580
2.059937
2.030730
2.365708
2.714992
3.089905
4.634857
27.872920
91.258883
284.344554
541.629791
1008.691788
1015.897989
1015.897989
1015.897989
1015.897989
1015.897989
1015.897989
1015.897989
919.837952
556.397438
236.611962
102.750659
26.484728
12.519956
10.046959
9.598732
8.957982
8.791685
9.665489
11.391640
16.160607
20.993948
29.962659
38.725734
51.538944
59.081912
67.404509
70.069432
67.371726
61.036944
51.113963
41.979551
30.621886
23.955703
17.385483
##ZVALUE=355
0.560880
0.780821
0.599623
0.710487
0.555515
0.623465
0.581741
0.619888
0.692606
0.636578
0.701547
0.715852
0.616908
0.695586
0.552535
0.654459
0.736713
0.923872
0.609756
0.788569
0.716448
0.499487
0.948906
0.773668
0.921488
0.958443
0.942945
0.820756
0.723600
0.818968
0.844598
0.756979
0.846982
0.874996
0.932813
0.963807
1.083612
1.080632
1.086593
1.086593
1.073480
1.034737
1.121759
1.296997
1.316667
1.304746
1.463890
1.513958
1.452565
1.689792
1.700521
1.742840
1.882911
1.966953
2.200603
2.311468
2.647638
2.958775
3.370643
11.837482
45.919418
181.041360
379.658937
805.171728
1015.906930
1015.906930
1015.906930
1015.906930
1015.906930
1015.906930
1015.906930
1015.906930
722.878575
314.450860
148.679614
40.961504
15.603900
9.608865
9.109974
8.536577
8.348823
8.580685
9.048581
11.068583
13.590455
18.976927
25.418997
36.076903
43.793917
54.210424
59.872866
62.924623
62.357783
56.033731
48.785806
39.716959
##ZVALUE=360
0.966787
0.633597
0.762939
0.836849
0.686646
0.740886
0.782609
0.703931
0.727773
0.982881
0.762939
0.859499
0.768900
0.799894
0.895858
0.935793
0.882745
0.771880
0.886917
0.813603
0.869632
0.778437
0.925660
0.961423
0.937581
1.015663
0.932813
1.075864
0.896454
1.052618
1.041889
1.206994
1.036525
1.090765
1.005530
1.174808
1.160502
1.243949
1.107454
1.171827
1.252890
1.190901
1.296997
1.180768
1.104474
1.320839
1.512766
1.702905
1.676679
1.671910
1.885891
1.916885
2.015829
2.046824
2.097487
2.389550
2.357960
2.625585
2.821684
3.113747
3.400445
6.097555
20.607710
104.399920
252.318978
627.257824
989.579558
1016.028523
1016.028523
1016.028523
1016.028523
1016.028523
1016.028523
1016.028523
888.500810
418.568850
211.427808
72.652698
26.103854
10.246634
8.986592
8.584857
8.504987
8.197427
8.137822
8.402467
9.234548
12.108684
15.359521
21.927953
28.972626
38.766861
46.236515
54.150820
56.645870
57.332516
##ZVALUE=365
0.993609
0.981688
0.911951
0.798702
0.911951
0.920892
0.775456
0.868440
0.891685
0.818968
0.836849
1.017451
0.827909
0.968575
0.833869
0.956655
1.072884
1.028776
0.982881
0.943542
0.848770
0.977516
1.091957
1.054406
0.941753
1.063943
1.083612
1.184940
1.033545
1.088977
1.168847
1.156926
1.149774
1.022816
1.201630
1.272559
1.202822
1.135468
1.269579
1.264811
1.383424
1.362562
1.442432
1.528859
1.438856
1.326799
1.415610
1.369715
1.509786
1.710653
1.819730
1.720786
1.714826
2.019405
2.113581
1.986623
2.075434
2.360940
2.366900
2.777576
2.807975
3.337860
3.594756
4.207492
8.420944
51.121712
146.338940
399.668813
750.095844
1016.130447
1016.130447
1016.130447
1016.130447
1016.130447
1016.130447
1016.131043
1016.130447
616.353750
327.117443
109.703541
40.027499
11.655688
9.321570
8.556843
8.189678
7.607937
7.516742
7.611513
7.682443
8.369684
9.921789
13.801455
17.885566
24.977922
32.307506
41.089654
##ZVALUE=370
0.568628
0.602603
0.580549
0.513792
0.599623
0.656843
0.504851
0.573993
0.676513
0.731945
0.565648
0.741482
0.685453
0.724792
0.688434
0.607967
0.814795
0.805855
0.754595
0.714660
0.694990
0.725985
0.681877
0.769496
0.738502
0.800490
0.734925
0.673532
0.715852
0.758767
0.789762
0.845790
0.929832
0.726581
0.884533
0.942945
0.917912
0.919700
1.032948
0.960827
0.822544
1.078844
0.953674
1.119971
1.068711
1.022816
1.120567
1.102686
1.103878
1.122952
1.134872
1.386404
1.250505
1.374483
1.411438
1.499653
1.727939
1.666546
1.734495
1.905560
2.042651
2.488494
2.368689
2.704859
2.987981
3.532767
5.010962
28.365850
94.029903
294.762850
573.835969
1015.897989
1015.897989
1015.897989
1015.897989
1015.897989
1015.897989
1015.897989
1015.897989
778.998733
436.850786
163.121819
67.970753
17.549992
9.330511
7.660985
7.091761
6.880760
6.986856
6.568432
6.461740
6.430745
6.955862
8.727908
11.016726
16.059875
##ZVALUE=375
0.709891
0.447631
0.692606
0.679493
0.473857
0.692606
0.559688
0.593662
0.660419
0.600815
0.571609
0.588894
0.708699
0.703931
0.497699
0.598431
0.681877
0.673532
0.763535
0.551939
0.634789
0.697970
0.736713
0.671744
0.685453
0.539422
0.708699
0.592470
0.694990
0.632405
0.690818
0.803471
0.766516
0.842810
0.919700
0.795722
0.844598
0.689626
0.866652
0.806451
0.744462
1.018643
0.943542
1.064539
1.001954
0.890493
0.907779
1.035929
0.956655
0.991821
1.024604
1.075864
0.994802
1.181960
1.247525
1.255870
1.321435
1.454949
1.446605
1.537800
1.689792
1.805425
1.916885
2.001524
2.180934
2.306700
2.742410
3.178716
3.910661
13.610721
52.708983
197.307467
424.437523
943.127871
1015.897989
1015.897989
1015.897989
1015.897989
1015.897989
1015.897989
1015.897989
958.808661
600.523949
293.596983
142.000914
40.404797
14.018416
7.865429
7.275939
6.591678
6.576777
6.029606
6.018877
5.944967
6.090999
6.600618
##ZVALUE=380
0.482798
0.579953
0.611544
0.481606
0.530481
0.579953
0.524521
0.458956
0.432730
0.582933
0.479817
0.454783
0.494719
0.599623
0.447631
0.732541
0.612736
0.618696
0.783801
0.647902
0.638962
0.645518
0.717640
0.630617
0.676513
0.664592
0.711679
0.729561
0.750422
0.604987
0.523925
0.556707
0.704527
0.638962
0.628829
0.809431
0.800490
0.574589
0.893474
0.743866
0.677705
0.858903
0.932813
0.836849
0.828505
0.968575
0.894666
0.985861
0.925660
1.067519
0.895858
1.057982
1.036525
1.018643
1.067519
1.145601
1.220703
1.232624
1.410842
1.266599
1.413822
1.476407
1.501441
1.966953
1.804829
2.001524
2.216697
2.614856
2.774596
3.380775
3.787875
6.917715
27.285814
139.763355
330.758691
778.730512
1015.897989
1015.897989
1015.897989
1015.897989
1015.897989
1015.897989
1015.897989
1015.897393
828.703642
392.665863
194.131732
62.500834
22.643805
8.498430
6.805658
6.449819
6.188750
5.705953
5.700588
5.593896
##ZVALUE=385
0.473857
0.468493
0.530481
0.331998
0.593662
0.431538
0.538826
0.567436
0.632405
0.434518
0.544786
0.472665
0.551939
0.485778
0.566840
0.577569
0.532866
0.703931
0.675917
0.499487
0.594854
0.601411
0.583529
0.587702
0.607967
0.696778
0.605583
0.666976
0.652671
0.735521
0.805855
0.666976
0.705719
0.639558
0.782609
0.795722
0.623465
0.690818
0.800490
0.695586
0.753999
0.753999
0.744462
0.746846
0.606775
0.734925
0.841618
0.911951
0.928640
0.827909
0.777841
0.889897
0.867844
1.069903
1.166463
1.143813
1.067519
1.106858
1.079440
1.128912
1.100898
1.354814
1.194477
1.405478
1.717806
1.791716
1.809597
2.234578
2.401471
2.794862
3.047585
3.305674
3.614426
4.414916
12.792945
80.075860
210.482478
530.987978
939.313769
1015.897989
1015.897989
1015.897989
1015.897989
1015.897989
1015.897989
1015.897989
1015.897989
640.541911
353.221893
135.022998
49.298406
11.669993
7.077456
6.113648
5.913973
5.647540
##ZVALUE=390
0.476837
0.592470
0.447631
0.502467
0.600815
0.425577
0.490546
0.503659
0.443459
0.538826
0.570416
0.380874
0.640750
0.602603
0.359416
0.457764
0.537634
0.480413
0.529885
0.783801
0.539422
0.611544
0.578761
0.591874
0.587702
0.687838
0.398755
0.449419
0.637770
0.605583
0.517964
0.449419
0.521541
0.634789
0.584722
0.672936
0.687838
0.772476
0.788569
0.698566
0.602603
0.659823
0.799894
0.759959
0.827909
0.741482
0.838637
0.832677
0.910759
0.907779
0.781417
0.889897
0.981688
0.807643
0.858903
1.098514
1.216531
1.124740
1.136661
1.170635
1.169443
1.072884
1.200438
1.400709
1.495481
1.387596
1.706481
1.981854
2.209544
2.432466
2.785921
3.020763
3.033876
3.143549
3.317595
3.664494
6.885529
45.768619
147.989392
447.389483
824.231505
1015.897989
1015.897989
1015.897989
1015.897989
1015.897989
1015.897989
1015.897989
1015.897393
946.320891
545.696616
212.238431
93.629956
24.949908
9.217858
6.177425
##ZVALUE=395
0.487566
0.468493
0.508428
0.326633
0.545979
0.500679
0.546575
0.657439
0.562668
0.554919
0.527501
0.532866
0.666976
0.407696
0.530481
0.623465
0.283718
0.391603
0.549555
0.577569
0.426769
0.707507
0.670552
0.642538
0.489950
0.645518
0.686646
0.514984
0.488758
0.587702
0.324845
0.678897
0.623465
0.714660
0.845790
0.736713
0.696778
0.602603
0.696778
0.779629
0.721812
0.776649
0.828505
0.629425
0.796914
0.818968
0.746846
0.775456
0.777841
0.737906
0.899434
1.113415
0.992417
1.062751
0.973940
1.152754
1.050830
1.061559
0.946522
1.090765
1.324415
1.216531
1.126528
1.347661
1.439452
1.712441
1.622438
1.843572
2.044439
2.094507
2.310872
2.486706
2.680421
2.612472
2.686977
2.785921
3.059506
3.332496
4.403591
26.175976
103.060603
351.310968
652.925968
1015.899777
1015.899777
1015.899777
1015.899777
1015.899777
1015.899777
1015.899777
1015.899777
1015.899777
732.098818
308.985710
141.660571
41.477680
##ZVALUE=400
0.537634
0.516772
0.590682
0.374913
0.524521
0.394583
0.539422
0.585914
0.566840
0.526905
0.428557
0.563860
0.672936
0.502467
0.513792
0.529885
0.520945
0.611544
0.552535
0.629425
0.497699
0.522733
0.494719
0.422597
0.564456
0.542998
0.553727
0.503659
0.557899
0.512600
0.513792
0.648499
0.555515
0.631809
0.686646
0.595450
0.749826
0.542998
0.852942
0.882745
0.782609
0.748634
0.748634
0.653863
0.900626
0.668764
0.690818
0.889897
0.818968
0.769496
0.805855
0.953674
0.841618
0.858903
0.870824
1.115799
1.037717
0.947714
0.932813
1.086593
1.138449
1.150966
1.306534
1.208782
1.307726
1.340508
1.717806
1.712441
1.967549
2.158880
2.292991
2.471805
2.618432
2.323985
2.340674
2.464652
2.547503
2.818704
3.154874
3.390908
3.719926
13.562441
57.435632
214.493871
456.431508
957.802534
1015.897989
1015.897989
1015.897989
1015.897989
1015.897989
1015.897989
1015.897989
1015.897989
909.428000
451.133847
##END
