##TITLE=QP00602
##FORMAT=SPECTACLE-ASCII V-1.2
##DATA TYPE=ULTRAVIOLET SPECTRUM
##SECOND TYPE=ULTRAVIOLET SPECTRUM
##DATE=12/26/17
##TIME=16:57:37
##SPECTROMETER/DATA SYSTEM=SPECTACLE
##XUNITS=NM EM
##YUNITS=ENERGY
##YFACTOR=1
##FIRSTX=220
##LASTX=410
##NPOINTS=96
##3DDATA=Equidistant
##ZUNITS=NM EX
##FIRSTZ=210
##LASTZ=400
##ZPOINTS=39
##XYDATA=(Y..Y)
##ZVALUE=210
2.432466
1.829863
2.197623
2.493858
2.747774
2.374649
2.229810
2.755523
2.292991
2.416968
2.210736
1.997948
2.424717
2.393723
3.052950
2.483726
3.223419
2.735853
3.753901
3.365874
3.364682
4.034638
3.575683
4.029870
4.336834
4.788637
4.571676
4.900694
4.934669
4.095435
5.135536
6.000996
5.251765
5.000830
5.255938
6.664991
5.395412
5.747676
6.156564
5.514622
6.187558
7.289648
6.066561
6.782413
6.619692
6.648898
6.177425
7.067919
8.994937
7.185936
8.447766
6.606579
7.394552
8.573532
7.534623
7.301569
8.034706
9.200573
9.591579
8.291602
9.774566
9.474754
9.124875
9.099841
10.443926
10.043979
10.838509
10.956526
13.891459
14.680624
17.164946
22.844672
25.062561
27.742982
32.765865
33.688545
35.992861
37.994981
40.145516
38.655996
37.112832
35.430789
32.463670
26.872754
24.444461
19.788742
15.338659
13.105869
11.135936
10.328889
10.006428
8.988976
9.666681
9.671450
10.354519
10.737777
##ZVALUE=215
7.784963
7.440448
6.633997
5.222559
5.544424
4.080534
4.653931
4.788637
4.732609
5.086660
4.575849
4.760623
4.438758
4.031658
3.505945
2.773404
3.805757
3.138781
3.446937
3.205538
3.650784
3.812909
3.381968
4.072785
4.630685
4.593730
5.165935
4.988909
5.863905
5.072951
5.907416
6.006956
5.643964
6.322861
6.432533
6.195903
6.423593
7.320642
7.001758
7.211566
6.297827
6.896853
7.804632
7.628798
7.461905
6.654859
8.832812
7.546544
7.569790
8.182526
8.650422
8.104444
8.629560
8.733869
9.958744
9.441972
8.512735
9.109974
9.008646
9.473562
9.283423
9.315610
9.438992
8.982420
9.287000
10.446906
10.384917
12.012720
13.950467
15.810728
17.897487
20.016432
25.645494
25.802851
30.736923
31.574965
34.688711
34.607649
35.402775
33.502579
29.151440
30.687451
28.495789
22.815466
20.660758
17.140508
15.258789
12.677908
12.427568
10.191798
10.219812
10.215640
10.329485
9.872913
8.803606
10.102987
##ZVALUE=220
31.045675
35.941601
34.414530
34.776926
33.958554
24.208426
19.422770
14.111996
10.448694
10.512471
10.630488
10.195971
12.133718
10.739565
9.683967
8.103848
5.152822
5.406737
4.175901
3.691912
4.418492
4.096627
4.298687
4.868507
4.632473
5.732775
5.177855
5.203485
5.040765
5.552769
5.483627
5.547404
6.234646
6.530881
6.763935
7.108450
7.482767
6.608963
7.208586
8.206964
7.499456
6.557703
7.007718
7.590652
6.649494
7.694960
8.096695
6.971955
7.891655
7.437468
7.826686
8.281469
8.138418
9.501576
8.918643
9.307861
9.205937
8.963943
9.137988
9.889603
10.473728
9.826422
10.569692
10.076761
10.367632
12.026429
10.797977
12.775660
13.438463
15.222430
18.625855
21.340847
23.249984
28.012991
28.625727
31.919479
33.209920
32.173991
32.707453
31.668544
27.903914
27.810931
24.126768
20.391941
19.061565
16.908646
14.976859
13.997555
12.360811
12.032986
11.472702
10.393858
11.737943
11.362433
10.958910
11.197925
##ZVALUE=225
59.027672
64.115524
77.058673
94.982982
101.579428
99.020600
89.312792
70.441961
54.551959
41.339993
28.175712
22.815466
22.256970
24.917722
24.892688
23.132563
18.292665
15.520453
13.138652
9.035468
6.509423
4.691482
4.799962
5.483627
4.916787
5.537868
5.393624
6.353855
5.798936
7.863641
6.553531
6.475449
7.748604
7.577538
6.769896
6.934404
8.234978
7.680655
8.481741
7.203817
8.631945
7.817745
8.583665
8.598566
8.497834
8.699894
8.314848
8.731484
9.649992
8.520484
8.948445
9.458661
9.352565
8.907914
10.004640
9.941459
9.898543
10.389686
10.960698
10.565519
11.780858
11.507869
10.096431
12.948513
12.192726
12.858510
11.417866
14.038682
13.187528
14.954805
15.907884
22.274852
22.765994
24.842620
27.478933
27.702451
28.986931
28.341413
28.544664
26.291609
24.756789
25.182962
24.178624
20.046830
19.579530
18.367767
14.624000
14.583468
14.511943
13.687611
13.987422
12.944937
13.932586
13.442636
14.009476
13.846755
##ZVALUE=230
46.472549
46.529770
84.462762
121.175647
172.197819
198.951960
216.483474
209.882855
188.898444
156.458616
101.195574
74.708462
53.471923
43.910742
42.074919
47.279000
50.374866
46.473742
39.501786
34.095645
26.229620
18.194914
12.630820
8.430481
6.632805
6.181598
6.381869
6.722808
6.105900
6.703734
6.441474
6.774664
6.808639
6.047487
7.321835
7.764697
8.144975
7.001758
6.921887
7.502437
7.885695
8.027554
7.685423
8.495450
7.625818
8.479953
9.141564
9.255409
8.925796
9.251833
8.915663
8.949637
10.010600
9.180903
8.741617
10.508895
11.579990
12.052655
12.303591
12.260675
12.098551
13.113618
13.501644
13.452768
14.113784
14.935732
14.707446
17.320514
17.398596
19.631982
20.696521
23.972988
25.465488
28.148890
30.124784
27.984977
30.017495
30.381680
31.588674
30.410886
28.387904
24.418831
25.775433
23.774505
22.198558
21.508932
19.967556
20.428896
19.926429
18.168688
18.245578
19.348860
19.699931
18.605590
18.745661
18.034577
##ZVALUE=235
16.454458
20.253658
39.291978
97.812414
156.141520
245.355964
314.432979
386.726856
413.295627
409.083962
345.937610
279.875994
184.385777
130.456686
92.204809
73.608756
67.951679
74.034929
74.073672
78.690648
71.272850
60.419440
49.181581
34.299493
23.487806
15.035868
9.742975
7.237792
6.378889
6.418824
6.772876
6.358624
6.574988
7.055998
7.312894
7.237792
7.393956
7.560849
7.306933
7.308722
7.319450
8.114576
8.245707
7.822514
7.907748
8.869767
8.011460
7.597804
9.045601
8.564591
8.933544
9.163618
10.632873
9.246469
9.581447
10.514855
12.640953
11.008978
12.529492
12.863874
13.877749
14.805794
14.131665
14.944673
16.300678
17.037988
18.385649
18.888712
19.572973
24.318695
23.664832
27.405620
29.573441
33.438802
33.605695
35.758615
35.832524
34.722686
36.388636
34.478903
33.382773
32.668710
32.316446
29.304624
26.558638
27.537942
26.969910
24.449825
27.530789
24.728775
25.336742
24.762750
24.388433
24.696589
26.330948
25.843978
##ZVALUE=240
2.127886
1.914501
8.986592
26.512742
68.046451
153.809786
259.807706
439.144969
573.623776
691.685081
732.993484
698.998570
607.819557
465.807915
347.114801
216.876864
159.887671
107.272863
100.795627
97.107887
106.049776
112.790465
108.489990
98.493695
81.286430
57.564974
45.705438
26.560426
20.490885
11.617541
9.904504
8.925796
9.239912
7.953644
7.509589
8.678436
8.545518
8.371472
8.607507
8.013844
8.329749
8.251667
8.137822
8.875728
8.923411
8.731484
9.550452
8.711815
9.782910
8.755922
10.363460
9.596944
11.920929
10.666847
11.215806
11.951923
11.192560
13.107657
12.798905
13.049841
13.328791
15.555620
16.363859
16.021729
17.696619
17.803907
18.474460
21.222830
22.408962
25.262833
27.188659
30.515790
32.579899
36.004782
38.942695
40.849447
41.410923
42.177439
38.565993
39.296746
37.143826
37.004948
35.397410
35.259724
33.599734
32.852888
33.266544
32.927990
32.084584
33.354759
32.553673
31.307936
29.942989
33.375621
31.045675
31.269789
##ZVALUE=245
1.575947
1.512766
1.440644
1.832843
5.786419
16.336441
53.818822
109.336972
249.138474
384.126902
595.088601
721.278787
816.494823
871.431828
821.212530
697.150826
564.993620
391.604900
274.970531
172.333717
121.588707
102.370977
110.210776
121.860504
128.123760
120.270848
105.885863
91.829896
67.029595
51.960945
37.234426
23.107529
15.942454
10.929704
8.626580
8.870959
8.533597
8.563995
8.361936
8.217692
7.513762
7.284880
7.399917
7.701516
8.117557
8.605719
8.160472
9.064674
8.786917
8.789897
8.691549
8.910894
10.296702
9.458661
10.357499
10.741949
11.011958
11.266470
11.418462
11.133552
13.017654
12.936592
13.371706
15.645623
15.380979
16.180873
17.038584
19.002557
21.231771
22.971630
26.178956
27.650595
29.821992
30.934811
33.339858
36.006570
37.272573
36.696792
37.851930
37.773848
38.909912
35.878420
35.793781
34.635663
34.287572
32.986999
34.157634
33.246875
32.090545
32.505989
33.430457
32.667518
34.002662
32.612681
32.970905
31.878948
##ZVALUE=250
1.422763
0.989437
1.694560
1.374483
1.662970
1.607537
1.884699
9.460449
31.561852
75.742006
213.843584
389.543772
661.468506
848.562717
1007.158756
1015.829444
977.644920
860.138535
708.746910
458.674431
306.611657
167.492628
114.642978
92.814565
98.801851
120.500922
130.483508
133.841634
130.618811
119.128823
100.127459
75.668693
53.587556
34.359694
23.258924
14.229417
10.626912
7.705688
7.687807
7.842779
7.739663
7.293820
8.325577
7.124543
7.631779
7.661581
8.008480
8.465648
7.573962
8.157492
8.732677
8.423924
7.715821
9.409785
7.941723
9.062886
8.928776
9.252429
9.796619
10.664463
10.888577
12.195706
11.864901
12.537837
13.929605
15.114546
16.143918
16.776919
18.201470
18.654466
21.502972
23.578405
25.277734
29.077530
30.010939
30.331612
32.187700
32.597780
32.863617
34.569502
32.933950
32.707453
30.784607
31.168461
30.239820
29.436946
29.569864
30.553937
29.348731
30.458570
30.827522
30.816793
31.314492
29.976964
30.850768
29.793978
##ZVALUE=255
1.133680
1.389980
1.462698
1.090765
1.479983
1.509786
1.450777
1.624823
1.874566
5.382895
17.803907
68.783760
154.598951
337.742567
509.279966
777.092576
951.554775
1015.829444
1015.829444
1015.829444
924.975872
746.636987
468.283892
292.571783
151.613951
104.065537
88.726878
99.446774
125.509501
135.533810
141.047835
139.551759
120.177865
100.366473
76.278448
55.577755
33.460855
21.203756
12.785792
9.343624
7.611513
6.792545
6.874800
6.714463
7.103682
7.606745
7.156730
7.647872
7.213950
6.669760
6.742477
7.037520
7.818937
7.368922
7.553697
8.027554
8.785725
7.933974
8.298755
8.603930
9.918809
9.995699
9.740591
10.683537
11.260509
11.438727
12.705922
14.279485
15.050769
16.758442
18.201470
19.899607
21.339655
22.645593
24.134517
25.256872
26.179552
26.010871
25.892854
26.056767
26.855469
27.224422
24.967790
25.796890
26.748776
25.811791
26.576519
26.124716
26.836991
27.192831
26.366711
26.563406
26.544929
26.646852
28.111935
28.176904
##ZVALUE=260
1.072884
1.149774
1.023412
0.867844
0.952482
1.428723
1.221895
1.408458
1.527667
1.678467
1.540780
2.325773
11.608601
32.491684
96.522570
192.739367
403.254032
605.096817
824.918747
1015.829444
1015.829444
1015.829444
1015.829444
982.231498
728.175640
430.459976
270.432830
140.864849
92.765689
82.963705
100.214481
125.042796
137.018561
145.316720
144.363642
125.927925
108.509660
77.121854
57.382584
36.532879
23.581982
13.480783
9.639859
6.985664
7.057786
6.416440
6.907582
6.825924
6.348491
6.499887
6.577969
7.128716
7.129908
7.229447
7.074475
7.205606
7.680655
7.242560
8.105636
8.311868
9.411573
9.325743
9.670854
9.953976
10.742545
11.864901
11.695623
12.881756
13.125539
15.101433
16.235709
18.241405
18.844604
20.836592
20.565987
23.067594
23.120642
22.899508
24.236441
21.985769
23.669600
23.112893
23.232698
23.256540
25.579929
24.999976
24.623871
25.707483
25.135875
26.350617
25.467873
26.296973
24.732947
25.421977
25.076866
25.512576
##ZVALUE=265
1.081824
1.316667
0.917912
1.013875
1.159906
1.199841
1.186728
1.388788
1.466870
1.442432
1.914501
1.907945
1.798868
2.596974
5.164742
26.622415
65.869689
172.455907
323.527455
631.801486
912.131667
1015.957594
1015.957594
1015.957594
1015.957594
1015.957594
891.745687
612.461567
322.881937
189.990997
92.832446
73.478818
79.209805
108.042955
126.253963
145.531893
151.933432
143.631697
129.079819
103.975534
82.989931
56.511760
36.685467
21.860600
14.992952
9.465814
8.777976
7.815957
7.575750
7.714629
7.582903
7.541776
8.063912
8.132458
8.046627
7.932782
8.466840
8.668900
8.728504
8.964539
9.109974
9.014606
9.478927
9.993911
10.879636
11.225939
11.745691
12.520552
13.452768
14.950633
15.416741
17.169714
18.484592
20.008683
21.461844
21.790862
21.052957
21.430850
22.271872
21.225810
21.431446
21.225810
21.971464
22.930503
22.710562
22.675991
23.102760
24.307966
23.716688
23.157001
25.147796
23.691654
25.507808
24.981499
24.528503
24.446845
##ZVALUE=270
0.746846
0.947714
0.979900
0.842810
0.910759
0.952482
1.106858
1.006722
0.949502
1.000762
1.138449
1.321435
1.631975
1.602769
1.685619
1.983643
2.588630
12.146831
36.133528
121.737719
247.569680
447.012782
793.726444
1015.829444
1015.829444
1015.829444
1015.829444
1015.829444
1011.343598
776.769519
585.958958
262.883902
136.476755
66.586733
60.623884
84.310770
104.633570
131.705403
146.976709
153.986812
144.924521
130.397677
109.698772
81.723928
58.895946
36.242604
24.229884
14.812946
10.945797
8.255839
7.874966
7.793903
7.752776
8.223653
7.785559
8.470416
8.271933
8.913875
8.873940
9.331703
8.827448
9.126663
9.786487
10.268688
10.185838
11.182427
11.306405
12.609959
12.797713
14.674664
14.835000
17.146468
16.777515
18.339753
18.745661
20.205975
21.208525
21.785498
21.378994
20.874739
21.157861
21.206737
21.021962
21.921992
21.871924
22.227764
21.322966
23.047924
21.906495
21.624565
23.035407
23.240447
23.005605
22.706985
22.992492
23.522973
##ZVALUE=275
0.660419
0.537634
0.538826
0.697970
0.834465
0.964999
0.820756
0.688434
0.823736
1.069903
1.139641
0.948906
0.999570
1.450777
1.258850
1.389980
1.413822
1.606941
1.901984
5.221963
21.383762
62.880516
182.721615
340.853930
639.663935
889.709592
1015.829444
1015.829444
1015.829444
1015.829444
1015.829444
905.032754
626.937747
317.814946
174.547434
76.854825
53.876638
59.757829
78.899860
108.528733
126.589537
146.400928
151.291490
145.327449
131.209493
103.520751
83.047748
57.751536
40.265918
24.694800
16.525984
10.781884
9.246469
8.906722
8.621812
8.427501
8.525848
8.898973
9.088516
9.366870
9.157658
9.464622
10.214448
10.308623
10.983944
11.880994
12.527704
12.054443
12.870431
14.570951
14.454722
16.431808
16.608834
17.685890
18.671751
19.466877
19.642711
19.257665
20.249486
20.200610
20.219684
20.928979
20.014644
20.299554
20.596981
20.743608
21.233559
20.023584
20.392537
21.240711
21.583438
21.717548
21.467805
21.943450
21.274686
21.836758
##ZVALUE=280
0.800490
0.562668
0.527501
0.644922
0.645518
0.668764
0.684857
0.823736
0.757575
0.813603
0.853539
0.867844
0.687838
0.940561
0.990629
0.968575
1.195669
1.197457
1.583695
1.610518
1.634955
2.405643
13.531446
44.758916
143.107772
262.449384
489.774942
720.173717
1007.691622
1015.829444
1015.829444
1015.829444
1015.829444
906.401873
665.663481
373.747945
219.057798
97.116828
54.197907
42.871833
55.368543
81.609488
102.609992
127.506852
143.471956
147.589445
142.309666
126.238465
107.479692
79.530478
61.255693
37.889481
26.810765
16.212463
11.692643
9.683967
9.288788
8.591413
8.947849
9.285808
9.502769
9.865761
10.647774
11.224747
10.964870
12.032986
11.914968
13.033748
12.989640
13.851523
14.717579
15.338659
16.094446
17.046928
17.714500
18.417835
19.050837
19.050837
19.007921
18.835664
19.473433
19.883513
19.817948
19.679666
19.425750
20.486712
20.242929
20.637512
20.280480
20.650625
20.638704
20.542741
20.979643
21.127462
20.714998
20.876527
##ZVALUE=285
0.676513
0.525713
0.615716
0.635982
0.708699
0.615716
0.677705
0.659823
0.698566
0.772476
0.617504
0.675917
0.738502
0.893474
0.739694
0.702739
0.914931
1.080632
1.138449
1.134872
1.412630
1.416802
1.822710
2.006888
6.444454
23.746490
83.003640
176.305771
378.211737
578.599572
879.550576
1015.831828
1015.831828
1015.831828
1015.831828
1015.831828
768.039823
522.570014
274.148583
155.500770
65.759420
38.426518
37.210584
51.305890
75.063705
96.833706
122.827888
137.891769
146.827698
142.079592
125.324726
108.706951
81.803799
62.446594
40.619969
27.797818
16.895533
12.907982
10.732412
9.887815
10.018945
10.356903
10.795593
10.862947
11.620522
11.895895
12.301803
13.549924
14.115572
14.272928
14.878511
16.348958
16.856790
17.379522
17.855763
17.618537
18.775463
19.392967
18.998981
19.113421
19.387603
19.040704
19.932985
20.274520
19.820929
20.174980
20.285845
21.183491
20.148754
20.197630
20.982623
20.082593
20.766854
20.251870
19.719601
20.181537
##ZVALUE=290
0.404716
0.425577
0.670552
0.691414
0.628829
0.693798
0.702739
0.849962
0.684857
0.543594
0.677705
0.656843
0.786781
0.666976
0.704527
0.809431
0.948906
0.988841
0.905991
1.092553
1.211762
1.111627
1.147985
1.527667
1.629591
1.859665
2.803802
10.352731
50.889850
115.195513
266.448855
453.896523
703.626871
1012.960672
1015.830636
1015.830636
1015.830636
1015.830636
978.267789
644.598007
419.737697
206.315517
104.681849
41.052699
27.174950
34.986734
48.416853
72.705746
91.369748
117.984414
132.062435
141.699910
138.548613
125.752687
108.416677
80.771446
60.309768
38.933754
28.882623
18.535852
14.406443
11.562705
11.496544
11.396408
11.970997
12.161732
12.643933
13.460517
13.634562
15.106797
15.427470
16.203523
16.697645
17.086864
17.971992
18.214583
18.548965
19.352436
18.754601
19.176602
19.094944
19.373894
19.975901
19.523501
19.298792
20.219684
20.262599
20.194650
20.750761
20.701885
19.928813
20.202994
20.112991
20.193458
20.218492
20.218492
##ZVALUE=295
0.482798
0.444651
0.438690
0.464916
0.393987
0.467896
0.671744
0.530481
0.655651
0.568628
0.687838
0.779629
0.470877
0.658631
0.678897
0.665784
0.773668
0.869632
0.767708
0.899434
0.975728
0.920892
1.129508
1.312494
1.277924
1.141429
1.695752
1.836419
1.961589
4.177690
24.738908
72.064996
164.611936
381.414890
609.214902
959.274769
1015.829444
1015.829444
1015.829444
1015.829444
1015.830040
814.245939
560.103655
292.554498
155.178905
57.089925
28.709769
22.246838
29.540658
46.625733
64.338446
89.893937
108.421445
128.030777
136.109591
131.790638
121.842623
100.178719
82.109571
58.181882
43.407679
27.944446
20.360947
15.183687
13.415813
12.760758
13.159513
13.459921
14.356971
14.655590
15.759468
16.953945
16.798973
17.893910
18.524528
19.077659
18.612742
18.981695
19.609928
19.788742
20.064712
20.038486
20.691752
19.922853
20.934939
20.645857
20.497441
20.485520
20.220876
20.762682
20.484924
20.213723
20.600557
19.763708
20.004511
20.048618
##ZVALUE=300
0.370741
0.414848
0.469685
0.455976
0.531673
0.641942
0.454783
0.539422
0.547767
0.702739
0.598431
0.466704
0.581741
0.765920
0.727773
0.646710
0.597835
0.777841
0.813603
0.885725
0.819564
0.959635
0.969768
0.947714
0.938773
1.261830
1.299977
1.309514
1.598597
1.628995
1.867414
2.192855
7.590652
44.279695
112.506747
284.523964
479.984879
824.161768
1015.830636
1015.830636
1015.830636
1015.830636
1015.830636
984.756947
728.861690
395.166874
228.150487
96.937418
45.386553
19.304752
18.067956
28.300881
40.741563
61.856508
80.361962
104.951859
118.150711
129.147768
128.026605
116.572976
101.949573
79.027414
61.732531
42.690635
31.400919
21.043420
17.083883
14.684796
14.379621
14.496446
15.564561
16.654730
17.066598
18.293858
18.422604
18.218756
19.446611
19.860864
19.593835
20.093918
20.221472
20.438433
20.775795
21.102428
21.069646
21.409988
20.812750
20.946860
20.804405
20.721555
21.062493
20.736456
20.784736
19.902587
20.265579
20.267963
##ZVALUE=305
0.444651
0.389814
0.474453
0.520945
0.498891
0.504851
0.538826
0.536442
0.532866
0.443459
0.469685
0.475645
0.671744
0.504851
0.550747
0.587702
0.618696
0.535846
0.561476
0.704527
0.888705
0.690818
0.922680
0.863671
1.001954
0.889897
1.041889
1.056790
1.254678
1.372695
1.184940
1.703501
1.974702
2.232790
3.941655
26.012659
74.482560
212.309957
385.281444
711.644888
987.178683
1015.829444
1015.829444
1015.829444
1015.829444
1015.829444
884.983540
546.018481
329.365730
141.494870
67.971945
23.902655
15.442967
18.279552
25.060773
41.208863
57.370663
79.144835
97.228885
116.352439
121.961832
121.243596
113.007426
95.109940
79.324841
57.528615
43.995976
29.946566
23.613572
18.105507
17.322898
16.717911
16.577840
17.318726
18.391609
18.687844
19.236803
19.401908
20.157695
20.131469
20.650625
20.903945
21.471977
21.052957
21.160841
21.740794
21.912456
21.729469
21.611452
21.125674
21.130443
20.658970
20.719767
21.177530
20.841956
19.999743
##ZVALUE=310
0.235438
0.432730
0.416636
0.463724
0.389814
0.420809
0.362992
0.468493
0.335574
0.526905
0.510812
0.399947
0.584722
0.473857
0.492930
0.429749
0.542998
0.491738
0.588894
0.483990
0.648499
0.717640
0.768900
0.697970
0.745654
0.736713
0.840425
1.060963
1.015663
1.097918
1.021624
1.184940
1.017451
1.341701
1.654625
1.909733
2.171397
11.489987
39.137602
131.709576
258.427858
528.367758
798.252821
1015.834808
1015.834808
1015.834808
1015.834808
1015.834808
1015.834808
703.310966
454.609990
217.845440
113.110542
39.621592
17.795563
12.855530
15.846491
24.290681
34.378767
52.800775
69.924593
92.390776
105.720758
116.950870
118.556619
111.183524
98.348856
78.086853
61.495900
43.879747
34.105778
25.594831
21.729469
19.512773
19.159913
18.819571
18.985868
19.454956
19.385815
20.244718
20.247698
21.416545
21.277666
21.852851
21.679997
22.170544
21.958947
22.399426
21.966696
22.185445
21.374822
21.536946
21.379590
20.923615
20.888448
21.198988
##ZVALUE=315
0.421405
0.325441
0.454783
0.426769
0.399947
0.311732
0.435710
0.510812
0.420809
0.244975
0.537634
0.608563
0.536442
0.453591
0.532866
0.452995
0.411868
0.598431
0.630617
0.453591
0.535846
0.603795
0.604987
0.687838
0.753999
0.722408
0.806451
0.791550
0.823736
0.845790
0.947714
0.994802
1.001954
1.142621
1.340508
1.298785
1.509786
1.535416
1.944900
5.097985
21.156669
87.511539
191.033483
422.312617
677.242875
1015.815735
1015.815735
1015.815735
1015.815735
1015.815735
1015.815735
858.592987
591.999888
302.842855
160.325766
56.413412
24.113655
11.732578
12.252927
16.394854
22.510886
34.759641
47.341585
68.843961
85.101724
103.879571
111.409426
112.825632
107.437968
93.031526
78.641772
60.167909
47.124624
33.903718
27.163625
22.430420
20.858645
20.330548
20.367503
20.485520
20.831823
20.494461
21.265745
21.924973
21.548867
22.119880
22.291541
22.463799
22.481680
22.355914
22.334456
21.387935
21.687746
21.503568
21.186471
21.627545
##ZVALUE=320
0.432730
0.213981
0.444651
0.481606
0.400543
0.382662
0.543594
0.494719
0.326633
0.544786
0.383854
0.511408
0.443459
0.410676
0.389814
0.520945
0.367761
0.361800
0.648499
0.456572
0.402927
0.415444
0.475645
0.618696
0.784993
0.590682
0.777841
0.812411
0.834465
0.802875
0.957847
0.832677
1.033545
0.995994
0.917912
1.012683
1.241565
1.273751
1.421571
1.674891
1.562834
2.653599
9.632707
53.630471
133.188963
338.050723
552.494526
900.640488
1015.833020
1015.833020
1015.833020
1015.833020
1015.833020
1013.948917
754.227638
407.683849
227.326751
93.589425
40.886998
14.372468
11.075735
11.810660
14.404655
21.416545
30.529499
47.875643
62.782764
81.421733
96.076727
109.041929
109.979510
103.750825
93.566775
75.386763
60.516596
45.308471
35.387874
27.999878
24.044514
21.627545
20.763874
21.518469
21.287799
21.931529
21.841526
22.813678
21.797419
22.148490
22.098422
22.410750
22.504926
22.550821
21.953583
21.993518
21.895766
21.028519
##ZVALUE=325
0.371933
0.169873
0.418425
0.284910
0.430942
0.317693
0.333786
0.306964
0.299811
0.236630
0.269413
0.303984
0.265837
0.424981
0.348687
0.418425
0.442863
0.370741
0.410676
0.353456
0.466704
0.482798
0.600815
0.573993
0.784993
0.638962
0.707507
0.509620
0.643730
0.795722
0.603795
0.873804
0.937581
0.954866
0.730753
0.907779
0.894666
1.053810
0.996590
1.240969
1.244545
1.524687
1.636744
2.104640
5.511642
35.679936
91.843605
230.643749
404.440761
749.042034
1003.240943
1015.817523
1015.817523
1015.817523
1015.817523
1015.817523
860.403776
512.875915
304.301977
129.433870
60.457587
20.766854
11.655688
11.042953
11.881590
15.626550
21.501780
31.856894
44.470429
64.323545
78.699589
93.344450
102.386475
104.383826
99.400878
85.505843
73.370934
57.386756
45.754910
34.047961
28.211474
24.012923
22.706985
22.710562
21.692514
22.626519
21.901727
21.832585
21.856427
22.192597
22.304654
22.039413
21.601915
22.132993
21.870732
21.863580
##ZVALUE=330
0.420809
0.407696
0.372529
0.471473
0.264645
0.295639
0.273585
0.284910
0.362992
0.275970
0.394583
0.442863
0.435710
0.265837
0.427961
0.385642
0.480413
0.357628
0.502467
0.434518
0.345707
0.315905
0.463724
0.489950
0.641942
0.577569
0.523925
0.606775
0.689626
0.773668
0.565648
0.707507
0.761747
0.754595
0.633597
0.734925
0.864863
0.879765
1.021624
1.098514
1.142621
1.301765
1.241565
1.340508
1.667738
1.710653
3.058910
12.260675
59.723854
142.140985
336.107016
545.463562
910.205841
1015.830636
1015.830636
1015.830636
1015.830636
1015.830636
984.594822
711.867809
379.468799
208.255649
82.311630
36.968589
13.919473
10.871887
11.289716
12.557507
16.641617
22.277832
33.406615
43.657422
61.250925
75.833797
91.141462
97.293854
98.833442
94.975829
82.679987
70.513487
55.552721
45.511723
34.309626
29.881597
24.864674
23.111701
22.070408
21.569729
21.732450
21.481514
21.548867
21.187663
21.816492
20.833611
20.968914
20.961761
##ZVALUE=335
0.255704
0.094771
0.318885
0.203848
0.115633
0.374913
0.290871
0.262856
0.299811
0.239611
0.185966
0.334978
0.411868
0.272989
0.306964
0.456572
0.258684
0.426769
0.370741
0.396967
0.477433
0.362992
0.406504
0.362992
0.388622
0.434518
0.286698
0.411868
0.428557
0.539422
0.498891
0.475645
0.450611
0.545979
0.576973
0.426769
0.727773
0.825524
0.874996
0.898838
0.904799
0.873804
0.971556
1.260638
1.160502
1.173615
1.323819
1.525879
1.917481
4.771948
32.503605
86.730719
233.321786
410.344005
745.837688
1004.151702
1015.743613
1015.743613
1015.743613
1015.743613
1015.743613
863.503814
498.777032
291.603804
120.077729
56.298971
20.116568
12.281537
11.345744
12.184978
13.831854
16.253591
22.270679
29.848814
43.946505
56.060553
72.820783
84.170699
93.535781
95.096827
88.516474
80.970526
68.701506
57.555437
44.660568
36.868453
29.013753
25.113821
22.449493
21.527410
20.928979
20.654798
20.513535
20.327568
20.064712
20.367503
##ZVALUE=340
-0.078678
-0.091791
-0.075698
0.014901
-0.151992
-0.061989
-0.090599
-0.033975
-0.044703
0.032783
0.032783
0.017881
-0.009537
0.013709
0.081658
0.212789
0.075698
0.105500
-0.009537
-0.046492
0.007749
0.081658
0.053644
0.119805
0.017881
-0.011921
0.051856
0.073910
0.178814
0.213981
0.066757
0.316501
0.259876
0.403523
0.217557
0.391603
0.240803
0.379682
0.416636
0.266433
0.382662
0.561476
0.554919
0.632405
0.789762
0.843406
0.911951
0.961423
1.148582
1.185536
1.413822
2.785921
11.032820
58.142543
143.986940
358.202457
602.516532
971.401930
1015.516520
1015.516520
1015.516520
1015.516520
1015.516520
943.487883
648.748875
324.637890
174.493790
70.149899
29.409528
12.366772
11.529922
11.714697
12.314916
14.185905
16.492605
23.083687
30.546784
42.942762
54.840446
71.597695
80.954432
88.722706
89.713931
84.979534
77.610612
64.995885
55.441856
42.762756
35.197735
28.550625
24.338961
21.391511
20.201802
19.748807
19.256473
19.643903
##ZVALUE=345
0.307560
0.265837
0.335574
0.387430
0.178814
0.266433
0.286698
0.326633
0.346899
0.169873
0.165701
0.367761
0.354648
0.244975
0.366569
0.325441
0.411868
0.329614
0.302792
0.363588
0.327826
0.423789
0.541806
0.436902
0.492930
0.453591
0.578761
0.331998
0.339746
0.484586
0.483990
0.513792
0.609756
0.568628
0.519753
0.526905
0.713468
0.683665
0.635982
0.595450
0.680685
0.764728
0.736713
0.763535
0.956655
0.960827
1.015663
1.031756
1.141429
1.176000
1.240969
1.487732
1.578927
2.049804
5.013943
31.045675
88.270903
234.485865
418.837667
762.901902
1015.829444
1015.829444
1015.829444
1015.829444
1015.829444
1015.829444
806.220770
442.931652
246.140957
99.146962
44.413805
17.022491
12.390614
12.292862
12.503862
13.056993
13.672709
17.019510
21.043420
29.851794
39.060712
53.102970
63.888431
75.134635
81.524849
83.234906
81.237555
73.914528
65.362453
52.268505
42.819977
33.046603
27.666688
23.696423
21.259785
19.929409
##ZVALUE=350
0.372529
0.166893
0.303984
0.322461
0.380874
0.505447
0.336766
0.465512
0.277758
0.274777
0.335574
0.342727
0.443459
0.259876
0.426769
0.357628
0.435710
0.246763
0.290871
0.305772
0.475645
0.259876
0.388622
0.350475
0.414848
0.417829
0.378489
0.454783
0.699759
0.453591
0.634789
0.433922
0.425577
0.566840
0.600815
0.536442
0.436902
0.570416
0.452995
0.523925
0.622869
0.671744
0.546575
0.672936
0.718832
0.826716
0.831485
0.943542
1.006722
1.111627
1.078844
1.188517
1.219511
1.269579
1.481771
1.777411
2.755523
14.803410
48.488975
158.502460
304.502845
621.439815
915.994644
1015.834808
1015.834808
1015.834808
1015.834808
1015.834808
955.935717
547.950864
323.077440
141.683817
65.490603
21.309853
12.504458
11.536479
11.443496
11.492968
12.433529
13.969541
15.989542
21.205544
27.381778
36.084652
45.094490
58.150887
66.688657
74.670911
77.191591
74.828863
69.525838
58.005452
50.494671
39.371848
32.625794
26.117563
##ZVALUE=355
0.254512
0.176430
0.223517
0.356436
0.402927
0.204444
0.299811
0.481606
0.215769
0.231862
0.239611
0.298619
0.372529
0.272989
0.275970
0.140667
0.341535
0.301600
0.313520
0.366569
0.401735
0.388622
0.267625
0.411868
0.557899
0.462532
0.455976
0.532866
0.487566
0.444651
0.472665
0.458956
0.345707
0.417829
0.473857
0.679493
0.602603
0.528693
0.629425
0.712872
0.675917
0.629425
0.654459
0.710487
0.879765
0.636578
0.754595
0.929832
0.981688
0.966787
1.156926
1.085997
1.098514
1.177788
1.362562
1.484752
1.576543
1.703501
2.185702
4.821420
30.479431
84.117651
233.832598
420.604944
793.286562
1015.806794
1015.806794
1015.806794
1015.806794
1015.806794
994.178653
729.957819
398.171544
212.529898
78.533888
34.592748
13.938546
11.067986
10.888577
10.933876
11.635423
11.879802
12.714863
14.662743
18.824935
23.359656
32.371879
40.443540
51.868558
59.909821
67.399740
69.898963
68.515539
63.991547
54.734945
48.099756
##ZVALUE=360
0.291467
0.257492
0.389814
0.336766
0.301600
0.292659
0.301600
0.522733
0.407696
0.199676
0.262856
0.393987
0.190735
0.337958
0.393987
0.204444
0.420809
0.332594
0.343919
0.340939
0.372529
0.244975
0.380874
0.306964
0.375509
0.342727
0.458956
0.422597
0.417829
0.596642
0.467896
0.542998
0.676513
0.578761
0.549555
0.728965
0.514984
0.596642
0.539422
0.738502
0.700951
0.612736
0.738502
0.749826
0.623465
0.572801
0.717640
0.711679
0.760555
0.774860
0.787973
0.823736
1.125932
1.059771
1.056790
1.242757
1.285672
1.399517
1.416802
1.852512
2.043843
3.339648
11.413693
54.742694
130.378604
324.347615
559.759736
949.095488
1015.829444
1015.830040
1015.829444
1015.829444
1015.829444
830.060840
536.109805
250.194669
125.349760
45.074821
18.946528
10.539889
10.433793
10.238886
10.145903
10.452867
10.746717
11.942983
13.132691
16.429424
19.878745
26.460886
33.920407
44.371486
51.660538
58.678985
62.235594
62.673688
##ZVALUE=365
0.350475
0.252724
0.497699
0.337958
0.211596
0.304580
0.368953
0.356436
0.250936
0.245571
0.253916
0.292659
0.190735
0.290871
0.280738
0.394583
0.614524
0.489950
0.253916
0.309944
0.381470
0.441670
0.374913
0.305772
0.406504
0.295639
0.418425
0.469685
0.572801
0.491738
0.516772
0.559688
0.494719
0.361800
0.445843
0.512600
0.448823
0.303984
0.543594
0.598431
0.609756
0.534654
0.565648
0.557899
0.671744
0.704527
0.772476
0.768900
0.808835
0.736713
0.837445
0.923872
0.872612
0.943542
0.868440
1.044869
1.028776
1.031756
1.348853
1.442432
1.730919
1.847744
2.032518
2.593994
5.186796
30.527711
83.764791
228.993893
426.808000
790.810585
1015.830636
1015.830636
1015.830636
1015.830636
1015.830636
997.864604
725.013018
389.123559
202.925801
67.955852
27.277470
11.129975
9.356737
9.629726
9.642839
9.690523
9.662509
9.692907
10.355711
11.443496
13.432503
17.794967
21.954775
30.340552
37.966967
46.126842
##ZVALUE=370
0.387430
0.461936
0.342727
0.408888
0.470877
0.365973
0.167489
0.450611
0.328422
0.418425
0.284910
0.223517
0.200868
0.222921
0.259876
0.531673
0.273585
0.250936
0.227690
0.360608
0.315905
0.340939
0.402927
0.336766
0.352859
0.346899
0.332594
0.343919
0.289679
0.456572
0.318885
0.420809
0.367761
0.483990
0.490546
0.435710
0.433922
0.368953
0.595450
0.581741
0.642538
0.572801
0.593662
0.632405
0.669956
0.699759
0.476837
0.624657
0.770688
0.734925
0.757575
0.821948
0.757575
0.790954
0.786781
0.748634
1.011491
1.011491
1.019835
1.244545
1.268983
1.346469
1.478791
1.517534
1.555681
2.122521
3.125668
15.954971
54.721832
181.932449
342.548490
655.284524
959.659815
1015.829444
1015.829444
1015.829444
1015.829444
1015.829444
868.724585
477.501750
265.322924
98.978877
41.695833
14.434457
9.439588
8.614659
8.817911
8.805990
8.732677
8.958578
9.102821
9.808540
10.757446
12.405515
14.664531
19.695759
##ZVALUE=375
0.235438
0.314713
0.207424
0.381470
0.207424
0.085831
0.240803
0.182986
0.050664
0.348687
0.262856
0.299811
0.536442
0.147820
0.269413
0.296831
0.368953
0.182986
0.283718
0.262856
0.211596
0.353456
0.240803
0.269413
0.422597
0.425577
0.355840
0.238419
0.252724
0.338554
0.326633
0.298619
0.283718
0.520945
0.342727
0.402927
0.303984
0.515580
0.339746
0.335574
0.444651
0.425577
0.504851
0.507832
0.365973
0.553727
0.505447
0.596642
0.492930
0.788569
0.604987
0.505447
0.571609
0.721812
0.662804
0.753999
0.827909
0.682473
0.780821
0.969768
0.867844
1.194477
1.096725
1.084805
1.130700
1.529455
1.665950
1.746416
2.165437
7.902980
30.099750
115.361810
250.545740
548.693538
832.860470
1015.830636
1015.830636
1015.830636
1015.830636
1015.830636
999.623537
609.921813
373.965502
177.095532
82.090497
25.456548
11.426806
8.034706
7.916689
7.935762
7.941723
8.134842
8.210540
8.494854
9.058714
9.706616
##ZVALUE=380
0.286698
0.265837
0.158548
0.236630
0.291467
0.277758
0.297427
0.256896
0.281930
0.242591
0.338554
0.367761
0.297427
0.369549
0.173450
0.288486
0.232458
0.291467
0.234842
0.296831
0.258684
0.165701
0.210404
0.180602
0.320673
0.299811
0.194907
0.247955
0.353456
0.378489
0.239611
0.154972
0.277758
0.196695
0.177622
0.285506
0.341535
0.402927
0.542998
0.379682
0.386834
0.484586
0.396967
0.320673
0.390410
0.423789
0.615716
0.505447
0.565648
0.597835
0.615716
0.488758
0.643730
0.530481
0.490546
0.627637
0.746846
0.674725
0.770688
0.664592
0.861883
0.797510
0.874996
0.992417
1.174808
1.166463
1.303554
1.440644
1.738667
1.896620
2.179742
4.086494
16.307831
80.446601
194.737911
471.705794
745.635033
1015.830636
1015.830636
1015.830636
1015.830636
1015.830636
1015.830636
797.916651
524.233580
247.903466
120.936632
39.505959
16.403794
8.252859
7.319450
7.254481
7.192492
7.350445
7.775426
8.034706
##ZVALUE=385
0.355840
0.340939
0.345707
0.223517
0.160933
0.229478
0.292659
0.219941
0.280738
0.116825
0.288486
0.143647
0.252724
0.119805
0.332594
0.198483
0.352859
0.412464
0.326633
0.093579
0.330806
0.315905
0.266433
0.268817
0.232458
0.205636
0.227690
0.240803
0.252724
0.322461
0.321865
0.240803
0.237823
0.355840
0.331998
0.238419
0.377893
0.429749
0.440478
0.466704
0.344515
0.410676
0.397563
0.462532
0.402927
0.463724
0.421405
0.383854
0.543594
0.401735
0.569820
0.366569
0.435710
0.485778
0.585914
0.366569
0.605583
0.650883
0.688434
0.696778
0.679493
0.767708
0.780821
0.940561
0.867844
0.995994
1.026988
1.172423
1.303554
1.620650
1.774430
1.955628
2.382994
2.698898
7.693768
45.848489
127.282739
338.155627
591.826439
997.362733
1015.829444
1015.829444
1015.829444
1015.829444
1015.829444
976.165533
688.368678
364.874601
200.522542
77.221990
30.171871
9.264946
7.064939
6.796718
6.768703
6.865859
##ZVALUE=390
0.175834
0.203848
0.190735
0.078678
0.190735
0.152588
0.229478
0.226498
0.150800
0.274777
0.265837
0.218749
0.275970
0.172853
0.333786
0.253916
0.086427
0.337958
0.162721
0.288486
0.289679
0.246763
0.246763
0.268817
0.309944
0.238419
0.173450
0.361800
0.165701
0.210404
0.153780
0.285506
0.332594
0.337958
0.290871
0.389814
0.254512
0.289679
0.233650
0.271797
0.288486
0.266433
0.341535
0.398755
0.319481
0.438690
0.280738
0.365973
0.285506
0.448823
0.508428
0.437498
0.528693
0.456572
0.452995
0.596642
0.457764
0.713468
0.598431
0.581741
0.556707
0.677705
0.723600
0.700951
1.030564
0.867844
0.930429
1.010895
1.164675
1.403689
1.620650
1.674891
1.680851
1.653433
1.867414
1.883507
4.238486
18.296838
90.062618
215.073824
508.891940
790.387988
1015.829444
1015.829444
1015.829444
1015.829444
1015.829444
1015.829444
779.961944
515.520573
257.192850
126.694441
41.315556
16.070604
7.045865
6.428957
##ZVALUE=395
0.213981
0.163913
0.182986
0.077486
0.032783
0.238419
0.168681
0.249743
0.088811
0.143647
0.231862
0.219941
0.251532
0.322461
0.345707
0.431538
0.264645
0.178814
0.255704
0.314713
0.130534
0.246763
0.453591
0.285506
0.239611
0.203848
0.374913
0.280738
0.404716
0.139475
0.330806
0.260472
0.267625
0.301600
0.274777
0.419617
0.349879
0.285506
0.258684
0.246763
0.264645
0.241995
0.215769
0.434518
0.371933
0.421405
0.401735
0.312924
0.488758
0.292659
0.464916
0.285506
0.546575
0.489950
0.562668
0.463724
0.458956
0.543594
0.617504
0.703931
0.590682
0.694990
0.723600
0.597835
0.808835
0.780821
0.873804
1.039505
1.090765
1.185536
1.149774
1.390576
1.393557
1.341701
1.378655
1.691580
1.765490
1.869798
2.613664
14.148951
51.984787
180.472732
341.211557
635.811687
923.640728
1015.829444
1015.829444
1015.829444
1015.829444
1015.829444
969.972610
594.420433
363.447666
153.670907
71.053505
22.040606
##ZVALUE=400
0.187755
0.086427
0.046492
0.166893
0.326633
0.214577
0.149608
0.049472
0.110865
0.185966
0.256896
0.132918
0.228882
0.238419
0.146627
0.153780
0.171661
0.204444
0.289679
0.464916
0.186563
0.413656
0.436902
0.194907
0.390410
0.333786
0.283718
0.214577
0.277758
0.307560
0.244975
0.419617
0.290871
0.209808
0.268817
0.255704
0.138879
0.214577
0.399947
0.286698
0.257492
0.346899
0.223517
0.412464
0.502467
0.397563
0.318885
0.406504
0.409484
0.328422
0.536442
0.368953
0.496507
0.472665
0.424981
0.566840
0.615716
0.505447
0.505447
0.556707
0.490546
0.659823
0.617504
0.629425
0.703931
0.738502
0.788569
0.802875
0.933409
1.078844
1.010895
1.102686
1.244545
1.322627
1.174808
1.365542
1.362562
1.271963
1.585484
1.698732
2.163649
5.151629
29.033422
83.302855
237.149000
428.370833
775.776505
1010.518670
1015.829444
1015.829444
1015.829444
1015.829444
993.965864
739.557743
411.654711
237.118602
##END
