##TITLE=QP00302
##FORMAT=SPECTACLE-ASCII V-1.2
##DATA TYPE=ULTRAVIOLET SPECTRUM
##SECOND TYPE=ULTRAVIOLET SPECTRUM
##DATE=12/26/17
##TIME=12:53:34
##SPECTROMETER/DATA SYSTEM=SPECTACLE
##XUNITS=NM EM
##YUNITS=ENERGY
##YFACTOR=1
##FIRSTX=220
##LASTX=410
##NPOINTS=96
##3DDATA=Equidistant
##ZUNITS=NM EX
##FIRSTZ=210
##LASTZ=400
##ZPOINTS=39
##XYDATA=(Y..Y)
##ZVALUE=210
2.223849
2.307892
1.688600
2.112985
1.996756
2.022982
2.056956
2.383590
2.385974
2.128482
2.107620
2.373457
1.700521
2.358556
2.952814
2.523661
2.731681
2.625585
3.476739
3.079772
2.618432
2.869964
3.911853
4.157424
4.144907
4.154444
4.456639
4.445910
4.440546
4.006624
5.325675
5.225539
4.616976
5.444884
5.104542
5.331635
5.347729
6.356835
5.860925
5.435944
6.265640
5.817413
6.072521
5.685687
6.279945
6.059408
6.621480
6.779432
5.803704
7.488728
6.939769
6.778836
6.768703
6.574988
6.854534
7.020831
7.705688
7.089972
6.863475
7.580519
7.720590
6.692410
8.323789
8.004904
8.493662
8.037686
9.032488
10.720491
12.379885
14.346838
16.602874
20.004511
22.173524
25.652647
26.689768
28.717518
29.926896
28.964877
28.364658
29.250979
26.447773
23.175478
20.547509
18.168688
14.865994
12.045503
8.771420
8.125901
8.065701
8.647442
8.403659
8.476973
7.521510
7.938743
8.763671
8.918643
##ZVALUE=215
6.948709
6.442666
6.328821
5.724430
4.687905
4.562736
4.217625
4.587770
5.352497
4.597902
4.604459
4.309416
3.326535
3.072619
2.852678
3.149509
2.673864
2.536774
3.236532
2.820492
3.572702
4.030466
3.956556
3.815889
4.266500
4.193783
4.193783
4.465580
4.771948
4.317760
4.638433
5.231500
5.452633
5.198717
5.428791
5.672574
5.371571
5.663633
5.648732
5.645752
5.593896
6.311536
7.309914
6.394982
6.319880
6.461740
6.244779
6.765723
6.278753
7.191896
6.902814
6.032586
7.547736
7.229447
7.491708
7.601976
6.924868
6.868839
8.053780
8.077621
7.774830
7.104874
7.700920
8.064508
9.060502
8.534789
8.361936
9.348989
11.899471
12.159944
16.158819
18.826723
21.514893
23.192763
26.414990
27.716756
26.368499
27.304888
26.248693
24.258494
22.160411
19.391775
17.947555
15.609860
12.476444
11.337996
11.562705
8.856654
9.628534
7.927418
7.593632
7.542968
7.422566
8.055568
7.392764
8.254647
##ZVALUE=220
23.592710
23.887753
25.233626
24.409890
23.811460
19.716620
15.068650
12.304783
11.747479
10.635853
11.823773
12.055635
12.346506
10.541677
8.341670
6.626844
5.639791
4.348755
4.138947
3.768802
3.266931
3.862977
4.403591
4.270673
3.911853
4.458427
4.907846
5.330443
5.135536
5.089641
5.067587
6.317496
5.893707
6.033778
6.199479
6.429553
6.140471
6.261468
6.736517
5.969405
6.963611
7.019639
6.750822
6.568432
6.866455
7.431507
6.814599
8.022785
7.076859
8.117557
8.577704
7.826686
7.615685
9.284616
8.682609
8.285642
8.011460
8.285642
7.891655
8.990765
8.826852
9.380579
8.795857
10.006428
8.374453
9.231567
8.907914
11.011958
11.248589
13.178587
15.469790
19.092560
19.448996
23.989677
24.211407
23.393631
26.569963
27.969480
25.789738
25.169849
23.192763
19.812584
20.547509
17.202497
15.281439
14.202595
11.510849
11.310577
10.259748
10.144711
10.393858
9.545684
8.958578
9.397864
9.273887
10.340810
##ZVALUE=225
38.976669
42.198896
56.368709
68.647861
74.302554
72.571635
65.809488
56.775808
40.483475
32.241940
24.912953
22.953749
23.106933
25.416613
26.396513
23.464561
19.943714
15.721917
13.395548
8.381605
6.848574
5.188584
4.958510
4.685521
4.198551
4.327893
4.821420
4.914999
5.397797
4.537702
5.125999
5.579591
6.461740
6.329417
6.835461
6.528497
6.528497
6.330609
6.867647
6.551743
7.047653
9.131432
7.001758
7.534623
7.454753
7.917881
7.127523
8.192658
8.959770
9.166598
7.903576
9.719729
8.102655
8.565784
9.116530
9.020567
8.577704
8.514524
8.748770
10.099411
9.903908
10.102987
10.050535
11.100769
9.827614
11.770725
11.292696
11.740923
13.448000
14.048815
15.746951
17.183423
19.913912
20.410419
22.671819
23.853779
25.964975
22.612810
22.575855
22.497773
21.671653
20.626783
19.092560
16.827583
14.198422
14.438629
14.530420
13.047457
13.338923
12.519956
12.390614
12.179613
12.180805
12.760758
12.663603
11.581779
##ZVALUE=230
33.733845
37.483573
67.372918
96.035004
133.124590
160.463452
181.976557
178.322792
162.947774
134.514570
91.672540
71.120858
55.573583
45.459867
44.146776
48.147440
50.755739
48.319697
43.766499
32.769442
26.081800
20.255446
12.606978
8.403659
6.147623
6.026626
4.930496
5.637407
5.491972
5.088449
5.446672
6.977916
5.627871
6.211996
6.248951
6.268620
6.242990
7.124543
7.005930
7.363558
6.805658
7.714629
7.370710
8.361936
7.307529
7.431507
7.782578
8.973479
8.282661
7.317662
7.681847
8.349419
9.377599
8.765459
9.773970
9.219646
9.926558
10.642409
9.590983
10.615587
11.270642
11.484623
12.375712
11.448860
13.075471
13.461709
14.057755
14.345646
14.302731
17.277598
18.965602
22.835732
24.202466
24.679899
26.109815
25.739670
27.960539
27.364492
27.620792
24.916530
22.079945
21.853447
21.963716
20.680428
20.534992
19.576550
19.475818
18.936992
17.579794
18.157959
18.130541
17.258525
17.621517
17.538667
18.183589
15.548468
##ZVALUE=235
12.218952
14.591813
30.072927
75.013638
123.084784
191.486478
252.520442
330.740809
356.940627
370.909572
328.110456
272.995830
188.192725
138.543844
95.471740
77.802539
73.641539
77.780485
85.423589
84.212422
80.391765
65.646768
51.194429
35.821795
25.226474
15.697479
10.470748
7.162690
6.871819
5.966425
5.975962
5.459785
6.518960
6.049871
7.309914
6.326437
6.645918
7.569790
7.522702
7.178783
7.522702
7.338524
8.137822
7.719994
7.339716
7.859468
8.348823
8.750558
9.142756
8.545518
10.245442
8.246899
9.808540
10.680556
10.294914
9.723902
11.212826
12.665987
11.869669
11.893511
13.827682
14.118552
14.247894
14.399886
14.816523
15.383959
17.712712
18.527508
20.339489
22.209883
25.132895
26.723742
28.502941
30.465722
31.822920
32.337904
32.841563
34.440756
33.263564
32.638907
29.858947
30.124784
30.259490
29.157996
26.052594
26.816726
25.629997
25.210977
24.696589
25.396943
24.427772
24.242997
25.030971
24.140477
24.676919
24.340749
##ZVALUE=240
1.731515
1.598001
5.942583
16.139746
44.670701
86.752772
170.652866
260.134935
390.830636
480.280519
544.184446
545.081496
513.298512
414.717793
323.941708
210.629702
149.879456
106.214881
92.236996
98.474622
109.925866
112.501979
107.417703
97.771883
80.306530
62.789917
43.847561
32.249689
18.766522
12.745857
10.008812
7.614493
7.811785
6.821752
7.234812
7.639527
7.249713
7.290840
7.521510
6.901622
6.731749
7.698536
7.819533
8.301735
7.834435
8.245707
8.311868
7.533431
8.516908
7.949471
8.447766
9.750724
9.884834
9.403825
9.981990
10.363460
10.499954
10.603666
12.600422
12.208819
12.982488
13.550520
14.592409
15.980601
15.001893
18.375516
17.469525
18.967986
19.155741
22.868514
25.123954
28.064847
30.406713
32.700896
33.750534
34.174919
36.365986
34.226775
33.574700
36.642551
36.772490
34.076571
32.736659
32.721758
32.934546
29.692650
28.808713
31.331778
30.423999
32.344460
30.221939
28.983951
29.049516
28.552413
31.459928
29.598475
##ZVALUE=245
1.338720
1.408458
1.377463
1.830459
4.657507
10.995865
40.288568
82.348585
184.603930
281.383991
455.502868
568.254590
645.235777
697.249770
665.462017
566.321015
454.781651
310.876966
224.314928
136.343837
101.592541
99.375844
105.274916
116.497874
124.533772
118.977427
108.147860
90.662837
67.638755
50.275922
35.619736
21.240711
13.606548
9.164810
7.399917
7.086992
6.390810
7.517934
7.301569
7.399917
7.499456
7.132888
6.946921
7.205606
7.139444
6.960630
6.732941
8.349419
7.906556
7.217526
7.757545
7.400513
7.774830
8.094907
7.887483
9.636879
9.143949
10.013580
9.409785
10.694861
11.402965
12.186766
10.819435
13.101697
14.483929
13.906956
15.985966
17.153621
18.750429
19.826889
22.676587
25.334954
26.671886
29.155612
30.005574
31.175613
32.711625
30.414462
31.071901
31.563640
30.743480
31.345487
29.812455
30.571818
30.814409
28.107762
30.640960
28.684735
30.178428
30.315518
30.973554
29.940605
28.022528
29.099584
30.041933
30.424595
##ZVALUE=250
1.551509
1.262426
1.410842
1.139641
1.444817
1.212955
2.663732
7.321835
29.666424
67.122579
160.945654
276.639462
405.758619
582.340956
703.221560
796.800852
793.939829
712.004900
602.844954
428.234935
291.499496
194.537640
117.272735
95.701814
102.019906
115.657449
126.469731
133.994818
129.209757
116.553903
95.842481
75.114965
55.514574
33.883452
21.488667
13.565421
8.541942
7.283688
6.332994
6.917715
6.640553
7.087588
6.248951
7.527471
6.118417
7.334948
7.670522
6.609559
6.514788
6.654859
7.311702
6.475449
7.820725
7.439852
7.494688
8.024573
8.232594
8.622408
8.327961
9.700656
9.921789
10.199547
10.433793
11.864901
11.670589
12.553930
13.149977
15.217662
16.523600
18.712878
19.207597
21.373630
24.891496
26.083589
27.905703
27.560592
28.745532
29.801726
29.762983
28.454661
28.257966
27.906895
29.919744
28.632879
28.662682
26.708841
27.155876
28.335452
27.092695
27.633905
29.622912
28.113723
28.218627
28.600693
28.845668
27.787685
##ZVALUE=255
1.128912
1.163483
1.038909
1.111627
1.025796
1.139641
1.621842
1.516938
1.868606
4.334450
22.303462
54.092407
110.633969
240.445733
382.309556
605.682731
744.501948
902.771950
946.162939
894.670486
778.570771
628.016591
407.207608
258.825421
141.246915
100.637674
89.178681
96.404552
119.975805
132.172704
140.771866
135.734677
124.109983
99.539757
77.488422
53.413510
36.259890
20.791888
13.182759
8.581877
6.996989
6.994605
6.409883
6.533861
6.095767
6.619692
6.952882
6.487966
6.434917
7.118583
6.439686
7.288456
7.135868
7.370710
7.236600
7.048845
7.315874
8.029938
7.841587
8.047819
8.875728
8.185506
9.655952
10.360479
10.410547
11.038780
11.976957
12.558699
13.930798
15.729666
18.021464
19.497871
19.754767
22.176504
22.502542
25.771856
25.653839
24.891496
24.448633
25.319457
25.169849
24.036765
24.895668
23.795962
24.375916
24.948716
25.043488
25.010705
24.694800
26.996732
25.658607
25.366545
25.495887
25.244951
25.961995
26.803613
##ZVALUE=260
0.759959
1.301765
1.098514
1.141429
1.425743
1.016855
1.490712
1.272559
1.576543
1.430511
1.502633
2.736449
7.872581
37.097931
80.740452
199.115872
325.604677
538.663864
725.411773
930.750966
1015.901566
1015.901566
948.228836
779.881477
514.783859
361.986756
206.491947
130.668879
82.116723
79.657435
92.877746
117.326975
136.358738
146.539807
141.067505
124.347806
108.230710
77.391863
57.931542
36.038756
23.658872
13.217926
10.000467
7.018447
6.960630
6.516576
6.858706
6.124973
6.430745
7.025599
7.242560
6.617904
6.645918
6.535649
6.978512
7.064939
7.672906
7.342696
7.715821
7.949471
8.123517
8.716583
9.208918
9.311438
9.949803
10.450482
11.271834
11.948943
13.556480
13.918877
15.418530
16.605854
18.101931
19.332767
19.889474
21.311641
20.290613
20.871758
20.957589
21.753907
22.975802
21.449924
22.505522
23.273826
21.518469
22.276640
23.247600
22.836924
23.212433
23.705959
23.091435
23.698807
24.044514
24.316907
23.753643
25.543571
##ZVALUE=265
0.842810
0.964999
0.904799
1.123548
1.074672
1.188517
1.207590
1.148582
1.075864
1.086593
1.501441
1.770854
1.626611
2.064705
4.478693
26.084781
64.127445
162.307620
285.559893
523.306727
729.481578
901.561975
1015.896797
1015.896797
991.359949
862.095952
639.706850
455.657840
261.014700
157.339573
98.603964
68.645477
75.661540
103.104711
120.690465
140.641928
147.733688
142.742991
125.826001
100.828409
79.739690
52.784681
38.016438
21.375418
14.151931
8.457899
7.603765
7.262826
6.260872
6.783605
6.687641
6.820560
7.469654
7.253885
7.034540
7.290840
7.558465
7.388592
7.732511
7.801652
8.013844
8.262992
8.389950
9.630919
9.694695
9.714961
10.791421
11.388659
11.935830
12.847781
14.324784
16.051531
16.516447
17.768741
18.031597
18.490553
19.355416
19.518733
18.880963
19.504428
19.662976
20.135641
19.993782
20.909905
20.013452
21.779537
21.819472
21.225810
21.140575
22.045970
20.960569
22.023916
21.851659
22.421479
22.900701
22.958517
##ZVALUE=270
0.833869
0.977516
0.773668
0.850558
0.799894
0.935793
0.877976
0.941753
1.067519
1.040697
1.157522
1.257658
1.457930
1.511574
1.652837
1.851916
2.615452
11.051893
35.501719
118.922591
236.012936
404.916406
691.382885
911.426544
1015.892625
1015.892625
1015.892625
1015.892625
812.301636
614.857674
426.406860
229.624510
132.184625
68.210959
59.118867
78.131557
99.540949
126.974583
140.882730
147.364736
144.600868
125.813484
106.837749
78.392625
58.760643
35.996437
23.119450
15.434623
10.901690
7.898808
7.422566
7.284880
7.266998
7.100701
7.603765
7.856488
7.474422
7.971525
7.953644
7.852912
8.360744
8.262992
8.558631
8.521676
9.672642
10.019541
10.348558
11.161566
11.591911
13.082623
13.699532
14.465451
16.347766
17.213821
18.109679
18.143654
18.236637
18.911958
18.891692
18.860698
19.481778
18.728971
19.259453
19.868612
19.210577
20.610690
20.722747
19.450784
19.914508
20.340681
21.473765
20.384789
20.812750
20.029545
21.129847
21.815896
##ZVALUE=275
0.815988
0.577569
0.975728
0.826716
0.778437
0.874996
0.905991
0.916719
1.034737
0.988841
1.268983
1.063943
1.246929
1.061559
1.206994
1.220703
1.408458
1.622438
2.100468
5.392432
21.525621
60.964823
175.401568
325.433016
599.388480
809.343457
1015.906930
1015.906930
1015.906930
1015.906930
1009.798646
769.783854
555.799007
301.743746
178.224444
84.698796
55.225492
56.948662
74.457526
101.405978
120.278597
139.794946
147.987604
141.561627
126.454830
102.222562
83.219409
57.059526
41.022897
24.203658
16.277432
10.109544
8.133650
7.678866
7.237792
7.067919
7.834435
7.761717
8.104444
8.259416
8.711815
8.684993
9.323955
9.062886
9.619594
10.211468
10.286570
11.173487
11.456609
13.160706
13.830662
14.746785
16.073585
16.063452
17.401576
17.779469
17.792583
17.634630
17.873645
18.042922
18.650889
18.509626
19.419789
18.413663
18.893480
18.662810
18.836856
19.109845
19.252896
19.683838
19.535422
19.978881
19.194484
19.510984
19.898415
20.581484
##ZVALUE=280
0.685453
0.851750
0.748634
0.791550
0.777841
0.964999
0.870824
0.987649
0.862479
0.968575
0.968575
0.918508
0.754595
0.861883
0.938773
1.045465
1.263618
1.473427
1.319647
1.632571
1.893640
2.973676
11.261702
51.624775
122.130513
286.706686
461.389422
743.187666
956.596732
1015.897989
1015.897989
1015.897989
1015.897989
859.546661
636.094809
368.416905
221.892595
96.664429
55.434704
41.039586
51.874518
76.933503
97.444654
122.920871
135.227442
142.906904
136.898756
120.894909
102.495551
78.965425
58.598518
37.451982
25.613904
16.037822
10.726452
8.285642
8.117557
7.985830
8.228421
7.996559
8.095503
8.612871
9.675622
9.528995
9.836555
10.257959
10.962486
11.185408
11.960864
12.831688
13.451576
14.749765
15.540719
15.924573
16.767979
17.621517
17.780662
17.410517
17.306805
17.625690
17.674565
17.558932
18.167496
18.327832
18.217564
18.924475
18.467903
18.466711
18.469691
18.863678
18.866658
18.451810
18.442869
18.960834
19.282699
18.931627
##ZVALUE=285
0.531673
0.457764
0.345707
0.673532
0.758767
0.740886
0.584722
0.677705
0.599623
0.629425
0.804663
0.670552
0.919700
0.893474
0.764728
0.956655
0.989437
0.970960
1.020432
1.371503
1.304746
1.416802
1.580715
1.871586
5.819798
22.375584
78.493953
163.930655
349.047780
553.859472
786.559582
1015.769839
1015.769839
1015.769839
1015.769839
1000.874639
797.507763
492.066741
305.005908
143.417716
74.491501
36.565661
33.951998
50.283670
69.555640
96.194744
114.878416
131.193995
139.088631
134.421587
123.300552
102.070570
83.418489
58.217645
41.255951
24.803877
17.205477
11.507869
9.584427
8.578897
8.604527
8.918643
9.419918
10.034442
9.866953
10.640621
11.398792
11.721849
12.158751
13.829470
13.737679
14.593601
15.141964
15.957952
16.169548
16.615987
16.808510
17.227530
17.009974
18.268824
17.533898
17.594695
17.771721
17.882586
18.174648
18.519759
18.023849
18.135905
18.570423
17.419457
18.417835
18.498898
18.887520
18.144846
18.087626
18.496513
##ZVALUE=290
0.441670
0.434518
0.258684
0.475645
0.419617
0.435710
0.556707
0.567436
0.663996
0.537634
0.591874
0.468493
0.687838
0.602603
0.704527
0.706911
0.821948
0.886917
0.875592
0.907779
0.976920
1.052618
1.079440
1.293421
1.348853
1.695752
2.504587
9.008646
44.706464
109.027624
261.699557
441.550612
770.276785
1003.435850
1015.720963
1015.720963
1015.720963
1015.720963
922.064781
687.471628
394.371748
230.181813
96.333623
47.229528
25.602579
30.173659
47.170520
63.140988
89.102983
108.174682
127.781630
132.899880
132.238865
121.291876
100.407600
82.719922
55.179000
40.960908
26.054978
18.484592
12.564659
10.526776
9.316802
9.836555
10.548830
10.951757
11.501908
12.381673
12.616515
13.426542
14.638901
14.645457
15.874505
16.163588
16.497970
16.930699
17.012954
17.443895
17.330647
17.498732
17.523766
18.414855
17.869473
18.471479
18.302798
18.206835
18.253922
18.180609
18.378496
18.869638
18.234849
18.243790
18.077493
18.471479
18.775463
17.887950
##ZVALUE=295
0.685453
0.682473
0.527501
0.557899
0.688434
0.680685
0.677705
0.823736
0.668764
0.667572
0.781417
0.781417
0.839829
0.908971
0.852942
0.988841
1.000762
0.850558
0.879765
1.063943
1.097918
0.926852
1.306534
1.472831
1.458526
1.807809
1.635551
1.939535
2.155900
3.905892
14.881492
64.953566
152.449608
369.099975
607.814789
978.015661
1015.911698
1015.911698
1015.911698
1015.911698
1015.911698
852.841735
586.019754
305.394530
161.023736
57.879686
28.438568
20.833611
27.861595
44.628978
80.891848
84.434748
106.525421
120.255947
130.042434
128.652453
117.620826
101.136565
76.571703
59.777498
41.153431
28.128624
19.016862
14.524460
12.375712
11.631846
12.229681
12.394786
12.722611
13.815761
14.522672
14.830828
16.175508
16.671419
17.248988
17.504692
18.042922
18.128753
18.381476
18.188953
18.178821
19.075871
18.704534
19.092560
19.021630
18.759966
18.469691
18.879771
19.171834
18.546581
19.084811
18.723607
18.917918
18.825531
18.291473
18.566847
##ZVALUE=300
0.652671
0.629425
0.680685
0.667572
0.614524
0.760555
0.727773
0.815988
0.812411
0.753999
0.750422
0.793934
0.546575
0.860691
0.878572
0.726581
0.937581
1.002550
1.076460
1.021624
0.898838
1.174808
1.020432
0.917912
1.227856
1.151562
1.339912
1.328588
1.563430
1.930594
2.005696
2.612472
8.164644
44.829845
108.380914
280.590057
497.362018
896.347761
1015.897989
1015.897989
1015.897989
1015.897989
1015.897989
1015.897989
816.439390
439.361930
257.744789
112.243891
49.990416
19.253492
18.184781
27.158856
38.065910
57.978630
76.086521
100.618601
114.921927
125.152469
122.724771
111.182928
98.722577
75.973868
60.324669
41.059852
29.859543
21.078587
16.307831
13.946891
13.597608
14.091730
15.025735
15.464425
16.086698
17.105937
16.801953
17.651916
17.569661
18.093586
18.537641
18.535852
18.858910
18.866658
19.297600
18.929839
19.422770
19.881725
19.135475
19.698739
18.934608
19.729733
19.534826
19.260645
18.909574
18.903613
18.246770
18.945932
##ZVALUE=305
0.628829
0.786781
0.800490
0.630617
0.728965
0.790954
0.657439
0.699759
0.744462
0.788569
0.851750
0.677705
0.852942
0.978708
0.951886
0.783801
0.873804
0.993609
1.004934
0.985861
1.126528
0.980496
1.073480
1.133680
1.144409
1.150966
1.451969
1.371503
1.401901
1.893640
1.499653
1.819730
1.966953
2.345443
4.440546
26.840568
78.194737
222.166777
400.571823
746.584535
1011.712551
1016.025543
1016.025543
1016.025543
1016.025543
1016.025543
949.487686
601.400733
375.204682
165.306926
78.578591
26.487708
15.040636
17.623901
24.168491
39.304495
54.211617
75.608492
92.856884
110.569596
119.063854
116.978884
110.091567
93.443990
78.090429
57.073832
42.888522
29.170513
22.141933
18.083453
16.291738
15.776753
16.752481
17.108917
17.912984
18.252730
18.127561
18.749833
18.641949
18.882751
19.388795
19.342899
19.935966
20.298958
20.032525
20.537972
20.791888
19.580722
19.744635
20.017624
19.771457
19.598603
19.780993
18.962622
19.305944
18.791556
##ZVALUE=310
0.705719
0.647902
0.685453
0.710487
0.546575
0.651479
0.599623
0.640750
0.605583
0.731945
0.667572
0.757575
0.658631
0.725985
0.906587
0.921488
0.835657
0.732541
0.924468
0.893474
0.811815
0.788569
0.837445
0.937581
1.051426
0.982881
1.226664
1.292825
1.303554
1.259446
1.761913
1.432896
1.732707
1.763701
1.866817
2.330542
2.574921
12.592673
46.394467
159.712434
313.822627
630.704761
930.668712
1015.967727
1015.967727
1015.967727
1015.967727
1015.967727
1015.967727
815.179944
545.019507
277.494788
147.264600
52.073002
20.671487
12.616515
15.513897
23.219585
32.565594
50.564408
66.300631
88.755488
101.525784
111.556649
114.382505
106.759667
94.548464
76.516867
61.068535
43.394566
33.490658
24.896860
21.026731
18.818974
18.184781
17.958879
18.194914
18.228889
18.128753
19.347668
19.798875
19.664764
19.774437
19.848943
20.359755
20.636916
20.762682
21.235943
20.961761
20.308495
20.750761
19.943714
20.234585
19.729733
19.007921
19.365549
##ZVALUE=315
0.542998
0.528693
0.536442
0.620484
0.607967
0.549555
0.660419
0.584722
0.602603
0.688434
0.616908
0.657439
0.777841
0.628829
0.722408
0.663996
0.654459
0.675917
0.784993
0.668764
0.871420
0.822544
0.862479
0.815988
1.008511
0.924468
0.979900
0.971556
0.974536
1.061559
1.189709
1.119971
1.328588
1.280904
1.626611
1.679659
1.820922
2.202988
2.492666
4.325509
27.614832
85.070729
253.929496
456.474423
848.679543
1015.897989
1015.897989
1015.897989
1015.897989
1015.897989
1015.897989
998.366475
632.211566
394.126773
184.498429
87.451935
25.950670
12.985468
12.143850
14.731884
21.725893
30.496716
47.224760
62.342882
83.978772
97.132921
106.923580
109.783411
101.689696
90.518594
73.424578
60.423613
43.748617
34.313798
26.127696
22.607446
19.779801
19.367933
19.069910
19.249916
20.160675
20.079613
20.236969
20.876527
20.826459
20.746589
20.537972
21.008849
20.874739
20.751953
20.475984
20.645857
20.301938
20.362735
19.878745
20.032525
##ZVALUE=320
0.523925
0.455976
0.600815
0.711679
0.510812
0.518560
0.418425
0.650883
0.604987
0.537634
0.460744
0.762939
0.504851
0.552535
0.704527
0.586510
0.584722
0.633597
0.556707
0.601411
0.599623
0.752807
0.769496
0.894666
0.859499
1.033545
0.797510
1.022816
0.991821
1.063943
0.880957
0.851750
1.143813
1.198649
1.272559
1.390576
1.374483
1.576543
1.761913
1.982450
2.110600
2.757907
8.425713
52.825809
142.439604
384.855866
638.217926
1000.878811
1015.897989
1015.897989
1015.897989
1015.897989
1015.897989
1015.897989
814.719796
527.921915
256.809592
128.839612
42.097569
18.524528
11.130571
11.536479
14.895797
19.750595
30.372739
41.841865
60.310960
75.065494
93.005896
101.385713
105.369687
100.656748
87.326765
75.438619
59.369802
46.600699
34.259558
27.590990
22.459626
20.805597
19.827485
20.126700
20.021796
20.433664
20.714998
21.037459
20.874739
20.952821
20.589828
20.762682
21.137595
20.668507
20.368695
20.532608
20.537972
20.046830
##ZVALUE=325
0.579953
0.627637
0.502467
0.733733
0.590682
0.597835
0.567436
0.688434
0.638962
0.589490
0.559688
0.483990
0.316501
0.765920
0.606775
0.595450
0.586510
0.587702
0.666976
0.567436
0.654459
0.576973
0.724792
0.731945
0.803471
0.699759
0.703931
0.767708
0.756979
0.837445
0.879765
0.897646
1.024604
1.152754
1.058578
1.236796
1.172423
1.261830
1.443624
1.462698
1.684427
1.804829
2.043843
2.555847
4.661679
32.406449
89.864731
255.815983
477.401018
908.206701
1015.896797
1015.896797
1015.896797
1015.896797
1015.896797
1015.896797
982.683897
594.077706
349.567533
149.443746
70.194006
22.609830
12.312531
10.822415
11.791587
15.410781
20.244718
30.931830
43.555498
61.846972
75.626969
91.297626
98.437667
101.029873
95.323920
82.914829
70.662498
55.696964
44.040680
33.218861
27.338862
22.912621
21.506548
20.809770
20.314455
20.689964
20.971894
20.811558
20.839572
20.475984
20.543933
20.480752
20.498633
20.340681
19.956827
20.168424
##ZVALUE=330
0.570416
0.510812
0.410676
0.509620
0.441670
0.692606
0.387430
0.441670
0.566840
0.577569
0.623465
0.622869
0.523925
0.770688
0.625849
0.777841
0.567436
0.519753
0.685453
0.460744
0.523925
0.859499
0.662804
0.756979
0.794530
0.773668
0.789762
0.932813
0.865459
0.646710
0.936985
0.983477
1.017451
0.974536
0.996590
1.060963
1.026988
1.027584
1.099706
1.306534
1.479983
1.609921
1.888871
1.759529
2.058744
2.164841
2.891421
14.195442
46.460629
160.876513
319.707394
657.781959
976.652503
1015.897989
1015.897989
1015.897989
1015.897989
1015.897989
1015.897989
854.017735
536.475778
239.375830
119.511485
41.069984
17.188787
10.816455
11.130571
12.783408
15.476942
21.649599
29.089451
43.016672
55.394769
74.250698
86.083412
94.579458
96.121430
90.276003
81.505775
65.933466
54.604411
41.397810
34.290552
28.369427
24.745464
22.083521
21.016598
20.529628
20.572543
20.838976
20.164847
20.333529
19.869804
19.770861
20.338893
20.059943
##ZVALUE=335
0.463724
0.477433
0.474453
0.429749
0.484586
0.489950
0.512600
0.333786
0.405908
0.491738
0.529885
0.380874
0.396967
0.422597
0.539422
0.410676
0.482798
0.663996
0.599623
0.534654
0.494719
0.737906
0.702739
0.527501
0.774860
0.670552
0.783801
0.631809
0.621676
0.703931
0.731945
0.831485
0.827909
0.668764
0.973940
0.999570
1.024604
0.918508
1.004934
1.043677
1.007915
1.105666
1.122952
1.250505
1.537800
1.538992
1.657605
2.125502
2.327561
6.280541
23.727417
101.352930
222.138762
517.576933
852.049589
1015.858650
1015.858650
1015.858650
1015.858650
1015.858650
1015.858650
996.719003
714.180470
368.296504
192.329884
62.365532
24.853945
12.356639
11.431575
12.027621
13.878942
16.546845
21.201968
31.044483
41.132569
56.853890
68.973899
82.748532
87.670684
90.924501
86.959600
75.648427
66.169500
52.627921
44.161677
34.074783
28.745532
23.639798
21.587610
20.544529
19.994974
19.774437
19.410849
19.426942
19.051433
19.450784
##ZVALUE=340
0.401735
0.555515
0.567436
0.507832
0.473857
0.476837
0.372529
0.294447
0.458956
0.597835
0.514984
0.436902
0.592470
0.551939
0.478625
0.633597
0.301600
0.663996
0.281930
0.554919
0.635982
0.540614
0.577569
0.581741
0.681877
0.669956
0.648499
0.786781
0.781417
0.573993
0.846982
0.605583
0.711679
0.795722
0.858903
0.888705
0.866652
0.859499
1.029968
1.099706
1.159906
1.139641
1.253486
1.126528
1.234412
1.347661
1.405478
1.589656
1.833439
1.843572
2.109408
3.121495
11.048913
61.210990
157.344937
404.717922
685.956478
1015.897989
1015.897989
1015.897989
1015.897989
1015.897989
1015.897989
1015.897989
850.026608
457.102656
247.944593
89.277625
36.850572
14.013648
11.405945
12.143850
12.259483
13.901591
16.660690
22.196770
28.877854
41.299462
52.380562
67.615509
77.045560
85.004568
85.345507
81.610680
73.450804
62.337518
53.404570
42.335987
34.711957
26.792884
23.056865
20.313859
19.391775
18.657446
18.537641
18.621683
##ZVALUE=345
0.535846
0.417829
0.450611
0.467896
0.536442
0.559688
0.613928
0.539422
0.453591
0.487566
0.661612
0.447631
0.519753
0.332594
0.462532
0.529885
0.600815
0.499487
0.666976
0.446439
0.550747
0.572801
0.571609
0.482798
0.695586
0.446439
0.744462
0.608563
0.798702
0.572801
0.747442
0.585914
0.676513
0.665784
0.652671
0.798702
0.549555
0.897646
0.701547
0.982881
0.832677
0.844598
0.942945
0.901818
1.016855
1.261830
1.180768
1.233816
1.391768
1.596808
1.505613
1.668930
2.054572
2.445579
4.925728
32.844543
95.319748
269.090533
496.128798
914.390683
1015.897989
1015.897989
1015.897989
1015.897989
1015.897989
1015.897393
878.136754
512.109995
287.918448
114.080906
50.985813
18.937588
12.605786
12.044907
12.055635
12.740493
13.464689
16.152859
20.039678
28.284788
36.784410
50.821900
60.170889
71.506500
76.233745
79.776645
77.866912
70.860982
62.632561
51.059723
41.068792
31.607747
26.767850
21.783710
19.798875
18.262863
##ZVALUE=350
0.409484
0.498891
0.436902
0.604987
0.490546
0.573993
0.373721
0.506639
0.544786
0.522733
0.538826
0.651479
0.524521
0.720620
0.735521
0.513792
0.486970
0.389814
0.487566
0.716448
0.705719
0.748634
0.615716
0.565648
0.457764
0.507832
0.542998
0.660419
0.454783
0.718832
0.566840
0.690818
0.735521
0.874996
0.720620
0.600815
0.964999
0.704527
0.797510
0.759959
0.905991
0.849962
0.796914
0.916719
1.109838
0.901818
0.990629
1.166463
1.340508
1.269579
1.294613
1.326799
1.635551
1.777411
1.793504
2.247691
3.087521
15.577674
54.462552
187.091827
364.866853
736.650825
1015.897989
1015.897989
1015.897989
1015.897989
1015.897989
1015.897989
991.643667
583.115816
344.036818
151.038766
70.034862
21.763444
12.968779
11.573434
11.612773
11.540651
11.960864
13.293624
15.316606
20.261407
24.997592
33.763647
42.954683
54.703951
63.004494
71.067810
72.725415
71.190000
66.407919
57.131648
48.347712
37.489533
30.592680
25.049448
##ZVALUE=355
0.549555
0.469685
0.523925
0.478625
0.484586
0.392795
0.328422
0.575781
0.411868
0.504851
0.439882
0.470877
0.410676
0.523925
0.513792
0.481606
0.619888
0.574589
0.451803
0.522733
0.614524
0.594854
0.612736
0.488758
0.682473
0.758767
0.665784
0.611544
0.522733
0.619888
0.596642
0.618696
0.606775
0.594854
0.639558
0.702739
0.703931
0.737906
0.801682
0.800490
0.793934
0.805855
0.879765
0.974536
0.886917
0.991821
1.034737
0.991821
1.080632
1.098514
1.176596
1.232624
1.290441
1.517534
1.423955
1.801848
1.918674
2.298951
2.560616
7.271767
27.653575
125.285983
266.088843
568.027496
900.709033
1015.897989
1015.897989
1015.897989
1015.897989
1015.897989
1015.897989
749.477744
453.686714
197.294950
95.799565
33.246875
15.225410
10.818839
10.835528
10.851622
11.076927
11.663437
12.427568
14.456511
17.125607
22.954941
28.831959
39.462447
47.085881
56.637526
62.533617
66.188574
65.351725
60.474873
54.253936
45.702457
##ZVALUE=360
0.444651
0.399947
0.372529
0.388622
0.342727
0.531673
0.438690
0.382662
0.513792
0.503659
0.550747
0.579953
0.498891
0.479817
0.547767
0.542998
0.482798
0.418425
0.591874
0.648499
0.608563
0.570416
0.618696
0.653863
0.480413
0.626445
0.616908
0.649691
0.606775
0.717640
0.607967
0.555515
0.854731
0.609756
0.746846
0.750422
0.717640
0.695586
0.770688
0.726581
0.817776
0.794530
0.906587
1.032948
0.907779
1.027584
1.054406
1.046658
1.196861
1.116991
1.018643
1.127720
1.318455
1.391768
1.345873
1.482964
1.755953
1.735687
1.781583
1.966953
2.291799
3.775954
12.402534
64.891577
169.239640
424.566865
704.681873
1015.897989
1015.897989
1015.897989
1015.897989
1015.897989
1015.897989
906.494856
606.845617
296.340585
154.056549
54.879785
21.958947
10.548830
10.149479
10.219812
10.263920
10.506511
10.806918
11.409521
12.621880
15.544891
18.904805
25.392771
32.114983
42.524934
48.998594
56.290627
59.184432
60.292482
##ZVALUE=365
0.426769
0.568628
0.581741
0.521541
0.547767
0.576973
0.471473
0.452995
0.475645
0.512600
0.465512
0.474453
0.510812
0.527501
0.541806
0.808835
0.632405
0.557899
0.581741
0.620484
0.615716
0.510812
0.521541
0.518560
0.593662
0.621676
0.565648
0.565648
0.663996
0.799894
0.705719
0.757575
0.657439
0.699759
0.596642
0.862479
0.690818
0.657439
0.618696
0.781417
0.656843
0.790954
0.891685
0.783801
0.802875
0.899434
1.013875
1.110435
0.990629
1.081824
1.081824
0.980496
1.015663
1.051426
1.157522
1.358986
1.205802
1.426935
1.577735
1.616478
2.003908
2.187490
2.280474
2.827644
5.670786
33.848882
102.630854
300.384760
546.636581
963.048935
1015.897989
1015.897989
1015.897989
1015.897989
1015.897989
1004.496813
731.391907
394.315720
211.488008
76.145530
31.169653
11.747479
9.606481
9.165406
9.488463
9.688735
9.696484
9.691715
10.385513
11.544824
13.268590
16.926527
20.974874
27.914643
34.474730
43.223500
##ZVALUE=370
0.479817
0.604987
0.487566
0.538826
0.515580
0.654459
0.559688
0.528693
0.433922
0.557899
0.411868
0.390410
0.339746
0.536442
0.372529
0.520945
0.512600
0.614524
0.524521
0.538826
0.544786
0.385642
0.426769
0.478625
0.457764
0.433922
0.518560
0.530481
0.540614
0.459552
0.544786
0.648499
0.457764
0.592470
0.594854
0.568628
0.708699
0.498891
0.603795
0.664592
0.753999
0.783801
0.845790
0.837445
0.849962
0.861883
0.845790
0.963807
0.958443
0.956655
0.837445
0.871420
1.072884
0.988841
1.063943
1.120567
1.096725
1.292825
1.195669
1.456738
1.479983
1.678467
1.716614
2.012849
2.369881
2.492666
3.416538
16.699433
58.079958
210.518837
417.981744
819.606781
1015.897989
1015.897989
1015.897989
1015.897989
1015.897989
1015.897989
915.794969
493.699908
266.799927
100.367665
44.488907
16.219616
9.779930
8.692741
8.603930
8.505583
8.528829
8.647442
8.868575
9.173751
9.953976
11.854768
14.415979
19.096732
##ZVALUE=375
0.432730
0.412464
0.423789
0.395775
0.329614
0.451803
0.471473
0.547767
0.443459
0.481606
0.340939
0.411868
0.399947
0.422597
0.449419
0.471473
0.597835
0.557899
0.529885
0.510812
0.593662
0.578761
0.536442
0.514984
0.674725
0.562668
0.639558
0.514984
0.541806
0.605583
0.601411
0.645518
0.496507
0.533462
0.614524
0.729561
0.637770
0.645518
0.603795
0.641942
0.745654
0.715852
0.701547
0.629425
0.616908
0.680685
0.589490
0.735521
0.909567
0.806451
0.800490
0.967979
0.886917
1.035929
1.024604
0.932813
0.975728
1.053810
1.077652
1.269579
1.256466
1.198649
1.424551
1.504421
1.668930
1.696944
2.007484
2.541542
2.883673
8.908510
32.715797
124.254823
280.955434
655.393004
990.571976
1015.897989
1015.897989
1015.897989
1015.897989
1015.897989
1015.897393
664.668679
399.044752
184.246898
88.016987
27.286410
12.396574
8.186698
8.208752
8.181930
7.982850
8.104444
8.193851
8.332729
8.555651
9.299517
##ZVALUE=380
0.306964
0.502467
0.433922
0.510812
0.494719
0.463724
0.488758
0.435710
0.419617
0.382662
0.345707
0.366569
0.378489
0.393987
0.476837
0.479817
0.490546
0.558496
0.493526
0.423789
0.442863
0.637770
0.572801
0.320673
0.403523
0.416636
0.488758
0.446439
0.416636
0.588894
0.530481
0.608563
0.441670
0.442863
0.579953
0.557899
0.556707
0.437498
0.626445
0.633597
0.623465
0.578761
0.428557
0.717640
0.664592
0.716448
0.628829
0.657439
0.602603
0.615716
0.735521
0.789762
0.829697
0.768900
0.784993
0.710487
0.823736
0.990629
0.922680
0.912547
1.009703
1.107454
1.234412
1.264811
1.111627
1.516938
1.561642
1.828671
2.192855
2.471805
2.589822
4.724860
16.625524
84.617734
209.169984
532.102585
883.110762
1015.897989
1015.897989
1015.897989
1015.897989
1015.897989
1015.897989
859.465599
561.419725
261.767507
128.503442
43.065548
17.760992
8.554459
7.606745
7.191896
7.347465
7.488728
7.378459
7.649660
##ZVALUE=385
0.438690
0.424981
0.399947
0.481606
0.446439
0.526905
0.519753
0.409484
0.662804
0.390410
0.456572
0.397563
0.425577
0.448823
0.451803
0.344515
0.345707
0.299811
0.403523
0.382662
0.302792
0.429749
0.532866
0.517964
0.501871
0.483990
0.431538
0.499487
0.415444
0.526905
0.507832
0.394583
0.548959
0.537634
0.471473
0.545979
0.569820
0.554919
0.543594
0.617504
0.549555
0.601411
0.541806
0.560880
0.588894
0.593662
0.680685
0.728965
0.629425
0.579953
0.555515
0.741482
0.719428
0.760555
0.785589
0.969768
0.782609
0.748634
0.785589
0.835657
0.964999
1.036525
1.122952
1.084805
1.144409
1.176596
1.284480
1.513958
1.594424
1.809597
2.047420
2.227426
2.527833
3.316998
8.310676
49.142838
129.404664
341.783762
624.850988
1015.897989
1015.897989
1015.897989
1015.897989
1015.897989
1015.897989
1015.897989
818.659663
419.334769
227.156878
88.272691
33.506751
10.123849
7.138848
6.618500
6.713867
7.012486
##ZVALUE=390
0.327826
0.309944
0.257492
0.379682
0.401735
0.413656
0.440478
0.384450
0.398755
0.396967
0.405908
0.328422
0.475645
0.424981
0.374913
0.264645
0.351667
0.466704
0.501871
0.528693
0.529885
0.381470
0.493526
0.550747
0.477433
0.491738
0.442863
0.403523
0.379682
0.488758
0.524521
0.444651
0.376701
0.494719
0.467896
0.492930
0.604987
0.549555
0.608563
0.435710
0.470877
0.603795
0.556707
0.560880
0.594854
0.633597
0.569820
0.570416
0.723600
0.536442
0.557899
0.561476
0.531673
0.677705
0.803471
0.720620
0.628829
0.898838
0.845790
0.801682
0.761747
0.913739
0.888705
0.895858
1.045465
1.088977
1.206994
1.474619
1.358986
1.831651
1.720786
1.929998
1.972914
2.122521
2.226830
2.262592
3.965497
25.389791
78.498721
241.382718
457.909703
885.505676
1015.897989
1015.897989
1015.897989
1015.897989
1015.897989
1015.897393
969.793797
574.044585
319.037437
123.893619
55.152774
16.621947
7.819533
6.150603
##ZVALUE=395
0.316501
0.505447
0.312924
0.481606
0.398755
0.351667
0.395775
0.287890
0.311732
0.472665
0.255704
0.412464
0.429749
0.400543
0.283718
0.305772
0.349879
0.382662
0.363588
0.243783
0.355840
0.306964
0.423789
0.448823
0.345707
0.415444
0.564456
0.299811
0.406504
0.482798
0.263453
0.493526
0.491738
0.492930
0.567436
0.383854
0.556707
0.483990
0.496507
0.551939
0.486970
0.572801
0.432730
0.642538
0.467896
0.513792
0.535846
0.404716
0.501871
0.449419
0.603795
0.578761
0.726581
0.756979
0.565648
0.670552
0.620484
0.605583
0.852942
0.790954
0.735521
0.818968
0.890493
0.794530
0.906587
0.832677
1.019835
1.108646
1.248717
1.261830
1.514554
1.617670
1.676679
1.709461
1.559854
1.744628
1.970530
2.132654
3.126860
10.946989
65.052509
159.166455
368.279815
616.684556
999.071598
1015.897989
1015.897989
1015.897989
1015.897989
1015.897989
1015.897989
770.937800
394.155979
199.991465
69.582462
28.555989
##ZVALUE=400
0.406504
0.526905
0.463724
0.461936
0.430942
0.400543
0.607967
0.405908
0.548959
0.477433
0.452995
0.432730
0.335574
0.453591
0.157952
0.391603
0.335574
0.356436
0.430942
0.425577
0.354648
0.256896
0.492930
0.494719
0.397563
0.351667
0.351667
0.386834
0.503659
0.461936
0.465512
0.355840
0.320673
0.414848
0.358820
0.356436
0.509620
0.617504
0.569820
0.528693
0.585914
0.682473
0.527501
0.450611
0.530481
0.688434
0.468493
0.594854
0.622869
0.572801
0.571609
0.665784
0.584722
0.753999
0.653863
0.732541
0.651479
0.659823
0.625849
0.693798
0.682473
0.649691
0.838637
0.791550
0.783801
1.063943
1.072884
1.223683
1.159906
1.279712
1.429915
1.416802
1.461506
1.434684
1.276731
1.456738
1.532435
1.695752
1.739860
1.884699
2.427697
5.123615
32.333732
95.763803
276.892781
500.240922
926.182866
1015.897989
1015.897989
1015.897989
1015.897989
1015.897989
1015.897989
895.744562
511.086583
303.242803
##END
