##TITLE=QP00601
##FORMAT=SPECTACLE-ASCII V-1.2
##DATA TYPE=ULTRAVIOLET SPECTRUM
##SECOND TYPE=ULTRAVIOLET SPECTRUM
##DATE=12/26/17
##TIME=16:53:51
##SPECTROMETER/DATA SYSTEM=SPECTACLE
##XUNITS=NM EM
##YUNITS=ENERGY
##YFACTOR=1
##FIRSTX=220
##LASTX=410
##NPOINTS=96
##3DDATA=Equidistant
##ZUNITS=NM EX
##FIRSTZ=210
##LASTZ=400
##ZPOINTS=39
##XYDATA=(Y..Y)
##ZVALUE=210
2.386570
2.112985
2.394915
1.642704
1.640916
2.816916
2.645850
2.173781
3.014803
2.336502
2.272725
2.098680
1.918674
1.955628
2.260804
2.688766
2.766848
2.286434
2.408624
3.036857
3.015995
2.716780
2.926588
3.342628
3.599524
3.184676
3.264546
3.730655
3.340840
4.057884
4.008412
3.945827
3.808737
4.466772
3.716946
3.803968
4.384518
4.285574
4.087687
4.302859
4.588962
4.062653
5.091429
5.169511
4.499555
4.319549
4.856586
5.267859
5.328655
4.922748
5.045533
4.734993
5.371571
5.239844
4.996657
5.270839
5.094409
5.028844
5.874634
5.103946
5.985498
5.358458
5.755424
5.251765
6.272793
5.086660
6.686449
6.580949
7.775426
7.761717
11.177659
12.413859
13.470650
14.158487
15.896559
18.017888
17.667413
17.983913
15.629530
14.628768
13.547540
12.533665
10.875463
9.157658
7.873774
8.168817
6.130934
6.336570
5.606413
5.395412
5.946755
6.989837
5.622506
5.471706
6.158948
6.082654
##ZVALUE=215
6.780624
6.361604
6.114841
4.583597
4.217625
3.969669
3.369451
4.848838
4.285574
4.518628
4.335642
4.073977
3.667474
3.398657
2.454519
2.449751
2.284646
2.125502
3.185868
2.660751
2.687573
3.461838
3.126860
3.263950
3.481507
3.469586
3.317595
3.897548
4.116893
4.346967
4.465580
3.654957
3.670454
4.488826
5.428791
4.260540
3.724694
4.339814
4.620552
5.122423
4.650950
4.439950
4.975796
4.104972
4.703999
5.089641
4.876852
4.905462
4.939437
4.389882
6.462932
5.094409
4.559755
5.488992
5.485415
5.698800
5.079508
4.928708
5.807877
6.237626
5.316734
5.905628
5.534887
5.972981
6.005764
6.808639
6.744862
7.114410
8.404851
8.818507
10.190606
11.228919
12.014508
14.361739
15.851855
14.991760
15.762448
14.098883
13.417602
13.977885
14.155507
10.919571
10.844469
8.544922
8.517504
8.115768
7.271767
7.149577
6.167889
6.178617
5.652905
5.354881
5.977750
6.824732
6.497502
6.466508
##ZVALUE=220
22.076964
22.884607
22.205710
22.860765
20.057559
17.314553
14.051795
10.209680
9.408593
10.380745
9.865761
11.108518
11.359453
10.937452
7.446408
6.714463
4.819632
3.637671
3.552437
2.996922
3.056526
3.231764
3.193617
3.556609
3.671646
3.426671
3.066659
3.803968
3.942847
4.269481
4.687905
3.978610
4.192591
4.067421
3.514886
4.164577
4.767776
4.384518
5.566478
4.495978
5.408525
5.238652
4.753470
5.215406
5.537868
5.117655
5.477667
5.597472
5.813837
5.642772
5.053878
5.559921
5.497932
5.697608
7.522702
6.562471
5.925894
6.002784
6.817579
6.428957
6.567836
5.483627
6.733537
6.523728
6.674528
7.183552
7.642508
7.222891
8.444786
10.300875
10.831952
13.307929
14.739633
14.867783
16.537905
17.606616
15.479922
17.635822
15.004873
16.156435
14.170408
13.147593
11.995435
11.273623
9.207726
7.925630
7.589459
8.816719
8.752942
7.515550
7.634759
7.446408
7.485747
6.674528
6.395578
7.553697
##ZVALUE=225
40.618777
43.234825
55.351853
65.953732
68.267584
66.525936
62.388778
48.484802
40.099621
29.726624
21.429658
20.919442
23.559928
23.297668
25.090575
22.550821
18.178821
16.484857
10.501742
9.094477
6.146431
4.907846
3.758669
3.902912
3.921986
3.670454
3.942847
5.092621
5.036592
4.283786
5.113482
5.440712
4.703999
5.350709
5.005598
6.013513
5.435944
5.393624
5.541444
5.425811
5.291700
6.093979
5.807877
4.698634
5.802512
5.616546
6.156564
5.880594
5.448461
6.619692
6.531477
6.120801
6.513596
6.811619
6.976724
7.404685
8.379817
7.580519
8.056760
7.316470
7.733703
8.709431
8.116961
9.850860
8.884668
8.877516
8.265972
10.178685
11.945963
10.901690
14.233589
14.288425
15.392900
17.184615
17.766953
17.564893
19.044876
17.198920
17.535686
15.298724
15.200973
14.817715
13.269782
13.897419
12.696981
11.008978
11.116862
11.241436
11.971593
11.634827
10.688901
10.896921
9.880662
11.783838
10.881424
9.975433
##ZVALUE=230
40.086508
42.257905
66.553950
105.203986
134.406686
157.489777
172.392726
171.921849
156.876445
120.342970
88.383555
64.088702
48.066974
41.625500
41.159987
45.190454
45.671463
46.526790
40.955544
34.038424
25.872588
16.430616
10.630488
6.839633
4.823804
5.192757
4.710555
5.041957
5.198717
4.895926
5.968809
5.959868
5.413890
5.008578
5.223751
5.839467
6.293654
4.965663
5.296469
5.994439
5.618930
6.316900
6.402731
6.062984
7.077456
7.278919
6.392598
6.331801
6.505847
6.335974
7.203817
6.376505
6.730556
7.661581
7.649660
8.190870
8.877516
8.239746
10.023713
10.382533
10.468960
11.133552
9.893775
10.156631
11.973977
11.519790
12.241602
13.621449
12.417436
15.947819
15.840530
19.467473
19.790530
20.867586
22.002459
22.752881
22.894740
20.907521
20.841956
20.118952
19.675493
19.759536
18.915534
18.778443
16.464591
17.070770
17.588735
15.875697
16.863942
16.434789
16.512871
17.531514
15.274882
15.302896
15.480518
15.231967
##ZVALUE=235
12.543797
15.083551
33.091903
78.415871
122.103691
195.273757
255.220532
322.785974
350.135565
348.085761
305.437446
244.541764
167.898536
127.078891
86.407661
71.070790
67.263842
70.928931
76.190829
77.994466
70.847869
62.678456
49.652457
35.647750
22.361875
14.389753
10.076761
6.493926
5.837679
5.580783
5.926490
5.439520
5.921721
6.115437
5.853772
6.056428
6.307960
6.758571
5.671978
6.136894
6.775856
5.837679
6.953478
6.567836
6.714463
6.397963
7.119775
7.596612
6.605983
7.186532
8.129478
8.116961
8.234978
8.060932
9.575486
8.648634
9.128451
9.624958
10.591745
11.735559
11.604428
11.216998
12.055635
12.357831
12.798905
14.408827
15.355945
16.701818
17.408729
17.872453
18.822551
22.204518
23.679733
24.479628
25.966763
27.435422
27.369857
29.016733
24.714470
27.582645
26.732683
27.435422
24.161935
24.560690
23.335814
22.531748
22.717714
22.744536
23.649931
22.496581
24.247766
23.653507
21.587610
22.633672
22.601485
25.119781
##ZVALUE=240
1.830459
2.150536
5.261898
20.689964
46.599507
101.840496
166.351795
285.337567
385.655761
483.384728
537.815690
537.756681
487.065911
390.460491
308.826566
223.016739
142.943859
110.601783
89.356899
91.538429
103.213787
111.258626
105.890632
93.819499
75.554848
61.564445
45.690536
27.336478
18.018484
11.503696
8.640885
7.630587
6.280541
7.107854
6.056428
6.071925
6.127954
6.130934
6.323457
6.986856
6.720424
5.728602
6.683469
6.519556
7.339716
6.939769
7.726550
7.103682
8.045435
7.337928
7.848740
7.668734
8.569956
8.401871
8.312464
8.019805
9.170771
10.679960
11.479855
11.090636
11.931658
14.145970
12.769699
14.352798
15.372634
17.079711
17.301440
16.716719
20.142794
21.530986
24.105906
25.223494
25.803447
27.748942
31.262636
32.905936
31.769872
31.716824
32.580495
31.033754
29.546618
32.778978
28.679967
28.507710
30.273795
28.847456
28.718710
28.263927
30.447841
29.267669
29.436946
29.440522
28.323531
28.481483
29.848814
28.190613
##ZVALUE=245
1.638532
1.349449
1.423955
1.342893
4.498959
12.099743
38.840771
83.142519
187.178850
297.499895
454.407930
558.947921
642.516017
684.952736
648.204684
539.049506
431.820750
296.173692
202.995539
123.254657
97.330809
94.829798
102.739930
117.946863
121.816993
117.410421
105.380416
88.738799
67.148805
48.415661
35.275817
20.741820
13.477802
8.216500
6.636977
6.498694
7.323623
6.049871
6.331801
6.821752
5.705953
6.509423
6.918907
6.102920
6.045699
6.574988
6.522536
6.886721
6.521940
6.652474
7.409453
6.421804
7.521510
6.562471
7.697940
8.483529
8.167624
9.195805
9.004474
10.264516
11.005998
10.487437
12.203455
12.265444
12.532473
13.330579
14.443994
16.013980
17.880797
18.743873
21.174550
23.883581
23.454428
25.056601
29.086471
28.825998
29.625893
30.790567
30.704737
29.095411
29.396415
29.804707
29.293895
28.565526
29.897690
29.142499
28.127432
31.068921
28.889775
28.120875
27.817488
30.492544
28.944612
29.571652
28.795600
28.474927
##ZVALUE=250
1.219511
1.126528
1.064539
1.342893
1.446605
1.559854
2.511740
7.859468
32.181740
70.415735
167.069435
279.172659
411.717892
595.671535
705.555677
791.460872
777.266026
687.626004
572.851896
405.031443
270.795822
178.657770
108.472705
91.643929
96.353889
113.174915
123.099685
130.822659
124.158859
114.384890
98.539591
76.338649
55.854917
35.694838
22.130609
11.952519
8.056760
6.347895
5.883574
5.818605
6.121993
6.399751
6.238818
6.124973
5.328655
4.796982
5.832911
5.820990
5.163550
5.746484
5.739927
5.942583
5.990863
6.076694
7.227659
6.834865
8.233786
7.688999
7.612705
7.179976
8.544922
8.485913
9.649992
9.856820
11.702776
11.887550
12.602806
14.146566
16.215444
16.732812
17.914772
19.624829
21.334887
22.495985
24.404526
24.745464
26.146770
27.152896
25.923848
25.364757
26.142597
26.501417
28.494000
26.317835
26.276708
26.973486
25.684834
28.918982
29.096603
27.913451
28.620958
27.013421
27.200580
27.539730
28.883815
27.662516
##ZVALUE=255
1.357794
1.101494
1.278520
1.566410
1.236796
1.216531
1.650453
1.544952
1.641512
5.084872
17.498732
58.086514
119.521618
256.950855
388.600826
587.678552
723.205805
845.641494
873.670578
812.644958
707.710981
569.622517
360.893011
233.226418
124.798417
92.231631
84.664822
97.239614
121.855736
132.718682
136.901736
135.719776
124.793649
98.387003
76.276660
52.509904
34.167767
18.684864
12.945533
8.234978
6.593466
5.228519
4.855990
5.153418
5.389452
5.663633
5.366802
4.945993
5.291700
5.969405
5.750656
5.642772
5.595684
6.370544
5.761981
6.359816
6.089807
6.617904
7.124543
6.948709
7.976890
8.159876
8.854866
9.151697
9.974837
10.938644
11.502504
12.142658
14.695525
14.449954
15.762448
17.458797
19.330978
19.051433
21.455884
21.878481
22.652745
24.178624
23.951530
23.582578
23.553967
23.186803
23.919940
23.655891
24.859905
25.491714
25.438666
24.978518
24.679899
25.848746
26.821494
26.355982
26.314855
25.614500
25.593638
26.565790
##ZVALUE=260
1.224875
1.183748
1.224875
1.319647
1.199841
1.408458
1.403689
1.529455
1.801848
1.729727
1.830459
2.430677
8.263588
34.980774
78.225732
191.810727
319.375992
527.309775
700.150728
904.337764
988.612771
998.330712
881.918669
732.818842
485.176444
335.896015
191.741586
119.871497
77.908635
81.349611
93.504786
120.339990
134.779811
147.088766
142.726898
123.334527
104.696751
74.642897
55.254698
35.435557
22.834539
12.307763
8.731484
6.270409
5.328655
5.210638
5.200505
6.065965
5.271435
5.398989
5.592704
5.455613
6.024837
6.206632
5.664825
6.369948
6.036758
6.709695
6.569624
7.372499
7.646680
8.411407
7.853508
8.897781
9.618998
9.740591
9.973645
11.599660
12.338758
13.175607
14.512539
15.381575
16.819835
17.937422
19.252896
19.927621
19.595623
21.551847
21.151900
21.168590
21.775961
22.621751
23.103952
22.058487
23.152828
23.596883
23.477674
24.812818
23.627877
23.969412
23.719668
24.162531
24.230480
24.966598
23.523569
25.206804
##ZVALUE=265
0.830889
0.727773
0.779629
0.931621
0.988841
1.109838
1.020432
1.120567
0.894666
0.987649
1.291633
1.322627
1.381636
1.539588
4.877448
18.854737
68.271756
138.255954
244.554877
467.649698
665.094852
920.141935
1015.829444
1015.829444
1003.778577
824.918747
654.169917
418.954492
274.399519
141.796470
89.389682
67.592859
78.921914
106.018782
123.769641
144.015551
148.938894
138.836503
125.952959
100.407004
81.060529
51.617622
35.370588
19.579530
13.107657
7.789731
6.224513
5.349517
5.574822
4.856586
5.572438
5.334616
5.972981
5.371571
5.654693
6.213784
6.072521
5.995631
6.422997
6.741881
7.396936
7.622838
7.604957
8.199811
8.543730
9.104609
10.137558
11.209846
11.164546
12.394786
13.356805
14.130473
15.554428
17.256737
17.491579
18.715858
18.728971
18.197894
19.242764
19.943714
20.051599
20.750761
20.484924
20.899773
21.674633
20.745993
21.602511
20.988584
22.139549
21.544695
21.604896
23.280978
22.184849
23.073554
23.606420
24.258494
##ZVALUE=270
0.861883
0.733733
0.972748
1.091957
0.764728
0.890493
1.091957
1.124740
1.332760
1.205802
1.080632
1.371503
1.588464
1.384616
1.512766
1.770854
2.165437
10.649562
30.997992
103.771687
206.508636
366.267562
636.427999
855.582952
1015.957594
1015.957594
1015.957594
1003.267765
793.371797
598.123670
425.786972
218.273997
125.531554
65.653920
60.100555
81.161857
105.647445
128.475428
142.652988
149.979591
145.772696
127.766728
107.229948
74.658990
55.415630
34.228563
22.520423
13.500452
8.853674
6.005764
5.692840
5.744696
5.827546
5.628467
6.052852
6.021857
6.151795
6.740689
6.794930
6.960630
7.035732
7.493496
7.937551
8.121729
8.591413
9.359717
10.040998
10.645986
11.876822
12.051463
13.589859
14.084578
14.383793
16.011596
16.551614
17.338991
17.361641
17.685890
17.360449
18.479824
18.918514
18.687844
20.084977
19.882917
20.284653
21.103621
20.777583
21.504760
21.404624
21.470785
21.297932
22.074580
21.825433
22.068620
21.927953
22.596717
##ZVALUE=275
0.807643
0.707507
0.710487
0.746846
0.560880
0.616908
0.550747
0.717640
0.958443
0.890493
0.763535
0.830889
1.166463
0.923872
1.270771
1.106858
1.257658
1.592636
1.953840
4.816651
18.855929
55.435896
163.800716
305.706859
571.336746
772.958994
997.954607
1015.829444
1015.829444
1015.829444
1004.762650
758.689642
536.913872
281.348825
160.639882
71.690679
51.177740
57.705641
76.822639
103.879571
124.058723
141.832829
149.400830
140.694976
130.141973
100.171566
80.274940
54.014921
38.763881
21.809936
14.605522
8.711815
7.244945
5.976558
5.907416
6.624460
6.651878
6.827712
7.257462
7.146597
7.620454
8.231997
8.506775
8.632541
8.645654
9.750724
10.158420
10.598898
11.589527
12.526512
12.986660
13.957620
15.135407
16.131997
16.333461
17.258525
17.371774
17.659664
17.145872
17.994642
18.816590
18.006563
19.404888
19.035935
18.920898
19.728541
19.382834
19.459724
20.140409
19.639730
19.851923
20.769835
20.404458
21.150708
19.938946
21.005869
##ZVALUE=280
0.565648
0.495911
0.483990
0.501871
0.713468
0.627637
0.623465
0.694990
0.737906
0.700951
0.768900
0.727773
0.749826
0.995994
0.888705
0.732541
1.032948
1.032948
1.373887
1.497865
1.489520
2.219677
11.705756
41.522980
131.490827
242.370963
453.257561
660.261512
935.763717
1015.811563
1015.811563
1015.811563
1015.811563
858.915448
636.555552
364.063978
217.801929
95.347762
51.778555
41.046739
53.638816
79.148412
100.622773
125.646591
139.374733
144.796968
139.631629
123.668909
105.611682
78.053474
57.387948
36.057830
24.333000
14.429688
9.362698
6.988645
7.052422
6.891489
7.214546
7.502437
7.680655
8.574724
8.647442
8.726716
10.053515
10.525584
11.172891
11.371970
11.375546
12.694597
13.278723
13.899803
14.537573
15.487671
16.750693
17.155409
16.752481
17.166734
17.688870
17.676950
18.502474
18.691421
18.930435
19.047856
19.036531
19.136667
18.787980
19.270778
20.278692
19.777417
20.215511
19.852519
19.643903
19.726753
19.937754
19.711852
##ZVALUE=285
0.637770
0.801682
0.716448
0.509620
0.620484
0.744462
0.826716
0.786781
0.790954
0.968575
0.929832
0.999570
0.881553
0.822544
1.029968
0.891685
1.057982
1.085997
1.102686
1.291633
1.510978
1.524687
1.763701
1.981854
6.232858
20.584464
71.875453
155.083537
340.255499
530.849695
742.999911
1005.268693
1016.007662
1016.007662
1016.007662
992.942452
795.678496
490.974784
306.117535
143.050551
73.376894
36.293864
34.448504
51.672459
71.073771
101.833940
118.179917
136.119723
141.668916
138.290524
127.138495
104.120970
82.756877
58.298707
39.608479
24.191737
16.510487
11.024475
8.806586
8.499622
8.497834
9.088516
8.757710
9.656549
9.780526
11.434555
11.317730
12.309551
12.540817
13.448000
14.441609
14.451742
15.782714
16.011000
16.250610
17.252564
18.168688
17.920732
17.951727
18.250942
18.590689
18.639565
18.999577
19.233823
18.245578
19.583702
18.755794
19.342899
18.851757
19.577742
19.054413
19.681454
19.240975
19.318461
19.388795
19.752979
##ZVALUE=290
0.495911
0.539422
0.456572
0.428557
0.652671
0.523925
0.490546
0.514984
0.606775
0.312924
0.551939
0.547767
0.712872
0.419617
0.713468
0.736713
0.769496
0.949502
0.872612
1.077652
1.117587
1.032948
1.196861
1.391768
1.331568
1.613498
2.400875
11.045933
34.494996
107.777715
211.873651
436.195731
654.653907
968.271494
1015.829444
1015.829444
1015.829444
1015.829444
937.538743
627.608895
416.500568
207.246542
107.263923
41.611791
25.907755
34.075975
46.901703
70.401430
88.962913
113.376975
128.043890
137.766600
136.745572
121.820569
105.210543
77.849627
59.101582
39.225817
26.754737
17.171502
12.792945
10.632873
10.119677
10.150671
10.176897
10.922551
11.308789
12.258887
12.750626
13.301969
14.201999
15.031695
15.792847
15.992522
16.792417
17.473698
17.674565
17.990470
17.822981
18.245578
18.711686
18.925667
18.959641
19.252896
19.430518
19.556880
19.430518
19.334555
19.374490
19.608736
19.214749
19.235611
19.140840
19.295812
19.017458
19.082427
##ZVALUE=295
0.497699
0.494719
0.444651
0.607967
0.449419
0.670552
0.422597
0.506639
0.387430
0.492930
0.651479
0.570416
0.433922
0.496507
0.672936
0.693798
0.584722
0.685453
0.642538
0.718832
0.850558
0.887513
0.854731
1.133680
1.290441
1.272559
1.510978
1.631975
1.859665
3.823638
20.696521
60.493946
140.525699
331.811905
542.209744
864.996910
1015.829444
1015.829444
1015.829444
1015.829444
1015.829444
766.065717
526.500940
275.803804
150.132775
56.560636
27.707815
21.344423
28.947592
46.850443
63.963532
88.090897
107.285976
125.940442
132.667422
130.182505
120.036602
97.222924
79.952478
56.518912
41.233897
26.944876
19.632578
14.653802
12.176633
11.797547
11.953712
12.340546
13.193488
13.731718
14.383793
15.705824
15.935898
16.315579
17.116666
17.266870
17.731786
18.447638
18.183589
18.650889
18.454790
19.060969
19.607544
19.519925
19.142628
19.489527
19.900799
20.032525
19.797683
19.763708
19.655824
19.100904
19.233823
18.964410
18.789768
19.007921
##ZVALUE=300
0.421405
0.512600
0.517964
0.510812
0.539422
0.646710
0.538826
0.398755
0.346899
0.620484
0.416636
0.502467
0.588894
0.529885
0.462532
0.513792
0.489950
0.762939
0.627637
0.552535
0.883937
0.908971
0.791550
0.762939
1.029968
1.098514
1.211762
1.083612
1.228452
1.455545
1.714826
1.981854
6.025434
36.830902
91.916919
240.471959
413.164496
713.927746
954.469442
1015.830636
1015.830636
1015.830636
1015.830636
906.426907
660.768747
362.194777
217.018723
96.318722
45.773983
17.760992
17.734766
27.833581
38.615465
59.737563
79.310536
104.367733
118.146539
127.159953
127.765536
114.236474
99.832416
76.528788
60.901642
42.058825
30.147433
19.729733
16.251802
13.902783
13.437867
14.263988
15.320778
15.385747
16.158819
16.453862
17.389655
17.728806
18.204451
18.598437
18.704534
19.125938
19.445419
19.392967
19.557476
19.429922
20.143986
19.802451
20.480752
20.185709
20.455718
20.077825
20.346642
19.413829
19.388795
19.435883
19.387603
19.299984
##ZVALUE=305
0.293851
0.336766
0.417829
0.452995
0.459552
0.371933
0.404716
0.467896
0.551939
0.432730
0.480413
0.372529
0.501871
0.545979
0.503659
0.562668
0.490546
0.437498
0.603795
0.570416
0.614524
0.417829
0.576973
0.833869
0.991821
0.826716
0.892878
0.974536
1.026988
1.106858
1.046658
1.548529
1.473427
1.782775
3.649592
20.954609
60.903430
177.710652
322.642922
600.818992
841.625929
1015.829444
1015.829444
1015.829444
1015.829444
994.449854
785.353780
493.256450
306.209922
142.120719
69.190860
24.313927
14.681816
17.579794
25.194883
40.860772
57.052970
80.685616
98.311901
114.294887
121.462941
120.393634
113.162994
96.077919
79.095960
58.675408
43.701530
30.414462
22.348762
17.609596
16.289949
15.912652
15.848875
17.418861
17.431974
17.848611
18.484592
18.541813
19.119978
19.157529
20.102859
20.439625
20.054579
20.745993
20.654798
20.310879
21.083951
20.845532
20.680428
20.580888
20.651817
20.185709
20.378828
19.830465
19.462705
19.926429
##ZVALUE=310
0.363588
0.294447
0.375509
0.498891
0.488758
0.498891
0.452995
0.470877
0.475645
0.505447
0.347495
0.450611
0.428557
0.258684
0.537634
0.580549
0.374913
0.500679
0.616908
0.518560
0.612736
0.638962
0.505447
0.721812
0.710487
0.562668
0.801682
0.894666
0.860691
0.947714
0.787973
1.079440
1.098514
1.279712
1.587868
1.705885
1.906753
8.725524
30.941963
108.385682
218.389630
456.419587
698.160529
999.019742
1015.829444
1015.829444
1015.829444
1015.829444
977.462530
651.739836
432.747602
216.187835
114.660859
40.416718
17.900467
12.087822
15.496612
23.656487
34.021735
52.833557
68.911910
91.158748
106.135607
114.894509
116.723776
108.394623
96.482635
77.387691
60.353875
43.058991
32.924414
24.757981
20.876527
18.456578
18.157959
18.351674
19.139647
19.003749
19.107461
19.672513
20.165443
20.460486
20.982623
21.213889
21.016598
21.270514
21.140575
21.248460
21.187663
20.905733
21.375418
20.920634
21.130443
20.725727
20.174980
20.278692
##ZVALUE=315
0.188947
0.297427
0.239611
0.365973
0.340939
0.435710
0.436902
0.396967
0.555515
0.401735
0.372529
0.445843
0.355840
0.463724
0.572801
0.536442
0.394583
0.434518
0.500679
0.562668
0.481606
0.600815
0.642538
0.716448
0.683665
0.603795
0.893474
0.714660
0.933409
0.828505
0.913739
0.793934
1.101494
1.003742
0.955462
1.312494
1.293421
1.532435
1.928806
4.217625
15.595555
68.958998
153.586864
350.922942
573.813915
925.886035
1015.829444
1015.829444
1015.829444
1015.829444
1015.829444
792.278647
555.640459
292.991400
157.743692
57.162642
24.480820
11.783838
11.680722
15.597939
21.274686
34.600496
47.870874
67.863464
84.916949
102.092624
109.990835
111.759901
106.060505
90.980530
78.531504
59.872866
45.943856
32.809973
26.573539
21.473765
20.001531
19.545555
19.275546
19.710660
19.901991
20.724535
21.254420
20.414591
21.646619
21.483898
21.709800
21.762848
21.571517
21.225810
21.195412
20.856857
20.682812
21.063685
20.633936
20.651817
##ZVALUE=320
0.385642
0.397563
0.304580
0.463724
0.225902
0.151992
0.297427
0.367761
0.270605
0.396967
0.412464
0.392795
0.372529
0.604987
0.446439
0.353456
0.267625
0.579953
0.346899
0.529885
0.364780
0.517964
0.524521
0.656843
0.574589
0.735521
0.743866
0.780821
0.769496
0.781417
0.804663
0.870824
0.813603
0.793934
0.808835
0.961423
1.027584
1.062751
1.186728
1.391768
1.763701
2.222657
6.863475
39.191842
98.958611
258.226991
435.654521
739.044547
983.904600
1015.829444
1015.829444
1015.829444
1015.829444
950.650573
694.319606
385.417938
216.143727
86.180568
39.231777
15.124679
10.672808
11.330843
14.322996
21.170974
30.205846
47.674775
62.438846
81.628561
95.343590
107.563734
107.522607
101.763606
93.046427
74.514747
60.302615
43.735504
35.864711
27.559996
23.486614
20.956993
20.387769
20.692945
21.082759
20.894408
21.630526
21.795630
21.796823
21.332502
21.618605
21.789670
21.526814
21.401644
21.245480
20.638704
20.990968
20.929575
##ZVALUE=325
0.270605
0.337958
0.371933
0.422597
0.361800
0.471473
0.391603
0.393987
0.185966
0.308752
0.432730
0.303984
0.376701
0.313520
0.376701
0.395775
0.379682
0.488758
0.468493
0.494719
0.360608
0.421405
0.537634
0.500679
0.373721
0.524521
0.474453
0.603795
0.717640
0.619888
0.506639
0.600815
0.632405
0.745654
0.763535
0.813603
0.888705
1.181960
0.918508
1.127720
1.346469
1.449585
1.552701
1.753569
3.514886
24.149418
65.264702
176.151991
322.109461
610.103011
852.385759
1015.829444
1015.829444
1015.829444
1015.829444
999.783874
786.728859
482.957959
294.265747
127.150416
60.411692
20.121932
11.609793
10.316968
11.563897
14.968514
20.615458
32.201409
44.108629
62.408447
77.671409
93.486905
101.343989
102.590919
98.967552
85.513592
73.338747
56.840777
45.347810
33.527613
28.180480
23.244619
21.981001
21.281838
21.555424
21.551847
21.495819
21.770000
21.967888
21.544695
21.447539
21.424890
21.354556
21.236539
20.791888
21.039844
##ZVALUE=330
0.219941
0.295639
0.119805
0.280738
0.435710
0.252724
0.139475
0.167489
0.303984
0.411868
0.508428
0.153780
0.388622
0.423789
0.432730
0.426769
0.525713
0.420809
0.407696
0.357628
0.316501
0.412464
0.532866
0.455976
0.360608
0.381470
0.363588
0.417829
0.459552
0.407696
0.703931
0.638962
0.640750
0.654459
0.584722
0.711679
0.743866
0.746846
0.800490
0.859499
0.851750
1.072884
1.042485
1.168847
1.282692
1.616478
2.135634
8.117557
42.818785
104.438663
255.137682
433.312654
742.585659
980.075598
1015.829444
1015.829444
1015.829444
1015.829444
887.211561
647.512674
361.523628
203.444958
81.680417
37.007928
13.282895
10.607839
10.844469
11.824965
15.907884
21.625757
32.699704
43.902993
60.444474
73.975921
89.298487
96.120834
97.781420
94.045997
81.427693
70.277452
54.650903
44.245720
34.650564
29.270649
24.403930
22.358894
21.834970
21.298528
21.070838
20.835996
20.831823
21.006465
20.494461
20.434856
20.515919
20.531416
##ZVALUE=335
0.275970
0.206828
0.186563
0.365973
0.311732
0.330806
0.310540
0.307560
0.216961
0.351667
0.524521
0.494719
0.384450
0.252724
0.325441
0.411868
0.476837
0.233650
0.334978
0.182986
0.450611
0.394583
0.584722
0.486970
0.437498
0.485778
0.488758
0.534654
0.526905
0.431538
0.524521
0.634789
0.408888
0.574589
0.561476
0.567436
0.766516
0.678897
0.812411
0.631809
0.829697
0.982881
0.984669
0.970960
1.090765
1.198649
1.206994
1.326799
1.735687
4.489422
17.614961
72.140694
153.841972
348.015428
565.394759
894.163847
1015.829444
1015.829444
1015.829444
1015.829444
1001.706719
704.326034
476.740599
246.719718
128.534436
44.009686
19.309521
11.390448
10.979772
11.606812
13.098717
16.112924
21.281838
31.894445
42.094588
59.150457
70.450902
84.822774
92.326999
93.702674
89.781880
77.837706
68.116784
54.486990
43.843985
34.289956
28.820634
23.943782
22.306442
21.122694
20.677447
19.945502
20.223856
19.895434
19.925833
19.558668
##ZVALUE=340
0.320673
0.251532
0.325441
0.412464
0.330806
0.364780
0.448823
0.492930
0.440478
0.278950
0.355840
0.187755
0.263453
0.481606
0.505447
0.506639
0.359416
0.454783
0.418425
0.400543
0.618696
0.449419
0.406504
0.539422
0.643730
0.557899
0.487566
0.653863
0.490546
0.524521
0.700951
0.589490
0.638962
0.584722
0.667572
0.688434
0.768900
0.667572
0.794530
0.917912
0.881553
0.741482
0.841618
0.847578
0.744462
0.984669
1.140833
1.084805
1.366735
1.515746
1.725554
2.530813
8.385777
43.646693
110.413432
279.020667
471.944809
776.616931
995.799899
1015.941501
1015.941501
1015.941501
1015.941501
812.989473
574.006438
296.374559
165.950656
67.665577
28.145909
12.456775
11.270642
11.541843
12.043715
13.823509
16.736984
23.158789
29.948950
42.443871
54.041743
70.591569
80.937743
87.792873
89.387894
84.751844
76.932907
65.570474
54.847598
42.915940
35.197735
27.954578
23.791790
21.049976
20.100474
19.733906
19.774437
19.313693
##ZVALUE=345
0.186563
0.248551
0.229478
0.174642
0.392795
0.263453
0.271797
0.284910
0.144839
0.303984
0.437498
0.094771
0.173450
0.215769
0.301600
0.305772
0.520945
0.380874
0.315905
0.314713
0.298619
0.358820
0.285506
0.345707
0.450611
0.328422
0.245571
0.322461
0.256896
0.489950
0.274777
0.406504
0.461936
0.640750
0.451803
0.495911
0.383854
0.626445
0.527501
0.495911
0.581741
0.639558
0.524521
0.617504
0.656843
0.832677
0.808835
0.861883
0.976920
1.012683
1.062751
1.160502
1.397729
1.818538
3.753901
24.344921
70.441961
190.649033
343.588591
629.583597
867.689848
1015.829444
1015.829444
1015.829444
1015.829444
910.766721
679.515004
399.538875
225.676894
89.689493
41.439533
16.041994
11.575818
11.319518
11.561513
12.208819
13.431907
16.270876
20.232797
29.258728
38.815737
53.083897
63.405633
74.580908
80.192685
82.531571
80.220699
72.467923
63.942671
51.278472
43.159723
32.455921
27.346611
22.258759
20.655990
19.277930
##ZVALUE=350
0.303984
0.308752
0.360608
0.256896
0.301600
0.325441
0.425577
0.139475
0.254512
0.312924
0.269413
0.316501
0.268817
0.209808
0.351667
0.298619
0.307560
0.263453
0.353456
0.267625
0.214577
0.336766
0.386834
0.235438
0.434518
0.365973
0.322461
0.478625
0.385642
0.443459
0.519753
0.443459
0.505447
0.527501
0.575781
0.601411
0.440478
0.682473
0.453591
0.488758
0.760555
0.743866
0.646710
0.697970
0.721812
0.561476
0.828505
0.661612
0.813603
0.994802
0.934601
1.050830
0.950694
1.125932
1.359582
1.531839
2.561808
9.076595
43.941736
106.063485
265.666842
450.783968
754.877925
982.779860
1015.839577
1015.839577
1015.839577
1015.839577
740.060806
498.941541
250.173807
137.690902
53.936839
23.020506
11.698604
10.652542
10.980964
10.898709
11.584759
12.744665
15.673637
19.359589
26.345849
34.231544
46.322942
55.225492
67.143440
72.281957
75.761676
74.403882
67.305565
60.107708
48.612952
40.583611
31.134486
26.187897
##ZVALUE=355
0.198483
0.263453
0.307560
0.238419
0.316501
0.257492
0.229478
0.269413
0.391603
0.198483
0.164509
0.158548
0.386834
0.438690
0.260472
0.189543
0.138879
0.340939
0.436902
0.332594
0.299811
0.292659
0.466704
0.413656
0.269413
0.309944
0.454783
0.399947
0.337958
0.513792
0.455976
0.341535
0.419617
0.264645
0.517964
0.467896
0.503659
0.547767
0.482798
0.337958
0.648499
0.429749
0.675917
0.632405
0.594854
0.545979
0.644922
0.859499
0.784993
0.771880
0.748634
0.955462
0.955462
0.833869
1.193881
1.152754
1.239777
1.412630
1.818538
5.802512
21.279454
84.294677
177.193880
378.686786
599.252582
932.247639
1015.824676
1015.824676
1015.824676
1015.824676
900.939703
593.757629
373.662710
167.102814
80.859661
25.745630
12.999773
10.310411
10.209680
10.383725
10.727644
11.652708
12.358427
14.679432
17.237663
23.504496
30.216575
40.801764
48.921704
58.867931
64.964890
69.147944
68.482757
62.935948
56.467652
47.069788
##ZVALUE=360
0.436902
0.444651
0.477433
0.418425
0.408888
0.226498
0.321865
0.367761
0.398755
0.464916
0.477433
0.621676
0.370741
0.513792
0.474453
0.438690
0.425577
0.470877
0.375509
0.512600
0.316501
0.533462
0.541806
0.467896
0.461936
0.511408
0.657439
0.460744
0.493526
0.711679
0.644922
0.686646
0.626445
0.692606
0.684857
0.546575
0.539422
0.771880
0.484586
0.553727
0.618696
0.702739
0.456572
0.825524
0.808835
0.791550
0.795722
0.845790
0.841618
0.943542
0.885725
0.897646
1.018643
1.104474
1.032948
1.168847
1.204610
1.302958
1.250505
1.545548
1.809597
2.316833
11.218786
37.026405
123.962760
243.023634
484.810472
723.590851
1014.469862
1015.978456
1015.978456
1015.978456
982.220769
746.049881
440.453887
262.641907
112.407804
50.501823
16.125441
10.343790
9.999871
9.932518
9.986758
10.301471
10.664463
11.466742
13.185740
14.854670
20.465851
25.425553
34.230947
41.910410
51.850677
57.888627
61.810613
62.930584
##ZVALUE=365
0.192523
0.277758
0.374913
0.310540
0.294447
0.420809
0.282526
0.198483
0.357628
0.222921
0.185966
0.315905
0.469685
0.315905
0.127554
0.326633
0.427961
0.355840
0.255704
0.162721
0.387430
0.395775
0.294447
0.412464
0.257492
0.436902
0.441670
0.335574
0.398755
0.386834
0.350475
0.459552
0.361800
0.407696
0.268817
0.462532
0.451803
0.400543
0.512600
0.532866
0.433922
0.377893
0.404716
0.617504
0.607967
0.598431
0.437498
0.536442
0.598431
0.616908
0.662804
0.700951
0.751615
0.846982
0.958443
0.786781
0.826716
0.876784
1.025796
1.156926
1.311898
1.479983
1.672506
1.919866
4.091859
25.781989
69.524646
186.148882
346.257687
648.185611
879.814625
1015.829444
1015.829444
1015.829444
1015.829444
799.900889
567.518473
313.046575
168.544650
61.444640
25.159717
10.082722
8.865595
9.146929
8.993745
9.375811
9.241700
9.613633
9.865761
11.326671
13.000965
17.074943
21.507740
29.510856
36.504865
45.893788
##ZVALUE=370
0.229478
0.126958
0.338554
0.192523
0.224710
0.302792
0.247955
0.221729
0.212789
0.176430
0.314713
0.310540
0.211596
0.354648
0.156760
0.386834
0.283718
0.440478
0.332594
0.352859
0.371933
0.140667
0.365973
0.293851
0.330806
0.378489
0.316501
0.196695
0.470877
0.483990
0.448823
0.407696
0.360608
0.379682
0.404716
0.398755
0.349879
0.489950
0.506639
0.447631
0.444651
0.383854
0.362992
0.438690
0.561476
0.442863
0.520945
0.517964
0.535846
0.527501
0.588894
0.649691
0.583529
0.690818
0.746846
0.702739
0.609756
0.723600
0.731945
0.838637
0.978708
1.148582
1.228452
1.321435
1.554489
1.797676
2.439618
12.681484
44.180751
145.289898
274.538994
527.743697
768.466592
1015.827656
1015.827656
1015.827656
1015.827656
917.253494
668.789744
373.270512
209.323764
81.523657
37.666559
14.362931
9.164810
8.220673
8.028746
8.234978
8.420944
8.638501
8.691549
9.344816
9.928942
11.883974
14.729500
19.800663
##ZVALUE=375
0.192523
0.227690
0.291467
0.242591
0.298619
0.136495
0.172853
0.242591
0.290871
0.202656
0.278950
0.286698
0.164509
0.167489
0.449419
0.336766
0.135899
0.253916
0.300407
0.203848
0.349879
0.430942
0.229478
0.367761
0.357628
0.319481
0.345707
0.280738
0.277758
0.408888
0.518560
0.299811
0.391603
0.471473
0.397563
0.509620
0.371933
0.439882
0.436902
0.328422
0.412464
0.447631
0.488758
0.430942
0.420809
0.510812
0.334978
0.436902
0.472665
0.596642
0.478625
0.279546
0.448823
0.651479
0.749826
0.529885
0.653863
0.564456
0.757575
0.790954
0.621676
0.787973
0.757575
0.837445
1.118779
1.249909
1.320839
1.600981
1.779795
6.418824
22.450686
85.506439
184.919834
413.768888
643.864870
967.690945
1015.831828
1015.831828
1015.831828
1006.857753
790.845752
476.704836
298.415422
146.972537
72.969794
24.828911
11.055470
7.539988
7.528663
7.405877
7.596612
7.819533
7.549524
8.248687
8.378625
9.264946
##ZVALUE=380
0.119805
0.195503
0.130534
0.178814
0.276566
0.349879
0.169873
0.254512
0.225902
0.280738
0.338554
0.182986
0.234842
0.152588
0.127554
0.334978
0.217557
0.301600
0.289679
0.410676
0.290871
0.284910
0.254512
0.212789
0.430942
0.139475
0.162721
0.177622
0.213981
0.225902
0.399947
0.110865
0.330806
0.352859
0.313520
0.390410
0.206828
0.271797
0.321865
0.365973
0.387430
0.367761
0.289679
0.495911
0.461936
0.552535
0.394583
0.388622
0.293851
0.497699
0.463724
0.555515
0.383854
0.455976
0.496507
0.634789
0.353456
0.546575
0.566840
0.558496
0.575781
0.680685
0.673532
0.812411
0.849962
0.909567
1.135468
1.219511
1.257658
1.652837
1.889467
3.379583
13.068914
71.117878
173.640847
407.183766
638.436675
966.026783
1015.834808
1015.834808
1015.834808
1015.834808
939.698815
619.655848
406.930447
195.856690
101.812482
36.675930
15.743971
7.683635
7.135868
6.945729
6.908774
6.947517
7.431507
7.089972
##ZVALUE=385
0.178814
0.243783
0.274777
0.133514
0.083447
0.235438
0.195503
0.143647
0.201464
0.163913
0.362992
0.224710
0.194907
0.257492
0.271797
0.162721
0.238419
0.276566
0.352859
0.278950
0.234842
0.348687
0.356436
0.277758
0.277758
0.277758
0.071526
0.209808
0.455976
0.335574
0.282526
0.276566
0.363588
0.249743
0.208616
0.245571
0.412464
0.244975
0.342727
0.364780
0.371933
0.323653
0.300407
0.269413
0.392795
0.458956
0.429749
0.330806
0.375509
0.406504
0.350475
0.395775
0.457764
0.489950
0.370741
0.436902
0.485778
0.537634
0.589490
0.635982
0.609756
0.547767
0.716448
0.751615
0.814795
1.085997
1.027584
0.857711
1.109838
1.319647
1.316667
1.567602
1.623631
1.848936
7.018447
25.077462
100.642443
220.779777
481.178761
733.987689
1015.850902
1015.850902
1015.850902
1015.850902
1015.850902
837.100744
525.142550
329.213738
147.675872
71.783662
23.599863
10.058880
6.663799
6.321669
6.416440
6.407499
##ZVALUE=390
0.063777
0.202656
0.069737
0.194907
0.142455
0.042915
0.134706
0.115633
0.309944
0.274777
0.153780
0.218749
0.203848
0.296831
0.132918
0.106692
0.122786
0.229478
0.131726
0.157952
0.151992
0.213981
0.060797
0.182986
0.222921
0.181794
0.285506
0.233650
0.079870
0.153780
0.367761
0.213981
0.383854
0.140667
0.233650
0.303984
0.129938
0.365973
0.213981
0.398755
0.244975
0.253916
0.367761
0.395775
0.408888
0.338554
0.377893
0.240803
0.199676
0.480413
0.447631
0.294447
0.380874
0.395775
0.541806
0.300407
0.418425
0.439882
0.342727
0.337958
0.460744
0.707507
0.674725
0.413656
0.770688
0.678897
0.869632
0.995994
0.902414
1.250505
1.149774
1.140833
1.419783
1.447797
1.580715
1.729727
2.829432
16.871691
55.558681
176.012516
338.819623
647.071600
889.544487
1015.809774
1015.809774
1015.809774
1015.809774
980.447531
739.470720
443.151593
250.698924
100.106001
43.911934
12.436509
6.691813
5.961657
##ZVALUE=395
0.116825
0.305772
0.255704
0.173450
0.103712
0.223517
0.226498
0.116825
0.364780
0.241995
0.292659
0.211596
0.267625
0.158548
0.084639
0.234842
0.245571
0.151992
0.157952
0.148416
0.036955
-0.024438
0.105500
0.247955
0.232458
0.225902
0.228882
0.262856
0.277758
0.248551
0.381470
0.305772
0.190735
0.353456
0.283718
0.422597
0.271797
0.324845
0.295639
0.259876
0.293851
0.273585
0.267625
0.365973
0.131726
0.191927
0.459552
0.363588
0.274777
0.350475
0.460744
0.496507
0.415444
0.390410
0.405908
0.513792
0.308752
0.372529
0.353456
0.634789
0.562668
0.545979
0.476837
0.642538
0.633597
0.706911
0.748634
0.764728
0.952482
1.131892
1.047850
1.177788
1.106858
1.263618
1.293421
1.312494
1.440644
1.539588
2.046824
9.581447
36.423802
132.325888
257.102847
491.536856
731.111765
1015.830636
1015.830636
1015.830636
1015.830636
1015.830636
875.762701
533.355474
327.787995
139.541626
64.988732
20.616651
##ZVALUE=400
0.190735
0.213981
0.162721
0.153780
0.028610
0.214577
0.164509
0.067949
0.109673
0.156760
0.088811
0.069737
0.088811
0.322461
0.158548
0.207424
0.138879
0.145435
0.134706
0.236630
0.336766
0.167489
0.222921
0.287890
0.211596
0.338554
0.042915
0.122786
0.170469
0.309944
0.245571
0.140667
0.299811
0.064969
0.103712
0.319481
0.314713
0.345707
0.443459
0.199676
0.260472
0.369549
0.400543
0.160933
0.105500
0.305772
0.329614
0.269413
0.435710
0.455976
0.468493
0.241995
0.312924
0.289679
0.305772
0.476837
0.316501
0.425577
0.500679
0.456572
0.549555
0.428557
0.456572
0.506639
0.541806
0.586510
0.552535
0.708699
0.887513
0.988841
0.982881
1.031756
1.141429
0.982881
1.184940
1.223683
1.195669
1.231432
1.415610
1.331568
1.750588
5.312562
19.300580
73.538423
162.165761
372.132659
591.361523
921.990871
1015.830636
1015.830636
1015.830636
1015.830636
973.848701
637.191534
411.453843
204.374790
##END
