##TITLE=QP00301
##FORMAT=SPECTACLE-ASCII V-1.2
##DATA TYPE=ULTRAVIOLET SPECTRUM
##SECOND TYPE=ULTRAVIOLET SPECTRUM
##DATE=12/26/17
##TIME=12:49:52
##SPECTROMETER/DATA SYSTEM=SPECTACLE
##XUNITS=NM EM
##YUNITS=ENERGY
##YFACTOR=1
##FIRSTX=220
##LASTX=410
##NPOINTS=96
##3DDATA=Equidistant
##ZUNITS=NM EX
##FIRSTZ=210
##LASTZ=400
##ZPOINTS=39
##XYDATA=(Y..Y)
##ZVALUE=210
1.798868
1.691580
1.780987
2.020597
2.339482
2.176762
2.625585
2.622604
2.227426
2.417564
1.916885
1.949668
2.398491
1.638532
1.972914
2.558827
2.036691
2.183914
2.593994
2.563596
2.513528
2.749562
3.006458
2.894998
3.179908
3.322959
3.458858
3.415942
4.117489
3.954768
3.248453
3.784895
3.735423
4.073977
3.707409
4.773736
4.283786
4.461408
3.947616
3.688931
4.341602
4.401803
5.207658
4.717708
5.134940
4.962683
5.073547
5.092621
4.706979
4.783869
4.747510
4.791617
5.290508
5.079508
5.396605
5.154610
4.965663
5.044937
5.341768
5.015731
5.219579
5.693436
5.333424
4.875660
4.488826
5.629659
6.106496
7.396936
7.993579
9.676814
11.122823
11.729598
12.981892
14.464855
17.030835
16.924739
17.493963
16.910434
16.169548
15.112758
14.062524
13.364553
10.662675
10.355711
9.444952
8.339882
6.943941
5.437732
6.133914
6.067753
6.121993
5.854964
5.419850
5.604625
6.316900
6.989837
##ZVALUE=215
6.513596
7.005930
5.094409
4.867911
4.285574
4.455447
4.716516
5.108714
4.890561
4.842877
4.597902
4.055500
4.142523
3.675818
3.092885
2.802610
2.636909
2.479553
2.619624
2.972484
2.817512
3.000498
3.306866
3.290772
3.190637
3.432631
3.368855
4.079938
3.345609
3.765821
3.384948
4.611611
4.695654
4.521608
4.509687
4.630685
4.706979
4.575849
4.599690
4.376769
4.801750
4.779696
5.104542
5.170703
5.288720
4.782677
4.339814
5.293489
5.368590
5.590916
4.802942
6.500483
5.745888
5.433559
5.810857
5.362630
5.315542
5.854964
5.126595
5.469918
5.741715
6.103516
5.670786
6.064773
5.882978
6.356835
6.818771
6.582737
7.854700
9.585619
9.985566
12.479424
12.804866
14.136434
16.518831
15.425682
15.851855
14.628768
14.625788
14.638901
13.407469
12.285709
10.176897
9.561777
9.794831
7.612705
8.136630
7.172823
6.174445
5.896688
6.167889
6.013513
5.745888
5.492568
5.523562
5.502701
##ZVALUE=220
20.598769
20.795465
21.706820
20.908713
18.895864
15.675426
14.857650
11.035800
10.283589
10.464787
10.183454
10.972619
11.912584
9.763837
9.121895
6.903410
5.519986
3.512502
3.619790
3.734827
3.545880
3.486872
3.359914
3.266931
3.125668
3.239512
3.585815
3.854632
3.767610
4.246831
4.516840
4.381537
4.027486
4.134774
3.988743
4.384518
5.217791
5.002618
4.769564
4.001856
5.545616
5.250573
5.966425
5.402565
5.274415
5.595684
5.398989
5.529523
6.018877
5.527735
5.328655
5.937815
5.451441
6.028414
6.117821
5.251765
6.160736
6.139874
6.298423
6.342530
6.938577
6.233454
5.981922
6.561875
6.621480
7.898808
7.458925
7.995963
9.247661
8.686781
11.060834
11.841655
13.642907
16.292930
15.712976
16.633868
18.038750
16.796589
17.266870
15.771985
16.347766
13.736486
13.538599
10.857582
10.553598
9.278655
8.590817
8.219481
8.386970
7.490516
7.601976
6.758571
7.460713
7.356405
7.778406
7.777810
##ZVALUE=225
36.777854
37.064552
47.406554
62.902570
65.847635
67.848563
63.810945
51.235557
36.589503
30.842423
24.040937
23.274422
24.060607
25.205612
24.289489
24.449825
18.862486
16.335845
13.292432
8.081794
6.397963
4.127622
4.287958
4.522800
3.912449
3.381968
4.405975
4.253983
4.748702
4.076958
4.418492
4.237890
5.212426
5.084872
5.058646
4.402995
5.130768
5.771518
5.587935
4.972816
4.761815
6.021857
5.851984
5.228519
6.010532
6.312728
5.350709
5.673766
6.642938
6.441474
6.779432
5.753636
6.587505
7.786751
6.037951
6.851554
6.862879
7.153749
7.568598
7.156730
8.966923
7.926822
8.076429
8.819699
8.047819
9.565949
10.012984
10.384917
10.826588
12.232661
13.329983
14.430881
16.138554
16.887784
17.323494
18.368959
18.308759
19.782782
18.290877
18.118620
15.649796
16.736984
14.846921
13.651848
13.863444
12.655854
11.851788
11.015534
11.146665
11.256933
10.892749
10.112524
10.942817
11.084676
10.510683
10.484457
##ZVALUE=230
34.694672
36.782622
58.604479
94.948411
122.447610
150.432587
167.937875
169.499516
149.490833
134.045482
92.498660
67.178607
48.856735
46.821833
44.577718
46.142936
51.376820
47.427416
42.593479
32.804608
25.903583
18.492937
13.396740
7.629991
6.136894
4.692674
5.486608
4.422665
4.717708
5.119443
5.545616
6.202459
5.415678
5.446672
5.915761
5.992651
6.054640
6.440878
5.968809
6.572604
6.746650
6.774664
6.602407
7.551908
6.506443
6.878972
6.726980
6.855726
7.958412
6.558895
7.365942
7.627606
7.397532
7.571578
8.293986
7.678866
9.224415
8.969903
9.006858
8.679628
9.326935
10.050535
9.828806
10.848641
11.623502
11.625886
11.551976
13.109446
14.015436
16.472936
17.566681
17.719865
21.768808
21.118522
22.199750
23.615956
24.161935
24.294853
23.392439
22.646785
21.146536
19.387603
19.634962
19.654632
19.351840
16.897917
18.041730
18.108487
17.172694
18.078685
16.824603
16.598701
15.936494
15.623569
16.706586
14.732480
##ZVALUE=235
12.193918
14.312863
29.537678
67.500472
118.079782
185.059905
240.929723
308.468938
340.852737
339.793563
318.868756
239.824653
180.245638
121.256709
90.543628
73.627830
69.350600
76.829791
80.997944
81.154704
76.081753
68.890452
47.427416
35.303831
22.225976
15.264750
10.771751
6.846786
6.165504
5.948544
6.840825
6.301999
6.311536
5.501509
7.129908
6.952882
5.829930
6.728768
6.878972
6.900430
6.462932
6.397963
6.835461
6.698966
7.144809
7.281899
6.967783
7.796884
6.770492
7.709861
7.459521
7.470846
7.745624
8.666515
8.316636
9.013414
9.274483
9.758472
10.972619
11.096597
12.179613
11.597872
12.606978
13.772845
13.863444
14.695525
14.124513
17.364621
17.800927
19.679666
20.198822
22.759438
23.402572
28.853416
28.013587
28.915405
31.025410
30.296445
30.071735
27.345419
29.594898
26.455522
24.734735
24.425983
25.418997
24.303794
25.965571
24.972558
23.780465
25.734901
24.470687
23.671985
23.392439
23.357868
23.531914
23.764968
##ZVALUE=240
1.497865
1.540780
5.698800
18.139482
45.743585
85.598826
170.794725
254.670978
374.460816
453.386903
525.834560
519.944429
484.891534
387.400985
295.573473
189.911723
135.834813
99.028945
88.870525
94.136596
106.576681
111.211538
103.426576
95.432997
76.686740
60.507655
44.369698
30.933619
17.405748
13.126731
9.119511
6.364584
6.891489
6.568432
5.948544
7.018447
6.980896
6.409883
6.682873
7.351637
7.283688
6.768703
6.744862
6.820560
5.946755
7.222891
8.580685
7.893443
7.156730
7.286668
7.523894
7.061958
8.059740
8.136630
9.166598
8.570552
8.073449
9.375811
10.223985
10.354519
10.641813
11.180639
13.991594
12.216568
14.125705
14.519691
17.202497
17.208457
18.637776
19.834638
22.107959
24.069548
24.527907
28.139949
31.335950
32.371879
30.749440
29.642582
31.340718
29.649734
31.256676
29.888749
29.020905
31.001568
30.850768
29.383898
29.456615
30.827522
28.649569
28.508902
30.437708
26.819706
28.528571
27.554631
28.387904
26.884675
##ZVALUE=245
1.431704
1.389980
1.200438
1.286864
3.691912
11.069775
37.970543
80.259442
177.348852
277.884007
419.363976
522.131920
595.817566
631.991625
613.281727
514.973998
415.783525
284.307003
198.656917
121.659636
98.444819
91.052651
106.965899
118.348598
123.676658
118.754506
101.399422
87.893605
66.720843
49.846768
35.247803
19.943714
13.133883
7.568598
6.148815
6.637573
6.667972
5.942583
6.295443
6.326437
6.325841
6.001592
6.131530
6.092787
6.148815
6.217957
5.910993
6.965995
6.961823
6.338954
6.802678
7.637739
6.409883
7.033944
7.793903
7.615685
7.922649
9.406805
8.799434
9.920597
10.265708
9.939671
10.930896
12.275577
13.432503
14.221668
12.938976
15.330911
16.147494
17.508864
20.030737
22.426844
23.920536
26.250482
26.512742
29.655695
30.568838
30.161738
29.940605
28.594732
29.819608
28.806925
28.283596
28.104782
28.897524
28.002858
29.025674
27.535558
29.476881
27.257800
25.661588
27.078986
28.669834
29.576421
27.417541
26.450753
##ZVALUE=250
1.296997
1.199841
1.298785
1.274943
1.464486
1.938939
2.208948
8.431673
24.483800
58.442950
143.625736
246.961713
413.223505
527.851582
658.469796
717.394948
726.299882
656.275749
574.271679
401.892662
281.798840
160.890818
116.048455
89.860559
96.162558
116.504431
124.445558
130.774975
124.590993
115.289688
96.742511
74.013472
53.495765
32.571554
20.471811
13.074875
7.948875
6.381869
6.877780
6.209612
5.861521
5.660653
5.732775
6.394982
5.434752
5.649924
6.626844
6.788969
6.354451
6.058812
6.074905
6.731749
6.647706
7.242560
7.119775
6.260872
7.062554
7.325411
7.599592
8.065701
8.085966
8.864999
10.143518
10.188818
10.100603
11.866689
13.038516
13.187528
15.353560
16.378760
19.277930
20.340681
21.488667
22.434592
24.417639
24.468899
24.678707
25.950670
25.827885
25.890470
26.230812
25.285482
25.704503
26.395917
25.731921
26.085973
25.254488
24.886727
26.812553
26.284456
27.350783
26.130676
25.807619
25.884509
26.170611
26.696920
##ZVALUE=255
1.094937
1.351833
1.016855
1.033545
1.018643
1.224875
1.101494
1.412630
1.385808
4.111528
19.953847
50.286651
105.014443
223.339796
349.837542
541.759729
670.266747
800.983906
852.766037
807.181597
702.268481
558.231473
367.101431
235.531926
127.964616
92.223883
85.162520
96.679926
116.695762
132.543445
139.240623
133.459568
123.231411
96.478462
79.633594
52.253604
34.546852
19.839406
12.668967
7.364750
6.098747
5.631447
5.561709
5.922914
5.504489
5.364418
5.409718
5.798936
5.684495
5.863905
6.125569
5.692840
5.849600
6.297827
6.114841
6.374717
6.297827
6.458759
7.177591
7.268786
7.761717
8.028746
8.300543
8.674860
9.711981
10.308623
10.580420
12.152791
12.217760
13.831854
15.382767
16.314983
18.524528
18.824935
20.427704
21.366477
22.255778
22.641420
21.537542
22.563934
22.126436
23.318529
24.032593
22.517443
23.066998
23.105741
24.858713
24.299622
24.786592
23.798943
24.226904
23.572445
24.704933
24.415851
23.876429
25.017858
##ZVALUE=260
0.982881
0.888705
1.121759
1.029968
0.932813
1.176000
1.274943
1.283884
1.295805
1.494884
1.745820
2.296567
8.352399
35.028458
77.925920
185.989738
305.479765
499.081016
667.265654
860.833526
956.608653
969.334841
856.331587
711.622834
472.488999
321.806669
185.792446
115.885735
75.194836
79.565644
93.435645
117.026567
130.288601
141.164660
137.967467
121.810436
103.872418
77.274442
55.283904
35.016537
21.559596
13.365746
8.724928
5.881786
5.720854
6.138682
5.853772
6.123781
5.902648
5.424619
5.993843
5.477667
6.154776
6.265640
6.735921
6.751418
6.347895
6.621480
7.071495
6.832480
6.696582
8.035898
8.252859
8.537769
8.714795
9.340644
10.649562
11.411905
11.781454
13.774633
14.452934
15.339851
16.272664
18.096566
18.177629
18.370748
20.618439
20.162463
20.779967
20.833611
20.823479
20.940900
21.169782
21.003485
20.838976
22.249818
22.452474
22.049546
22.103786
22.963881
23.521781
21.785498
23.236871
23.741722
22.687912
23.487806
##ZVALUE=265
0.851750
1.030564
0.706911
0.875592
0.975728
0.847578
1.096725
1.114607
1.127720
1.217723
1.380444
1.358986
1.391768
1.600981
4.206896
22.904873
57.344437
142.030716
255.026817
475.785732
669.602752
855.935812
1015.897989
1015.897989
971.338749
829.623938
615.973473
436.255932
242.505670
147.671700
89.740753
64.391494
74.055791
104.192495
122.544765
140.429735
143.561959
139.386654
124.901533
102.194548
80.797672
54.953694
36.143661
21.634698
13.438463
8.327961
6.466508
6.289482
5.877614
5.929470
5.761981
6.144643
6.071925
6.617904
6.589890
6.357431
6.397963
6.323457
6.838441
6.665587
7.338524
7.377863
7.866621
7.874966
8.645654
9.512901
9.523630
10.460615
10.420680
12.054443
13.372898
13.890862
14.209747
15.478730
16.830564
18.241405
16.985536
17.634630
18.324852
18.389821
18.666983
19.348860
19.560456
19.076467
19.541979
20.449758
19.839406
20.649433
21.145940
21.247864
21.227598
21.186471
20.768642
22.027493
21.647811
22.387505
##ZVALUE=270
0.723600
1.080632
0.828505
0.893474
0.851750
0.983477
1.034737
1.026988
1.084805
1.023412
1.274943
1.141429
1.280904
1.530647
1.298785
1.736879
2.016425
10.057688
30.637980
129.904747
356.715918
383.033752
809.247494
830.568671
1008.718014
1015.897989
1015.897989
967.719555
752.112865
552.230477
378.522873
196.793675
109.968781
60.863495
72.970986
75.774789
115.429759
122.406483
138.412714
142.350793
139.711499
127.311945
101.367831
67.124963
55.238605
35.629869
23.272634
10.705590
8.907914
7.119775
6.784797
6.588697
6.402731
6.497502
6.804466
6.927848
6.871819
7.265806
7.433891
6.870627
7.642508
7.730722
8.347631
8.456707
9.073615
9.015799
10.138750
10.068417
11.349916
12.137890
12.720823
13.390779
14.773607
15.305877
15.858412
16.242862
16.988516
16.398430
18.532872
17.965436
17.830729
17.280579
17.509460
18.324852
19.248724
18.852949
18.874407
18.854737
19.894838
19.427538
19.133687
19.891858
20.314455
19.564629
20.619631
20.582676
##ZVALUE=275
0.611544
0.587702
0.732541
0.737906
0.791550
0.601411
0.787973
0.771880
0.868440
0.800490
0.996590
1.164675
1.166463
1.379848
1.334548
1.387596
1.415610
1.616478
1.831651
4.766583
18.472672
6.400943
156.825781
297.740698
556.566715
750.339627
982.419848
1015.897989
1015.897989
1015.897989
897.043943
704.680681
440.918803
273.195505
130.227804
73.437691
47.295690
52.956939
77.781677
96.812844
122.519732
135.519505
141.875744
138.990879
122.241974
104.013681
77.198744
58.658719
37.564635
24.236441
14.886856
10.703802
7.982850
7.054806
6.797910
6.694794
7.023811
7.610917
7.688999
7.938743
7.897615
7.957816
8.437634
8.624792
9.112954
9.655952
10.272861
10.521412
11.100769
11.923909
12.893677
13.632774
14.365911
15.583634
15.456676
16.615987
16.138554
17.021894
16.329885
17.420650
17.242432
17.667413
17.173886
16.993880
17.700791
17.486811
17.906427
18.249750
18.579960
17.892718
18.724799
18.508434
18.774867
18.595457
18.834472
18.939972
##ZVALUE=280
0.827909
0.755787
0.711679
0.801682
0.815988
0.809431
0.714660
0.608563
0.774860
0.944734
0.834465
0.924468
1.024604
1.236796
1.187921
1.201630
1.366735
1.400709
1.666546
1.455545
1.759529
2.551675
14.418960
43.316483
67.510009
250.597596
413.400531
692.042708
896.242857
1015.897989
1015.897989
1015.897989
1015.897989
810.382962
596.585870
343.356729
201.929808
87.757707
49.265623
39.730668
51.602721
76.296926
96.153617
122.287869
135.191679
141.680837
137.271881
121.356845
101.754665
77.360868
57.643652
35.657883
24.665594
15.034676
10.560751
8.297563
7.651448
7.550716
7.408857
8.183718
8.307695
8.618832
8.864999
9.450912
9.578466
10.199547
10.368824
11.042953
11.720657
12.023449
12.884736
13.968945
13.853908
15.327930
15.493631
16.357899
16.023517
16.255975
16.894937
16.829967
16.880631
17.291903
17.419457
17.287731
17.299652
17.552972
17.663836
17.860532
17.628670
17.607808
18.243790
18.134713
18.144846
17.807484
18.446445
18.414855
##ZVALUE=285
0.611544
1.023412
0.706911
0.637770
0.727773
0.661612
1.024604
0.815988
0.693798
0.803471
0.781417
0.699759
0.684857
0.804663
0.852942
1.113415
0.988841
1.253486
1.179576
1.426935
1.261830
1.659989
1.705885
1.843572
5.490780
20.004511
70.546865
150.924921
335.206985
538.454652
770.379901
1015.887856
1015.887856
1015.887856
1015.887856
984.351635
781.121850
478.339791
300.404429
141.020417
71.655512
35.409927
33.711791
49.037933
67.928433
95.180869
112.605691
131.696463
136.053562
134.214759
123.069882
101.646781
80.678463
56.308508
39.511919
23.865700
16.502738
10.844469
9.090900
8.494854
8.602738
8.845925
8.352995
9.133816
9.349585
9.697676
10.625720
11.316538
11.492968
12.762547
12.722611
13.792515
14.135838
14.868975
15.143752
16.050935
15.967488
16.264915
16.146898
15.968680
17.076731
17.147660
16.926527
17.252564
17.108917
17.261505
17.421842
18.018484
18.093586
18.165708
17.337799
17.554760
17.766953
17.399788
17.964840
17.820597
##ZVALUE=290
0.755787
0.941753
0.903606
0.884533
1.042485
0.862479
0.745654
0.914931
0.932813
0.945926
1.132488
1.022816
1.077652
0.994802
1.176596
1.147985
1.226664
1.354814
1.391768
1.237988
1.188517
1.034737
1.645684
1.643896
1.869798
2.027750
2.902746
8.470416
41.763783
95.319748
234.493017
405.168533
708.487034
967.875719
1016.112566
1016.112566
1016.112566
1016.112566
875.977874
653.759837
382.679701
228.043795
98.559856
48.528910
25.712848
30.274987
47.344565
63.184500
88.017583
107.730627
126.773715
132.634640
129.731894
119.641423
99.971890
80.800653
54.632425
39.560795
25.340915
18.041730
12.292862
10.380745
9.402633
9.600520
9.749532
10.573864
11.155605
11.153817
12.015700
12.794733
13.140440
13.880730
14.587641
15.146732
15.742779
16.814470
16.075969
16.382933
16.689897
16.909838
16.934872
16.482472
17.337799
16.845465
17.660856
17.609596
17.980933
18.126965
17.410517
17.680526
17.523766
17.381907
17.851591
17.459989
17.958879
17.116666
##ZVALUE=295
0.550747
0.625849
0.549555
0.731945
0.804663
0.748634
0.726581
0.766516
0.743866
0.660419
0.647902
0.637770
0.836849
0.813603
0.814795
0.704527
0.933409
0.778437
0.643730
0.997782
1.137853
1.190901
1.099706
1.373887
1.349449
1.267791
1.471639
1.546741
1.953840
3.673434
19.849539
59.618950
140.512586
344.777703
566.318035
915.678740
1015.897989
1015.897989
1015.897989
1015.897989
1015.897989
782.222748
529.735684
274.994969
150.251985
57.033896
28.153658
20.787716
27.811527
43.317676
58.727860
83.796978
100.945830
120.335817
126.999617
123.977661
116.291642
93.380809
76.978803
55.042505
41.216612
25.752783
18.521547
13.480783
11.491776
10.536909
10.690689
11.530519
11.996627
12.623668
13.339520
14.255643
14.757514
15.580654
15.268922
16.771555
16.723871
16.509891
16.880631
17.172694
17.566681
17.747879
17.476678
17.709732
17.664433
17.953515
17.461777
18.432736
18.081665
17.721653
17.509460
17.328858
17.180443
17.220974
17.281771
17.576814
##ZVALUE=300
0.569820
0.627637
0.540614
0.605583
0.446439
0.655651
0.739694
0.636578
0.658631
0.660419
0.682473
0.780821
0.607967
0.658631
0.760555
0.833869
0.759959
0.854731
0.650883
0.825524
0.959635
0.956655
0.892878
1.011491
1.013875
1.118779
1.262426
1.326799
1.525879
1.625419
1.902580
2.146959
8.266568
31.491518
110.203624
221.345425
464.654565
716.926455
1015.897989
1015.897989
1015.897989
1015.897989
1015.897989
990.010500
654.059649
426.647663
208.264589
109.079480
38.503408
19.163489
17.538667
24.719834
38.790703
53.807497
76.761842
93.976855
114.767551
120.792985
119.573474
112.487674
93.149543
77.491403
54.320693
41.444898
27.825832
20.364523
14.874935
12.918711
12.751818
12.930632
13.094544
13.889670
14.914870
15.375614
16.058683
16.282797
16.335845
16.339421
16.873479
17.173886
17.440915
17.852783
17.539859
17.939806
18.071532
18.291473
18.544793
18.400550
18.497705
18.415451
17.955899
18.184781
17.988682
17.832518
17.246604
17.716885
##ZVALUE=305
0.692606
0.586510
0.658631
0.694990
0.629425
0.630617
0.649691
0.489950
0.626445
0.518560
0.699759
0.698566
0.504851
0.535846
0.740886
0.617504
0.763535
0.778437
0.996590
0.685453
0.751615
0.921488
1.147985
0.974536
0.762939
1.205802
1.069903
1.308918
1.205802
1.289845
1.692772
1.534820
1.444817
2.029538
3.666878
20.038486
59.608817
176.174641
323.672891
613.311529
877.110958
1015.897989
1015.897989
1015.897989
1015.897989
1014.673710
813.224912
508.829951
311.916471
137.162805
67.400932
23.465753
13.986826
16.852617
23.333430
37.967563
53.237677
74.553490
90.744495
108.656883
115.524530
113.957524
107.533932
91.416836
75.168610
54.171681
41.132569
28.602481
21.442771
16.771555
15.323758
14.611483
15.228987
15.834570
16.368628
16.858578
16.703606
17.706752
17.315745
17.501712
18.136501
18.016696
18.442869
18.785000
18.865466
19.240975
18.938780
18.956661
18.750429
18.951893
18.727779
18.595457
18.293858
17.775893
17.811656
17.664433
##ZVALUE=310
0.452995
0.560880
0.660419
0.595450
0.533462
0.595450
0.463724
0.382662
0.509620
0.647902
0.547767
0.535846
0.627637
0.606775
0.594854
0.655651
0.710487
0.586510
0.774860
0.730753
0.620484
0.897646
0.751615
0.910759
0.980496
1.029968
0.793934
0.996590
1.140833
0.904799
1.088977
1.108646
1.379848
1.385808
1.509786
1.719594
2.293587
8.484721
30.822754
109.009743
220.614672
465.427637
718.827844
1015.897989
1015.897989
1015.897989
1015.897989
1015.897989
1000.120640
687.726736
450.849533
219.100714
113.176703
40.688515
17.150640
11.514425
14.842749
22.129416
32.017827
49.225688
64.057708
86.004734
98.807812
109.371543
111.467838
103.239417
92.983842
74.465871
59.442520
42.215586
32.091737
23.379922
19.816756
17.170906
16.750693
16.806722
17.042756
17.328858
17.132759
18.162727
18.345714
18.785000
18.781424
19.737482
19.539595
19.396544
19.125938
19.653440
19.139647
18.545985
18.849969
18.392801
18.903613
18.317699
18.389821
18.428564
##ZVALUE=315
0.514984
0.635982
0.570416
0.428557
0.495911
0.528693
0.563860
0.535846
0.562668
0.665784
0.516772
0.598431
0.610948
0.521541
0.607967
0.564456
0.442863
0.709891
0.737906
0.556707
0.668764
0.708699
0.755787
0.746846
0.942945
0.888705
0.845790
0.898838
0.851750
0.945926
1.075864
1.092553
1.143813
1.278520
1.250505
1.309514
1.335740
1.793504
2.090931
3.810525
14.898777
66.771507
151.709914
353.094935
579.416752
947.242975
1015.893817
1015.893817
1015.893817
1015.893817
1015.893817
865.655541
607.020855
309.345722
165.961981
57.834983
24.454594
11.319518
11.169910
14.817715
20.009875
32.580495
44.605732
64.234734
78.760982
96.531510
104.073882
106.563568
101.558566
86.717606
74.215531
57.301521
44.417977
31.696558
25.256872
20.396709
18.743873
18.007755
18.006563
18.368959
18.247962
18.633604
19.055605
19.543767
19.317865
19.766688
19.210577
19.680858
19.511580
19.238591
19.570589
19.831657
19.304752
19.081831
19.185543
18.557906
##ZVALUE=320
0.332594
0.470877
0.510812
0.480413
0.492930
0.586510
0.539422
0.456572
0.511408
0.381470
0.566840
0.416636
0.448823
0.598431
0.430942
0.538826
0.501871
0.456572
0.496507
0.516772
0.554919
0.610948
0.753999
0.530481
0.698566
0.692606
0.779629
0.651479
0.827909
0.865459
0.969768
1.030564
1.034737
0.897646
1.043677
1.142621
1.277924
1.455545
1.566410
1.674891
1.895428
2.447963
7.376671
39.343834
102.638602
269.593596
454.193950
776.678920
1005.906463
1015.851498
1015.851498
1015.851498
1015.851498
979.113579
717.501640
395.344496
217.786431
85.714459
39.117932
14.679432
10.086894
11.415482
13.470650
19.601583
28.136969
43.590665
58.624744
75.946450
89.813471
100.338459
102.693439
98.380446
89.051723
71.175694
58.545470
42.327642
33.458471
25.696754
21.873713
19.560456
18.859506
19.137859
19.368529
19.658804
19.418597
19.988418
20.141602
19.477606
19.660592
19.780993
19.817948
18.922687
19.203424
18.728971
19.165874
19.526482
##ZVALUE=325
0.530481
0.427961
0.502467
0.351667
0.461936
0.595450
0.609756
0.636578
0.519753
0.514984
0.500679
0.485778
0.683665
0.558496
0.607967
0.725985
0.569820
0.472665
0.618696
0.471473
0.552535
0.614524
0.772476
0.709891
0.773668
0.767708
0.889897
0.825524
0.780821
0.897646
0.931621
0.972748
0.830889
1.101494
1.039505
0.880957
1.160502
1.091957
1.074672
1.354814
1.484752
1.526475
1.912713
1.970530
4.223585
26.493669
73.105693
198.474526
353.244543
652.859807
927.971601
1015.920639
1015.920639
1015.920639
1015.920639
1015.920639
839.189887
505.249500
302.161574
127.482414
59.797764
19.657612
11.922717
10.525584
11.198521
14.643669
19.438863
29.640794
42.313933
59.823990
74.112415
88.548660
96.633434
97.658634
94.096661
80.848932
69.883466
54.226518
42.967796
31.747818
26.140809
22.285581
20.756721
19.995570
20.142794
19.875765
19.369721
19.373894
19.809604
20.052791
19.834638
19.182563
19.589663
19.746423
19.037724
19.247532
##ZVALUE=330
0.432730
0.465512
0.475645
0.444651
0.536442
0.442863
0.574589
0.423789
0.592470
0.442863
0.553727
0.538826
0.675917
0.561476
0.608563
0.552535
0.389814
0.465512
0.518560
0.570416
0.507832
0.583529
0.663996
0.563860
0.618696
0.728965
0.879765
0.691414
0.712872
0.753999
0.721812
0.752807
0.752807
0.816584
0.737906
0.803471
0.825524
0.996590
1.033545
1.075864
1.110435
1.331568
1.527667
1.521707
1.593828
1.960993
2.449751
10.568500
35.017729
120.253563
236.067772
476.048589
708.128810
1007.905602
1015.897989
1015.897989
1015.897989
1015.897989
970.003009
618.733764
390.676856
179.522634
88.445544
30.980706
14.853477
10.228753
10.328889
11.922717
14.844537
20.966530
28.455853
42.205453
54.878592
72.310567
84.590912
92.514753
93.552470
88.827610
80.021620
64.882636
53.752661
40.183663
32.543540
26.180744
22.725463
21.113753
20.144582
19.719601
19.726753
19.197464
19.366741
19.223690
19.362569
19.059777
18.587708
19.110441
##ZVALUE=335
0.431538
0.425577
0.487566
0.342727
0.400543
0.538826
0.529885
0.371933
0.310540
0.472665
0.360608
0.590682
0.541806
0.649691
0.653863
0.469685
0.494719
0.449419
0.656843
0.573993
0.520945
0.721812
0.565648
0.487566
0.679493
0.450611
0.605583
0.455976
0.665784
0.625849
0.611544
0.686646
0.812411
0.831485
0.701547
0.796914
0.910759
0.727773
0.844598
0.864863
0.927448
1.075864
1.089573
1.222491
1.336932
1.318455
1.477599
1.885891
2.019405
4.909635
18.286705
73.867440
159.059763
357.621908
586.057901
942.245722
1015.897989
1015.897989
1015.897989
1015.897989
1015.897989
837.205052
572.019815
301.024914
156.951547
49.581528
20.284653
11.392832
10.652542
11.051893
12.742877
15.581846
20.242929
30.290484
39.876699
55.935979
67.550540
79.957843
86.752772
88.524818
83.502531
74.169636
64.295530
51.320791
43.172836
32.803416
27.570724
22.739768
21.209717
19.483566
19.022822
18.771887
18.358827
18.637776
18.344522
18.420815
##ZVALUE=340
0.331998
0.499487
0.532866
0.335574
0.407696
0.548959
0.553727
0.495911
0.481606
0.387430
0.314713
0.433922
0.427961
0.406504
0.444651
0.524521
0.444651
0.518560
0.441670
0.474453
0.598431
0.405908
0.609756
0.562668
0.490546
0.649691
0.672936
0.531673
0.669956
0.599623
0.595450
0.510812
0.690818
0.603795
0.748634
0.662804
0.710487
0.652671
0.796914
0.691414
0.767708
0.698566
0.892878
0.982881
1.022816
1.069903
1.141429
1.379848
1.500845
1.557469
1.835823
3.016591
9.675622
50.931573
125.490427
306.829810
500.005484
813.967586
1015.897989
1015.897989
1015.897989
1015.897989
1015.897989
945.309997
692.983866
362.498760
202.195644
79.231858
30.419827
12.525916
11.020899
11.704564
11.837482
13.567805
16.066432
21.613836
28.627515
39.905906
51.320791
65.717697
75.651407
82.934499
83.941817
80.030560
72.873831
60.136914
51.223636
39.740801
32.799840
26.151538
22.386909
19.375682
18.599629
18.062592
17.858744
17.790794
##ZVALUE=345
0.485778
0.369549
0.448823
0.484586
0.435710
0.370741
0.409484
0.393987
0.595450
0.434518
0.516772
0.451803
0.384450
0.470877
0.418425
0.519753
0.457764
0.526905
0.527501
0.509620
0.440478
0.544786
0.379682
0.450611
0.504851
0.675917
0.529885
0.618696
0.688434
0.637770
0.600815
0.676513
0.776649
0.641942
0.627637
0.764728
0.904799
0.825524
0.759959
0.700951
0.791550
0.803471
0.810623
0.928640
0.769496
0.927448
0.918508
1.036525
1.051426
1.284480
1.211762
1.386404
1.632571
1.951456
3.940463
25.315881
72.193742
194.019675
349.044800
639.465451
883.556008
1015.897989
1015.897989
1015.897989
1015.897989
981.392860
741.866827
447.090864
256.698728
101.507902
44.493675
16.390681
11.579990
10.834932
11.088848
11.771917
12.745857
15.298724
19.310713
27.834773
37.009716
50.232410
59.510469
70.285797
76.222420
78.001618
75.540543
68.931580
60.838461
48.602819
40.480494
30.829906
25.268793
20.622611
18.659830
17.469525
##ZVALUE=350
0.430942
0.355840
0.448823
0.425577
0.523925
0.387430
0.394583
0.361800
0.381470
0.474453
0.497699
0.442863
0.391603
0.370741
0.561476
0.544786
0.379682
0.481606
0.513792
0.560880
0.516772
0.486970
0.420809
0.544786
0.499487
0.446439
0.489950
0.659823
0.458956
0.632405
0.621676
0.710487
0.642538
0.535846
0.570416
0.661612
0.715852
0.797510
0.738502
0.596642
0.690818
0.783801
0.695586
0.806451
0.696778
0.960827
0.921488
0.897646
1.073480
1.040697
1.124740
1.179576
1.282692
1.302958
1.553893
1.782775
2.378821
12.059808
41.266680
131.297708
252.072811
502.356887
736.206770
1011.873484
1015.897989
1015.897989
1015.897989
1015.897989
872.555971
531.546474
331.940651
156.461596
73.352456
21.814704
12.121797
10.536909
10.521412
10.717511
11.095405
12.470484
14.224648
18.933415
24.412870
33.537745
41.918755
54.233670
62.563419
69.710612
71.528554
70.199966
64.993501
54.927468
47.226548
37.497878
30.436516
24.044514
##ZVALUE=355
0.424981
0.506639
0.255704
0.384450
0.323653
0.432730
0.432730
0.438690
0.370741
0.476837
0.451803
0.492930
0.357628
0.420809
0.462532
0.446439
0.453591
0.336766
0.476837
0.608563
0.537634
0.396967
0.472665
0.519753
0.583529
0.437498
0.457764
0.488758
0.538826
0.549555
0.557899
0.500679
0.550747
0.591874
0.625849
0.599623
0.719428
0.616908
0.560880
0.666976
0.654459
0.619888
0.750422
0.759959
0.837445
0.680685
0.917912
0.960827
1.022816
0.919700
0.959635
1.115799
1.039505
1.161695
1.257658
1.343489
1.557469
1.765490
1.839995
5.532503
21.197796
86.655021
181.207657
387.781858
616.190434
955.651999
1015.899777
1015.899777
1015.899777
1015.899777
918.462873
622.002482
408.395529
189.910531
94.175935
28.334856
13.083816
10.079741
9.833574
10.247827
10.395646
10.727644
11.924505
13.849735
16.424656
22.421479
28.524995
38.099885
45.427680
54.934621
61.415434
64.570904
64.482689
59.433579
53.157806
44.029951
##ZVALUE=360
0.275970
0.472665
0.373721
0.344515
0.354648
0.245571
0.388622
0.393987
0.294447
0.521541
0.306964
0.495911
0.339746
0.376701
0.429749
0.413656
0.523925
0.554919
0.504851
0.548959
0.426769
0.504851
0.461936
0.453591
0.563860
0.435710
0.478625
0.489950
0.439882
0.551939
0.579953
0.596642
0.593662
0.641942
0.512600
0.538826
0.498891
0.553727
0.615716
0.571609
0.845790
0.618696
0.687838
0.703931
0.907779
0.896454
0.684857
0.847578
0.874996
0.897646
0.973940
0.894666
0.996590
1.090765
0.960827
1.243949
1.259446
1.337528
1.461506
1.535416
1.884699
2.481937
12.134910
39.841533
135.003924
258.684754
505.993962
740.041733
1015.897989
1015.897989
1015.897989
1015.897989
942.370892
712.862611
421.018600
254.340768
108.986497
49.621463
15.888810
9.905696
9.126663
9.347796
9.746552
9.973645
9.935498
10.631680
12.487769
14.188886
18.832684
23.820996
32.379627
39.561987
48.920512
54.521561
58.703423
58.903694
##ZVALUE=365
0.468493
0.419617
0.411868
0.359416
0.458956
0.502467
0.468493
0.398755
0.431538
0.491738
0.378489
0.391603
0.414848
0.510812
0.406504
0.364780
0.456572
0.388622
0.473857
0.375509
0.439882
0.368953
0.420809
0.491738
0.455976
0.570416
0.526905
0.598431
0.581741
0.599623
0.609756
0.607967
0.481606
0.385642
0.501871
0.626445
0.642538
0.731945
0.684857
0.672936
0.580549
0.557899
0.732541
0.680685
0.764728
0.750422
0.885725
0.937581
0.827909
0.770688
0.835657
0.826716
0.830889
0.887513
0.824928
1.096725
0.869632
1.027584
1.208782
1.454949
1.520514
1.647472
1.691580
2.201796
4.339814
25.507808
71.249604
194.422603
364.859700
677.757859
918.231010
1015.897989
1015.897989
1015.897989
1015.897989
807.338953
576.483607
321.494937
176.901817
66.219568
27.510524
10.503531
8.453727
8.834600
8.693933
8.968711
8.883476
9.202957
9.354949
10.768771
12.066960
15.860796
20.504594
27.581453
33.899546
42.609572
##ZVALUE=370
0.317693
0.435710
0.471473
0.521541
0.487566
0.312924
0.422597
0.480413
0.427961
0.551939
0.547767
0.410676
0.503659
0.543594
0.486970
0.516772
0.510812
0.398755
0.493526
0.410676
0.424981
0.529885
0.533462
0.498891
0.525713
0.441670
0.624657
0.439882
0.572801
0.548959
0.501871
0.560880
0.637770
0.502467
0.513792
0.661612
0.653863
0.757575
0.510812
0.742674
0.665784
0.637770
0.643730
0.511408
0.594854
0.738502
0.688434
0.834465
0.741482
0.712872
0.761747
0.778437
0.740886
0.819564
0.761747
0.907779
0.864863
1.009703
1.032948
1.140833
1.142621
1.267791
1.413822
1.556873
1.560450
1.991987
2.608895
13.403893
45.479536
156.037807
297.071934
567.230582
826.561451
1015.897989
1015.897989
1015.897989
1015.897989
953.382850
699.597001
386.784673
217.353702
86.362958
39.784908
14.968514
9.033680
7.842779
8.027554
8.039474
7.989407
8.192658
8.352995
8.730888
9.377599
11.212826
13.551712
17.772913
##ZVALUE=375
0.422597
0.300407
0.406504
0.310540
0.256896
0.421405
0.420809
0.359416
0.380874
0.345707
0.492930
0.587702
0.623465
0.439882
0.523925
0.580549
0.341535
0.493526
0.405908
0.409484
0.514984
0.414848
0.506639
0.307560
0.420809
0.405908
0.389814
0.438690
0.325441
0.303984
0.517964
0.551939
0.546575
0.530481
0.625849
0.611544
0.686646
0.603795
0.469685
0.522733
0.551939
0.555515
0.579953
0.575781
0.470877
0.648499
0.602603
0.708699
0.681877
0.695586
0.623465
0.597835
0.553727
0.604987
0.740886
0.695586
0.664592
0.919700
0.883937
0.933409
0.952482
1.039505
0.979900
1.083612
1.092553
1.385808
1.385808
1.597404
2.023578
6.573796
24.840832
95.315576
211.097598
474.760532
729.138851
1015.897989
1015.897989
1015.897989
1015.897989
1014.541388
802.235603
484.860539
298.456550
137.188435
70.032477
23.493767
10.479689
7.347465
7.427931
7.250905
7.311702
7.295609
7.462502
7.351637
7.816553
8.543730
##ZVALUE=380
0.453591
0.211596
0.402927
0.185966
0.339746
0.348687
0.254512
0.419617
0.400543
0.317693
0.280738
0.323653
0.384450
0.486970
0.445843
0.414848
0.363588
0.398755
0.344515
0.374913
0.434518
0.312924
0.429749
0.407696
0.389814
0.523925
0.430942
0.470877
0.440478
0.525713
0.500679
0.467896
0.558496
0.461936
0.479817
0.596642
0.424981
0.516772
0.483990
0.571609
0.507832
0.475645
0.579953
0.647902
0.590682
0.481606
0.608563
0.579953
0.578761
0.641942
0.561476
0.680685
0.430942
0.676513
0.696778
0.654459
0.742674
0.807643
0.750422
0.758767
0.993609
0.853539
0.944734
0.977516
1.045465
1.131892
1.212955
1.453757
1.297593
1.819730
2.142787
3.513694
12.407899
67.129731
161.538720
390.095711
625.769496
961.087942
1015.896797
1015.896797
1015.896797
1015.896797
872.134566
568.503737
369.990468
180.024505
93.188882
33.345819
14.660954
7.633567
6.788969
6.617904
6.671548
6.813407
6.787777
6.793737
##ZVALUE=385
0.493526
0.723600
0.597835
0.795722
0.458956
0.498891
0.629425
0.648499
0.636578
0.420809
0.550747
0.575781
0.568628
0.519753
0.556707
0.603795
0.656843
0.657439
0.603795
0.643730
0.584722
0.529885
0.686646
0.543594
0.509620
0.613928
0.700951
0.581741
0.527501
0.742674
0.473857
0.687838
0.688434
0.762939
0.723600
0.683665
0.675917
0.590682
0.689626
0.701547
0.778437
0.696778
0.737906
0.759959
0.701547
0.606775
0.669956
0.619888
0.756979
0.701547
0.849962
0.882745
0.816584
0.967979
0.871420
0.835657
1.004934
0.742674
0.850558
0.990629
0.980496
0.971556
0.994802
0.999570
0.903606
1.128912
1.233816
1.285672
1.444817
1.643896
1.801848
1.939535
2.023578
2.453923
6.038547
36.015511
99.656582
268.781781
486.302972
857.788920
1016.116738
1016.116738
1016.116738
1016.116738
1016.116738
789.363980
543.935895
289.290547
159.430504
64.428449
26.726723
9.038448
6.755590
6.367564
6.270409
6.560683
##ZVALUE=390
0.389814
0.487566
0.485778
0.606775
0.239611
0.494719
0.423789
0.449419
0.400543
0.310540
0.481606
0.398755
0.583529
0.444651
0.397563
0.518560
0.482798
0.348687
0.500679
0.448823
0.441670
0.424981
0.492930
0.554919
0.623465
0.427961
0.467896
0.371933
0.426769
0.525713
0.569820
0.594854
0.498891
0.540614
0.589490
0.376701
0.556707
0.494719
0.695586
0.635982
0.638962
0.786781
0.660419
0.632405
0.669956
0.508428
0.726581
0.650883
0.739694
0.828505
0.802875
0.821948
0.667572
0.623465
0.745654
0.661612
0.764728
0.708699
0.790954
0.767708
0.786781
0.776649
0.845790
0.874996
0.839829
1.028776
1.135468
0.973940
1.238585
1.482964
1.549721
1.654625
1.744628
1.758933
1.769662
2.027750
3.156662
17.086864
58.254600
190.717578
369.763970
707.719922
961.611867
1016.008854
1016.008854
1016.008854
1016.008854
943.443775
695.409775
407.420993
228.856802
90.706944
40.344000
11.984706
6.636977
5.845428
##ZVALUE=395
0.317693
0.237823
0.306964
0.297427
0.295639
0.287890
0.283718
0.273585
0.312924
0.440478
0.447631
0.377893
0.354648
0.370741
0.420809
0.293851
0.341535
0.304580
0.310540
0.236630
0.354648
0.294447
0.389814
0.397563
0.438690
0.386834
0.587702
0.474453
0.527501
0.511408
0.429749
0.395775
0.363588
0.408888
0.315905
0.498891
0.463724
0.446439
0.463724
0.463724
0.487566
0.518560
0.560880
0.512600
0.528693
0.456572
0.472665
0.476837
0.553727
0.628829
0.508428
0.528693
0.431538
0.477433
0.679493
0.569820
0.739694
0.778437
0.552535
0.677705
0.761747
0.735521
0.594854
0.759959
0.803471
0.758767
0.846982
1.006722
1.171827
1.368523
1.452565
1.558661
1.609921
1.395941
1.560450
1.374483
1.700521
1.852512
2.283454
10.655522
38.808584
140.021443
274.539590
528.478622
792.334676
1015.897989
1015.897989
1015.897989
1015.897989
1015.897989
879.467726
516.917706
309.148431
129.677653
59.774518
19.602776
##ZVALUE=400
0.415444
0.262856
0.334978
0.244975
0.324845
0.296831
0.324845
0.292659
0.254512
0.362992
0.358820
0.302792
0.307560
0.271797
0.433922
0.416636
0.428557
0.312924
0.308752
0.373721
0.271797
0.382662
0.142455
0.335574
0.376701
0.464916
0.439882
0.490546
0.459552
0.583529
0.434518
0.271797
0.418425
0.307560
0.472665
0.533462
0.414848
0.397563
0.559688
0.425577
0.418425
0.425577
0.470877
0.385642
0.476837
0.429749
0.493526
0.500679
0.619888
0.649691
0.471473
0.456572
0.583529
0.589490
0.538826
0.315905
0.493526
0.574589
0.529885
0.684857
0.509620
0.604987
0.569820
0.649691
0.642538
0.709891
0.818968
0.971556
1.116991
1.120567
1.427531
1.229644
1.215935
1.220703
1.276731
1.183748
1.212955
1.296997
1.381636
1.645684
2.056956
4.575849
25.633574
72.712898
202.324986
374.318957
684.427619
937.291980
1015.879512
1015.879512
1015.879512
1015.879512
934.324861
676.264763
371.395946
214.811563
##END
