##TITLE=SH702
##FORMAT=SPECTACLE-ASCII V-1.2
##DATA TYPE=ULTRAVIOLET SPECTRUM
##SECOND TYPE=ULTRAVIOLET SPECTRUM
##DATE=12/26/17
##TIME=17:15:52
##SPECTROMETER/DATA SYSTEM=SPECTACLE
##XUNITS=NM EM
##YUNITS=ENERGY
##YFACTOR=1
##FIRSTX=220
##LASTX=410
##NPOINTS=96
##3DDATA=Equidistant
##ZUNITS=NM EX
##FIRSTZ=210
##LASTZ=400
##ZPOINTS=39
##XYDATA=(Y..Y)
##ZVALUE=210
1.682639
2.131462
1.665950
1.719594
2.320409
2.435446
2.236962
2.542734
2.091527
2.541542
2.554655
2.916455
2.579689
3.282428
3.688931
3.634691
4.299879
4.132986
4.843473
4.786849
4.954934
5.459785
4.991889
5.881786
7.309914
6.575584
7.310510
7.287860
8.249879
8.494854
8.565784
8.777976
10.107756
9.909868
10.443926
9.534955
10.556579
11.324883
11.854768
11.931658
11.250973
13.433695
12.367964
13.105869
12.634993
13.487935
13.689995
14.844537
13.842583
15.700459
15.084743
16.085505
16.617775
17.014742
16.705990
17.773509
19.158721
19.322634
17.874837
18.928647
18.701553
18.989444
20.851493
19.457936
21.076798
24.110675
26.169419
31.218529
36.947727
42.173862
52.182674
63.162446
76.875687
83.640814
92.821717
96.291900
98.659992
98.775625
101.998448
100.076795
90.250969
82.048774
71.444511
65.984726
51.342845
43.526888
38.774610
36.646724
31.899810
29.048920
30.164719
29.614568
31.739473
30.026436
31.772852
31.542778
##ZVALUE=215
3.901720
3.587604
3.463626
3.285408
2.628565
2.814531
2.665520
2.961755
3.358722
4.005432
3.912449
4.583597
3.855824
3.402829
4.052520
3.151894
4.647970
3.551841
4.563928
4.911423
5.436540
5.321503
7.023811
6.185770
6.631613
6.084442
6.926656
8.152723
8.408427
8.254647
8.742809
8.111000
8.895993
9.463429
10.209680
9.642839
10.273457
10.730624
12.090802
11.731982
11.831522
11.896491
12.041926
14.915466
12.874603
14.499426
12.752414
13.642907
15.126467
15.485883
16.881824
15.263557
14.599562
16.355515
16.195774
16.814470
20.742416
18.600821
18.073916
18.515587
21.018982
22.308826
21.894574
21.910667
21.871924
23.384690
23.862720
28.540492
32.048821
39.861798
46.420693
57.040453
66.826940
76.973438
81.092715
90.862513
89.469552
91.405511
85.770488
82.633495
78.303814
67.552924
60.234666
51.386952
48.700571
40.176511
35.185814
34.304857
32.583475
30.561686
28.728843
29.812455
30.133724
31.923652
30.224919
31.329989
##ZVALUE=220
16.657710
16.465783
19.534826
18.891692
17.046928
14.660954
11.084676
8.361936
7.797480
7.035732
7.827878
7.517934
8.576512
7.579923
7.563829
6.944537
6.111860
5.164742
5.220771
4.145503
5.540848
5.265474
6.649494
6.174445
6.208420
7.212758
7.886887
7.533431
8.954406
7.473826
8.606911
8.966923
9.795427
9.184480
11.494756
11.025667
11.785626
12.252927
11.790991
13.511777
12.538433
13.264418
13.448596
14.423728
14.227629
14.442801
14.709830
15.914440
16.246438
15.715957
18.110871
16.811490
18.073916
19.138455
20.165443
18.776655
21.597743
20.937920
20.467639
22.085905
22.636652
24.148822
24.002790
25.272965
26.463866
25.862455
27.541518
30.665994
34.802556
42.388439
49.437881
62.628984
66.501498
75.943470
83.592534
85.960627
89.525580
86.064935
87.056756
83.585978
78.434944
71.509480
63.645840
58.228970
51.859617
45.332909
39.582849
37.545562
35.324693
34.605861
34.980774
34.235716
34.295917
32.697916
35.662651
36.827922
##ZVALUE=225
33.360720
36.712885
48.529506
67.456961
72.921515
77.481866
75.496435
60.635805
44.880509
33.054948
21.991730
18.753409
18.216968
19.412637
19.161701
19.032955
17.662644
14.359951
12.726784
9.687543
8.511543
7.678866
7.013679
8.183718
8.558631
9.360909
8.475780
10.935664
10.611415
11.647940
10.854602
12.322664
13.496876
12.974739
14.997721
14.933944
14.933944
13.981462
14.649630
16.298890
15.952587
16.943812
17.583966
18.483996
19.725561
20.400882
20.668507
21.960735
23.540854
23.273826
24.864674
24.338961
25.862455
27.730465
26.202798
28.951764
28.696656
28.562546
32.535791
30.684471
31.815767
30.478835
32.405853
34.043789
36.307573
38.154721
37.494898
42.587519
45.913458
53.224564
61.829686
68.072677
75.922608
88.021755
93.380809
93.082786
99.095702
97.445846
91.763735
90.165734
83.133578
77.213645
70.078969
62.101483
60.869455
51.229000
50.132871
49.456954
46.745539
46.519637
46.393871
45.577884
43.668747
45.897961
45.266747
44.981837
##ZVALUE=230
38.426518
40.532947
77.662468
117.805004
164.284706
222.896934
257.098675
270.262957
255.412459
213.872790
163.905621
101.487637
68.119764
43.819547
39.488673
39.342642
43.590665
41.906834
40.877461
31.277537
26.728511
19.823909
14.980435
12.451410
10.729432
9.908676
11.534691
12.008548
12.049675
13.071895
13.466477
14.291406
13.100505
15.883446
15.840530
17.217994
16.073585
17.787814
19.328594
20.856857
19.844770
20.410419
21.016598
22.358894
24.030805
23.307800
24.194717
25.763512
27.377605
29.568672
28.737783
29.037595
31.247735
31.765699
34.571886
35.796762
36.459565
38.132668
38.450956
38.255453
38.210750
39.830804
44.260621
42.435527
42.514801
42.902827
46.740770
50.364733
55.125952
60.617924
71.268678
77.955723
86.551905
91.052651
101.433992
104.572773
103.577971
103.969574
101.028681
96.937418
91.468692
86.597800
80.666542
77.009797
70.176721
67.164898
62.289834
59.297681
58.967471
59.652925
58.898926
59.181452
55.555701
56.773424
57.825446
59.569478
##ZVALUE=235
15.167594
16.795993
36.932826
93.721747
156.791806
257.788897
344.940424
467.543602
519.057512
524.707437
479.040742
391.982794
265.593529
192.018747
122.662783
86.893439
68.177581
68.753958
73.288679
72.353482
72.293878
59.386492
50.783753
36.196709
25.871992
16.609430
13.148785
11.807680
11.520982
11.297464
10.972619
11.913776
13.009906
13.136864
13.084412
13.943911
15.172958
16.897917
16.263723
16.499758
17.125607
19.075871
19.312501
21.091700
22.144914
24.066567
23.297668
23.697615
25.818944
27.229786
28.878450
28.177500
33.397675
31.785965
33.957958
36.176443
39.310455
40.514469
41.803718
41.958690
44.206977
47.151446
45.575500
49.994588
52.841902
55.404902
56.842566
62.546730
67.697763
73.412657
78.353882
89.422464
94.645619
104.723573
109.863877
113.907456
115.293860
113.832951
114.809871
105.698705
106.451511
100.974441
95.444918
90.411901
89.754462
91.420412
85.920691
84.325671
83.469748
84.121823
80.407858
82.697868
78.179836
79.966784
75.741410
75.750947
##ZVALUE=240
2.692938
2.438426
9.614825
23.960471
69.123507
138.090849
284.367800
424.304605
640.273690
776.637793
887.161493
882.445574
838.685036
679.980516
537.155867
335.579515
230.684876
138.998628
106.186867
94.187856
105.372667
105.817914
107.180476
96.926689
79.402924
63.915849
46.929717
35.768747
23.757815
16.675591
15.048981
13.833642
13.556480
14.805794
14.831424
15.250444
15.917420
17.226934
15.844703
17.345548
17.164946
19.323826
21.420717
21.045804
21.689534
23.425817
24.303794
25.721788
28.546453
27.517676
28.483868
32.773614
34.004450
35.594702
39.557815
39.142966
40.813684
43.940544
44.897795
47.970414
49.644709
51.657557
52.513480
55.714846
59.326887
60.807467
63.791871
72.147846
78.412890
85.723996
93.142986
103.699565
112.529993
122.793913
130.245686
134.196877
134.642720
133.913755
132.352710
129.910707
121.002793
122.744441
117.263794
114.832520
111.591816
107.968450
109.765530
108.779669
107.594728
104.736686
102.563500
105.803609
101.903677
103.300810
100.722909
101.593733
##ZVALUE=245
1.711845
1.885891
2.259612
2.296567
6.525517
21.004677
73.530674
148.604512
324.486494
500.375628
777.131915
981.131792
1015.829444
1015.829444
1015.829444
965.444446
781.026483
531.471968
364.446640
197.818875
128.484964
105.307698
111.536980
120.060444
124.698877
121.491551
109.727979
91.416836
69.473982
53.907633
40.207505
26.638508
20.556450
14.157891
15.136600
14.361739
14.816523
14.785528
15.880466
16.287565
16.652942
17.205477
17.970800
20.072460
20.887852
22.252798
24.097562
23.861527
24.206638
26.726723
28.636456
29.076934
29.018521
31.406879
34.658909
34.552813
35.138726
36.620498
38.543940
42.578578
41.671991
47.081709
48.359632
49.575567
52.559972
56.552887
62.177777
63.677430
68.206787
79.456568
84.424615
91.122985
102.895498
111.220479
114.551783
122.298002
122.026801
124.141574
124.318004
118.550658
116.723776
112.844706
113.569498
109.664798
107.317567
110.475421
107.734799
105.995536
103.991628
105.154514
101.612806
105.865002
102.869868
100.817680
99.028945
100.075603
##ZVALUE=250
1.385808
1.760721
2.117753
1.850724
1.839995
2.037883
4.131794
15.148520
62.544942
137.178898
322.522521
543.507934
814.900994
1015.829444
1015.829444
1015.829444
1015.829444
1015.829444
1015.830040
839.964747
564.160943
346.905589
169.302821
112.706423
107.057691
118.100643
131.922960
137.147903
133.336782
121.146441
105.420947
79.794526
60.069561
38.468838
28.752685
18.989444
16.627908
14.067888
15.448928
17.125607
17.047524
17.347932
19.266605
18.512607
19.524693
21.426678
21.375418
22.245646
22.589564
25.882721
26.917458
28.542876
27.178526
30.030608
31.991601
32.070875
33.945441
35.648942
37.063956
38.113594
39.484501
41.329861
42.191744
45.141578
45.644641
51.594973
53.080916
59.179664
63.849688
71.198940
76.159835
82.970858
88.637471
96.277595
100.653768
104.824901
107.589960
107.041001
107.284784
106.586814
100.441575
103.838444
99.893808
98.548532
100.617409
96.804500
95.226765
93.995929
92.009902
94.329715
93.564987
92.393756
91.557503
92.919469
91.467500
91.348886
##ZVALUE=255
1.069903
1.155734
1.294613
1.110435
1.131892
0.876784
2.057552
1.610518
2.485514
7.794499
43.125749
105.528831
222.371817
485.314727
776.554942
1015.282869
1015.282869
1015.282869
1015.282869
1015.282869
1015.282869
1015.282869
730.568767
448.559523
218.693018
138.772726
99.769831
103.131533
126.584768
138.379931
143.056512
138.722658
126.863718
105.738640
84.658861
58.214664
43.892860
28.169751
23.504496
17.058849
16.673803
17.469525
17.082691
19.045472
18.960834
20.374656
21.338463
23.362637
23.203492
24.865866
24.265647
26.571751
27.539730
28.497577
29.244423
31.942725
32.086968
31.515956
34.120679
34.954548
37.346482
38.144588
39.201975
41.238666
43.041706
44.603944
46.780705
51.429868
53.671598
60.187578
63.024759
70.819855
71.856976
79.810619
84.595680
86.844563
86.389780
88.350773
87.731481
85.269809
83.695650
84.216595
82.972646
81.538558
81.309676
79.606771
80.820918
80.849528
79.169869
79.044700
80.325603
81.340671
81.038475
79.194903
80.492496
79.330802
##ZVALUE=260
1.340508
1.465678
1.531839
1.614690
1.334548
1.510978
1.698732
1.592636
2.409816
2.106428
2.176762
4.087687
16.155839
73.568821
158.019662
379.816890
623.669624
987.284780
1015.829444
1015.829444
1015.829444
1015.829444
1015.829444
1015.829444
938.509703
634.932518
355.340838
198.947787
105.343461
91.094971
106.530786
126.439929
144.420862
149.755478
149.002671
132.791996
113.509893
85.803866
66.879988
46.077967
32.854676
24.033785
20.800829
19.137859
18.914938
20.274520
20.861626
22.111535
24.383664
23.673773
25.989413
26.681423
28.946996
27.259588
29.680729
31.838417
30.649900
33.342838
33.708811
35.052896
35.683513
37.486553
37.698746
39.670467
40.472746
41.292906
42.258501
47.626495
49.919486
53.615570
58.504939
63.827634
66.368580
70.828795
74.137449
75.603724
75.507760
77.391863
74.792504
72.967410
74.978471
72.846413
74.717999
73.980689
71.989894
72.232485
70.715547
71.650743
73.479414
72.564483
71.985722
73.453784
70.951581
74.060559
72.322488
72.996616
##ZVALUE=265
0.993609
1.303554
1.150966
1.432896
1.474619
1.344681
1.632571
1.804829
1.785755
1.677871
2.177954
2.179742
2.780557
2.989769
8.624792
49.408674
117.136836
297.973752
524.345040
963.238478
1015.829444
1015.829444
1015.829444
1015.829444
1015.829444
1015.829444
1015.830040
918.371081
502.489805
288.858414
160.607696
89.986920
87.080598
113.018751
130.551457
153.046846
158.561468
150.023699
138.456821
110.931993
92.438459
65.336823
49.206614
35.520792
28.314590
24.088621
23.754835
25.087595
24.771690
25.912523
26.890635
28.390884
29.303432
30.068755
30.751824
32.400489
32.360554
34.950972
35.744905
35.697818
38.045645
37.664771
38.753748
40.547848
40.098429
41.717887
43.719411
46.132803
49.436688
51.423907
55.769682
59.185624
61.825514
65.086484
69.513917
69.919825
71.304440
70.576668
71.185827
68.643689
69.488883
67.112446
68.065524
66.773891
66.716671
66.169500
65.729618
68.061948
67.585707
66.685677
66.170692
68.145990
66.533685
67.122579
67.356825
68.214536
##ZVALUE=270
1.156926
1.145601
1.290441
1.261830
1.331568
1.070499
1.361966
1.433492
1.336932
1.589656
1.687407
1.762509
2.086759
2.412796
2.165437
2.547503
4.430413
23.670793
71.208477
225.970745
441.583395
770.853758
1015.829444
1015.829444
1015.829444
1015.829444
1015.829444
1015.829444
1015.829444
1015.829444
914.006829
460.408926
243.737698
105.278492
78.118443
93.034506
114.561915
141.046643
154.349804
161.142945
156.867504
141.046643
121.710896
92.532635
71.865916
52.139759
40.991902
32.477975
30.058622
28.944612
29.262900
30.488968
31.213760
33.878684
33.766627
35.650730
35.698414
37.987828
37.598610
38.801432
39.508939
39.596558
41.101575
42.308569
42.379498
42.967796
44.087768
47.415495
49.211979
53.476691
54.655671
58.065653
62.732697
63.892603
66.624880
68.488717
67.564845
68.457723
67.743659
66.006780
66.227913
64.943433
63.702464
65.105557
63.527822
64.517856
63.330531
64.731836
63.748956
64.168572
63.015819
62.364936
62.901974
61.671734
60.957670
62.192678
##ZVALUE=275
1.015663
1.070499
0.868440
1.156926
1.441836
1.082420
1.233816
1.276731
1.511574
1.599789
1.806617
1.637936
1.609921
1.857877
1.959801
2.336502
2.379417
2.954602
3.179908
10.917783
44.850707
130.337477
369.419456
688.178539
1015.829444
1015.829444
1015.829444
1015.829444
1015.829444
1015.829444
1015.829444
1015.829444
1015.829444
630.384684
347.021818
141.163468
79.421997
72.165728
88.957548
118.061900
137.689710
158.054829
164.298415
158.928633
145.894885
117.584467
98.919868
76.956749
61.078668
46.292543
40.029883
36.771894
34.870505
37.623644
37.945509
39.236546
40.311813
42.263865
42.582750
43.420792
44.137836
44.063926
45.077801
45.675635
45.989752
47.313571
48.220754
50.872564
51.571727
54.388642
55.680871
59.451461
62.144995
65.443516
67.722797
67.165494
67.579746
66.962838
66.070557
67.116618
65.678954
63.710809
64.161420
63.035488
63.035488
61.993599
61.530471
61.727762
60.092807
60.777664
60.899854
61.002970
60.723424
59.710741
59.967637
58.789849
##ZVALUE=280
1.073480
1.246929
1.197457
1.249909
1.184940
1.047850
1.452565
1.199841
1.340508
1.328588
1.238585
1.495481
1.273751
1.494884
1.626611
1.931787
1.872778
2.454519
2.826452
2.714992
3.287792
4.846454
29.288530
101.263523
308.617949
561.598539
992.726684
1015.836596
1015.836596
1015.836596
1015.836596
1015.836596
1015.836596
1015.836596
1015.836596
839.865804
484.755635
203.170776
99.240541
58.106780
66.771507
91.875792
113.726854
140.940547
154.032707
160.997510
160.286427
143.037438
125.870705
101.335645
82.796812
64.422488
53.948760
47.246814
43.333769
42.492747
44.076443
43.963790
45.365691
47.846437
47.529936
48.703551
49.413443
49.274564
51.648617
50.472617
52.356720
54.334998
54.393411
57.084560
58.283806
59.773922
63.597560
65.911412
66.955686
67.502856
66.912770
66.286922
66.557527
65.556765
64.521432
62.817931
64.368844
61.399937
63.545704
61.883926
61.194897
60.378909
59.861541
61.566830
60.008764
59.860945
58.640838
58.246851
56.929588
58.536530
##ZVALUE=285
0.826716
0.961423
0.901818
0.875592
0.921488
1.014471
0.994802
1.000762
1.118779
1.084805
1.169443
1.368523
1.254678
1.293421
1.469851
1.626611
1.573563
1.732707
2.027750
2.196431
2.298951
2.591610
3.302693
3.711581
14.975667
54.321885
189.474821
385.096669
820.530653
1015.669703
1015.669703
1015.669703
1015.669703
1015.669703
1015.669703
1015.669703
1015.669703
1015.669703
757.674575
338.751674
162.832737
62.089562
49.083829
65.861940
85.835457
116.269588
134.929419
154.011846
161.670446
161.334872
149.644613
127.914548
111.833811
89.592934
74.119568
58.440566
52.934885
48.966408
47.842860
47.999620
50.020814
50.193667
51.431656
50.709844
51.811934
52.708983
53.863525
55.179596
56.559443
59.536695
60.408711
61.877966
63.081980
65.263510
66.060424
66.719651
66.532493
66.763759
65.187812
65.139532
63.563585
63.288808
62.551498
62.942505
61.632991
60.995817
60.521960
60.444474
60.514808
59.459805
58.619976
58.654547
58.425665
57.601929
55.710673
56.581497
##ZVALUE=290
0.949502
1.013875
1.026988
0.974536
1.070499
1.002550
1.084805
1.033545
1.065731
1.053810
1.149774
1.315475
1.181960
1.579523
1.519918
1.631975
1.683831
1.441836
1.617670
1.769662
1.966953
2.312660
2.605915
2.855659
2.886653
3.796816
5.192757
30.006766
94.279647
294.317603
556.368828
1015.829444
1015.829444
1015.829444
1015.829444
1015.829444
1015.829444
1015.829444
1015.829444
1015.829444
1015.829444
535.790920
265.380740
90.669990
46.951771
46.881437
62.276721
87.412596
108.014941
134.317875
149.813890
162.794590
163.059831
149.261951
134.726763
110.042691
92.339516
73.688626
63.159466
55.361986
52.061677
50.173998
51.014423
51.445961
51.748753
53.041577
52.768588
55.560470
58.236718
57.694912
60.462952
62.348843
63.213706
63.077807
66.017509
64.410567
64.823627
64.480901
64.129829
63.834786
64.129829
62.987804
62.252879
60.650706
62.235594
61.666965
60.555935
60.324669
60.226917
58.253407
58.181882
57.602525
57.748556
57.507753
54.808855
55.079460
##ZVALUE=295
0.944734
0.954866
0.879765
0.927448
1.081824
0.860691
0.838637
0.954866
1.151562
1.314878
1.110435
0.877976
1.069903
1.081824
1.310706
1.327991
1.438856
1.671910
1.579523
1.567602
1.608729
2.114773
2.218485
2.329946
2.579689
3.029704
3.033876
3.496408
4.440546
9.489655
39.904714
174.590945
395.419598
908.357501
1015.855670
1015.855670
1015.855670
1015.855670
1015.855670
1015.855670
1015.855670
1015.855670
1015.855670
752.422810
396.575928
131.651759
59.291720
36.879778
43.804646
63.867569
81.129670
109.465718
128.077865
148.739815
158.281922
156.284571
146.459937
130.125880
112.109780
89.334846
75.357556
61.564445
55.406690
51.482916
50.351620
49.484968
51.146746
52.320957
54.158568
55.630803
56.840777
59.628487
60.969591
62.036514
62.162876
62.484741
63.023567
61.988831
61.335564
60.956478
61.259866
61.360598
60.895681
61.615705
60.581565
60.024858
59.581995
59.611797
59.703588
58.239698
57.940483
57.399869
55.562854
55.136681
54.951906
53.977966
##ZVALUE=300
0.754595
0.867844
0.795722
0.969768
1.074672
1.131892
1.202822
1.039505
1.071692
1.044869
1.115799
1.025796
0.969768
1.007915
1.331568
1.154542
1.228452
1.312494
1.564622
1.573563
1.648664
1.758933
1.716614
2.079606
2.255440
2.310872
2.639890
2.865791
3.010631
3.450513
4.003644
4.994869
24.703741
92.114806
318.171978
617.109537
1015.830636
1015.830636
1015.830636
1015.830636
1015.830636
1015.830636
1015.830636
1015.830636
1015.830636
1015.830636
594.833493
309.663415
103.631616
43.380857
34.262538
41.817427
59.675574
76.138973
100.388527
120.002627
140.677691
150.492787
151.007771
141.719580
125.024915
109.923482
88.484883
74.316859
59.061646
52.893758
49.044490
47.848821
47.567487
49.343705
51.971674
54.563880
55.194497
57.188869
58.096647
59.114695
59.050918
58.159828
58.765411
59.318542
59.123635
59.526563
58.835745
58.680773
59.676766
59.016943
58.643818
58.241487
58.196783
56.800842
57.007670
56.241751
56.175590
55.147409
53.662658
54.378510
##ZVALUE=305
0.735521
0.826716
0.787973
0.965595
0.872612
0.765920
0.929832
0.833869
0.943542
0.922680
1.162887
1.144409
1.323819
1.192689
1.188517
1.266599
1.176000
1.207590
1.295805
1.265407
1.642704
1.316667
1.670718
1.671910
1.848936
1.993775
2.083778
2.274513
2.642870
2.704859
3.030896
3.413558
3.807545
4.845858
9.625554
65.397024
185.801387
529.903769
947.122574
1015.829444
1015.829444
1015.829444
1015.829444
1015.829444
1015.829444
1015.829444
1015.829444
1015.830040
971.187949
451.101661
211.037397
62.138438
31.192899
32.364726
40.337443
56.525469
73.814988
97.337961
114.903450
134.754777
142.011642
142.579675
135.024786
118.513703
103.701949
81.627965
69.603920
56.841969
51.158667
48.176646
48.827529
50.650835
51.384568
54.568648
53.934455
55.734515
54.827929
56.368709
56.522489
56.622624
56.650639
57.204962
58.132410
57.887435
58.049560
57.736635
57.745576
57.754517
58.012605
56.094527
56.755543
56.677461
55.068731
55.167675
54.819584
53.531528
##ZVALUE=310
0.862479
0.844598
0.927448
0.689626
0.709891
1.088977
0.839829
0.914931
0.992417
1.118779
1.043677
1.004934
1.131892
1.045465
1.011491
0.989437
1.191497
1.208782
1.155734
1.318455
1.364946
1.527667
1.572967
1.551509
1.608729
2.041459
1.839995
2.020597
2.218485
2.352595
2.523661
2.589822
2.908707
3.627539
4.002452
4.525781
5.575418
29.355884
102.625489
351.595879
694.661736
1015.829444
1015.829444
1015.829444
1015.829444
1015.829444
1015.829444
1015.829444
1015.829444
1015.829444
1015.829444
742.851496
392.704606
128.570795
46.494007
26.336908
29.005408
37.812591
48.492551
68.031549
84.985495
108.506680
123.047829
133.847594
135.718584
129.835606
118.671656
100.669861
85.577965
69.603920
61.647892
54.768920
52.064657
52.122474
51.276684
52.454472
52.944422
52.627921
52.891970
54.433942
54.467916
55.519938
56.912899
57.424903
57.498813
58.279634
57.895780
57.783723
57.544708
57.381988
56.584477
55.561662
54.954886
54.581761
53.888559
54.368973
##ZVALUE=315
0.755787
0.773668
0.877976
0.920892
0.846982
1.107454
0.729561
1.016855
0.925660
0.992417
0.873804
1.050830
0.975728
0.916719
1.029968
1.023412
0.966787
1.283884
1.142621
1.413822
1.411438
1.437664
1.306534
1.471639
1.507998
1.404881
1.560450
1.523495
1.898408
2.070665
2.260804
2.261996
2.390742
2.699494
3.247857
3.538728
3.673434
4.179478
4.893541
12.520552
53.829551
233.919024
528.267622
1015.824676
1015.824676
1015.824676
1015.824676
1015.824676
1015.824676
1015.824676
1015.824676
1015.824676
1015.824676
974.709988
532.922745
177.765489
66.869855
25.395751
24.358630
28.163791
34.829974
48.476458
61.921477
83.628893
99.555850
120.686889
130.101442
130.834579
128.102899
114.763975
101.907849
86.926818
75.276494
63.291788
57.480931
52.999854
52.468777
52.021742
51.322579
52.795410
52.440763
54.825544
55.030584
55.536628
56.298971
57.220459
57.687759
57.362914
56.903958
56.700706
56.068897
55.117607
55.196881
54.612756
55.115819
53.962469
##ZVALUE=320
0.847578
0.794530
0.809431
0.964999
0.778437
0.913739
0.771880
0.907779
0.923872
0.990629
1.105666
0.989437
0.908971
1.046658
1.064539
1.066923
1.141429
1.099706
1.002550
1.188517
1.178980
1.179576
1.381636
1.536608
1.519918
1.492500
1.494884
1.687407
1.740456
1.758933
1.894832
2.057552
2.192855
2.214909
2.526641
2.634525
3.091693
3.385544
3.614426
4.197955
4.899502
6.931424
25.117993
147.707462
364.731550
928.151011
1015.818715
1015.818715
1015.818715
1015.818715
1015.818715
1015.818715
1015.818715
1015.818715
1015.818715
1015.818715
797.686577
293.659568
119.859576
37.509799
24.067760
24.083853
27.429461
34.839511
44.096708
62.018633
77.319741
97.869635
113.316774
126.290917
132.070780
128.264427
118.268728
101.533532
89.208484
73.440671
64.343810
56.684613
54.218769
52.434802
52.070618
52.790642
53.821802
53.339601
54.408908
55.307746
55.098534
55.613518
55.780411
55.784583
55.156946
55.892467
54.800510
54.793954
53.692460
53.072572
##ZVALUE=325
0.704527
0.804663
0.781417
0.900626
0.823736
0.714660
0.764728
0.882745
0.883937
0.782609
0.920892
0.845790
0.949502
1.062751
1.019835
1.034737
1.038909
1.055598
1.122952
1.215935
1.084805
1.213551
1.131892
1.139641
1.397729
1.383424
1.373887
1.394749
1.472831
1.608729
1.824498
1.797676
1.689792
1.873970
2.072453
2.271533
2.643466
2.558827
2.991557
3.152490
3.545880
4.501939
4.867911
5.490780
12.286901
91.601610
249.747634
668.104887
1015.833616
1015.833616
1015.833616
1015.833616
1015.833616
1015.833616
1015.833616
1015.833616
1015.833616
1015.833616
989.334583
435.487628
193.026662
52.541494
26.520491
22.803545
24.449825
28.620958
35.114884
46.880841
60.561895
81.644654
97.236633
114.386678
124.723911
128.299594
123.910904
112.018585
99.774003
84.955692
73.084831
62.340498
57.271719
53.890944
53.321719
53.489804
53.620934
53.643584
53.931475
54.317713
54.175854
54.672956
53.965449
53.401589
53.199530
52.352548
52.620769
52.890778
##ZVALUE=330
0.902414
0.880957
0.873804
0.967979
0.960827
1.138449
1.105666
0.941753
0.933409
1.131892
1.112819
1.109838
0.904799
1.120567
1.195669
1.112819
1.335740
1.171827
1.161695
1.242757
1.259446
1.257658
1.148582
1.209974
1.232624
1.385808
1.383424
1.424551
1.669526
1.564622
1.610518
1.904964
1.853704
1.997948
2.035499
2.332926
2.385974
2.440810
2.541542
2.856851
3.075600
3.309846
3.684759
4.124641
4.998446
5.522966
7.748604
40.094852
140.790939
480.203032
937.153697
1016.027927
1016.027927
1016.027927
1016.027927
1016.027927
1016.027927
1016.027927
1016.027927
1016.027927
1016.027927
651.931763
314.108729
98.924637
38.565993
24.042726
24.367571
26.846528
30.609965
38.759708
48.653483
64.681768
79.496503
99.066496
111.766458
121.923685
123.778582
119.018555
110.090971
95.155835
82.677603
70.594549
63.463449
57.425499
55.716634
52.792430
52.252412
52.493811
52.845478
52.029490
52.877665
52.340627
52.032471
51.608682
51.593781
51.224828
##ZVALUE=335
0.867844
0.754595
0.913739
0.773668
0.843406
0.800490
0.927448
0.722408
0.677705
0.810623
0.794530
0.731945
0.864863
0.926852
1.046658
1.023412
1.053810
0.874996
0.911951
1.056790
1.205802
0.999570
1.002550
1.005530
1.015663
1.277924
1.153946
1.281500
1.226664
1.306534
1.631975
1.419783
1.530647
1.565814
1.576543
1.861453
1.768470
1.994967
2.113581
2.127886
2.427697
2.654791
2.999902
3.198981
3.610849
3.873706
4.286766
4.989505
5.720854
18.738508
73.986650
312.255621
678.284764
1015.829444
1015.829444
1015.829444
1015.829444
1015.829444
1015.829444
1015.829444
1015.829444
1015.829444
1015.829444
953.070521
506.074429
158.360004
58.329701
26.636720
25.738478
27.668476
30.110478
35.208464
40.091872
53.166747
63.347816
81.023574
94.638467
108.097792
115.594864
117.736459
114.955902
104.488730
94.688535
80.816746
73.525906
63.399673
58.130622
53.800941
52.535534
50.694942
50.135851
49.947500
49.204826
49.174428
50.022602
49.950480
##ZVALUE=340
0.663996
0.744462
0.870824
0.956655
0.617504
0.731945
0.643730
0.770688
0.798702
0.850558
0.716448
0.763535
0.483990
0.897646
0.957847
0.874996
0.889897
0.893474
0.817776
1.034737
1.068711
1.008511
1.073480
1.047850
1.032948
1.112819
1.291633
1.195669
1.205802
1.344681
1.450777
1.453757
1.318455
1.587868
1.670718
1.689792
1.825690
1.737475
1.924634
2.065897
2.054572
2.502799
2.635717
2.545714
2.832413
3.131628
3.708601
3.962517
4.308820
4.958510
5.658865
9.153485
35.689473
197.367668
503.129959
1015.829444
1015.829444
1015.829444
1015.829444
1015.829444
1015.829444
1015.829444
1015.829444
1015.829444
1015.829444
1015.830040
706.871748
272.386670
100.328922
32.594800
27.969480
29.262900
30.263662
32.824874
36.144853
42.313933
50.376654
62.621832
75.998902
92.738867
103.078485
110.484958
112.071633
108.703971
103.140473
91.195703
81.715584
69.460869
62.180758
54.725409
51.086545
48.861504
48.721433
47.345757
47.150850
47.202706
##ZVALUE=345
0.844598
0.652671
0.650883
0.781417
0.799894
0.867844
0.738502
0.827909
0.762939
0.966787
0.793934
0.826716
0.916719
0.802875
0.939965
0.888705
0.810623
0.902414
0.840425
0.918508
0.917912
0.952482
1.079440
1.069903
1.068711
1.161695
1.105666
1.206994
1.334548
1.149774
1.284480
1.276731
1.521707
1.424551
1.472831
1.518726
1.760721
1.631975
1.750588
1.981854
2.070665
2.127886
2.245903
2.393723
2.569556
2.598763
2.545714
3.116727
3.428459
3.808737
4.318953
4.963875
5.371571
6.618500
16.098619
114.575624
331.003666
901.687741
1015.823483
1015.823483
1015.823483
1015.823483
1015.823483
1015.823483
1015.823483
1015.823483
1015.823483
1015.823483
966.350436
383.630991
163.381696
49.241781
31.396747
30.083656
29.701591
30.445457
31.125546
34.091473
38.348436
48.400760
58.584809
72.752833
84.269643
97.019672
102.207661
106.668472
103.731751
97.451806
87.606907
77.083707
68.096519
57.881474
52.817464
48.589706
46.456456
45.297742
##ZVALUE=350
0.865459
0.947714
0.947714
1.045465
0.950694
0.827909
0.877976
0.839829
0.882745
0.854731
1.121759
1.000762
0.898838
0.949502
1.016855
0.891685
1.060963
0.958443
1.104474
1.053810
0.856519
1.094937
1.084805
1.095533
1.280904
1.178980
0.973940
1.134872
1.258850
1.392961
1.461506
1.338720
1.156926
1.403689
1.528859
1.592636
1.575947
1.669526
1.684427
1.776814
1.990795
1.896620
1.967549
2.269745
2.537966
2.162457
2.568960
2.866983
2.916455
3.383756
3.570914
3.967881
4.040599
4.822612
5.475879
6.344914
9.134412
56.236982
194.946527
644.436479
1015.826464
1015.826464
1015.826464
1015.826464
1015.826464
1015.826464
1015.826464
1015.826464
1015.826464
1015.827060
1015.826464
598.763824
261.622667
68.224669
33.170581
28.277636
27.942657
28.019547
28.570890
30.442476
33.276677
39.468408
45.693517
55.868626
64.879656
78.604817
87.602735
95.305443
98.425746
96.581578
91.136694
81.158876
73.365569
62.024593
55.914521
49.587488
##ZVALUE=355
0.972748
0.979900
0.925660
0.941753
0.982881
0.904799
0.917912
0.922680
1.103878
0.844598
0.939965
1.158714
1.041889
1.252890
1.097918
1.016855
1.128912
1.256466
1.134872
1.051426
1.360774
1.169443
1.160502
1.239777
1.184940
1.414418
1.369715
1.228452
1.336932
1.494884
1.489520
1.534820
1.659989
1.638532
1.636744
1.547933
1.671910
1.804829
1.646876
1.789927
1.910925
2.063513
2.091527
2.262592
2.228618
2.379417
2.531409
2.783537
2.957582
3.134608
3.285408
3.551841
3.752708
4.081726
4.569888
4.954934
5.458593
6.335974
7.505417
26.270747
108.168721
458.086729
945.668817
1015.822887
1015.822887
1015.822887
1015.822887
1015.822887
1015.822887
1015.822887
1015.822887
1015.822887
1015.822887
833.317637
381.982923
105.145574
41.025877
27.579665
27.182698
26.985407
27.172565
28.578639
29.529929
31.952858
35.277605
42.237639
49.566627
60.681701
68.695545
79.653859
86.187720
90.327859
89.656711
83.497763
77.045560
67.701936
##ZVALUE=360
1.028776
1.053810
1.191497
0.891685
0.993609
1.121759
1.039505
0.934601
1.223683
1.043677
1.141429
1.270771
1.133680
1.152754
1.203418
1.051426
1.277924
1.221895
1.442432
1.140833
1.171827
1.375675
1.386404
1.404881
1.376867
1.554489
1.344681
1.461506
1.479983
1.729727
1.574755
1.732707
1.882911
1.649857
1.833439
1.881719
1.827478
1.956820
1.935959
1.919866
2.152920
2.052784
2.024770
2.432466
2.300739
2.506971
2.708435
2.898574
2.898574
3.009439
3.240705
3.354549
3.447533
3.898740
4.197955
4.483461
4.634857
5.032420
5.538464
6.948709
7.926822
13.081431
45.669675
228.620768
568.139553
1015.829444
1015.829444
1015.829444
1015.829444
1015.829444
1015.829444
1015.829444
1015.829444
1015.829444
1015.829444
1015.830040
629.777908
210.635662
72.724819
28.351545
26.083589
25.460720
25.958419
25.916696
26.669502
27.742982
29.517412
31.776428
36.020875
44.070482
51.608682
61.533451
70.037842
77.148676
80.733895
81.379414
##ZVALUE=365
1.108646
1.124740
1.077652
0.997782
1.090765
0.968575
1.177788
1.001954
1.222491
1.165867
1.145601
1.079440
1.200438
1.145601
1.330972
1.318455
1.289845
1.414418
1.119971
1.357794
1.301765
1.449585
1.339912
1.308918
1.550913
1.413822
1.551509
1.541972
1.659989
1.453757
1.569986
1.661777
1.758933
1.630783
1.654625
1.847744
1.969934
1.855493
1.852512
1.813769
2.136827
2.076626
2.077818
2.252460
2.351999
2.334714
2.406836
2.444983
2.455711
2.725720
2.923608
3.014803
3.037453
3.265738
3.588796
3.655553
3.705621
4.255772
4.587770
5.339980
5.930662
6.945729
7.611513
9.479523
20.883679
135.105848
376.459956
965.209603
1015.829444
1015.829444
1015.829444
1015.829444
1015.829444
1015.829444
1015.829444
1015.829444
1015.829444
1015.829444
930.234790
325.163007
117.212534
32.094717
24.348497
23.598671
23.404956
23.800731
24.131536
24.118423
24.911761
26.210546
27.700663
32.093525
37.030578
44.578910
52.957535
61.770678
##ZVALUE=370
1.080632
1.058578
1.059771
1.239777
1.197457
0.982881
1.070499
1.179576
0.934601
1.046658
1.276731
1.045465
1.086593
1.138449
1.214743
1.290441
1.227856
1.341701
1.136661
1.321435
1.279712
1.404881
1.262426
1.301765
1.498461
1.432896
1.479983
1.467466
1.450777
1.413822
1.418591
1.429915
1.390576
1.668930
1.469851
1.490712
1.698732
1.550913
1.898408
1.787543
1.903772
1.908541
1.874566
1.902580
2.059937
2.104640
2.287626
2.122521
2.413988
2.309680
2.428889
2.493858
2.620816
2.837777
2.978444
2.976656
3.197789
3.672838
3.721714
4.156828
4.417896
5.220771
5.571842
6.068945
6.808639
8.141994
12.588501
79.977512
268.991590
840.923786
1015.829444
1015.829444
1015.829444
1015.829444
1015.829444
1015.829444
1015.829444
1015.829444
1015.829444
1015.829444
1015.830040
473.277569
192.289948
49.672723
25.528669
22.276640
22.174716
21.842718
21.938682
22.038817
22.193789
22.658706
23.315549
25.804639
28.689504
33.387542
##ZVALUE=375
0.992417
0.972748
1.090765
0.933409
0.973940
1.099706
1.048446
1.003742
0.982881
1.228452
0.960827
1.029968
1.163483
1.136661
1.093745
1.208782
1.191497
1.136661
1.043677
1.235604
1.266599
1.108646
1.198649
1.356602
1.246929
1.134872
1.391768
1.321435
1.310706
1.253486
1.408458
1.219511
1.377463
1.274943
1.549721
1.640916
1.422763
1.598597
1.594424
1.678467
1.645684
1.542568
1.702905
1.740456
1.886487
1.786947
1.973510
1.879930
1.837611
2.154708
2.105832
2.029538
2.165437
2.352595
2.520680
2.489686
2.720952
2.855659
3.129840
3.247857
3.494620
3.861785
4.236698
4.470944
4.857779
5.588531
6.390810
7.833838
9.531975
38.157105
150.124431
567.605495
1015.875936
1015.875936
1015.875936
1015.875936
1015.875936
1015.875936
1015.875936
1015.875936
1015.875936
1015.875936
1015.875936
918.495059
432.217717
116.523504
38.823485
21.721721
21.308661
20.332932
20.170808
20.227432
20.167828
20.656586
21.102428
21.805763
##ZVALUE=380
0.907779
0.896454
0.845790
1.002550
1.008511
1.029968
1.029968
0.899434
0.914931
1.066923
1.059771
0.893474
0.983477
1.016855
1.010895
1.020432
0.953674
1.041889
0.964999
1.217723
1.032948
1.125932
1.177788
1.178980
0.973940
1.130700
1.176596
1.102686
1.151562
1.061559
1.193881
1.049638
1.229644
1.161695
1.241565
1.147985
1.271963
1.283884
1.349449
1.328588
1.547933
1.417994
1.479983
1.466870
1.573563
1.741648
1.566410
1.817942
1.773834
1.703501
1.694560
1.963973
2.047420
1.954436
2.023578
2.190471
2.326965
2.439618
2.577901
2.902746
3.038645
3.192425
3.284812
3.580451
3.928542
4.415512
5.135536
5.867481
6.989837
8.531809
9.866953
18.780828
79.833865
428.443551
950.594544
1015.826464
1015.826464
1015.826464
1015.826464
1015.826464
1015.826464
1015.826464
1015.826464
1015.826464
1015.826464
1015.826464
665.245652
204.117894
69.716573
24.878979
20.290613
19.292831
18.735528
18.785000
18.898845
18.915534
##ZVALUE=385
0.940561
0.782609
0.802875
0.693798
0.917912
0.881553
0.828505
0.822544
0.954866
0.812411
0.820756
0.783801
0.880957
1.001954
0.837445
0.871420
0.780821
0.805855
0.847578
0.989437
1.025796
0.991821
0.981688
0.981688
0.895858
0.972748
1.076460
1.152754
0.984669
0.921488
1.002550
1.076460
1.044869
1.020432
1.102686
1.141429
1.040697
1.137853
1.193881
1.320839
1.328588
1.182556
1.296997
1.330972
1.414418
1.384616
1.386404
1.676679
1.554489
1.673698
1.710653
1.795888
1.970530
2.075434
2.174973
1.988411
2.190471
2.332926
2.443790
2.474785
2.592802
2.810955
3.019571
3.196597
3.459454
3.715754
4.125834
4.855990
5.728602
6.585717
7.525682
8.490682
8.973479
11.836886
36.979914
244.631767
672.470927
1015.829444
1015.829444
1015.829444
1015.829444
1015.829444
1015.829444
1015.829444
1015.829444
1015.829444
1015.829444
1015.829444
1015.829444
437.985659
153.764486
33.221841
20.298958
18.651485
18.291473
17.742515
##ZVALUE=390
0.946522
0.757575
0.849962
1.033545
0.916719
0.888705
0.836849
0.839829
0.788569
0.943542
0.892878
0.763535
0.812411
0.867844
0.886917
0.767708
0.869632
1.067519
0.992417
0.998974
1.068711
1.163483
1.042485
0.934601
1.058578
1.054406
1.080632
1.085997
1.100898
1.095533
1.025796
1.217723
1.270771
1.181960
1.223683
1.273751
1.189709
1.243949
1.363754
1.408458
1.159906
1.347661
1.221895
1.381636
1.488924
1.559854
1.574755
1.744628
1.604557
1.837611
1.827478
1.871586
1.842976
1.867414
2.061725
2.043843
2.067685
2.100468
2.350807
2.374649
2.459884
2.701879
2.873540
3.022552
3.338456
3.543496
3.952980
4.563928
5.271435
6.053448
6.489754
7.220507
7.733703
8.489490
8.785725
10.079741
18.046498
122.574568
423.805714
1015.896797
1015.896797
1015.896797
1015.896797
1015.896797
1015.896797
1015.896797
1015.896797
1015.896797
1015.896797
1015.896797
1015.896797
721.159577
303.763747
65.166950
24.104714
18.802881
##ZVALUE=395
0.810623
0.796914
0.952482
0.964999
0.841618
0.955462
0.825524
0.895858
0.844598
0.888705
0.772476
0.852942
0.887513
0.858903
0.854731
0.878572
0.962615
0.883937
0.979900
0.883937
0.950694
1.002550
0.951886
0.915527
1.035929
1.097918
1.127720
1.089573
1.020432
1.133680
1.116991
1.165867
1.163483
1.183748
1.183748
1.079440
1.194477
1.260638
1.195669
1.267791
1.305938
1.396537
1.525879
1.427531
1.366735
1.678467
1.509786
1.495481
1.415610
1.484752
1.689792
1.709461
1.894832
1.952648
1.925826
2.095699
1.975894
2.175570
2.251863
2.560616
2.228618
2.324581
2.644658
2.745986
3.304482
3.361702
3.750920
4.479885
4.825592
5.603433
6.116629
6.276965
6.708503
6.920695
6.994605
7.748604
8.649826
9.793639
12.598634
71.054697
283.181667
963.480473
1015.829444
1015.829444
1015.829444
1015.829444
1015.829444
1015.829444
1015.829444
1015.829444
1015.829444
1015.829444
1015.829444
1015.830040
534.877777
148.576498
##ZVALUE=400
0.796914
0.953674
0.821948
1.033545
0.837445
0.901818
0.856519
1.022816
0.928640
0.888705
0.780821
0.802875
0.895858
0.971556
1.056790
0.994802
0.895858
0.940561
0.934601
0.881553
0.876784
0.882745
1.058578
0.994802
1.053810
0.935793
1.033545
1.093745
1.069903
1.255870
1.081824
0.959635
1.045465
1.191497
1.264811
1.154542
1.109838
1.199841
1.233816
1.250505
1.257658
1.359582
1.458526
1.393557
1.536608
1.465678
1.616478
1.390576
1.503825
1.518726
1.793504
1.830459
1.804829
2.053976
1.977682
1.900792
2.133846
2.167821
2.145767
2.365708
2.383590
2.520680
2.532601
2.702475
3.043413
3.418922
3.616810
4.143715
4.623532
5.269647
5.670786
6.011724
6.208420
6.202459
6.471872
6.641746
6.658435
7.372499
8.230805
9.622574
11.522770
38.773417
160.519481
629.004836
1015.829444
1015.829444
1015.829444
1015.829444
1015.829444
1015.829444
1015.829444
1015.829444
1015.829444
1015.829444
1015.829444
1015.829444
##END
