##TITLE=DDW02
##FORMAT=SPECTACLE-ASCII V-1.2
##DATA TYPE=ULTRAVIOLET SPECTRUM
##SECOND TYPE=ULTRAVIOLET SPECTRUM
##DATE=12/11/17
##TIME=14:27:37
##SPECTROMETER/DATA SYSTEM=SPECTACLE
##XUNITS=NM EM
##YUNITS=ENERGY
##YFACTOR=1
##FIRSTX=220
##LASTX=410
##NPOINTS=96
##3DDATA=Equidistant
##ZUNITS=NM EX
##FIRSTZ=210
##LASTZ=400
##ZPOINTS=39
##XYDATA=(Y..Y)
##ZVALUE=210
13.057590
14.000535
11.904836
10.165572
9.758472
9.743571
9.139776
7.263422
5.713701
4.098415
3.658533
2.530813
2.300739
2.113581
1.932979
2.382994
1.907945
1.972914
2.307892
2.412796
2.171993
2.672672
3.399849
2.987981
3.726482
3.197789
3.174543
3.968477
3.498793
4.389882
4.464984
4.262924
5.443692
5.449653
5.103946
4.948974
5.489588
5.957484
5.313754
5.656481
5.581975
5.814433
5.713701
5.805492
5.524755
5.929470
5.524755
5.452633
5.783439
5.018711
5.221963
5.101562
6.210804
5.370975
4.719496
4.605651
5.483627
5.811453
5.500913
5.645752
5.250573
4.985929
5.243421
4.920959
5.909801
5.481839
5.636811
6.117821
6.508827
7.290840
8.450747
9.052753
9.946823
12.501478
13.495684
14.231801
13.771653
15.149713
13.723969
12.831688
11.703968
9.780526
10.260940
8.244514
6.753802
5.575418
5.386472
5.686879
5.786419
6.689429
8.450747
11.249781
14.506578
17.245412
21.879673
28.419495
##ZVALUE=215
36.894679
35.013556
29.051900
23.319721
20.154715
18.689632
15.202761
15.244484
13.521910
13.398528
11.303425
9.779930
5.925894
4.713535
3.123879
2.334714
2.687573
2.187490
2.391934
2.466440
2.734661
2.205968
2.505779
3.272891
2.475977
2.861619
3.419518
3.013611
3.619790
3.957748
4.178882
4.154444
4.530549
5.766749
5.218983
5.971789
5.417466
5.984902
5.979538
5.393624
4.779696
5.484819
5.091429
4.669428
4.676580
5.526543
5.016923
5.140901
5.375743
5.316734
4.624724
5.271435
5.224943
5.582571
5.548596
4.982948
6.087422
5.415678
5.253553
5.302429
5.098581
6.232858
5.042553
5.231500
5.024672
5.571842
5.551577
6.307960
5.631447
6.736517
8.541942
8.343458
8.651614
11.043549
10.368824
10.592937
9.772778
11.673570
9.895563
9.271502
9.280443
8.794665
7.499456
7.165670
6.496906
5.739927
5.459785
5.132556
5.083680
4.565716
5.677938
4.807711
5.250573
6.299615
7.525682
9.754896
##ZVALUE=220
78.402758
78.901649
75.046420
66.620708
55.850744
44.323802
34.587979
26.613474
25.086999
25.724769
24.297833
23.728609
20.689964
18.328428
14.237761
10.960698
6.172657
4.594922
3.802776
2.585649
2.561808
2.623796
2.990961
2.730489
2.764463
3.310442
3.581643
4.338622
3.717542
4.201531
5.222559
4.723668
6.553531
5.435944
5.980730
7.001758
6.644726
6.381869
5.976558
7.143617
6.380677
6.177425
5.989671
5.850792
5.963445
5.943775
5.667806
5.849600
5.982518
5.652905
6.345510
5.921721
6.343722
6.186962
6.637573
5.862713
6.547570
5.614758
6.647706
6.182790
6.385446
6.673932
6.255507
6.911755
6.385446
5.949736
6.235838
6.901622
6.430745
7.316470
8.803606
9.268522
10.472536
11.480451
11.361837
11.197925
12.201667
10.611415
10.743737
10.309815
8.762479
9.315610
8.724928
7.501841
5.989671
6.854534
6.244779
6.294847
5.992651
5.798936
4.644990
6.453991
5.457997
5.427599
5.554557
4.381537
##ZVALUE=225
102.030635
104.073882
123.042464
132.169724
134.889483
118.864775
103.684664
77.448487
59.867501
48.712492
37.959814
37.405491
38.893819
38.144588
36.499500
34.021735
24.888515
19.371510
13.473630
9.051561
6.692410
4.147887
3.698468
3.314614
3.585815
3.148913
3.575683
4.432797
4.969835
4.709959
4.381537
5.327463
6.609559
6.224513
6.586909
5.900860
6.721616
6.461740
6.525517
7.062554
7.315874
7.073879
7.817745
6.762743
7.316470
6.929636
6.259680
6.325841
6.789565
7.283688
6.613731
6.593466
7.371902
7.432699
8.281469
7.542968
7.818937
8.333921
7.946491
7.644892
8.508563
8.310676
6.842613
7.639527
7.878542
7.455945
9.139776
8.101463
8.561611
8.556843
8.964539
9.984970
11.709929
11.650920
12.438893
12.345910
11.348724
11.398792
10.348558
9.814501
8.440614
9.199977
8.443594
8.331537
7.819533
7.683635
6.693602
7.111430
6.438494
6.538630
7.022619
6.505847
6.120801
6.518960
5.811453
6.392598
##ZVALUE=230
63.302517
68.035722
100.678802
149.859786
182.736516
215.713978
216.497779
210.924745
185.027719
149.614811
104.816556
77.615976
60.906410
60.017705
54.885745
59.002638
58.838725
58.583617
51.989555
39.967895
31.034946
18.650889
13.109446
7.008910
5.580783
4.783869
5.209446
4.735589
5.113482
4.879832
5.218983
5.708933
5.901456
6.118417
6.308556
5.924702
5.907416
6.602407
6.223917
6.435513
7.182956
7.450581
7.474422
7.746816
7.220507
7.024407
6.651878
7.142425
6.825924
6.660819
7.647872
7.254481
8.076429
7.805824
9.278655
8.758903
8.778572
9.283423
9.716749
9.439588
9.612441
10.144711
10.820627
9.636879
9.263754
10.008812
9.902716
10.389686
10.906458
10.693669
10.674000
12.382865
11.885762
14.314651
14.016628
14.088750
13.039708
13.971925
11.611581
13.381839
11.114478
11.088848
11.096597
10.386705
9.325743
9.003878
9.713769
9.180903
8.115768
8.038878
8.771420
7.644892
9.017587
9.579659
9.086728
8.653998
##ZVALUE=235
16.728640
19.251704
46.284795
86.066723
129.508972
208.018422
254.852772
318.589807
339.644551
338.971615
302.947760
229.804516
170.741677
121.565461
92.450976
78.155994
78.491569
89.522600
92.912912
91.082454
84.118843
78.497529
54.890513
37.422776
22.530556
17.427802
11.202693
8.732677
5.884767
6.418824
6.993413
6.707907
6.854534
6.364584
6.489754
7.213950
6.737709
5.773902
6.905794
7.160902
7.131696
7.640719
6.694794
7.473826
7.184744
7.596612
7.964969
7.790923
6.952882
7.760525
7.957816
8.072853
8.747578
8.040667
8.204579
9.265542
10.055900
8.866787
9.610653
9.099841
9.430647
9.930730
10.258555
9.944439
10.267496
10.533929
10.718703
11.334419
11.799932
12.635589
11.945963
13.604760
13.123751
14.759898
15.937686
14.841557
14.820695
14.986992
14.991760
12.536645
12.769699
12.902617
12.026429
13.459921
11.765957
12.012720
11.859536
10.273457
11.015534
10.344982
11.017919
11.052489
11.069775
11.250973
10.039806
10.009408
##ZVALUE=240
1.612902
1.704693
5.879998
16.231537
43.465495
77.663660
154.416561
226.575732
331.713557
396.798849
442.374945
442.209840
392.767787
319.996476
251.840949
164.191723
124.148726
94.147921
88.847876
97.325444
106.844902
113.582611
110.879540
101.667643
81.184506
65.448880
45.583844
31.325817
19.162893
14.466643
10.193586
8.346438
8.043647
7.107854
7.389784
6.876588
7.408857
7.305741
7.152557
7.403493
7.064939
6.072521
6.414652
6.645918
7.323623
7.631779
6.940961
6.593466
6.663799
7.399917
7.260442
7.425547
7.449985
8.297563
7.563829
8.199811
8.361936
6.916523
8.515716
8.896589
8.359551
9.122491
8.568764
9.360909
9.460449
9.251833
9.695888
10.433793
11.231899
11.145473
12.018681
12.463927
13.085604
14.461875
14.808774
16.012788
15.189648
14.575720
14.704466
13.807416
14.385581
12.059808
11.671782
11.985898
12.586713
11.223555
11.375546
11.491776
12.338758
11.464953
11.577606
11.743903
12.491941
10.793805
10.968447
9.467602
##ZVALUE=245
1.256466
1.431704
1.373887
1.399517
3.690720
10.133982
33.494830
67.127943
143.266916
222.871900
336.533785
424.531698
482.327938
500.565767
474.771857
402.393937
325.926542
224.907994
162.214637
110.484958
94.076991
92.916489
107.143521
119.530559
126.025677
121.908784
107.534528
94.687939
67.443848
52.803755
40.122867
23.983717
16.649961
10.427833
9.704828
8.593798
7.919669
7.469654
7.302761
6.818771
6.797910
7.082820
6.422997
6.277561
6.627440
6.437898
7.164478
5.961657
6.418824
7.199645
6.650686
6.731749
6.850958
6.835461
6.654859
6.743670
7.068515
6.582737
6.885529
7.282495
7.511973
7.018447
7.850528
7.742643
7.702708
7.428527
9.414554
8.873940
9.287596
9.765625
10.857582
12.484789
11.764765
12.973547
13.926625
11.817813
13.319850
12.651682
12.831688
13.058782
12.510419
11.821985
12.448430
11.175871
10.735989
11.811852
11.373758
10.894537
11.713505
11.669993
11.387467
10.280609
11.214614
10.602474
10.414720
10.011792
##ZVALUE=250
0.830889
0.614524
0.684857
0.775456
0.815988
1.105666
1.607537
6.190538
24.240613
52.005649
122.344494
208.058953
298.921466
424.806476
501.829982
565.800667
563.200712
507.096648
424.269438
295.669436
206.237435
140.264630
94.550848
88.029504
99.762678
111.300945
127.893686
133.158565
125.521421
118.552446
103.974938
78.600645
56.507587
34.630895
23.790598
13.982654
10.179877
8.170605
7.116795
6.821752
7.319450
6.436706
6.317496
5.911589
6.534457
6.301999
5.721450
5.849600
6.301999
5.634427
6.302595
5.671978
6.576777
6.111860
5.518794
5.918741
5.460978
6.150603
5.783439
6.466508
6.764531
6.292462
6.361604
6.336570
6.779432
6.759763
7.291436
7.744431
8.331537
7.907748
9.112954
9.667873
9.717941
10.662675
11.591911
11.169910
10.209680
11.100769
10.576844
11.047721
11.069775
10.490417
10.835528
10.262728
9.728670
8.899570
9.180903
9.427667
9.421706
8.266568
10.156631
9.105802
9.675622
9.096861
9.099841
9.160638
##ZVALUE=255
0.882745
0.945926
0.940561
0.854731
0.971556
1.196861
1.017451
1.155734
1.544952
3.401637
17.799735
41.012764
81.934929
175.584555
270.410776
421.854854
521.651506
612.524748
641.566515
598.970652
515.955687
411.678553
266.124606
173.615813
103.760958
82.821846
83.548427
95.299482
116.832852
131.973624
136.123896
136.244893
123.469830
101.044774
80.305934
53.408742
35.968423
20.805597
14.038682
9.144545
7.265806
6.544590
7.150769
6.586909
6.005764
6.353855
5.967617
6.279945
5.901456
6.042719
5.907416
5.825758
5.573630
5.597472
6.197691
5.817413
6.163716
5.695820
6.174445
5.915761
5.952716
6.114841
6.509423
6.397963
6.662607
6.837845
6.988645
7.610917
7.471442
7.715821
8.516908
8.877516
9.165406
10.019541
9.906888
10.187626
10.308623
9.612441
9.908676
9.591579
9.048581
9.270906
9.150505
8.773804
8.974671
8.736849
8.821487
8.378625
8.440614
7.643700
8.524656
8.135438
7.351637
8.480549
8.130670
8.608699
##ZVALUE=260
0.903606
0.765920
0.936985
0.919700
0.840425
0.987649
1.255870
1.014471
1.236796
1.136661
1.452565
2.416968
8.378625
30.930638
65.029860
123.475790
248.111486
364.046693
522.660017
627.890825
702.801943
702.571869
600.364804
495.648980
341.144800
232.160687
149.530768
86.005926
71.922541
75.798631
92.528462
120.363832
133.584738
142.193437
137.242675
122.584701
103.413463
76.243877
58.328509
36.215782
23.825765
14.049411
9.557605
7.583499
6.834865
6.976724
6.552935
5.907416
6.733537
6.169677
6.176829
6.049871
6.467700
6.001592
5.916953
5.957484
6.172657
6.012917
5.883574
6.241798
5.775690
5.951524
6.005764
6.147623
6.004572
6.554723
6.142855
6.856918
6.848574
7.380843
8.241534
7.601976
8.560419
9.319782
8.687973
9.373426
9.006858
8.443594
8.959770
8.545518
8.891821
8.526444
7.983446
6.915927
7.744431
7.474422
7.383823
7.166862
7.422566
7.434487
7.322431
6.831884
7.348657
7.093549
7.252693
7.051826
##ZVALUE=265
0.908971
0.895858
0.922680
0.895858
0.896454
0.822544
0.848770
0.929832
1.099706
1.328588
1.128912
1.273751
1.292825
1.814961
3.696680
24.519563
66.825747
159.294009
264.974833
456.864834
598.199964
714.526772
804.943442
802.287459
708.853602
595.876575
440.555811
314.883590
180.086493
112.183690
75.278878
62.573552
74.420571
98.984838
120.074749
137.523413
145.065784
135.520697
123.733878
100.990534
78.372955
52.029490
37.398934
22.397637
13.723969
8.983612
7.575750
6.662607
6.653666
6.300807
6.761551
6.670952
6.704926
6.139874
6.291866
6.264448
6.208420
6.264448
6.305575
6.277561
5.992651
6.085634
6.581545
6.287694
6.232858
5.922914
6.938577
6.255507
7.386804
6.952882
7.652640
7.753968
8.320808
8.479953
8.476973
8.917451
8.660555
8.342862
8.417964
7.613897
7.648468
7.057786
7.538795
7.157922
7.064939
6.719828
7.124543
6.630421
7.025599
7.022619
6.595850
6.870627
6.897449
6.801486
7.027984
7.289648
##ZVALUE=270
0.528693
0.532866
0.575781
0.505447
0.838637
0.793934
0.707507
0.640750
0.700951
0.813603
0.641942
0.673532
0.980496
1.066923
1.009703
1.371503
1.702905
8.466840
27.970672
100.383759
195.842981
323.999524
534.127951
677.204728
809.684992
841.403008
801.816583
708.298683
537.418723
406.836867
310.854912
150.784850
90.023875
55.498481
57.069659
77.246428
98.794699
123.689771
137.613416
143.055916
138.403773
121.970773
103.556514
76.671839
56.591630
34.493804
23.453832
14.649630
10.203719
7.241964
6.874800
6.482601
6.614923
6.518960
6.472468
6.805658
6.449819
6.255507
6.256700
6.379485
6.086826
6.285906
6.426573
6.340742
6.182790
6.285906
6.647706
6.178617
6.394982
6.979704
6.836653
7.066727
7.671714
7.428527
7.813573
7.906556
7.951856
7.021427
6.887913
7.470846
6.408691
6.711483
6.704926
6.636977
6.769896
6.417632
6.979704
6.147623
6.442666
5.929470
6.007552
5.954504
6.459951
6.168485
5.949736
5.640984
##ZVALUE=275
0.798702
0.792742
0.724792
0.674725
0.637770
0.649691
0.772476
0.846982
0.561476
0.675917
0.801682
0.804663
0.836849
0.913739
0.997782
1.013875
1.275539
1.193881
1.548529
3.384948
12.520552
53.106546
109.836459
238.488913
378.588438
582.191944
698.728561
811.723471
837.776661
765.907764
660.549998
475.412011
341.787934
187.581778
112.529993
56.998730
44.832826
55.012703
70.662498
96.813440
114.782453
135.997534
140.436888
134.406686
124.205947
97.578764
78.107715
53.194761
38.061738
23.006797
15.456676
9.493828
7.946491
7.282495
7.149577
6.834865
7.043481
6.650686
6.193519
6.573796
6.429553
6.529689
6.495714
6.357431
6.590486
6.261468
6.520748
6.444454
6.569624
6.828904
7.101893
6.809831
7.164478
7.465482
7.725954
7.636547
7.201433
7.567406
7.268786
7.036924
7.043481
6.887913
6.118417
6.326437
6.444454
6.166697
6.219745
6.087422
6.309748
6.038547
6.425977
6.339550
6.185770
5.988479
6.105900
6.425977
##ZVALUE=280
0.619888
0.565648
0.596642
0.578761
0.645518
0.720620
0.591874
0.861883
0.904799
0.826716
0.704527
0.886917
0.824928
0.936985
1.058578
0.856519
0.965595
1.016855
1.067519
1.402497
1.384616
1.861453
9.090900
30.521750
94.383955
171.397924
318.246484
462.436676
653.252602
773.482919
853.393674
841.913819
757.851005
571.271777
420.380831
239.157677
143.326521
68.018436
41.551590
37.796497
48.307776
71.867704
91.684461
116.829872
129.303932
137.025714
132.158995
116.976500
101.332664
74.460506
55.613518
34.731627
24.225712
14.575720
10.033846
7.055998
6.614923
6.569624
6.515980
6.302595
6.538630
6.633997
6.439686
6.467700
6.654859
6.600618
6.679893
6.447434
6.666780
7.091761
6.897449
7.169843
6.952882
7.078648
7.634759
7.116795
7.280707
7.415414
6.882548
6.502867
6.553531
6.422997
6.490946
6.286502
6.545782
6.608963
6.765723
6.451607
6.422997
6.697774
6.141663
6.207824
6.004572
6.328821
6.244779
6.268620
##ZVALUE=285
0.618696
0.644922
0.674725
0.545979
0.482798
0.773668
0.564456
0.732541
0.723600
0.689626
0.756979
0.740886
0.681877
0.821948
0.836849
0.795722
0.858903
0.962615
0.892878
0.939965
1.082420
1.185536
1.478791
1.578927
4.302859
16.178489
53.857565
110.375881
237.156749
370.342731
518.047810
710.424781
824.179649
871.604681
821.861625
670.571923
525.338650
326.845646
203.561783
99.507570
51.775575
29.218793
30.995607
46.158433
65.547824
91.193914
110.109448
124.708414
133.910775
127.963424
117.117763
96.731782
78.021884
54.169893
37.705898
22.735000
15.074611
9.964705
7.519722
6.750822
6.350875
6.648898
6.583929
6.532669
6.458759
6.926656
6.838441
6.348491
7.070899
7.291436
7.358789
7.374883
7.326603
7.428527
7.076859
7.157922
7.375479
7.072687
6.755590
7.031560
6.896853
6.945729
6.797910
6.731749
6.683469
6.855726
6.685853
7.031560
6.793737
6.549954
6.671548
6.293654
6.354451
6.331801
6.395578
6.299615
##ZVALUE=290
0.621676
0.601411
0.630617
0.720620
0.535846
0.545979
0.630617
0.663996
0.712872
0.734925
0.684857
0.805855
0.781417
0.703931
0.674725
0.632405
0.615716
0.702739
0.853539
0.933409
0.921488
1.021624
1.120567
1.267791
1.355410
1.437664
1.924634
5.890727
28.349757
68.258643
134.709477
281.538963
426.133871
632.256866
757.379532
846.915841
834.373832
715.379715
582.985878
397.047997
265.224576
134.290457
72.566867
31.422973
21.809936
29.465556
41.999817
62.605739
81.865788
105.945468
119.590759
128.385425
126.379728
113.994479
97.314715
73.536634
54.476857
34.476519
24.700761
14.576912
10.726452
7.323623
6.466508
6.190538
6.549954
6.257892
6.232858
6.172657
6.012917
6.239414
6.530881
6.945729
6.945729
6.958842
7.235408
6.858706
7.084608
7.014871
6.750822
6.983876
6.970763
6.980896
7.054806
6.657839
6.800890
6.547570
7.090569
6.780624
6.699562
6.880760
7.070899
7.164478
6.717443
6.381869
6.646514
6.973743
##ZVALUE=295
0.668764
0.486970
0.578761
0.594854
0.547767
0.683665
0.458956
0.636578
0.648499
0.648499
0.594854
0.776649
0.505447
0.680685
0.513792
0.722408
0.663996
0.790954
0.841618
0.919700
0.876784
0.815988
0.934601
0.930429
1.035929
1.110435
1.232624
1.339912
1.521707
2.602935
14.557838
40.350556
114.265680
209.456682
388.192534
539.937615
724.999905
825.034976
857.962966
806.705952
657.326579
513.876677
321.316719
198.207498
91.898441
45.632720
20.182729
17.607808
26.088953
38.502812
59.245825
76.819658
99.262595
112.916827
121.739507
121.021867
107.686520
92.669725
70.433617
54.740906
34.662485
24.528503
14.975667
10.410547
7.178783
6.781816
6.077886
6.193519
6.122589
5.958676
6.336570
6.374717
6.838441
6.812811
6.936789
7.020831
6.798506
6.838441
6.892681
7.009506
7.024407
6.648898
6.920695
7.085800
7.152557
6.942749
6.924868
7.187724
7.219911
6.933808
6.975532
6.968975
7.459521
6.914735
6.931424
6.917715
##ZVALUE=300
0.484586
0.574589
0.627637
0.499487
0.562668
0.571609
0.575781
0.550747
0.670552
0.647902
0.728965
0.617504
0.607967
0.615716
0.668764
0.623465
0.745654
0.808835
0.631809
0.890493
0.751615
0.746846
0.794530
0.957847
0.931621
0.943542
0.959635
0.955462
1.232624
1.223683
1.468658
1.693964
6.231666
22.556782
76.634884
148.283839
303.173661
459.450483
660.486817
780.555606
866.102576
853.077769
726.577640
593.233705
390.239954
254.580975
128.922462
70.158839
28.365850
15.655756
16.359687
22.729635
36.536455
51.232576
72.685480
89.803934
108.260512
113.637447
113.893747
106.555820
89.127421
73.475838
52.227974
38.085580
22.769570
15.485883
9.557605
7.210970
6.315708
5.992651
6.056428
6.179810
6.077886
6.250739
6.518960
6.830692
6.605983
6.444454
6.397963
6.773472
6.755590
6.760955
6.497502
6.672740
6.918907
6.848574
6.700754
6.826520
7.093549
7.154942
7.031560
7.207990
7.152557
7.157922
6.887913
7.002950
##ZVALUE=305
0.501871
0.465512
0.507832
0.564456
0.529885
0.434518
0.556707
0.527501
0.442863
0.542998
0.610948
0.559688
0.581741
0.515580
0.491738
0.592470
0.611544
0.612736
0.798702
0.660419
0.593662
0.856519
0.846982
0.836849
0.669956
0.815988
1.003742
1.059771
0.964999
1.186728
1.156926
1.210570
1.296997
1.691580
2.629757
15.061498
41.863918
118.717551
213.023424
389.947891
547.976494
740.863681
844.280720
874.449015
812.288523
639.092922
490.917563
310.457945
192.802548
88.797808
44.211745
17.288923
11.894703
14.661551
20.877719
35.251975
49.282908
70.449710
85.614920
102.805495
108.035803
108.307004
99.858642
84.254742
68.687797
49.338937
35.315752
21.283627
14.641881
9.139776
7.887483
6.284714
6.168485
5.883574
6.097555
6.110668
6.174445
6.112456
6.290674
6.349683
6.535649
6.262660
6.497502
6.763935
6.803870
7.146597
7.119775
6.850958
6.755590
7.021427
7.217526
6.975532
7.123947
6.609559
6.708503
6.860495
##ZVALUE=310
0.498891
0.476837
0.609756
0.511408
0.623465
0.618696
0.656843
0.481606
0.480413
0.495911
0.457764
0.529885
0.501871
0.699759
0.632405
0.559688
0.610948
0.686646
0.765920
0.737906
0.655651
0.699759
0.671744
0.648499
0.572801
0.793934
0.808835
0.941753
0.939965
0.917912
1.016855
0.807643
1.148582
0.997782
1.012683
1.343489
1.406670
5.671978
19.783974
67.235827
133.621693
279.928446
425.660610
635.207891
761.357546
857.206583
847.504735
744.069815
612.267852
410.995483
275.919437
135.488510
72.750449
27.972460
13.462901
9.739995
12.758970
20.538568
29.330850
44.637918
59.246421
78.800917
92.218518
100.944638
101.761818
94.571710
83.225965
66.574812
50.602555
32.871962
22.669435
14.298558
10.313988
7.162690
6.332994
5.819798
5.576611
5.643964
5.800724
5.835891
6.152987
5.818605
6.071925
6.104708
6.494522
6.615520
6.593466
6.530881
6.836653
6.700754
6.516576
6.432533
6.687641
6.323457
6.366968
6.469488
##ZVALUE=315
0.457764
0.522733
0.530481
0.480413
0.481606
0.445843
0.538826
0.482798
0.462532
0.407696
0.519753
0.562668
0.587702
0.505447
0.763535
0.598431
0.612736
0.612736
0.612736
0.747442
0.552535
0.527501
0.482798
0.608563
0.637770
0.702739
0.592470
0.588894
0.649691
0.804663
0.536442
0.847578
0.754595
1.030564
0.930429
1.118779
1.301765
1.209974
1.328588
2.734661
9.692907
42.235851
95.554590
218.344927
355.470777
573.849678
711.614490
844.982862
884.223580
821.674466
711.704493
510.163903
359.578729
191.941857
103.845000
38.377643
17.352700
8.714795
8.989573
12.039542
16.627908
27.361512
39.703846
56.430697
70.388913
88.163614
95.070004
96.991658
91.300607
76.460838
63.788891
46.628714
34.036636
20.930767
14.269948
8.840561
7.173419
5.929470
5.670786
5.656481
5.393624
5.853772
5.688667
5.984902
6.154776
5.948544
5.999804
6.227493
6.199479
6.360412
6.364584
6.096959
6.159544
6.053448
6.088614
6.114841
##ZVALUE=320
0.433922
0.325441
0.459552
0.380874
0.328422
0.388622
0.356436
0.471473
0.526905
0.500679
0.500679
0.502467
0.373721
0.432730
0.412464
0.401735
0.422597
0.518560
0.559688
0.514984
0.435710
0.571609
0.360608
0.635982
0.544786
0.460744
0.623465
0.634789
0.712872
0.841618
0.613928
0.714660
0.776649
0.763535
0.848770
0.928640
0.926852
0.983477
0.941753
1.031756
1.395941
1.550913
4.464984
24.974942
63.920617
161.457658
270.571709
460.296869
614.554882
781.357884
855.156779
848.719478
762.291551
584.306717
426.410437
238.546729
133.990645
55.332780
25.595427
10.344982
7.426739
7.750988
9.749532
14.879704
22.266507
36.944747
49.379468
67.104697
79.276562
89.678764
90.482831
84.556937
74.566603
57.167411
44.884682
30.741692
21.691918
12.764931
9.287000
6.427765
5.705953
5.541444
5.478859
5.555749
5.313754
5.623698
5.291700
5.806684
5.462766
5.631447
5.660653
5.755424
5.686879
5.814433
5.489588
5.680919
##ZVALUE=325
0.411868
0.468493
0.379682
0.492930
0.317693
0.526905
0.428557
0.532866
0.532866
0.485778
0.459552
0.462532
0.385642
0.570416
0.385642
0.541806
0.529885
0.657439
0.652671
0.619888
0.555515
0.671744
0.660419
0.676513
0.629425
0.696778
0.711679
0.484586
0.670552
0.547767
0.596642
0.725985
0.731945
0.822544
0.828505
0.898838
0.868440
0.706911
0.906587
0.976920
1.102686
1.051426
1.292825
1.398921
2.678633
10.663867
43.912530
91.322660
210.957527
348.903537
563.022494
707.273483
846.378803
877.161026
796.746016
678.153634
464.150906
321.976542
173.650980
94.030499
34.410954
15.488863
7.207990
6.350875
7.079840
9.189844
14.309883
21.687746
35.654902
48.840642
65.730810
75.711608
83.424449
85.386634
79.103708
69.407821
54.934621
42.133927
27.845502
19.430518
12.070537
8.855462
6.742477
5.749464
5.257726
5.191565
5.412698
5.333424
5.301833
5.449653
5.125999
5.544424
5.354881
5.231500
5.343556
5.289912
##ZVALUE=330
0.472665
0.481606
0.396967
0.297427
0.381470
0.556707
0.657439
0.489950
0.504851
0.480413
0.324845
0.508428
0.595450
0.357628
0.463724
0.387430
0.581741
0.500679
0.542998
0.363588
0.716448
0.633597
0.437498
0.513792
0.545979
0.531673
0.552535
0.624657
0.596642
0.481606
0.528693
0.647902
0.851750
0.745654
0.689626
0.689626
0.722408
0.789762
0.989437
0.871420
0.772476
0.858903
1.006722
1.056790
1.276731
1.172423
1.540780
6.230474
19.742846
67.839622
134.027004
280.293822
421.142578
632.373691
770.190954
876.997709
862.993598
748.003721
602.992773
396.182537
254.105926
119.502544
59.596896
20.712614
9.222627
5.808473
5.910993
6.742477
8.176565
13.985634
20.937920
32.107830
43.439865
59.922934
69.804788
77.885985
78.718662
73.723793
64.684749
50.360560
38.673878
26.254654
18.861890
12.667775
9.164810
6.431937
5.893707
5.248785
5.222559
5.170703
4.623532
5.040765
4.942417
4.687905
5.048513
4.638433
##ZVALUE=335
0.596642
0.384450
0.499487
0.411868
0.533462
0.447631
0.464916
0.386834
0.444651
0.484586
0.518560
0.483990
0.272989
0.423789
0.414848
0.436902
0.487566
0.546575
0.475645
0.552535
0.461936
0.504851
0.543594
0.489950
0.491738
0.529885
0.660419
0.623465
0.662804
0.614524
0.446439
0.675917
0.499487
0.553727
0.823736
0.699759
0.624657
0.543594
0.735521
0.809431
0.902414
0.877976
0.851750
1.000762
1.019835
1.053810
0.981688
1.191497
1.302958
2.863407
10.288954
42.047501
89.875460
201.256871
327.999592
527.288914
671.944618
812.188983
851.174593
801.353455
698.103905
502.514839
348.803997
191.245675
100.808740
33.370852
13.489723
6.403923
5.594492
5.605817
6.264448
9.052753
12.961626
20.960569
29.449463
43.740869
54.597855
67.399740
73.071718
75.204968
70.603490
59.691668
50.385594
37.593842
28.907657
18.764734
13.267994
8.521676
6.789565
5.359650
5.283952
4.597902
4.751682
4.519820
4.672408
4.633665
##ZVALUE=340
0.392795
0.439882
0.520945
0.372529
0.253916
0.428557
0.296831
0.232458
0.545979
0.417829
0.428557
0.470877
0.513792
0.375509
0.298619
0.237823
0.490546
0.468493
0.568628
0.490546
0.398755
0.562668
0.539422
0.483990
0.528693
0.591874
0.680685
0.513792
0.528693
0.482798
0.468493
0.464916
0.414848
0.435710
0.676513
0.491738
0.510812
0.439882
0.533462
0.638962
0.669956
0.538826
0.690818
0.753999
0.710487
0.908971
0.753999
0.825524
1.056790
1.134872
1.178980
1.651645
4.845858
25.214553
61.900616
154.143572
260.864496
427.957773
559.333563
704.581738
757.166743
739.890933
663.103461
508.776903
373.695493
205.464959
117.939711
49.486756
19.920468
6.730556
5.529523
5.340576
5.424619
6.185770
7.898808
12.628436
18.277764
29.043555
39.279461
53.027868
61.134696
68.222880
69.742799
65.132976
58.024526
46.244860
37.722588
26.186705
19.219518
12.709498
9.109974
6.088614
5.279779
4.582405
4.287958
4.239678
##ZVALUE=345
0.392795
0.442863
0.370741
0.391603
0.494719
0.292659
0.400543
0.193715
0.415444
0.428557
0.417829
0.415444
0.456572
0.387430
0.341535
0.295639
0.354648
0.409484
0.368953
0.323653
0.590682
0.393987
0.625849
0.507832
0.503659
0.399947
0.387430
0.610948
0.551939
0.599623
0.336766
0.492930
0.525713
0.578761
0.456572
0.535846
0.577569
0.532866
0.439882
0.490546
0.497699
0.544786
0.826716
0.709891
0.702739
0.798702
0.714660
0.733733
0.754595
0.925660
0.865459
0.980496
1.179576
1.294613
2.172589
13.233423
38.087964
103.834867
187.362432
344.852805
473.890901
628.364682
707.522035
733.029842
683.080554
541.780591
416.243672
255.395770
148.329735
61.484575
28.433800
9.800792
6.014705
5.237460
4.997849
4.961491
5.499721
7.084608
10.149479
18.082857
25.363564
38.209558
46.418905
55.685639
61.121583
63.783526
61.235428
54.655671
46.951771
35.946965
27.367473
17.765760
12.892485
8.140802
6.204844
4.835725
##ZVALUE=350
0.335574
0.385642
0.437498
0.387430
0.354648
0.369549
0.435710
0.485778
0.558496
0.437498
0.529885
0.364780
0.468493
0.510812
0.402927
0.471473
0.589490
0.526905
0.474453
0.432730
0.609756
0.446439
0.490546
0.414848
0.628829
0.542998
0.427961
0.409484
0.444651
0.580549
0.602603
0.629425
0.517964
0.500679
0.450611
0.438690
0.535846
0.633597
0.546575
0.718832
0.673532
0.518560
0.745654
0.518560
0.649691
0.814795
0.691414
0.712872
0.675917
0.716448
0.789762
0.883937
0.851750
0.931621
1.007915
1.146793
1.452565
7.045865
21.912456
69.092512
133.188963
271.694660
394.553542
554.126501
655.427575
718.244910
693.903565
582.038760
459.219813
281.655788
174.999833
77.651739
36.136508
11.452436
6.153584
5.014539
4.700422
4.314780
4.560947
4.982948
6.572604
10.753870
14.985800
22.998452
30.267835
41.426420
49.302578
56.126714
57.999492
56.495667
51.793456
42.627454
34.675598
24.180412
18.022656
12.305975
##ZVALUE=355
0.418425
0.539422
0.451803
0.414848
0.542998
0.529885
0.392795
0.456572
0.377893
0.432730
0.442863
0.367761
0.571609
0.383854
0.521541
0.377893
0.441670
0.425577
0.435710
0.451803
0.471473
0.427961
0.469685
0.491738
0.479817
0.541806
0.491738
0.470877
0.493526
0.450611
0.545979
0.479817
0.358820
0.553727
0.551939
0.520945
0.755787
0.462532
0.655651
0.435710
0.508428
0.573993
0.532866
0.634789
0.704527
0.541806
0.798702
0.721812
0.771880
0.765920
0.651479
0.815988
0.708699
0.957847
0.852942
0.963807
0.994802
1.273751
1.418591
3.276467
11.391640
44.085979
91.944933
197.572708
313.917994
491.404533
606.440902
697.338581
709.540844
621.399879
509.511828
345.851779
223.490000
100.001693
48.208833
15.500784
6.817579
4.851818
4.470944
4.209876
3.869534
4.278421
4.372001
6.274581
8.391738
13.333559
18.940568
27.414560
35.080910
43.704510
49.520731
53.323507
51.969886
47.490597
41.462779
32.615662
##ZVALUE=360
0.562668
0.525713
0.623465
0.619888
0.651479
0.576973
0.295639
0.618696
0.603795
0.750422
0.741482
0.637770
0.626445
0.674725
0.657439
0.637770
0.659823
0.712872
0.695586
0.660419
0.601411
0.560880
0.790954
0.629425
0.652671
0.758767
0.704527
0.766516
0.727773
0.646710
0.695586
0.869632
0.600815
0.692606
0.804663
0.634789
0.852942
0.822544
0.836849
0.664592
0.676513
0.820756
0.830889
0.819564
0.861883
0.856519
0.779629
0.866652
0.864863
0.898838
0.903606
0.760555
0.924468
0.991821
0.919700
0.935793
1.055598
1.062751
1.212955
1.383424
1.530647
1.954436
5.238652
23.140907
57.187676
143.669844
241.415501
396.976471
532.479882
661.524534
701.040626
659.627914
568.748713
393.214822
266.886950
131.653547
69.283843
26.494861
11.290908
5.273819
4.449487
4.360676
4.129410
3.818870
3.553629
4.223585
5.030632
7.314682
9.938478
15.464425
22.258759
30.988455
37.721992
44.310689
47.854781
48.070550
##ZVALUE=365
0.540614
0.541806
0.526905
0.439882
0.586510
0.656843
0.661612
0.569820
0.638962
0.464916
0.527501
0.535846
0.515580
0.677705
0.645518
0.474453
0.521541
0.567436
0.620484
0.662804
0.539422
0.651479
0.697970
0.574589
0.712872
0.716448
0.649691
0.691414
0.649691
0.711679
0.765920
0.682473
0.682473
0.607967
0.635982
0.680685
0.547767
0.820756
0.667572
0.756979
0.789762
0.863671
0.831485
0.596642
0.771880
0.787973
0.798702
0.813603
0.815988
0.805855
0.904799
0.942945
0.893474
0.874996
0.889897
0.898838
0.838637
0.870824
1.066923
1.008511
1.034737
1.213551
1.315475
1.487732
2.544522
12.893677
35.651922
93.589425
174.302459
328.016877
451.973677
592.975616
666.652918
673.136711
604.463816
454.811454
332.127810
188.711882
102.443695
37.891865
15.415549
5.789995
4.338622
4.115701
3.882647
3.508925
3.414750
3.377795
3.444552
4.452467
5.455613
8.859634
12.598634
19.323826
25.451779
33.314824
##ZVALUE=370
0.473857
0.492930
0.327826
0.416636
0.505447
0.477433
0.408888
0.459552
0.419617
0.394583
0.492930
0.436902
0.362992
0.331998
0.435710
0.458956
0.389814
0.578761
0.554919
0.505447
0.409484
0.408888
0.441670
0.469685
0.535846
0.368953
0.456572
0.434518
0.397563
0.514984
0.424981
0.608563
0.468493
0.461936
0.462532
0.489950
0.565648
0.445843
0.445843
0.511408
0.582933
0.556707
0.548959
0.503659
0.553727
0.669956
0.468493
0.596642
0.479817
0.551939
0.457764
0.588894
0.671744
0.696778
0.596642
0.730753
0.739694
0.658631
0.770688
0.725985
0.877976
0.898838
0.893474
0.806451
1.009703
1.204610
1.748800
5.116463
25.801659
63.062906
149.864554
244.932771
404.580832
531.047583
651.538968
681.023598
619.261861
515.535474
346.434712
231.613517
117.401481
58.689713
19.945502
8.433461
4.315972
3.876686
3.669858
3.393888
3.318787
2.774596
2.843738
3.195405
3.747940
4.625916
7.292628
10.471940
##ZVALUE=375
0.320673
0.371933
0.360608
0.418425
0.430942
0.466704
0.512600
0.429749
0.389814
0.348687
0.320673
0.330806
0.465512
0.380874
0.420809
0.379682
0.419617
0.396967
0.549555
0.542998
0.437498
0.502467
0.456572
0.482798
0.427961
0.542998
0.499487
0.618696
0.392795
0.354648
0.395775
0.454783
0.439882
0.491738
0.481606
0.537634
0.477433
0.559688
0.463724
0.532866
0.493526
0.473857
0.445843
0.373721
0.472665
0.500679
0.473857
0.479817
0.462532
0.559688
0.498891
0.662804
0.590682
0.669956
0.665784
0.619888
0.507832
0.642538
0.736713
0.689626
0.675917
0.747442
0.860691
0.751615
0.857711
0.884533
0.992417
1.188517
1.305938
2.884865
15.342832
39.836764
103.754997
186.111927
337.876678
462.886691
603.792667
668.757558
658.394694
581.823587
424.060822
301.933885
169.716477
94.224811
37.049651
16.195774
5.321503
3.891587
3.561974
3.048778
3.117919
3.042817
2.781749
2.940893
2.925992
3.166795
##ZVALUE=380
0.379682
0.318885
0.293851
0.279546
0.372529
0.513792
0.351667
0.204444
0.340939
0.419617
0.407696
0.276566
0.399947
0.348687
0.464916
0.349879
0.574589
0.597835
0.518560
0.565648
0.448823
0.402927
0.485778
0.294447
0.519753
0.470877
0.346899
0.306964
0.435710
0.425577
0.407696
0.398755
0.422597
0.452995
0.432730
0.509620
0.493526
0.568628
0.359416
0.513792
0.478625
0.520945
0.585914
0.431538
0.530481
0.507832
0.687838
0.521541
0.591874
0.567436
0.456572
0.592470
0.622869
0.513792
0.636578
0.623465
0.499487
0.432730
0.583529
0.594854
0.585914
0.662804
0.626445
0.680685
0.678897
0.707507
0.860691
0.877976
0.901818
1.063943
1.262426
1.814961
7.983446
24.800897
75.380802
142.730474
277.686715
409.307480
566.162467
640.799999
664.059520
610.618591
483.529568
366.367698
216.478705
127.763748
54.414868
25.525689
8.039474
4.062653
3.177524
3.126860
3.029704
3.118515
2.715588
2.740622
##ZVALUE=385
0.347495
0.347495
0.455976
0.417829
0.147820
0.344515
0.529885
0.294447
0.362992
0.311732
0.298619
0.325441
0.424981
0.507832
0.347495
0.346899
0.459552
0.270605
0.357628
0.345707
0.502467
0.443459
0.409484
0.444651
0.444651
0.463724
0.544786
0.334978
0.341535
0.549555
0.434518
0.494719
0.425577
0.433922
0.503659
0.409484
0.429749
0.477433
0.585914
0.523925
0.562668
0.600815
0.600815
0.533462
0.512600
0.589490
0.378489
0.457764
0.676513
0.481606
0.421405
0.583529
0.601411
0.526905
0.650883
0.518560
0.577569
0.483990
0.591874
0.687838
0.540614
0.587702
0.562668
0.720620
0.544786
0.622869
0.661612
0.812411
0.905991
0.732541
1.131892
1.144409
1.019835
1.252890
3.846884
13.337731
51.353574
107.229948
228.006840
349.509716
519.179702
615.943670
670.580864
653.302670
548.279881
435.251594
275.590420
176.265836
81.302524
41.338801
14.296770
6.045699
3.256798
2.823472
2.976656
2.782941
##ZVALUE=390
0.326633
0.332594
0.257492
0.207424
0.290871
0.380874
0.431538
0.304580
0.421405
0.253916
0.410676
0.438690
0.283718
0.362992
0.419617
0.343919
0.295639
0.362992
0.440478
0.254512
0.364780
0.302792
0.216961
0.403523
0.439882
0.453591
0.424981
0.469685
0.383854
0.374913
0.535846
0.486970
0.503659
0.677705
0.669956
0.443459
0.441670
0.671744
0.278950
0.551939
0.533462
0.474453
0.411868
0.609756
0.468493
0.639558
0.589490
0.536442
0.510812
0.614524
0.563860
0.512600
0.478625
0.382662
0.528693
0.607967
0.569820
0.600815
0.594854
0.624657
0.555515
0.654459
0.668764
0.692606
0.601411
0.566840
0.683665
0.669956
0.761747
0.758767
0.947714
0.984669
1.103878
0.912547
1.074672
1.140833
1.757741
8.907914
28.286576
87.121725
164.947510
310.076475
438.660979
592.298508
672.554970
705.206990
654.283762
515.985489
394.346714
239.853859
139.139891
56.525469
26.820898
8.813739
4.147887
3.229976
##ZVALUE=395
0.426769
0.377893
0.342727
0.307560
0.326633
0.392795
0.386834
0.293851
0.397563
0.295639
0.475645
0.343919
0.376701
0.299811
0.320673
0.306964
0.364780
0.440478
0.352859
0.362992
0.452995
0.490546
0.461936
0.559688
0.364780
0.532866
0.417829
0.412464
0.543594
0.531673
0.424981
0.463724
0.393987
0.555515
0.680685
0.628829
0.684857
0.519753
0.579953
0.577569
0.616908
0.578761
0.569820
0.530481
0.554919
0.443459
0.638962
0.519753
0.492930
0.571609
0.600815
0.610948
0.427961
0.644922
0.579953
0.578761
0.532866
0.699759
0.603795
0.622869
0.665784
0.640750
0.611544
0.661612
0.619888
0.674725
0.625849
0.727773
0.774860
0.834465
0.861883
1.119971
0.911951
0.964999
0.969768
1.062751
1.142621
0.979900
1.384616
4.988909
18.177629
63.731670
121.910572
235.985518
354.323983
541.127920
668.788552
767.161846
769.003034
667.601824
528.917909
327.397585
202.748775
86.319447
40.107965
13.587475
##ZVALUE=400
0.511408
0.438690
0.440478
0.474453
0.487566
0.263453
0.355840
0.409484
0.400543
0.229478
0.302792
0.336766
0.284910
0.532866
0.305772
0.545979
0.452995
0.493526
0.444651
0.285506
0.339746
0.346899
0.421405
0.378489
0.392795
0.377893
0.440478
0.368953
0.468493
0.480413
0.478625
0.409484
0.627637
0.724792
0.552535
0.590682
0.569820
0.762939
0.624657
0.377893
0.513792
0.486970
0.579953
0.481606
0.473857
0.608563
0.506639
0.427961
0.503659
0.443459
0.670552
0.459552
0.542998
0.637770
0.577569
0.481606
0.619888
0.569820
0.579953
0.654459
0.655651
0.600815
0.600815
0.744462
0.607967
0.648499
0.663996
0.715852
0.881553
0.660419
0.746846
0.895858
0.867844
0.917912
0.865459
0.879765
0.987649
0.926852
1.024604
1.118779
1.144409
2.747774
9.155869
35.888553
78.391433
178.811550
291.872621
468.375683
590.014458
710.650682
744.318962
679.190755
574.263930
394.920707
259.653926
128.614902
##END
