##TITLE=DDWF02
##FORMAT=SPECTACLE-ASCII V-1.2
##DATA TYPE=ULTRAVIOLET SPECTRUM
##SECOND TYPE=ULTRAVIOLET SPECTRUM
##DATE=12/11/17
##TIME=14:37:46
##SPECTROMETER/DATA SYSTEM=SPECTACLE
##XUNITS=NM EM
##YUNITS=ENERGY
##YFACTOR=1
##FIRSTX=220
##LASTX=410
##NPOINTS=96
##3DDATA=Equidistant
##ZUNITS=NM EX
##FIRSTZ=210
##LASTZ=400
##ZPOINTS=39
##XYDATA=(Y..Y)
##ZVALUE=210
17.921925
19.299984
14.501810
12.900829
10.823607
9.195805
8.898973
7.731915
7.123947
4.890561
4.315972
3.497601
2.783537
2.746582
2.616644
2.615452
3.523827
3.121495
3.464818
3.220439
3.462434
3.413558
4.030466
4.268885
4.400611
4.977584
6.077886
6.597638
7.535815
7.466674
9.439588
9.009838
9.487867
10.495782
10.444522
10.495782
10.518432
11.240840
9.799600
10.109544
9.558797
9.789467
10.731816
10.689497
10.898709
9.657741
9.686947
8.566976
10.084510
9.538531
9.812713
10.100603
10.067821
8.570552
10.229945
9.287000
9.036660
9.148717
8.871555
9.395480
8.226633
8.852482
9.197593
9.433627
10.651946
8.773804
10.241866
9.911656
11.730790
14.519691
14.590621
18.914938
21.497607
22.625923
25.844574
26.234984
27.516484
27.915835
28.733611
27.175546
26.165843
23.961663
20.410419
17.372966
15.552640
13.551712
10.855794
9.861588
10.542870
11.144876
17.033815
17.765760
26.778579
30.978918
42.568445
47.392845
##ZVALUE=215
57.304502
53.830743
43.690801
31.467676
24.616718
18.961430
17.373562
16.052723
14.974475
15.007854
11.860728
9.369850
6.971955
5.680919
4.318953
3.744960
2.756715
3.096461
3.233552
3.516674
3.593564
3.392696
3.850460
4.805923
4.394650
5.569458
6.477833
7.029772
7.359982
8.396506
9.669662
10.457635
11.327863
13.392568
12.613535
12.146831
12.819767
13.242960
12.683868
12.629628
12.639761
11.093616
11.541843
11.060834
11.479855
12.131929
10.956526
10.137558
10.059476
10.612607
11.052489
10.333657
10.313988
10.474920
9.697676
10.389686
10.178685
11.042953
10.310411
10.066628
10.932684
9.728670
10.101795
9.942651
9.742975
10.252595
10.205507
11.796951
11.999607
13.597608
15.973449
18.119812
19.581914
22.776723
23.270845
25.455952
25.501847
26.156902
26.207566
25.625825
22.046566
20.583868
19.580722
16.141534
14.746785
12.368560
10.674596
10.112524
10.114908
10.646582
9.571910
9.242892
9.672642
10.745525
15.739799
21.171570
##ZVALUE=220
126.545429
122.543573
122.476816
99.194646
77.830553
60.523748
46.103597
32.863617
29.039979
26.855469
26.391745
26.171803
22.653937
20.218492
15.632510
11.018515
7.302761
6.357431
4.240870
3.852844
3.971457
4.302859
3.919601
4.385710
5.105734
5.950928
6.340742
7.585883
9.268522
10.167956
11.820793
13.385415
14.897585
14.572740
15.314817
15.999675
16.211867
15.216470
15.355945
14.840961
14.454722
15.263557
14.383793
14.181733
12.488961
12.929440
13.714433
12.453794
12.526512
11.035800
10.385513
11.282563
11.348724
11.715889
11.923909
12.311935
11.400580
11.533499
11.904836
13.291836
11.586547
12.385845
11.152625
11.058450
10.986924
11.609793
12.517571
13.280511
13.087988
15.312433
15.734434
17.560720
20.441413
22.998452
23.814440
25.815964
26.182532
26.701689
25.949478
26.915669
25.230646
21.750927
19.285679
17.178655
16.222000
12.820959
12.630820
11.525750
10.503531
9.965897
10.542870
10.189414
10.173917
9.054542
9.222627
9.730458
##ZVALUE=225
149.582624
160.823464
188.869834
200.305581
198.203921
175.036788
150.572658
101.567507
74.441433
57.980418
43.410659
39.517879
39.985776
40.046573
38.527846
33.374429
27.966499
22.476912
16.192794
10.188818
7.000566
4.524589
5.092621
4.149675
5.407929
6.804466
7.594824
8.985996
9.942651
11.822581
13.443828
13.592839
15.381575
17.090440
18.577576
17.249584
19.441843
17.861724
18.675923
18.140674
16.712546
15.974641
15.974641
16.876459
15.708804
14.693737
14.671683
13.411641
13.908744
13.295412
13.137460
13.759732
13.044477
13.913512
13.706684
13.012886
13.214946
14.175773
14.724731
12.759566
11.615753
13.463497
12.655854
12.691617
14.822483
13.748407
13.239980
13.928413
13.797879
17.441511
17.385483
17.624497
19.930601
21.339655
21.937490
21.356940
22.760630
21.584630
22.614598
22.491813
18.822551
19.854903
18.091798
16.636848
15.202761
13.594627
12.111664
10.398626
12.294650
11.351705
11.484623
11.855960
10.848641
11.236668
12.090802
11.853576
##ZVALUE=230
101.036429
114.465952
160.299540
234.934688
284.164548
320.894718
333.689451
297.433734
257.529616
203.859806
128.541589
89.727640
62.556863
57.123899
59.285760
63.382983
65.664649
60.724616
49.448609
41.372776
31.588674
20.436645
13.191700
9.023547
7.864833
8.614659
7.450581
8.884668
11.561513
11.412501
13.864636
14.186502
15.910864
17.648935
17.146468
18.452406
18.241405
17.186999
17.968416
17.734766
16.465783
17.612576
15.978813
15.227795
16.758442
15.573502
15.938878
15.833974
14.774799
14.302731
14.380813
14.311671
15.703440
14.942884
15.325546
14.951825
14.798641
14.802814
15.876889
15.324950
15.327930
14.480948
17.538667
15.120506
14.339685
15.796423
14.367700
16.619563
16.073585
17.307997
18.357635
19.075871
20.090938
20.836592
22.335649
22.708774
22.136569
21.237731
20.709634
18.816590
18.692613
19.059777
17.317533
16.368628
14.628768
14.914870
14.843941
13.926625
14.754534
14.055967
13.369918
12.489557
12.615919
13.911724
12.361407
12.401938
##ZVALUE=235
22.480488
26.830435
56.728721
117.917657
185.575485
284.335613
357.903838
430.088639
449.462533
430.118442
365.391970
291.063786
193.631649
137.570500
100.837946
85.378885
80.027580
86.929798
93.088746
89.678764
84.633827
73.046684
53.213835
39.981604
25.070906
18.966794
13.187528
10.969639
10.868907
10.990500
11.080503
12.806654
13.101697
12.759566
13.274550
14.783740
15.468597
15.639663
15.869737
14.959574
15.991926
16.363859
15.981793
15.858412
16.729832
16.197562
15.464425
16.814470
16.554594
16.018748
14.134645
15.501976
14.935732
16.464591
16.366839
16.220808
17.907619
17.326474
17.220974
17.414689
17.967820
17.569661
16.927719
17.496943
17.656684
17.935634
17.733574
17.878413
19.587874
19.451976
18.214583
20.590425
21.487474
22.895932
21.511912
23.162961
25.202632
23.004413
21.644831
19.826889
20.285845
20.255446
19.604564
18.666983
18.579960
17.106533
16.861558
16.026497
17.223954
16.834736
15.015602
16.628504
15.599728
15.173554
15.575886
15.903711
##ZVALUE=240
1.940727
2.117753
7.199645
18.171668
50.034523
90.836883
177.809596
269.174576
395.633578
474.741459
527.547002
519.093871
471.515656
371.982455
288.131833
186.524987
133.002996
102.049708
93.131661
99.420547
112.800002
114.258528
109.235644
101.235509
82.476735
68.249702
45.584440
31.052828
21.657944
15.548468
12.651682
11.058450
9.492636
10.310411
10.619760
11.107922
11.354685
12.554526
12.435913
12.882948
14.293790
16.042590
14.687777
15.155673
14.929771
14.473796
16.805530
14.798641
15.470982
16.257763
15.004873
15.739799
17.117858
15.087724
16.698837
15.563965
15.011430
15.991926
15.940666
15.121698
16.233921
16.037822
16.667843
15.402436
15.980601
17.514825
17.096996
17.128587
17.556548
20.436645
20.383596
20.173788
21.770597
22.487640
23.803711
22.773743
22.257566
21.929741
22.604465
21.970868
20.516515
20.660758
20.844936
19.304752
20.069480
17.524958
18.610954
18.173456
18.316507
18.001795
16.804934
16.503930
16.524792
17.168522
16.206503
16.266704
##ZVALUE=245
1.312494
1.101494
0.996590
1.571774
4.061460
11.197925
36.297441
76.506734
165.114999
256.340504
390.534997
492.850542
552.297831
583.771467
547.826886
455.580950
366.223454
253.043771
179.784894
117.440820
96.014738
95.838904
112.771988
122.144818
126.022696
122.489929
105.984807
93.429685
70.270896
54.382682
39.993525
25.941730
17.418861
13.609529
11.588931
11.454821
11.281967
11.787415
11.559725
11.981726
13.179779
12.899637
12.821555
13.181567
14.123917
13.047457
15.336871
15.406609
13.630986
14.608502
14.961958
15.081763
14.348626
15.541911
14.204979
14.780760
14.250875
13.550520
14.351606
14.526844
13.925433
12.932420
14.747977
14.461875
14.160872
13.634562
14.671683
15.172958
15.722513
16.443729
17.047524
17.173886
19.068718
18.500686
20.406842
19.568801
19.850731
20.540953
19.599795
18.915534
18.004775
17.874837
19.497871
17.792583
18.084645
17.431974
19.022822
17.691851
17.071962
15.636683
15.599728
16.151667
16.443729
16.130805
17.100573
16.520619
##ZVALUE=250
1.081824
1.057982
1.384616
1.470447
1.423955
1.332760
1.910925
7.833838
22.580624
60.986876
120.213628
235.943794
345.571637
480.735898
567.504764
631.122589
616.740584
546.081662
465.386510
322.368741
223.321915
157.318711
101.190805
89.279413
102.277994
116.264820
131.686926
135.250688
131.578445
125.680566
101.265907
80.075860
60.084462
38.166642
27.289987
17.169714
14.762878
12.522936
11.369586
12.432933
13.377666
13.839602
14.483929
13.595819
14.378428
14.239550
13.499856
14.143586
14.664531
14.197826
14.275908
14.683604
14.477968
14.032722
13.605952
13.187528
13.631582
13.448000
13.182759
12.833476
12.784600
12.632608
13.072491
12.451410
13.144612
14.042854
12.565851
12.595654
13.674498
13.595819
14.542937
15.617609
15.980601
16.211867
15.971661
16.535521
16.366839
16.222596
16.474724
16.874671
16.664863
17.063618
15.043616
14.575720
14.835000
15.179515
14.960766
15.338659
15.481710
14.225841
14.655590
15.125871
14.070868
14.872551
14.580488
14.091730
##ZVALUE=255
1.065731
1.120567
1.283884
1.104474
1.153946
1.264811
1.127720
1.582503
1.802444
3.430843
16.829967
41.376948
85.595846
187.398791
292.816758
448.292494
557.856560
664.440989
698.468685
655.015707
559.492707
445.836782
289.505720
186.971426
110.245943
85.829496
87.973475
98.704696
122.084618
134.770870
139.631629
139.183998
128.595829
104.231834
84.696412
55.551529
40.806532
25.757551
19.578934
15.111566
13.027787
12.395978
13.615489
12.929440
12.910962
13.431907
13.894439
13.781786
14.174581
13.832450
13.056993
13.091564
13.589859
12.888908
13.013482
12.142658
12.496710
12.327433
12.897849
12.468696
11.664629
12.183785
12.341738
11.009574
11.891723
11.774898
11.577606
11.916757
11.719465
12.009740
12.923479
12.765527
13.783574
14.030933
13.613701
13.789535
14.119744
14.451742
14.226437
13.941526
12.953877
12.360811
13.720989
13.269782
13.295412
12.133718
12.754798
13.217926
13.331771
12.305975
13.206601
12.689829
12.242794
12.643933
12.055635
12.567639
##ZVALUE=260
1.002550
1.082420
1.174808
1.031756
1.137853
1.212955
1.086593
1.013875
1.252890
1.455545
1.403689
2.212524
6.153584
25.489926
59.459805
146.176815
242.154598
393.670797
520.263910
675.950646
741.229653
746.981502
659.336448
542.337894
366.137624
250.520706
148.209929
98.601580
72.129965
78.107715
95.825791
118.936896
136.641860
145.870447
144.219995
128.173828
111.202002
82.835555
63.181520
41.742921
29.207468
19.760728
15.614629
13.913512
13.504624
13.298988
12.817979
13.061762
12.979507
13.375878
12.904406
13.045669
12.564659
12.430549
12.043715
12.293458
11.576414
12.154579
11.901855
11.997819
11.316538
10.640621
11.100769
10.610819
10.509491
10.804534
10.810494
11.226535
10.905862
11.290908
11.769533
11.273623
11.767745
12.358427
13.065934
13.243556
13.450980
11.898875
11.495948
12.274981
12.095571
10.938644
11.082888
10.822415
11.825562
11.653900
11.332631
12.214780
11.354685
11.050701
11.005998
11.670589
11.214614
11.352897
11.603832
11.773705
##ZVALUE=265
0.991821
0.931621
0.868440
0.889897
0.941753
0.966787
0.892878
1.194477
1.365542
1.000762
1.241565
1.249909
1.302958
1.606941
3.441572
17.587543
42.385459
106.936693
191.154480
355.663896
501.222610
641.894937
779.665709
807.641745
735.273957
633.412004
468.689799
339.948535
195.534825
122.064948
81.054568
65.823793
78.542829
106.476545
125.800967
145.726800
149.886608
144.402981
132.822990
107.954741
86.867809
58.697462
44.363737
27.053952
20.522475
15.336871
13.383627
13.163686
12.160540
11.830926
12.176633
12.390614
12.195706
12.117624
12.317896
11.992455
11.808872
11.631846
10.693669
11.186600
11.111498
10.378957
10.566711
10.588765
10.426641
10.220408
10.619760
10.485649
10.450482
10.799766
11.385679
10.987520
11.935830
11.552572
11.797547
12.277961
12.233853
11.625886
11.530519
11.986494
11.119843
10.968447
10.232925
11.015534
10.706782
10.053515
10.213852
10.102987
10.539889
9.955764
10.294914
10.255575
10.626912
10.075569
10.444522
10.324717
##ZVALUE=270
0.903606
0.881553
0.957847
0.845790
0.866652
0.883937
0.983477
0.958443
0.969768
1.004934
0.978708
1.250505
1.232624
1.293421
1.433492
1.572967
1.914501
7.460713
23.587942
78.822970
156.028867
267.647505
461.728573
613.779426
784.531832
838.270783
823.045969
742.380619
586.031675
442.302823
303.938985
164.054632
97.278953
59.191585
59.332848
81.909895
103.059411
129.595995
144.690871
152.676702
148.610473
130.456686
112.361908
82.462430
63.919425
39.639473
29.129982
18.979907
15.948415
12.966990
12.226701
11.930466
12.070537
12.041926
11.848807
12.335777
12.050867
11.214614
11.089444
11.226535
11.412501
10.687709
11.309981
10.510683
10.304451
10.464787
10.179877
10.432601
10.794997
11.080503
11.388659
10.484457
11.181831
11.878610
11.678934
11.330843
10.717511
11.440516
11.095405
10.427833
10.580420
10.880828
10.181665
10.699630
10.431409
10.149479
10.197759
10.228753
10.267496
9.677410
9.971857
9.572506
9.972453
9.682775
9.677410
9.817481
##ZVALUE=275
0.837445
0.965595
0.881553
0.870824
0.920892
1.004934
0.914931
1.021624
0.970960
0.825524
1.004934
1.014471
1.024604
0.943542
1.030564
1.172423
1.478791
1.365542
1.614690
3.429651
12.690425
53.185821
115.682483
253.040791
396.234989
601.244569
724.704862
837.633014
870.097876
807.921886
705.620646
514.475703
369.105935
204.020739
120.001435
63.879490
49.442649
59.013963
76.430440
106.515884
123.399496
144.348741
147.980452
142.808557
130.156875
107.057691
84.805489
58.678985
44.144988
28.492808
21.192431
15.259981
12.734532
12.514591
11.565685
11.603832
11.252761
10.923743
11.509657
11.486411
11.680722
11.317730
10.895729
10.958910
11.536479
11.241436
10.797977
10.228753
10.637641
10.932684
11.266470
11.982918
11.401772
11.825562
11.455417
11.754632
11.163950
10.746717
11.218786
11.360645
10.675788
10.014772
10.655522
10.129809
10.158420
10.683537
10.005832
10.700822
9.580851
9.797812
10.105968
9.677410
9.829998
9.736419
9.346604
9.460449
##ZVALUE=280
0.825524
0.827909
0.824928
0.786781
0.720620
0.907779
0.763535
0.862479
0.809431
0.923872
0.754595
0.998974
1.117587
1.249909
1.340508
1.031756
1.153946
1.193881
1.133680
1.398921
1.483560
1.767874
8.414984
29.492974
95.341802
174.673796
325.340033
468.572974
662.619472
779.777765
852.701664
857.795477
777.977705
599.529743
444.637537
258.828998
156.432986
75.959563
46.333671
41.162968
53.293705
78.096986
99.385977
122.224689
137.833953
142.526627
138.692856
122.598410
106.776953
78.911781
61.024427
40.467978
29.124618
19.055605
15.296936
12.239814
11.328459
10.655522
10.561943
11.011958
10.903478
10.633469
10.581613
10.917783
10.932684
10.652542
10.931492
10.655522
11.330843
11.611581
11.520982
11.412501
11.212826
11.424422
11.620522
11.521578
11.504889
11.475682
11.256933
10.921955
11.241436
10.972619
10.690689
10.551810
10.799766
10.691881
10.648966
10.275841
10.147691
10.547638
10.394454
9.808540
10.252595
10.335445
9.548664
10.329485
##ZVALUE=285
0.728965
0.886917
0.632405
0.695586
0.814795
0.825524
0.693798
0.492930
0.861883
0.703931
0.840425
0.758767
0.898838
0.847578
0.950694
1.105666
0.902414
0.852942
1.127720
1.133680
1.271963
1.231432
1.524687
1.511574
4.136562
14.278889
48.639774
108.460784
238.480568
372.721553
513.910651
712.717772
821.114779
875.253677
828.985572
686.089993
543.114543
343.807936
219.353437
105.300546
58.676600
31.959414
33.670664
50.602555
69.269538
97.990632
113.292933
131.227970
137.870908
134.107471
123.228431
102.931857
83.573461
58.907866
43.256879
26.667714
18.970966
13.533831
11.911988
10.417700
10.173917
10.597706
9.995699
10.524988
10.135770
10.400414
10.529757
10.410547
10.915995
10.489821
10.460615
10.963678
11.234879
11.246800
10.998845
11.443496
11.609793
11.534691
11.231899
10.994673
10.784864
11.247993
11.208653
10.835528
10.812879
10.685921
10.631680
11.003613
11.120439
11.456609
10.557771
10.671616
10.519624
10.381937
10.612607
10.570884
##ZVALUE=290
0.780821
0.682473
0.743866
0.556707
0.686646
0.698566
0.779629
0.671744
0.780821
0.770688
0.793934
0.923872
0.981688
0.860691
0.836849
0.828505
0.815988
0.950694
1.116991
1.152754
1.167655
1.259446
1.160502
1.295805
1.284480
1.491904
2.265573
6.315708
29.038787
68.148971
136.957765
280.864835
430.330634
640.516877
768.392682
867.811441
857.847929
748.818517
611.976981
415.273905
276.835561
142.018795
75.779557
33.455491
24.605989
32.194853
44.379830
65.412521
84.679723
109.658837
121.857524
131.630898
129.891634
117.102861
101.527572
76.375604
58.384538
38.618445
27.504563
16.892552
13.102889
10.594726
9.694695
9.349585
8.804798
9.160638
9.267926
9.579659
9.637475
9.893775
10.146499
10.633469
10.805726
10.412931
10.925531
10.702610
10.907650
10.707974
11.349916
11.022687
11.224747
11.288524
10.997653
11.187792
11.525750
11.508465
11.455417
11.429787
11.347532
11.297464
11.074543
11.130571
11.564493
10.802746
10.899901
10.780692
##ZVALUE=295
0.700951
0.656843
0.776649
0.744462
0.697970
0.951886
0.810623
0.877976
0.897646
0.767708
0.653863
0.911951
0.817776
0.772476
0.852942
0.939965
0.834465
1.024604
1.064539
0.949502
1.015663
1.059771
1.178980
1.304746
1.072884
1.367927
1.192689
1.335740
1.653433
3.146529
10.889769
43.913722
96.901655
221.222639
352.676511
554.292798
692.490935
827.731490
865.095854
798.369646
686.044693
489.489436
346.611738
185.675621
102.129579
39.716959
22.635460
19.284487
26.465654
43.131709
58.681965
83.061457
100.478530
118.485689
125.933886
123.479962
113.315582
94.865561
76.068640
53.464770
38.807988
24.749637
17.398596
12.345910
9.590983
8.520484
8.507967
8.964539
8.816719
9.227991
9.306669
9.800792
9.680986
10.084510
10.116696
10.241866
10.507703
10.756850
10.853410
10.907650
10.828972
11.224747
11.156797
11.600852
11.452436
11.428595
11.562705
11.388659
11.326671
11.653900
11.244416
11.572838
11.026859
11.662841
11.555552
11.498928
##ZVALUE=300
0.469685
0.472665
0.574589
0.488758
0.489950
0.770688
0.635982
0.553727
0.706911
0.724792
0.631809
0.722408
0.657439
0.621676
0.727773
0.801682
0.742674
0.863671
0.786781
0.741482
0.909567
0.801682
0.890493
0.975728
0.955462
1.136661
1.051426
1.168847
1.220703
1.354814
1.483560
1.706481
4.623532
25.993586
64.309835
159.123540
269.684792
459.592938
612.477660
775.460005
850.105882
848.352909
766.494870
586.550832
429.562926
240.479708
144.412518
66.684484
32.791495
15.255809
16.024709
24.255514
35.095811
54.331422
72.975755
96.336603
108.775496
119.010806
118.638873
108.747482
94.380975
71.086884
55.527687
37.151575
26.228428
16.155839
11.857748
9.156466
8.108616
8.065701
8.274913
8.701682
8.602738
8.635521
8.800626
9.349585
9.353757
10.041595
9.857416
9.970665
10.413527
10.932684
10.615587
11.041760
11.028647
10.844469
11.556745
11.391640
11.464953
11.824965
11.403561
11.738539
11.329651
11.233687
11.367798
11.535883
##ZVALUE=305
0.658631
0.589490
0.651479
0.544786
0.676513
0.666976
0.683665
0.727773
0.705719
0.658631
0.825524
0.670552
0.637770
0.718832
0.619888
0.660419
0.612736
0.716448
0.703931
0.744462
0.856519
0.772476
1.027584
0.777841
0.845790
1.041889
0.893474
0.920892
1.043677
1.196861
1.268983
1.378655
1.212955
1.650453
2.589822
14.966726
41.020513
115.215778
206.117630
374.677777
523.824692
700.822473
808.185935
849.067569
800.434947
647.801757
507.577658
315.581560
198.249817
93.155503
46.980977
17.971992
12.450814
15.363693
21.800995
37.349463
52.122474
72.773695
89.156628
104.926825
112.819672
110.750794
103.072524
86.989999
71.218610
49.711466
36.104918
24.311543
16.837716
11.054873
9.301901
8.481741
8.377433
8.828640
8.621812
8.512735
9.034872
9.077787
9.263754
9.909868
10.016561
10.404587
10.576844
10.645986
10.917783
11.396408
11.156797
11.361837
11.084676
11.036992
11.109710
11.173487
11.123419
11.010766
10.562539
10.912418
##ZVALUE=310
0.677705
0.699759
0.639558
0.558496
0.480413
0.677705
0.607967
0.752807
0.538826
0.623465
0.530481
0.740886
0.511408
0.745654
0.482798
0.773668
0.764728
0.723600
0.764728
0.707507
0.861883
0.990629
0.761747
0.842810
0.860691
0.741482
0.782609
0.984669
1.092553
1.080632
0.915527
1.203418
1.196861
1.303554
1.280904
1.488924
1.608729
6.216764
20.617843
68.273544
132.195950
271.785855
410.112739
604.601502
734.983683
841.804743
838.564634
744.393468
618.481636
416.846871
275.115967
137.238503
72.754622
28.431416
13.255477
10.427833
13.369918
20.535588
29.437542
46.827793
61.439872
81.420541
94.691515
104.743838
106.120706
97.769499
87.253451
68.529844
53.287745
35.473704
24.780631
16.660690
12.212992
9.673834
8.503795
8.223653
8.312464
8.475780
8.631945
9.248853
9.127855
9.472966
9.700656
9.985566
10.149479
10.685921
10.654926
10.793805
10.857582
10.597706
10.606647
10.509491
10.790825
10.464787
10.661483
10.892749
##ZVALUE=315
0.565648
0.643730
0.743866
0.677705
0.538826
0.612736
0.717640
0.640750
0.631809
0.525713
0.574589
0.630617
0.646710
0.548959
0.653863
0.788569
0.531673
0.726581
0.784993
0.624657
0.676513
0.577569
0.678897
0.736713
0.917912
0.697970
0.595450
0.938773
0.845790
1.014471
0.978708
0.868440
1.108646
0.979900
1.116991
1.180768
1.340508
1.530647
1.397729
2.803802
9.784698
40.974617
90.392828
204.833746
332.019925
536.467433
666.541457
790.504813
829.803944
778.370500
672.582984
488.898754
346.773863
185.419917
101.077557
38.218498
17.023683
8.757710
9.244680
12.691617
17.814636
28.724670
40.415525
58.853626
73.454976
90.179443
99.165440
99.204779
93.751550
79.553723
66.316724
48.236847
36.112666
22.893548
16.450882
11.474490
9.486675
8.478761
8.353591
8.570552
8.779764
8.973479
8.827448
9.382963
9.481907
9.764433
10.063648
10.056496
9.949803
10.009408
10.352731
10.275841
10.176897
10.184646
10.056496
10.453463
##ZVALUE=320
0.469685
0.465512
0.438690
0.535846
0.374913
0.338554
0.422597
0.523925
0.501871
0.519753
0.537634
0.591874
0.596642
0.686646
0.679493
0.484586
0.534654
0.602603
0.573993
0.583529
0.649691
0.668764
0.762939
0.618696
0.698566
0.764728
0.646710
0.778437
0.657439
0.648499
0.756979
0.745654
0.905991
0.923872
0.925660
0.849962
1.012683
1.190901
0.985861
1.186728
1.407862
1.393557
5.424619
19.167662
66.768527
135.607719
269.779563
398.670435
587.260723
711.394548
811.739564
809.987783
719.522834
594.874024
404.124856
263.599753
123.308897
65.342784
25.880933
12.003779
7.664561
8.068681
10.951757
15.267730
25.783777
36.069751
53.582788
66.877604
84.245801
92.232823
93.275905
89.258552
76.849461
64.348578
46.830773
35.143495
22.643805
16.641617
11.647940
9.872913
8.950830
8.688569
8.551478
8.695722
9.009838
9.010434
9.265542
9.226799
9.380579
9.533763
9.500980
9.668469
9.362698
9.202957
9.414554
9.447932
##ZVALUE=325
0.678897
0.600815
0.644922
0.687838
0.723600
0.602603
0.779629
0.572801
0.701547
0.675917
0.503659
0.517964
0.660419
0.440478
0.628829
0.611544
0.668764
0.685453
0.653863
0.726581
0.698566
0.728965
0.608563
0.645518
0.568628
0.677705
0.671744
0.810623
0.840425
0.859499
0.990629
0.780821
1.008511
0.815988
1.058578
0.871420
0.921488
1.070499
1.226664
1.089573
1.107454
1.136661
1.441836
1.534820
2.577901
14.497638
38.723946
104.822516
188.593864
353.986621
498.914719
672.014952
770.022869
812.555552
764.561892
613.725781
469.416976
292.128921
180.115700
79.598427
39.023757
13.751984
7.914901
6.921887
7.795691
10.445714
15.050769
24.129748
34.724474
52.748919
65.517426
79.523921
86.394548
88.481903
83.781481
70.298910
59.115887
43.942928
32.508969
21.055937
15.882850
11.224747
9.813905
9.181499
8.811951
8.914471
8.866787
9.132624
9.052753
9.029508
8.950830
8.956790
9.181499
9.106994
9.140968
9.227991
##ZVALUE=330
0.487566
0.407696
0.569820
0.511408
0.395775
0.594854
0.548959
0.483990
0.495911
0.548959
0.443459
0.540614
0.537634
0.615716
0.557899
0.674725
0.591874
0.591874
0.595450
0.650883
0.582933
0.599623
0.541806
0.651479
0.514984
0.623465
0.593662
0.724792
0.570416
0.626445
0.853539
0.499487
0.720620
0.750422
0.677705
0.864863
0.804663
0.982881
1.028776
0.949502
1.006722
0.979900
1.029968
1.055598
1.192689
1.223683
1.752973
4.865527
24.875402
60.938001
147.897601
250.762701
430.280566
571.066737
719.618797
786.976814
770.750642
688.582659
526.363850
386.691689
216.407776
124.465823
52.315593
23.747683
8.767843
6.848574
6.498694
7.390976
10.161996
14.456511
23.767948
33.495426
48.274994
60.102940
75.629950
81.920624
83.484650
78.614950
66.853762
55.930614
40.665865
30.725598
21.601915
16.481876
12.136698
10.090470
8.806586
8.348823
8.328557
8.393526
8.232594
8.459687
8.332729
8.299947
8.378625
8.452535
##ZVALUE=335
0.472665
0.626445
0.496507
0.539422
0.673532
0.528693
0.609756
0.510812
0.490546
0.501871
0.526905
0.400543
0.519753
0.679493
0.502467
0.549555
0.605583
0.538826
0.476837
0.514984
0.668764
0.533462
0.534654
0.546575
0.577569
0.660419
0.552535
0.554919
0.605583
0.743866
0.628829
0.597835
0.652671
0.704527
0.662804
0.654459
0.687838
0.890493
0.844598
0.755787
0.725985
0.756979
0.977516
0.949502
1.040697
1.091957
1.159906
1.225471
1.430511
2.558827
12.737513
36.028624
101.227760
183.570981
343.687534
485.820770
666.059852
742.518902
765.262842
714.103580
570.738912
438.172817
267.591476
162.957907
70.871711
33.367872
11.703968
7.014871
6.075501
6.493926
7.536411
9.018779
14.650822
21.108985
33.039451
44.547915
58.429837
68.856478
77.519417
77.860951
72.204471
64.875484
52.089691
41.637421
29.915571
22.576451
15.717745
12.465715
9.692907
8.524656
8.157492
8.015633
7.681847
7.818937
7.846951
7.804632
##ZVALUE=340
0.464916
0.512600
0.583529
0.528693
0.654459
0.628829
0.554919
0.479817
0.604987
0.474453
0.678897
0.452995
0.713468
0.524521
0.590682
0.420809
0.573993
0.689626
0.570416
0.705719
0.511408
0.514984
0.675917
0.547767
0.510812
0.672936
0.695586
0.657439
0.656843
0.669956
0.697970
0.596642
0.848770
0.716448
0.678897
0.673532
0.763535
0.798702
0.774860
0.816584
0.868440
0.827909
0.998974
0.788569
0.915527
0.878572
1.099706
1.087785
1.171827
1.270771
1.414418
1.846552
5.116463
24.660826
61.216950
154.745579
263.025761
433.581471
568.319559
708.117485
750.751495
720.661879
634.215474
473.213792
335.879922
178.288817
100.216866
41.125417
17.641783
7.181764
6.212592
6.070733
6.101727
6.949902
8.890629
14.185905
20.114779
30.763745
41.888952
56.601763
65.822601
72.437525
72.859526
68.253875
62.094927
50.452948
41.034818
28.812885
22.013783
15.577674
11.550784
9.055734
7.938743
7.594824
7.405877
7.262826
##ZVALUE=345
0.554919
0.586510
0.467896
0.655651
0.639558
0.625849
0.585914
0.516772
0.703931
0.698566
0.519753
0.584722
0.611544
0.620484
0.504851
0.636578
0.609756
0.629425
0.676513
0.472665
0.754595
0.766516
0.683665
0.803471
0.841618
0.750422
0.700951
0.709891
0.659823
0.820756
0.610948
0.701547
0.642538
0.722408
0.771880
0.822544
0.778437
0.682473
1.039505
0.857711
0.837445
0.825524
0.940561
0.980496
0.964999
0.860691
1.035929
0.999570
1.060963
1.050830
1.086593
1.246929
1.154542
1.391768
2.606511
13.139844
37.982464
102.476478
184.592605
338.927507
466.359854
621.320009
699.060559
719.729662
664.871931
517.817736
391.043425
235.704780
135.902762
55.186749
25.790930
9.775758
6.581545
5.849600
5.801916
6.017685
6.451607
8.820891
12.064576
20.076632
27.726889
40.653944
49.365759
59.259534
64.977407
67.423582
64.856410
57.530999
50.210953
39.325953
29.792786
20.318627
15.376806
11.070967
9.055734
7.732511
##ZVALUE=350
0.489950
0.532866
0.476837
0.614524
0.333786
0.596642
0.388622
0.487566
0.587702
0.609756
0.449419
0.529885
0.407696
0.479817
0.551939
0.561476
0.685453
0.561476
0.520945
0.501871
0.365973
0.480413
0.514984
0.491738
0.577569
0.524521
0.506639
0.682473
0.599623
0.518560
0.646710
0.607967
0.715852
0.612736
0.565648
0.695586
0.616908
0.791550
0.695586
0.668764
0.609756
0.751615
0.759959
0.594854
0.737906
0.628829
0.650883
0.800490
0.823736
1.065731
0.875592
0.802875
1.027584
1.100898
1.131892
1.463890
1.587868
6.547570
21.017790
67.748427
128.401518
260.794759
383.567810
546.836853
646.595955
704.911947
675.796866
564.180017
438.796878
266.183615
165.359974
78.211427
37.096739
11.948943
6.560683
5.499721
5.371571
5.362630
5.222559
6.211996
7.768869
12.004972
16.861558
24.851561
32.250881
44.270754
52.320957
59.996843
61.518550
59.301853
54.682493
45.599937
37.733912
26.760697
20.520687
14.541745
##ZVALUE=355
0.454783
0.458956
0.447631
0.500679
0.492930
0.449419
0.436902
0.387430
0.392795
0.551939
0.505447
0.496507
0.471473
0.515580
0.507832
0.374913
0.489950
0.600815
0.449419
0.574589
0.531673
0.633597
0.589490
0.532866
0.561476
0.566840
0.545979
0.480413
0.579953
0.561476
0.536442
0.548959
0.511408
0.489950
0.593662
0.654459
0.686646
0.746846
0.678897
0.646710
0.653863
0.698566
0.611544
0.559688
0.785589
0.683665
0.769496
0.703931
0.829697
0.779629
0.911951
0.783801
0.906587
0.876784
0.980496
1.121759
1.047850
1.135468
1.279712
3.207922
10.757446
43.140650
89.773536
195.536613
311.727524
488.267541
597.974658
683.642626
689.373612
591.149926
483.415723
327.802896
209.323764
94.659925
46.728849
15.679598
7.408857
5.223751
4.931688
4.673600
4.711747
4.844666
5.652905
7.338524
9.322762
14.882684
20.589828
29.694438
37.585497
45.757890
52.206516
55.428743
54.634809
49.756765
43.483973
34.492612
##ZVALUE=360
0.491738
0.429749
0.609756
0.512600
0.495911
0.544786
0.555515
0.506639
0.567436
0.491738
0.634789
0.423789
0.527501
0.490546
0.525713
0.567436
0.580549
0.579953
0.415444
0.542998
0.513792
0.636578
0.588894
0.675917
0.535846
0.620484
0.567436
0.510812
0.565648
0.547767
0.564456
0.639558
0.660419
0.485778
0.690818
0.779629
0.719428
0.662804
0.696778
0.790954
0.676513
0.672936
0.662804
0.687838
0.737906
0.695586
0.710487
0.614524
0.788569
0.743866
0.759959
0.721812
0.893474
0.869632
0.992417
0.961423
1.026988
0.900626
1.095533
1.273751
1.321435
1.746416
5.273819
22.741556
55.642724
140.268803
235.292912
387.885571
514.507890
642.018914
675.618649
636.021495
547.477007
377.570987
254.561901
126.364827
66.812634
25.513768
10.672808
5.511642
4.982948
4.653931
4.660487
4.462600
4.779696
4.916787
5.907416
8.283854
11.229515
16.958714
23.299456
32.740831
39.624572
46.659708
49.510598
49.525499
##ZVALUE=365
0.506639
0.582933
0.418425
0.527501
0.516772
0.577569
0.457764
0.624657
0.579953
0.509620
0.477433
0.641942
0.358820
0.535846
0.509620
0.630617
0.611544
0.408888
0.487566
0.395775
0.585914
0.618696
0.557899
0.520945
0.526905
0.648499
0.580549
0.630617
0.651479
0.569820
0.682473
0.634789
0.493526
0.509620
0.582933
0.587702
0.615716
0.475645
0.733733
0.723600
0.756979
0.638962
0.710487
0.721812
0.760555
0.659823
0.735521
0.685453
0.678897
0.723600
0.667572
0.773668
0.768900
0.831485
0.922680
0.963807
0.917912
0.869632
0.851750
0.959635
0.888705
1.155734
1.090765
1.332760
2.398491
12.510419
34.259558
91.676712
172.288418
323.195457
444.961786
579.257607
649.885535
651.029944
581.000447
427.534580
306.407809
169.847608
93.469620
34.780502
14.882684
5.855560
4.881620
4.471540
4.580617
4.105568
4.099607
4.099607
4.277825
5.212426
6.690621
10.007620
14.205575
21.079779
27.226806
34.831762
##ZVALUE=370
0.481606
0.478625
0.419617
0.488758
0.473857
0.555515
0.586510
0.616908
0.539422
0.425577
0.453591
0.584722
0.415444
0.348687
0.468493
0.498891
0.596642
0.524521
0.543594
0.499487
0.586510
0.613928
0.364780
0.563860
0.513792
0.584722
0.560880
0.399947
0.696778
0.499487
0.423789
0.430942
0.540614
0.482798
0.462532
0.585914
0.416636
0.588894
0.637770
0.655651
0.595450
0.571609
0.606775
0.508428
0.537634
0.720620
0.701547
0.690818
0.620484
0.676513
0.833869
0.784993
0.657439
0.815988
0.702739
0.760555
0.752807
0.823736
0.854731
0.771880
0.744462
1.101494
1.073480
1.036525
1.110435
1.202822
1.581907
6.381869
21.059513
69.598556
132.780671
262.274742
384.640694
542.561412
625.554919
659.601688
618.885756
492.957830
367.881656
209.216475
119.176507
47.967434
21.925569
8.617640
5.157590
4.285574
4.004836
3.896952
3.944635
3.906488
3.739595
3.917813
4.601479
6.283522
8.316636
12.811422
##ZVALUE=375
0.589490
0.563860
0.431538
0.564456
0.575781
0.546575
0.628829
0.580549
0.520945
0.555515
0.671744
0.413656
0.544786
0.537634
0.609756
0.661612
0.596642
0.588894
0.539422
0.525713
0.490546
0.605583
0.380874
0.596642
0.717640
0.531673
0.572801
0.583529
0.695586
0.694990
0.598431
0.785589
0.679493
0.641942
0.787973
0.718832
0.746846
0.624657
0.619888
0.608563
0.564456
0.735521
0.769496
0.656843
0.760555
0.679493
0.667572
0.723600
0.695586
0.678897
0.694990
0.733733
0.766516
0.721812
0.624657
0.717640
0.817776
0.784993
0.687838
0.733733
0.845790
0.924468
0.996590
0.867844
0.942945
1.080632
1.023412
1.191497
1.399517
3.534555
11.555552
41.024685
88.649988
200.268626
311.943889
472.355485
570.609570
642.418861
634.913445
530.842543
416.464806
258.041620
164.032578
82.400441
41.471720
14.247894
6.522536
4.360676
4.084706
3.899932
3.721714
3.590584
3.700852
3.732443
3.555417
4.234910
##ZVALUE=380
0.504851
0.438690
0.486970
0.484586
0.484586
0.487566
0.533462
0.518560
0.461936
0.572801
0.529885
0.619888
0.341535
0.501871
0.520945
0.440478
0.497699
0.363588
0.525713
0.507832
0.458956
0.574589
0.471473
0.468493
0.600815
0.453591
0.744462
0.565648
0.474453
0.560880
0.564456
0.549555
0.733733
0.728965
0.650883
0.736713
0.614524
0.704527
0.692606
0.511408
0.694990
0.638962
0.558496
0.585914
0.578761
0.603795
0.493526
0.720620
0.524521
0.691414
0.719428
0.473857
0.690818
0.627637
0.579953
0.720620
0.667572
0.728965
0.681877
0.692606
0.596642
0.769496
0.846982
0.756979
0.732541
0.946522
0.865459
0.945926
0.874996
1.129508
1.340508
1.843572
6.106496
28.433800
66.980720
158.755779
259.955525
413.038731
526.545644
624.594688
637.274981
562.746525
468.089581
330.967903
225.709677
113.073587
59.453845
21.487474
9.103417
4.559755
3.932714
3.720522
3.764629
3.446937
3.585815
3.416538
##ZVALUE=385
0.458956
0.508428
0.590682
0.517964
0.401735
0.475645
0.418425
0.403523
0.458956
0.447631
0.502467
0.466704
0.420809
0.553727
0.429749
0.498891
0.463724
0.255704
0.554919
0.490546
0.678897
0.464916
0.477433
0.505447
0.632405
0.523925
0.651479
0.573993
0.674725
0.646710
0.617504
0.524521
0.590682
0.801682
0.825524
0.630617
0.711679
0.838637
0.680685
0.664592
0.706911
0.691414
0.593662
0.784993
0.641942
0.614524
0.606775
0.416636
0.608563
0.643730
0.601411
0.638962
0.554919
0.632405
0.656843
0.583529
0.599623
0.649691
0.601411
0.695586
0.609756
0.739694
0.738502
0.648499
0.659823
0.780821
0.756979
0.834465
0.932813
0.851750
1.154542
1.072884
1.163483
1.298785
3.064871
16.347766
42.498708
109.798908
196.767449
350.022912
474.230647
600.026846
644.381642
626.856685
560.554862
407.966971
294.937491
163.035989
94.316602
39.736629
16.718507
5.547404
3.831983
3.631711
3.533959
3.588796
##ZVALUE=390
0.430942
0.492930
0.444651
0.426769
0.576973
0.476837
0.453591
0.422597
0.496507
0.425577
0.383854
0.421405
0.432730
0.512600
0.451803
0.445843
0.376701
0.576973
0.574589
0.445843
0.523925
0.504851
0.412464
0.451803
0.533462
0.473857
0.577569
0.712872
0.691414
0.748634
0.725985
0.757575
0.843406
0.886917
0.840425
0.848770
0.790954
0.866652
0.854731
0.889897
0.866652
0.636578
0.669956
0.696778
0.894666
0.774860
0.782609
0.748634
0.873804
0.726581
0.680685
0.680685
0.748634
0.731945
0.815988
0.690818
0.701547
0.631809
0.644922
0.651479
0.713468
0.704527
0.860691
0.766516
0.696778
0.795722
0.816584
0.805855
0.957847
0.918508
1.058578
1.114607
1.046658
1.190901
1.315475
1.283884
1.807809
8.166432
26.329756
83.971620
158.752799
297.088623
404.514670
527.428985
597.898960
627.371669
586.032867
473.676920
368.095636
228.375793
135.867000
57.210922
27.311444
8.863807
4.539490
3.821850
##ZVALUE=395
0.578761
0.501871
0.466704
0.465512
0.479817
0.393987
0.441670
0.464916
0.329614
0.385642
0.402927
0.434518
0.481606
0.426769
0.484586
0.396967
0.606775
0.449419
0.450611
0.525713
0.468493
0.435710
0.362992
0.601411
0.566840
0.611544
0.557899
0.683665
0.734925
0.692606
0.703931
0.733733
0.859499
0.939965
0.997782
0.893474
0.937581
1.033545
0.857711
0.944734
0.906587
0.737906
0.918508
0.870824
0.889897
0.878572
0.734925
0.691414
0.922680
0.845790
0.732541
0.690818
0.661612
0.665784
0.599623
0.712872
0.791550
0.755787
0.691414
0.901818
0.834465
0.730753
0.844598
0.725985
0.631809
0.793934
0.687838
0.684857
0.940561
0.910759
0.907779
0.981688
0.960827
1.008511
1.030564
1.019835
1.145601
1.248717
1.365542
3.825426
20.503998
51.364899
122.760534
208.619833
352.404714
465.055704
585.740805
634.325743
615.120530
545.480847
410.292745
295.323730
161.341429
89.407563
34.792423
15.392900
##ZVALUE=400
0.682473
0.507832
0.581741
0.458956
0.302792
0.293851
0.304580
0.497699
0.256896
0.541806
0.411868
0.404716
0.562668
0.491738
0.607967
0.437498
0.492930
0.362992
0.413656
0.375509
0.526905
0.256896
0.398755
0.431538
0.644922
0.552535
0.615716
0.616908
0.574589
0.729561
0.734925
0.661612
0.676513
0.814795
0.874996
0.841618
0.941753
0.866652
0.990629
0.832677
1.057982
0.833869
0.840425
0.889897
0.835657
0.816584
0.694990
0.867844
0.692606
0.669956
0.731945
0.784993
0.675917
0.705719
0.806451
0.685453
0.738502
0.758767
0.734925
0.815988
0.763535
0.816584
0.705719
0.762939
0.635982
0.858903
0.912547
0.807643
0.810623
0.947714
0.805855
0.925660
1.039505
0.912547
0.983477
0.849962
0.933409
0.898838
1.000762
1.249909
1.298785
2.793670
9.060502
34.093857
74.873567
170.137882
273.007751
425.061584
526.534915
613.569617
631.278753
565.494895
470.431447
315.384865
210.213661
108.924508
##END
