##TITLE=DDWF01
##FORMAT=SPECTACLE-ASCII V-1.2
##DATA TYPE=ULTRAVIOLET SPECTRUM
##SECOND TYPE=ULTRAVIOLET SPECTRUM
##DATE=12/11/17
##TIME=14:33:29
##SPECTROMETER/DATA SYSTEM=SPECTACLE
##XUNITS=NM EM
##YUNITS=ENERGY
##YFACTOR=1
##FIRSTX=220
##LASTX=410
##NPOINTS=96
##3DDATA=Equidistant
##ZUNITS=NM EX
##FIRSTZ=210
##LASTZ=400
##ZPOINTS=39
##XYDATA=(Y..Y)
##ZVALUE=210
16.090870
15.085936
13.256669
11.281967
9.723902
10.847449
8.915663
8.276701
6.457567
4.846454
3.349781
3.109574
2.569556
2.362728
1.664758
2.476573
2.522469
3.058910
3.117919
2.943873
3.089905
3.331900
3.227592
3.738999
3.669858
3.911853
4.879832
5.076528
6.284714
5.560517
6.009936
6.625652
6.900430
7.446408
7.029772
7.931590
8.672476
7.174611
8.596778
8.220673
8.763671
7.472634
8.026958
7.550716
7.269979
7.935762
8.429885
8.038878
7.224679
7.830858
7.817745
7.430911
7.516742
7.441640
8.361936
7.673502
8.138418
7.988811
8.057952
7.661581
7.993579
6.925464
7.962584
7.533431
7.293820
7.548928
7.696748
9.535551
9.774566
10.756850
12.596846
14.942884
16.705990
20.424724
20.736456
21.572709
24.289489
25.079846
25.691986
23.930669
21.981001
20.657778
19.882917
14.896989
13.442636
9.822845
9.281635
9.481907
9.352565
10.367632
12.699962
16.888976
20.789504
26.380420
32.293797
40.369630
##ZVALUE=215
50.637722
44.936538
36.722422
27.509928
21.444559
18.081665
17.252564
14.645457
15.561581
14.702678
10.656714
9.863973
7.258654
5.518794
3.933907
3.603697
2.940893
2.828836
3.090501
2.732873
3.013611
3.330708
3.244877
3.726482
3.882647
4.258752
5.039573
5.673766
5.822778
6.734729
6.836653
7.852912
8.853674
8.248687
8.648634
8.612871
8.798838
8.576512
8.451939
8.445978
8.654594
9.166598
9.445548
8.405447
8.648634
9.170771
9.803772
7.736683
7.559657
9.547472
8.564591
8.147955
8.246899
8.493662
7.346869
7.752776
8.578897
8.722544
7.963777
8.172989
8.867979
8.145571
8.663535
8.274913
7.743835
8.297563
8.266568
9.453893
10.108948
11.436939
12.573600
14.258623
16.237497
19.113421
20.704865
20.995736
24.411678
24.505854
24.470687
22.414923
20.859838
17.834902
17.062426
15.015602
11.480451
8.782744
8.798838
9.030700
9.192824
8.380413
7.635951
8.022785
8.382797
8.966923
13.087988
15.936494
##ZVALUE=220
112.593770
111.968517
109.396577
87.071657
72.529912
52.845478
41.995645
30.132532
26.335716
24.725795
25.622845
23.836493
22.367835
19.621849
15.405416
11.607409
7.872581
6.460547
3.544688
3.353953
3.987551
3.645420
3.814697
4.941821
4.812479
4.985929
6.087422
6.228685
6.868839
8.541942
8.610487
9.184480
10.464787
9.926558
11.952519
9.741783
9.938478
11.246800
11.208653
11.455417
10.369420
10.788441
10.695457
11.028647
9.807944
9.818673
10.384917
9.194613
10.459423
9.744763
10.440946
10.424852
10.596514
9.794831
9.362698
10.111928
10.983944
9.412766
10.511875
9.734631
10.332465
10.516644
10.006428
11.081696
9.890795
10.387897
9.586811
10.587573
11.583567
12.807846
12.810826
16.709566
18.656850
20.802617
20.670891
21.520853
23.550987
22.496581
24.282932
22.597909
21.951795
19.457936
17.280579
14.440417
14.004707
10.968447
9.405613
9.073615
8.955598
9.044409
8.936524
8.585453
8.258820
8.659959
8.035898
8.518696
##ZVALUE=225
165.557861
167.944431
189.737678
210.306644
198.954940
175.212622
149.471760
102.962852
76.241493
56.413412
40.916800
38.153529
41.465759
38.937926
36.115646
33.996701
26.520491
21.929741
16.336441
9.627938
7.284880
5.594492
4.628897
5.013943
5.132556
5.247593
6.552935
5.819798
7.247925
8.307695
9.360909
8.985996
9.704828
11.000633
10.324717
10.473728
12.112856
10.391474
11.261702
11.243820
10.676980
11.555552
11.015534
11.342764
11.614561
10.003448
10.816455
10.406971
11.314750
10.234714
11.104941
10.878444
10.987520
10.894537
11.562705
11.594892
11.094809
11.168718
11.469722
12.359619
11.275411
11.202693
12.102723
12.045503
12.679696
12.568831
11.697412
13.382435
13.365746
15.600920
15.772581
17.276406
19.579530
20.313859
21.292567
21.841526
21.814704
22.536516
22.868514
20.397902
19.293427
18.711686
15.664697
13.416409
14.442801
13.617873
10.870695
11.036992
10.149479
9.744763
11.136532
9.934902
10.382533
9.008646
9.804964
9.783506
##ZVALUE=230
119.067430
125.266910
181.670785
256.370902
317.609906
341.442823
341.997743
309.608579
256.600976
208.132863
132.463574
92.401505
68.796873
57.548881
58.574677
61.079860
62.917471
57.701468
52.648783
40.214658
31.783581
21.426678
15.197992
8.259416
7.025599
6.839633
6.357431
7.165670
6.910563
7.966757
8.475780
9.736419
11.462569
9.763837
11.292696
12.518764
11.827946
11.496544
11.826754
12.660623
11.462569
11.968613
12.825727
11.852980
10.658503
11.940598
11.355877
13.203621
11.222959
11.777878
10.340810
12.184978
12.995601
13.448596
14.325976
14.895797
13.689995
14.189482
15.415549
14.708638
14.923811
12.615919
15.170574
14.853477
15.327930
15.175939
14.829636
15.993714
16.541481
17.754436
17.672777
18.858910
21.234751
22.856593
24.558902
24.208426
24.520755
24.227500
23.900867
22.947788
21.198988
19.514561
16.471744
15.099645
14.521480
14.048815
12.352467
13.551712
13.393760
12.730956
11.399984
13.385415
11.494756
11.894703
11.814833
12.668967
##ZVALUE=235
27.987957
30.905604
63.201785
144.821405
222.116709
336.516500
420.921445
498.839617
523.771644
495.173931
429.385900
327.197909
214.946866
152.331591
105.375648
88.667870
82.411766
89.957714
92.259645
91.529489
85.681677
69.034696
55.890679
39.458871
26.585460
17.710924
11.269450
9.452701
8.636713
8.809566
8.125901
8.419752
8.658767
9.468794
10.486841
9.098649
10.010600
11.380911
10.064840
11.821985
10.847449
11.344552
11.418462
11.434555
11.468530
12.674928
12.395978
12.440681
12.013912
12.687445
13.097525
15.110970
13.992786
15.083551
15.914440
15.324950
15.314817
14.616847
14.684796
16.055703
15.061498
16.555786
17.480850
16.275644
17.611980
16.657710
16.558766
16.903877
17.857552
18.333793
18.139482
21.461844
23.712516
25.249720
25.862455
26.602745
27.141571
25.884509
25.162697
24.564862
23.441911
21.161437
18.927455
20.120740
17.393827
18.476844
17.084479
15.876889
14.750957
14.365911
15.973449
14.628768
14.742613
14.140606
13.562441
14.098883
##ZVALUE=240
1.831651
2.320409
8.320808
23.436546
67.797899
125.437975
238.893628
340.669751
495.108962
581.840873
622.299910
606.569648
533.413887
406.527519
310.568810
193.826556
137.181878
101.201534
92.840791
100.986958
109.677911
116.527677
109.503865
99.435449
81.533790
62.180758
45.702457
32.049417
20.277500
14.343858
11.223555
9.963512
8.832812
9.281635
8.585453
10.663867
9.953976
9.827614
9.986758
10.127425
9.883642
11.560917
11.138916
10.861754
12.076497
12.688637
13.462901
12.752414
12.975931
14.005899
13.421774
15.274882
14.456511
13.376474
14.499426
15.015602
15.907884
15.900731
15.009642
15.637875
15.323758
15.313625
16.602874
15.470982
15.542507
16.656518
15.787482
17.200708
17.564893
18.750429
20.232797
21.832585
21.823645
22.392869
24.556518
24.482608
25.995970
25.852919
24.567842
23.055673
22.724867
20.712614
21.987557
19.931793
19.973516
18.977523
18.577576
16.938448
16.051531
16.935468
16.275644
15.959740
16.214848
16.623735
15.585423
15.961528
##ZVALUE=245
1.477599
1.667738
1.621842
1.634955
4.689693
14.693737
50.296783
105.892420
234.893560
350.385904
532.567501
639.010668
718.172789
731.058717
672.634840
535.338521
421.376824
271.385908
190.241933
119.398832
94.975829
95.402598
111.181736
120.013952
129.256845
122.188926
108.540654
93.130469
72.368979
52.472949
39.098859
25.360584
15.817881
11.080503
10.652542
9.592772
9.397864
9.794831
9.207726
11.038780
11.482835
11.158586
11.266470
11.527538
11.904836
13.001561
13.218522
14.170408
14.285445
13.768673
14.624596
15.178919
14.384985
15.705824
15.038848
14.894605
15.082955
14.134645
15.038848
14.526844
14.960766
15.064478
14.014840
16.292930
15.086532
15.648603
14.097691
16.050935
17.532706
17.754436
18.208623
19.675493
21.252632
21.870732
22.671819
23.643970
23.274422
22.097826
22.625923
21.161437
20.724535
20.004511
20.330548
19.137859
17.644763
17.615557
17.267466
17.503500
14.997721
15.114546
15.922785
16.017556
15.237927
14.426708
15.913844
14.671683
##ZVALUE=250
1.258850
1.306534
1.736879
1.607537
1.500845
1.885891
2.211928
7.385612
34.287572
89.538693
234.058499
387.167931
561.945438
781.219006
910.263658
965.774655
937.947631
790.354609
645.318031
424.191952
272.439718
166.803002
101.577640
90.933442
97.617507
113.323927
130.231977
133.049488
127.649903
116.637945
97.037554
77.908635
58.006644
37.091970
26.010871
16.053915
13.030767
11.604428
10.989904
11.085868
11.377931
12.029409
12.618899
11.865497
12.412667
12.418628
12.966990
13.503432
13.886690
14.615655
14.122725
14.732480
14.868975
15.030503
14.944673
14.304519
15.356541
14.391541
14.362931
14.182925
14.942884
14.144778
13.546944
13.906956
13.376474
14.454722
14.319420
15.007854
15.284419
16.898513
16.975999
17.907619
20.285845
19.915700
21.048784
21.740794
21.041632
20.331740
20.621419
19.334555
19.096732
18.811822
17.287731
16.407967
16.264915
15.277863
14.633536
13.596416
14.272928
14.363527
15.278459
14.435649
12.784600
14.433861
13.612509
14.343858
##ZVALUE=255
1.428723
1.495481
1.210570
1.439452
1.481771
1.482964
1.626611
1.766682
1.795888
5.022883
18.388629
51.980615
157.050490
275.514722
492.933989
686.591864
925.522447
1016.201973
1016.201973
998.274684
806.654692
625.149608
367.568731
227.945447
184.375644
84.916949
81.865788
95.669627
116.522908
131.470561
136.788487
131.485462
122.220516
99.458694
81.554651
55.724978
38.557649
24.630427
17.404556
13.148785
11.640787
11.762977
10.409951
11.828542
12.235641
12.253523
12.243986
12.820959
13.052821
12.998581
12.902617
13.624430
13.238788
13.239980
12.252927
12.801886
13.673902
12.090802
12.550950
12.715459
12.160540
12.360811
13.300776
11.644959
11.076927
11.964440
12.249947
11.557937
12.026429
13.223886
13.455749
14.066696
14.983416
14.974475
15.510917
15.354753
16.473532
16.314983
13.685822
14.752746
14.658570
13.226867
13.359785
12.184978
12.896657
12.212992
12.415648
12.392998
11.454821
11.722445
12.518764
11.276603
11.009574
12.220740
12.468696
12.394786
##ZVALUE=260
1.033545
0.958443
1.102686
1.308918
1.143813
1.435876
1.612902
1.327991
1.402497
1.668930
1.743436
2.478957
8.095503
37.558675
83.054900
195.491910
324.642658
536.393523
713.455677
941.668749
1016.212702
1016.212702
966.593623
794.783831
526.614785
354.351997
198.098421
115.545988
74.604750
78.111887
93.239546
116.942525
134.469867
142.134428
139.408708
126.170516
108.452439
81.460476
60.855746
39.532781
27.511716
18.305779
14.040470
11.365414
11.489987
12.007952
12.281537
11.777878
11.972785
12.250543
11.681914
12.208819
12.436509
11.734962
11.357665
11.467934
10.959506
11.394620
10.888577
11.428595
10.830760
10.568500
10.509491
10.319948
10.395646
10.401607
10.497570
10.196567
10.126829
10.927916
11.463761
12.576580
12.259483
13.371706
13.003945
13.460517
13.394952
12.643933
12.675524
11.812449
12.492537
12.251735
11.431575
10.942817
10.688901
10.560751
10.209680
10.104775
10.009408
10.510683
10.538697
10.596514
10.283589
9.878874
10.646582
10.615587
##ZVALUE=265
0.896454
1.018643
1.004934
0.928640
1.046658
1.184940
0.990629
0.980496
1.251698
1.345873
1.283884
1.649857
1.598597
1.832843
3.939867
22.016764
57.061911
148.259997
263.383985
481.040478
671.909451
862.754583
1016.200781
1016.200781
1016.200781
948.881507
720.332861
516.901612
289.948583
170.936584
86.902976
64.777732
74.765682
103.425980
123.755932
140.095949
145.673752
141.052604
129.096508
102.169514
85.455775
59.348941
41.141510
26.525855
18.545985
13.493896
12.200475
11.290908
10.917783
11.056662
12.135506
11.350513
11.380911
11.694431
11.477470
11.481643
11.425614
10.655522
10.483861
10.334849
10.289550
9.893775
10.153651
10.211468
10.504723
9.498596
10.085702
10.101795
10.023713
10.678768
10.845661
11.104941
11.286736
11.906624
11.999607
11.676550
11.205673
11.652708
11.359453
10.414720
10.274649
9.896755
10.147691
9.782910
9.852648
9.873509
9.099841
9.450912
9.073615
9.160638
9.633899
10.219812
9.601712
9.737611
10.248423
9.186864
##ZVALUE=270
0.934601
1.097918
0.853539
1.038909
0.991821
1.033545
1.070499
1.207590
1.072884
1.140833
1.241565
1.400709
1.347661
1.640916
1.645684
1.828671
2.118945
8.404851
27.465820
101.164579
217.136741
384.593010
670.899749
890.318751
1016.201973
1016.201973
1016.201973
1013.193727
814.231634
631.090999
453.155637
247.622728
140.734911
67.003965
58.742762
77.721477
98.262429
123.904943
138.337612
147.326589
143.629909
129.332542
108.733773
83.383918
62.001944
40.685534
28.073788
18.060803
14.698505
12.891889
11.196733
11.200905
11.358857
10.862947
10.563731
10.910630
10.285974
10.067821
10.232925
10.190606
10.394454
9.829998
9.627938
9.699464
9.472966
9.695888
10.017753
9.751916
9.755492
10.425448
10.465980
11.100769
10.803938
11.115670
10.982752
11.331439
11.089444
11.580586
10.553598
10.248423
10.073781
9.534955
9.786487
8.968711
9.558797
9.222627
9.513497
9.121895
9.495616
9.406805
9.499788
9.652972
10.044575
10.724664
10.458827
10.509491
##ZVALUE=275
0.930429
1.018643
1.030564
1.090765
1.021624
1.180768
1.117587
1.308918
1.272559
1.221895
1.270771
1.264811
1.447797
1.587868
1.626611
1.638532
1.884699
1.870990
2.078414
3.908873
14.877915
44.806600
148.835778
295.710564
565.908551
773.963928
1001.783013
1016.382575
1016.382575
1016.382575
958.925486
701.369643
500.006676
273.513794
160.974860
74.645877
51.153898
56.629777
75.793862
100.928545
118.348002
137.990713
142.428875
139.355659
127.007961
102.329850
84.846616
60.121417
43.079853
27.386546
20.006895
14.054775
11.943579
11.010766
11.050701
10.167956
10.670424
10.575652
10.590553
10.280609
10.390878
10.192990
10.086894
10.207891
9.855628
9.576678
9.805560
10.045767
9.980798
10.020733
10.122657
10.720491
10.886788
10.787845
11.271834
10.584593
10.615587
10.509491
10.187626
10.537505
9.925961
9.447932
9.740591
9.257793
9.395480
9.494424
8.608699
9.010434
9.078979
9.096861
9.378791
9.740591
10.092854
10.559559
10.299683
10.855794
##ZVALUE=280
0.803471
0.821948
0.710487
0.940561
0.779629
0.741482
0.928640
0.845790
0.656843
1.001954
0.909567
1.079440
0.904799
1.167655
0.966787
1.028776
1.141429
1.255870
1.367927
1.449585
1.650453
1.995564
11.309981
37.021637
110.130906
199.424624
366.317630
524.984002
741.284490
883.429646
964.585543
970.983505
880.162716
674.722791
500.565767
287.432671
173.670650
80.682635
46.341419
39.548874
51.995516
74.895620
96.188784
118.800998
134.170651
139.100552
136.857629
120.692849
103.768706
77.926517
59.727430
39.294958
27.094483
17.666817
12.710690
10.379553
9.728670
9.527802
9.692907
9.428859
9.080768
9.230971
8.948445
9.279847
8.961558
8.782744
9.227991
9.000897
9.604692
9.383559
9.208918
9.800792
9.941459
9.679794
9.711981
9.695888
9.588599
9.130836
9.329915
9.424686
8.897781
8.802414
8.642673
9.076595
8.772612
8.511543
8.533597
9.003878
8.805990
8.848906
9.152889
9.266734
9.451509
9.656549
10.080934
10.405779
##ZVALUE=285
0.749826
0.730753
0.695586
0.834465
0.676513
0.895858
0.787973
0.728965
0.973940
0.795722
0.921488
0.814795
0.793934
0.804663
0.915527
1.057982
1.103878
0.860691
1.011491
1.301765
1.212955
1.349449
1.456738
1.542568
5.210638
19.532442
65.196753
130.215883
271.070600
419.389606
580.772758
786.407590
899.645686
958.759785
900.814533
736.652613
579.127669
359.642506
226.733685
109.478831
58.670640
31.789541
31.827688
47.331452
66.339970
93.248487
111.474991
128.485560
134.570599
132.288933
121.165514
101.236701
81.291795
57.336688
41.091442
25.356412
17.270446
11.536479
10.079741
9.055734
8.468628
8.281469
8.846521
8.594990
8.521676
8.375645
8.698702
8.391738
8.987784
9.167790
9.254813
9.446740
9.165406
9.529591
9.592772
9.127855
9.639859
8.799434
9.745955
9.196997
9.165406
8.824468
8.964539
9.113550
8.915663
8.852482
9.094477
8.857846
8.867979
8.807778
8.795857
8.918643
8.930564
9.202957
8.874536
8.965731
##ZVALUE=290
0.719428
0.653863
0.845790
0.819564
0.580549
0.714660
0.785589
0.825524
0.737906
0.705719
0.685453
0.755787
0.705719
0.774860
0.862479
0.703931
0.931621
0.697970
0.749826
1.077652
1.111627
1.403689
1.273751
1.170635
1.379848
1.624823
2.125502
7.431507
37.634969
84.200501
191.184878
317.603946
480.824709
705.512762
842.477679
941.264629
932.843685
814.010501
671.378970
460.807681
309.363604
156.297684
83.164573
33.147931
22.792816
31.008720
42.024851
64.772964
82.295537
105.201602
120.151639
130.162835
128.078461
116.171837
101.617575
75.696707
57.297945
37.610531
26.049614
16.211867
12.055635
9.001493
8.671880
7.947683
7.888675
7.959604
7.647872
8.212924
8.324981
8.476973
8.374453
9.140968
9.283423
8.752942
8.901954
9.225607
8.969903
8.829832
8.891821
8.826852
9.141564
9.161830
8.867979
9.255409
9.304881
8.926988
8.749962
9.123683
8.689761
8.791685
9.240508
8.773804
9.055734
9.191632
8.496642
9.040833
##ZVALUE=295
0.672936
0.726581
0.554919
0.623465
0.668764
0.633597
0.450611
0.553727
0.551939
0.722408
0.723600
0.666976
0.722408
0.756979
0.933409
0.760555
0.658631
0.814795
0.949502
1.015663
0.985861
0.874996
1.213551
1.025796
0.991821
1.232624
1.330972
1.335740
1.805425
2.876520
10.295510
43.459535
99.115968
232.623816
368.877053
583.840609
732.356906
868.538618
907.533765
838.117599
725.283623
522.041917
364.620686
196.645856
109.156966
42.940974
22.684932
19.546747
25.789738
40.571690
57.225823
79.460740
96.952915
117.588639
122.737885
121.310949
111.383796
93.387961
75.282454
53.336620
38.844943
24.038553
16.525984
10.848641
8.835793
7.423759
7.237792
7.147789
7.265806
7.690787
7.397532
7.646680
7.954836
8.067489
8.493662
8.230805
8.608699
8.478761
8.478761
8.881688
8.697510
8.631945
8.932948
8.976460
8.792877
8.653998
9.128451
8.949637
8.912683
8.817911
8.721948
8.959770
8.875728
8.894801
8.475780
8.721948
##ZVALUE=300
0.651479
0.582933
0.610948
0.619888
0.636578
0.700951
0.642538
0.580549
0.597835
0.577569
0.634789
0.615716
0.641942
0.679493
0.713468
0.636578
0.675917
0.755787
0.799894
0.757575
0.767708
0.725985
0.835657
0.992417
1.059771
1.079440
1.093745
1.133680
1.163483
1.225471
1.428723
1.697540
6.183982
21.477938
73.913932
145.288706
299.619436
455.637574
663.533807
791.835785
887.310505
878.645778
767.480731
632.624030
423.880816
275.941491
142.039657
75.424910
28.817654
15.725493
16.311407
22.606850
37.061572
51.170588
72.786808
90.971589
109.091997
117.640495
115.371943
108.571649
90.170503
75.334907
52.660704
39.219856
23.601651
15.922785
10.727644
8.445978
7.098913
6.909966
6.954670
7.148981
7.369518
7.356405
7.894635
7.988811
7.873774
8.091927
8.339882
8.233786
8.638501
8.333921
8.434653
8.686781
8.661747
8.646846
8.852482
9.259582
8.706450
8.927584
8.751750
8.794665
8.951426
8.759499
8.801818
8.598566
##ZVALUE=305
0.467896
0.525713
0.551939
0.478625
0.549555
0.683665
0.572801
0.688434
0.632405
0.655651
0.744462
0.679493
0.715852
0.718832
0.645518
0.695586
0.759959
0.639558
0.738502
0.787973
0.868440
0.732541
0.927448
1.041889
0.855923
0.813603
1.129508
1.036525
0.941753
1.093745
1.230836
1.237988
1.235604
1.419783
2.572536
14.041662
39.936900
114.609003
208.828449
389.141440
547.299981
747.011900
853.265524
897.910595
839.497447
669.032931
522.603989
334.159732
210.388899
96.023679
47.578812
18.228889
12.123585
14.881492
20.972490
35.507679
48.974752
70.422888
85.553527
102.685690
109.596848
109.538436
101.280808
85.732937
70.609450
50.473809
35.546422
23.044944
15.627742
10.154843
7.979870
7.287860
6.895661
7.137656
7.055998
7.143617
7.479787
7.760525
7.864833
7.970929
8.124709
8.325577
8.278489
8.573532
8.480549
8.901954
8.202791
8.574724
9.146929
8.374453
8.669496
8.844733
8.764863
8.649826
8.688569
8.699894
##ZVALUE=310
0.670552
0.674725
0.530481
0.487566
0.561476
0.567436
0.728965
0.600815
0.640750
0.759959
0.640750
0.604987
0.525713
0.746846
0.757575
0.596642
0.693798
0.768900
0.709891
0.663996
0.592470
0.678897
0.866652
0.742674
0.895858
0.872612
1.121759
0.934601
1.145601
0.902414
1.064539
1.126528
1.181960
1.207590
1.465678
1.434684
1.889467
5.919933
20.037889
69.024563
137.593746
288.393497
440.299511
643.926859
782.921910
876.649618
869.490504
762.986541
631.941557
428.186655
289.160013
146.384835
77.494979
29.679537
13.771653
10.335445
12.570620
19.591451
28.904676
45.009851
59.842467
79.934597
92.046857
101.422668
103.657842
97.236633
85.780621
67.782998
51.955581
34.316778
24.384856
15.383959
10.943413
8.104444
7.363558
6.995797
7.126927
7.098913
6.921887
7.203817
7.722974
7.735491
7.586479
7.993579
7.974505
8.373857
8.525848
8.648634
8.542538
8.423924
8.405447
8.543730
8.370876
8.444786
8.446574
8.268952
##ZVALUE=315
0.419617
0.527501
0.565648
0.562668
0.455976
0.541806
0.546575
0.601411
0.735521
0.543594
0.522733
0.537634
0.579953
0.527501
0.515580
0.659823
0.736713
0.727773
0.726581
0.615716
0.630617
0.683665
0.667572
0.937581
0.745654
0.720620
0.843406
0.794530
0.790954
0.831485
1.042485
0.939965
0.953674
0.924468
1.126528
1.337528
1.224875
1.183748
1.346469
2.876520
10.064840
44.513941
100.202560
229.719877
364.727974
577.891469
714.209676
843.399763
875.872970
806.977749
696.784854
503.629446
357.257724
193.648934
106.498599
40.399432
17.844439
8.894801
8.935928
12.261868
17.004609
28.362870
39.248466
56.809783
71.598887
89.756846
96.573830
97.067952
92.287660
77.714920
65.573454
47.634840
34.850836
22.020936
15.640855
10.379553
8.551478
7.599592
7.090569
6.897449
6.981492
7.111430
7.489920
7.619858
7.503629
7.921457
7.923841
7.974505
7.788539
8.315444
8.046627
8.164644
7.864833
8.139610
7.881522
8.223653
##ZVALUE=320
0.519753
0.608563
0.599623
0.685453
0.665784
0.596642
0.570416
0.597835
0.608563
0.608563
0.627637
0.697970
0.468493
0.481606
0.619888
0.634789
0.651479
0.671744
0.614524
0.698566
0.487566
0.637770
0.630617
0.690818
0.685453
0.700951
0.764728
0.937581
0.840425
0.863671
0.831485
0.893474
0.965595
0.955462
0.986457
0.846982
1.020432
0.920892
1.168847
1.358986
1.346469
1.591444
6.094575
21.494627
77.220798
155.777931
310.385823
451.723933
645.325780
773.327947
857.743025
848.456621
738.896728
609.994531
407.840610
266.221762
124.397874
66.961646
25.500655
11.966825
7.620454
7.788539
10.858774
14.949441
24.391413
34.949780
51.628947
65.415502
82.173944
89.784861
91.949701
87.469816
75.470805
62.023997
45.340657
34.118891
22.572875
15.428662
10.752678
8.752942
7.445812
7.314682
7.051826
7.118583
7.443428
7.279515
7.354617
7.283688
7.345676
7.563829
7.532835
7.725954
7.686615
7.881522
7.619858
7.775426
##ZVALUE=325
0.415444
0.477433
0.444651
0.515580
0.529885
0.618696
0.481606
0.604987
0.548959
0.482798
0.394583
0.477433
0.639558
0.645518
0.500679
0.615716
0.586510
0.527501
0.583529
0.548959
0.479817
0.458956
0.513792
0.595450
0.591874
0.731945
0.542998
0.757575
0.645518
0.650883
0.962615
0.805855
0.907779
0.940561
0.831485
0.837445
0.832677
0.987649
1.010895
1.249909
1.219511
1.165867
1.356602
1.496673
2.467632
14.863610
42.903423
123.711824
221.457481
403.660536
559.468865
745.722651
843.366981
867.373943
801.760554
631.727576
478.024483
294.275880
181.430578
82.931519
39.550662
13.249516
7.705688
6.553531
7.359982
9.857416
14.655590
23.479462
34.344792
49.690604
64.057708
77.878833
85.881948
86.032748
81.274509
70.159435
58.018565
42.181611
31.225681
20.217896
14.534593
9.991527
8.409619
7.607937
7.099509
6.896853
7.025599
6.920695
7.086992
7.180572
7.125735
7.135868
7.099509
6.817579
6.844997
7.284880
##ZVALUE=330
0.533462
0.429749
0.535846
0.549555
0.548959
0.683665
0.514984
0.502467
0.567436
0.485778
0.509620
0.543594
0.616908
0.479817
0.646710
0.547767
0.588894
0.564456
0.723600
0.699759
0.666976
0.633597
0.705719
0.679493
0.621676
0.614524
0.662804
0.630617
0.789762
0.809431
0.849962
0.679493
0.842810
0.826716
0.892878
0.720620
0.889897
0.678897
1.032948
1.011491
1.013875
1.097918
1.055598
1.215935
1.309514
1.290441
1.872778
5.177855
28.830767
71.439743
180.096626
303.232670
518.254638
679.581761
853.371024
909.098983
869.901776
763.548613
577.807426
420.374870
229.990482
131.692886
53.678751
24.404526
8.881688
6.346703
6.428957
6.634593
9.449720
13.939738
23.047924
32.580495
47.243834
58.949590
73.095560
79.037547
80.821514
77.524781
65.729618
54.286718
39.842725
29.843450
20.577908
15.102625
10.358691
8.732677
7.338524
6.998777
6.748438
6.552935
6.687641
6.775856
6.651878
6.724000
6.826520
6.970763
##ZVALUE=335
0.575781
0.505447
0.544786
0.569820
0.492930
0.455976
0.478625
0.514984
0.414848
0.751615
0.571609
0.475645
0.547767
0.429749
0.507832
0.429749
0.566840
0.648499
0.432730
0.558496
0.606775
0.726581
0.410676
0.665784
0.738502
0.685453
0.627637
0.818968
0.627637
0.643730
0.644922
0.646710
0.757575
0.684857
0.737906
0.710487
0.810623
0.925660
0.905991
0.924468
0.856519
0.855923
0.897646
0.996590
1.091957
1.181960
1.335740
1.352429
1.567602
3.381968
11.606812
50.798655
114.032626
262.832642
429.163575
684.143901
844.736695
964.937806
970.701575
848.661661
704.019666
476.287603
319.979787
165.455937
86.215734
29.745698
12.912750
6.877780
6.219745
6.284714
6.929636
8.979440
12.787580
21.246672
30.269623
44.856668
56.161880
68.209767
74.266791
75.269938
71.775913
61.554909
51.840544
40.083528
30.859709
20.346642
15.063882
10.263920
8.578897
7.016659
6.828904
6.536841
6.360412
6.344914
6.326437
6.596446
##ZVALUE=340
0.746846
0.556707
0.650883
0.480413
0.557899
0.588894
0.585914
0.511408
0.673532
0.715852
0.593662
0.654459
0.608563
0.723600
0.646710
0.637770
0.594854
0.673532
0.585914
0.659823
0.672936
0.538826
0.819564
0.696778
0.687838
0.556707
0.658631
0.517964
0.834465
0.664592
0.959635
0.833869
0.827909
0.783801
0.730753
0.728965
0.709891
0.854731
0.907779
0.789762
1.001954
0.955462
1.000762
0.852942
1.176596
1.163483
0.946522
1.141429
1.314878
1.309514
1.512766
2.145767
5.695820
29.055476
72.086453
182.353854
305.767655
500.111580
651.473999
807.870030
858.954787
820.855498
716.878772
533.746481
377.501845
200.577974
111.106634
45.384765
18.660426
7.510781
6.441474
6.039739
6.005764
6.795526
8.926988
13.677478
19.756556
30.386448
40.892959
54.287910
63.069463
69.641471
70.848465
67.488551
61.095953
49.387813
40.239692
28.026700
21.215677
14.325976
10.585785
8.099675
7.035732
6.186962
5.927682
5.818605
##ZVALUE=345
0.419617
0.453591
0.458956
0.477433
0.392795
0.384450
0.603795
0.469685
0.547767
0.357628
0.527501
0.574589
0.581741
0.489950
0.401735
0.568628
0.559688
0.517964
0.543594
0.492930
0.452995
0.452995
0.388622
0.563860
0.491738
0.521541
0.504851
0.521541
0.530481
0.646710
0.525713
0.415444
0.572801
0.623465
0.541806
0.677705
0.752807
0.729561
0.824928
0.783801
0.736713
0.814795
0.810623
0.772476
0.810623
0.897646
1.035929
0.953674
0.898838
1.003742
1.097918
1.035929
1.277924
1.393557
2.698898
15.700459
44.612885
120.100975
215.188861
391.481519
534.686446
708.273649
784.450769
800.963640
735.911727
570.721626
427.861810
255.124569
146.649480
58.593750
26.965737
9.992719
6.410480
5.703568
5.442500
5.590916
6.204844
8.056760
11.439919
18.695593
26.486516
38.785934
47.595501
57.433844
63.176751
66.090822
63.813925
55.827498
48.092604
37.476420
28.634667
19.475818
14.288425
9.869933
7.758737
6.225705
##ZVALUE=350
0.454783
0.561476
0.586510
0.508428
0.475645
0.364780
0.387430
0.535846
0.496507
0.328422
0.535846
0.498891
0.409484
0.525713
0.550747
0.642538
0.450611
0.591874
0.435710
0.566840
0.632405
0.593662
0.565648
0.424981
0.476837
0.449419
0.457764
0.576973
0.516772
0.534654
0.479817
0.657439
0.539422
0.650883
0.679493
0.574589
0.561476
0.553727
0.660419
0.589490
0.770688
0.762939
0.605583
0.854731
0.845790
0.698566
0.838637
0.882745
0.770688
0.740886
0.925660
1.007915
1.113415
1.167655
1.215935
1.454949
1.673698
7.281899
24.490952
80.236793
154.216886
307.315588
445.796847
618.254542
724.445581
783.943534
748.907924
624.606609
484.233499
291.056633
181.937814
84.435940
39.722919
12.499690
6.668568
5.550981
5.367994
5.010962
4.958510
5.738735
7.289648
10.972619
15.481710
24.222732
31.940937
42.389631
50.036907
57.259798
59.958696
57.899952
53.481460
43.969750
36.286712
26.901960
20.442605
13.734698
##ZVALUE=355
0.460744
0.544786
0.591874
0.486970
0.475645
0.504851
0.389814
0.572801
0.516772
0.305772
0.372529
0.457764
0.530481
0.442863
0.505447
0.495911
0.449419
0.471473
0.448823
0.507832
0.635982
0.558496
0.526905
0.368953
0.577569
0.524521
0.710487
0.503659
0.653863
0.619888
0.670552
0.663996
0.654459
0.588894
0.535846
0.458956
0.707507
0.742674
0.755787
0.622869
0.668764
0.772476
0.823736
0.743866
0.859499
0.757575
0.778437
0.829697
0.837445
0.841618
0.944734
0.880957
1.046658
1.077652
1.238585
0.979900
1.168847
1.292825
1.336932
3.492832
12.461543
50.971508
107.594728
229.038000
359.936953
552.266836
671.671629
755.853653
749.160647
644.846559
521.609783
340.864658
214.874744
97.922683
48.965812
17.559528
7.776618
5.162954
4.916787
4.807711
4.633665
4.812479
5.052686
6.643534
9.054542
14.009476
19.649863
28.813481
36.122799
45.386553
51.443577
54.111481
53.163767
48.471689
43.087602
33.364892
##ZVALUE=360
0.565648
0.554919
0.420809
0.551939
0.411868
0.408888
0.499487
0.465512
0.545979
0.578761
0.533462
0.633597
0.613928
0.495911
0.370741
0.637770
0.486970
0.409484
0.536442
0.475645
0.591874
0.656843
0.470877
0.520945
0.646710
0.643730
0.435710
0.670552
0.551939
0.716448
0.535846
0.590682
0.562668
0.737906
0.708699
0.707507
0.648499
0.768900
0.764728
0.605583
0.680685
0.582933
0.622869
0.579953
0.622869
0.717640
0.682473
0.878572
0.959635
0.694990
0.858903
0.862479
0.888705
0.944734
0.997782
0.905991
0.990629
1.027584
1.131892
1.169443
1.566410
2.075434
5.389452
26.025772
64.909458
166.223645
275.874734
445.498824
584.437847
716.877580
745.474696
692.486763
588.865876
406.946540
272.758007
135.324597
70.984960
26.488900
11.243820
5.347729
4.794598
4.607439
4.367828
4.502535
4.425645
4.765987
5.434752
7.781982
10.791421
16.583800
22.520423
32.237768
37.801862
45.182705
48.504472
48.937798
##ZVALUE=365
0.346899
0.436902
0.430942
0.370741
0.412464
0.536442
0.460744
0.461936
0.475645
0.506639
0.582933
0.491738
0.485778
0.517964
0.436902
0.475645
0.383854
0.509620
0.704527
0.599623
0.698566
0.597835
0.454783
0.582933
0.526905
0.453591
0.631809
0.518560
0.467896
0.514984
0.404716
0.580549
0.596642
0.708699
0.695586
0.579953
0.536442
0.618696
0.657439
0.508428
0.577569
0.652671
0.753999
0.629425
0.724792
0.651479
0.761747
0.570416
0.674725
0.762939
0.695586
0.876784
0.762939
0.759959
0.848770
0.931621
0.838637
1.001954
1.058578
1.011491
1.089573
1.214743
1.288652
1.612902
2.692938
14.474988
39.361715
107.851624
198.469758
368.312001
502.053499
645.889640
715.630651
701.465607
622.166991
460.388660
328.207016
183.279514
100.363493
37.571788
15.395880
5.757809
4.556775
4.428625
4.066825
3.944635
3.827810
3.834963
3.820658
4.822612
5.948544
9.337664
13.295412
20.125508
26.249886
34.322739
##ZVALUE=370
0.426769
0.284910
0.606775
0.454783
0.362992
0.519753
0.520945
0.408888
0.326633
0.423789
0.437498
0.466704
0.513792
0.592470
0.641942
0.616908
0.470877
0.555515
0.561476
0.612736
0.514984
0.388622
0.538826
0.566840
0.587702
0.639558
0.586510
0.442863
0.685453
0.575781
0.638962
0.528693
0.610948
0.596642
0.539422
0.530481
0.502467
0.529885
0.556707
0.618696
0.580549
0.643730
0.517964
0.554919
0.646710
0.772476
0.605583
0.635982
0.746846
0.706911
0.828505
0.729561
0.717640
0.896454
0.853539
0.804663
0.820756
0.767708
0.822544
0.908971
0.827909
1.021624
1.050830
1.269579
1.287460
1.376867
1.683831
6.966591
24.415851
80.850720
152.260661
290.731788
425.871015
598.399639
684.478879
710.853934
657.595992
518.224835
384.393930
216.119885
124.085546
50.017834
23.968816
8.851886
5.054474
4.303455
4.237890
3.753901
3.768802
3.586411
3.450513
3.788471
4.285574
5.654693
7.701516
11.835694
##ZVALUE=375
0.664592
0.606775
0.561476
0.598431
0.558496
0.625849
0.595450
0.575781
0.466704
0.599623
0.589490
0.691414
0.648499
0.631809
0.598431
0.612736
0.624657
0.563860
0.632405
0.608563
0.656843
0.536442
0.644922
0.639558
0.727773
0.679493
0.749826
0.634789
0.721812
0.609756
0.684857
0.610948
0.711679
0.650883
0.675917
0.669956
0.723600
0.752807
0.772476
0.736713
0.684857
0.735521
0.682473
0.599623
0.607967
0.751615
0.714660
0.784993
0.723600
0.814795
0.733733
1.089573
0.752807
0.912547
0.708699
0.735521
0.869632
0.921488
1.055598
0.874996
1.061559
0.885725
1.053810
1.085997
0.984669
1.226664
1.167655
1.467466
1.576543
3.974438
12.618899
47.299862
102.397799
230.426788
358.418822
535.782576
639.566779
706.461668
692.213774
575.304627
449.462533
275.998712
176.585913
88.109970
44.888854
14.776587
6.619692
4.231930
4.027486
3.852844
3.705621
3.610849
3.508925
3.490448
3.496408
3.971457
##ZVALUE=380
0.541806
0.352859
0.484586
0.502467
0.278950
0.480413
0.466704
0.461936
0.414848
0.431538
0.390410
0.563860
0.515580
0.435710
0.485778
0.471473
0.344515
0.272989
0.418425
0.550747
0.416636
0.534654
0.633597
0.492930
0.572801
0.515580
0.408888
0.490546
0.576973
0.365973
0.606775
0.496507
0.443459
0.687838
0.447631
0.551939
0.479817
0.412464
0.767708
0.529885
0.567436
0.459552
0.569820
0.441670
0.564456
0.748634
0.574589
0.623465
0.646710
0.513792
0.723600
0.680685
0.661612
0.572801
0.616908
0.577569
0.807643
0.826716
0.682473
0.747442
0.566840
0.759959
0.698566
0.628829
0.800490
0.951886
0.786781
1.103878
1.051426
1.153946
1.269579
2.148747
7.704496
35.615563
79.694986
179.572701
291.930437
471.380949
590.479970
693.157911
698.719025
611.265898
507.911444
356.980562
243.155956
119.778514
61.993599
22.088885
9.617805
4.556775
3.741980
3.505945
3.522635
3.423691
3.328919
3.148913
##ZVALUE=385
0.327826
0.354648
0.380874
0.627637
0.312924
0.435710
0.358820
0.341535
0.359416
0.455976
0.433922
0.410676
0.367761
0.435710
0.270605
0.430942
0.494719
0.310540
0.375509
0.434518
0.411868
0.432730
0.508428
0.365973
0.416636
0.416636
0.535846
0.595450
0.493526
0.606775
0.449419
0.465512
0.565648
0.614524
0.629425
0.744462
0.673532
0.750422
0.598431
0.521541
0.542998
0.578761
0.581741
0.664592
0.543594
0.707507
0.541806
0.525713
0.568628
0.612736
0.598431
0.596642
0.541806
0.581741
0.553727
0.634789
0.688434
0.704527
0.625849
0.687838
0.589490
0.614524
0.659823
0.865459
0.793934
0.797510
0.868440
0.706911
0.813603
0.941753
1.086593
1.111627
1.474619
1.568794
3.333688
18.518567
48.832893
125.532746
223.238468
393.524766
524.600744
656.107664
695.408583
666.552782
587.849617
437.858701
313.972831
173.883438
99.661946
41.169524
16.905665
5.289912
3.749728
3.422499
3.298521
3.322959
##ZVALUE=390
0.399947
0.442863
0.309944
0.314713
0.390410
0.340939
0.459552
0.345707
0.325441
0.372529
0.405908
0.429749
0.359416
0.419617
0.394583
0.473857
0.457764
0.410676
0.260472
0.364780
0.363588
0.272989
0.355840
0.427961
0.495911
0.473857
0.457764
0.507832
0.569820
0.575781
0.584722
0.568628
0.680685
0.749826
0.653863
0.679493
0.744462
0.642538
0.747442
0.621676
0.675917
0.669956
0.518560
0.548959
0.773668
0.638962
0.477433
0.590682
0.547767
0.563860
0.690818
0.669956
0.725985
0.751615
0.508428
0.530481
0.625849
0.591874
0.683665
0.714660
0.763535
0.694990
0.784993
0.527501
0.551939
0.778437
0.827909
0.879765
0.837445
1.053810
0.916719
0.969768
1.163483
1.154542
1.178980
1.238585
1.928806
9.469986
30.504465
94.206929
177.453756
331.908464
452.044010
592.220426
670.669675
700.191855
657.667518
525.781512
403.268933
249.886513
147.711635
61.584711
27.861595
8.363724
4.151464
3.331900
##ZVALUE=395
0.525713
0.476837
0.472665
0.427961
0.359416
0.340939
0.535846
0.523925
0.508428
0.382662
0.409484
0.316501
0.476837
0.373721
0.397563
0.370741
0.474453
0.497699
0.450611
0.505447
0.350475
0.479817
0.511408
0.487566
0.440478
0.370741
0.576973
0.527501
0.634789
0.599623
0.645518
0.629425
0.640750
0.809431
0.723600
0.821948
0.916719
0.680685
0.645518
0.566840
0.674725
0.694990
0.761747
0.781417
0.731945
0.636578
0.715852
0.617504
0.722408
0.684857
0.701547
0.878572
0.772476
0.845790
0.640750
0.648499
0.631809
0.687838
0.571609
0.583529
0.614524
0.630617
0.632405
0.633597
0.786781
0.746846
0.880957
0.938773
0.902414
0.863671
0.914931
0.963807
1.016855
0.874996
0.965595
1.181960
1.073480
1.504421
1.458526
5.098581
18.875003
67.492723
133.564472
260.863900
380.885005
543.285608
639.185905
700.733662
693.524480
585.430861
460.557938
291.884542
189.273953
91.896653
44.430494
14.644861
##ZVALUE=400
0.610948
0.512600
0.398755
0.682473
0.344515
0.402927
0.434518
0.366569
0.465512
0.458956
0.355840
0.462532
0.462532
0.394583
0.549555
0.483990
0.334978
0.313520
0.515580
0.573993
0.338554
0.493526
0.537634
0.395775
0.385642
0.478625
0.491738
0.575781
0.679493
0.577569
0.520945
0.704527
0.704527
0.795722
0.693798
0.800490
0.613928
0.630617
0.813603
0.673532
0.910759
0.731945
0.827909
0.626445
0.825524
0.648499
0.596642
0.772476
0.639558
0.748634
0.771880
0.715852
0.687838
0.569820
0.725985
0.646710
0.695586
0.631809
0.687838
0.728965
0.704527
0.862479
0.646710
0.793934
0.825524
0.697970
0.752807
0.916719
0.773668
0.774860
1.027584
0.942945
1.001954
0.860691
1.073480
0.943542
0.904799
0.993609
1.042485
1.016855
1.451969
2.327561
11.654496
33.556819
96.099973
175.997615
326.587558
449.730754
601.212978
669.474006
682.987571
624.819994
485.960841
363.541842
212.927461
130.540729
##END
