##TITLE=QP00352
##FORMAT=SPECTACLE-ASCII V-1.2
##DATA TYPE=ULTRAVIOLET SPECTRUM
##SECOND TYPE=ULTRAVIOLET SPECTRUM
##DATE=12/11/17
##TIME=16:00:04
##SPECTROMETER/DATA SYSTEM=SPECTACLE
##XUNITS=NM EM
##YUNITS=ENERGY
##YFACTOR=1
##FIRSTX=220
##LASTX=410
##NPOINTS=96
##3DDATA=Equidistant
##ZUNITS=NM EX
##FIRSTZ=210
##LASTZ=400
##ZPOINTS=39
##XYDATA=(Y..Y)
##ZVALUE=210
3.820658
3.381968
2.906919
2.609491
3.090501
3.089905
3.586411
3.767610
3.604889
3.664494
3.252625
3.460646
3.466606
3.995895
4.019737
4.274845
4.115701
4.682541
4.745722
5.441904
5.454421
5.468726
6.605983
6.424785
6.954670
7.209778
7.333755
8.197427
8.678436
8.513927
8.460879
8.913875
9.688735
9.242892
9.381771
9.416938
10.772943
10.333657
11.636615
11.519790
11.059642
11.169910
11.947751
11.556745
12.863874
12.922883
13.514757
14.165640
14.735460
14.645457
14.384985
14.518499
17.132759
15.837550
15.839934
15.625954
17.083883
17.020702
17.341971
17.908812
17.156601
17.781854
18.100739
18.618703
19.602776
19.051433
22.102594
23.144484
29.867887
35.432577
44.676661
53.586960
61.614513
66.978931
73.483586
78.183413
79.893470
81.005692
74.971914
74.126720
64.356923
59.201717
50.420761
44.569969
35.368800
29.833913
26.890635
22.134781
20.288825
20.372868
18.637776
19.796491
18.756986
18.323660
18.255711
19.248724
##ZVALUE=215
11.101961
11.311769
10.330677
8.350611
5.706549
5.893707
5.506873
5.542636
6.020665
6.011724
6.292462
5.733967
4.857779
4.271865
4.966855
4.269481
4.028678
5.367994
5.224943
5.527735
5.163550
5.288720
6.471872
7.216930
7.686615
6.825924
8.154511
7.989407
8.036494
8.356571
9.083748
9.734631
9.808540
10.064840
10.520816
10.122657
10.227561
10.818839
11.265874
12.407899
11.641979
12.420416
12.935996
12.610555
13.282895
12.923479
11.842847
13.289452
14.614463
15.282631
14.968514
15.903711
16.289949
17.116666
15.664697
16.357899
17.566681
14.751554
17.219782
17.999411
18.187761
18.128753
18.341541
18.741488
20.795465
21.499991
22.604465
25.747418
29.169917
34.409761
42.015910
53.829551
54.974556
63.450933
65.066814
68.569779
68.272948
69.016814
69.762468
64.075589
60.166717
52.230954
47.179461
37.516952
33.782721
28.339624
27.216673
21.185875
20.862818
21.602511
20.219684
17.895699
18.603802
17.532706
17.664433
17.069578
##ZVALUE=220
40.039420
41.864514
44.321418
42.670965
40.036440
30.295849
23.764968
17.226934
12.964606
12.269616
12.912750
12.806654
13.828874
12.808442
9.986758
9.277463
7.645488
6.624460
6.667972
7.094741
6.543994
6.707907
7.471442
6.957650
8.358955
8.215904
8.745790
9.695888
9.364486
9.472966
10.484457
10.010600
10.528564
11.301637
10.495782
10.697842
11.834502
11.368990
13.460517
11.611581
13.542771
13.291836
13.510585
14.617443
12.911558
14.397502
14.251471
14.868975
16.452670
15.222430
15.849471
15.983582
15.266538
18.403530
16.303658
19.493699
19.375682
19.257665
18.056631
19.902587
18.893480
21.078587
20.824671
22.207499
20.267963
20.492673
24.159551
25.860667
28.554797
35.924911
43.381453
52.910447
55.975914
62.188506
70.951581
69.930553
71.740746
67.570806
70.745945
66.146851
60.133934
53.941607
49.511790
39.591789
37.886500
29.637814
27.716756
23.877621
22.875667
20.625591
21.523833
21.305680
19.943714
21.761656
20.100474
20.019412
##ZVALUE=225
71.032643
70.891976
101.862550
125.351548
140.295625
142.218471
124.570727
98.638535
65.058470
48.180819
31.657815
26.683807
25.336742
30.332804
28.396845
25.372505
23.960471
20.337701
14.746785
11.690855
9.268522
8.482933
8.845925
7.789731
8.453727
9.371638
8.920431
9.870529
11.128783
9.765625
11.692643
10.554790
11.766553
11.492968
11.016726
12.725592
12.829900
11.835694
13.700724
13.491511
14.104843
13.860464
14.504790
13.984442
15.571713
14.013648
16.278625
16.066432
15.514493
16.849637
16.749501
16.580820
18.332601
18.298626
19.046664
19.106865
20.236969
21.282434
20.547509
20.603538
20.146966
21.561980
21.959543
22.960901
23.148656
22.398829
26.138425
25.626421
30.830503
35.886765
40.407777
48.956871
52.959919
61.396956
63.496828
65.074563
63.319802
65.261722
59.984922
58.468580
51.636696
47.600865
43.133497
39.048791
32.323599
29.677749
29.029846
24.302602
23.792982
23.280978
24.344921
22.838712
22.208691
21.601915
22.545457
22.185445
##ZVALUE=230
62.041879
66.985488
111.902952
192.254782
256.627798
318.896770
354.390740
344.478488
314.572453
257.636905
174.617767
119.089484
71.746707
54.732561
51.090717
49.651861
54.821968
50.947666
48.599839
38.816929
33.504963
21.870732
17.208457
13.548732
11.269450
10.062456
10.632873
10.315776
11.239648
10.671616
11.427999
11.437535
11.795759
12.723804
13.263822
13.836622
13.812780
13.713837
13.457537
12.192726
13.760924
15.926957
14.449954
15.595555
15.416741
16.497970
16.347766
17.058849
16.965866
17.322898
16.573668
16.949773
19.082427
19.104481
19.554496
18.814802
20.814538
22.157431
20.262599
20.981431
21.409988
22.574663
23.570657
24.116635
24.817586
24.107695
24.778843
27.659535
31.334758
37.969947
41.203499
49.594641
52.700639
58.385730
62.573552
65.344572
64.722896
63.041449
59.511662
53.374767
51.213503
46.679974
44.824481
37.391782
32.516718
31.239986
28.674603
26.663542
27.908683
26.401877
25.372505
25.183558
25.223494
26.500821
24.644732
24.728775
##ZVALUE=235
21.758676
23.233891
64.480901
125.679970
207.629800
357.392430
486.869812
631.703734
694.571733
682.094693
635.293722
488.934517
355.097651
219.716430
143.314600
92.455745
83.371997
77.623725
85.520744
86.165667
78.375936
72.445869
55.428743
44.955611
28.078556
22.203922
16.793609
13.697743
14.004707
13.550520
13.147593
12.748837
13.225675
14.710426
14.684796
13.868809
14.177561
14.917850
13.813972
13.963580
16.352534
15.829802
15.282631
17.176867
18.977523
16.815662
17.575622
17.869473
19.586682
19.066930
19.433498
19.742846
21.063685
19.148588
20.575523
21.230578
20.462871
23.597479
23.358464
23.959875
25.888681
25.610924
24.514794
24.601817
27.699471
29.418468
30.089617
32.222867
36.718845
39.365888
46.783686
52.465796
60.436726
66.018701
68.956614
73.192716
69.352984
69.424510
66.731572
59.935451
55.314898
52.127838
45.397878
42.184591
37.599802
37.545562
34.297705
32.067895
31.887889
32.399893
32.362938
28.650761
29.480457
29.009581
27.930737
28.845668
##ZVALUE=240
3.502965
3.338456
10.634661
30.309558
85.698962
168.210864
346.684456
530.422926
803.917646
994.316936
1016.183496
1016.183496
1016.024947
819.471478
626.348853
387.399793
262.615681
161.147714
117.943883
110.091567
113.540888
121.942759
119.993687
113.980770
91.657639
73.864460
53.689480
43.486953
28.086901
22.501945
16.903877
17.296672
15.552640
16.698837
14.898777
16.562939
16.892552
16.587973
16.168952
16.700625
16.502738
18.170476
17.822981
17.897487
19.099712
18.408895
18.184781
18.996000
20.089746
19.840598
20.138621
19.026995
19.263625
21.424890
20.189881
21.630526
21.393895
22.211671
23.427606
24.913549
23.991466
24.436712
26.294589
26.684999
26.143789
27.899742
30.027628
31.549931
37.275553
42.583942
45.903921
54.118633
59.076548
63.493848
68.818927
71.112514
70.231557
68.982840
62.983632
59.745908
55.655837
50.041676
50.057769
43.504834
37.963986
39.843917
36.795735
35.030842
33.519864
34.420490
31.699538
33.067465
34.259558
31.376481
29.490590
32.651424
##ZVALUE=245
2.698898
2.203584
2.546906
2.740622
5.501509
26.079416
66.535473
188.329816
336.055756
606.756806
845.927000
1016.200781
1016.200781
1016.200781
1016.200781
1016.200781
909.804702
620.121956
417.143703
228.947997
149.409771
124.183893
123.145580
134.442449
139.051676
139.221549
118.690729
105.842948
82.887411
64.175725
43.719411
31.901598
24.412870
19.852519
17.714500
17.052889
16.524792
15.671849
16.346574
15.076995
14.706850
14.891624
14.900565
15.863776
15.579462
16.011000
16.137958
16.734600
16.121864
16.416907
17.676950
18.013716
17.543435
16.537905
19.989610
19.717813
18.751621
18.948913
20.093918
20.781755
21.352768
20.482540
22.860765
24.558902
23.422837
25.104880
28.725863
28.194785
32.992959
36.720634
40.083528
49.525499
53.001642
56.160688
57.793856
60.649514
60.120821
58.153868
56.171417
53.470731
48.442483
45.513511
40.778518
37.715435
34.958720
35.475492
32.566786
33.051968
31.412840
33.862591
33.181906
29.597878
32.085776
31.669736
30.293465
31.065941
##ZVALUE=250
2.558827
2.306700
2.416968
2.618432
2.879500
2.965927
4.199743
14.103651
60.911775
140.827894
352.729559
588.527918
880.264640
1016.318798
1016.318798
1016.318798
1016.318798
1016.318798
1016.318798
923.374891
623.523593
387.315750
189.272761
127.039552
115.420818
129.825473
145.304799
150.383711
144.089460
133.988857
115.902424
89.469552
69.366693
45.506954
33.148527
22.110939
18.555522
15.736818
15.871525
14.800429
14.002919
15.086532
13.836622
13.774633
15.054941
15.592575
14.281869
15.935898
15.245676
15.720725
15.386939
16.334653
16.542673
15.607476
16.601682
17.363429
16.658902
17.516613
18.528700
18.705726
18.637776
19.033551
19.888878
20.681620
20.409822
22.371411
23.419857
24.618506
27.400851
32.780766
35.443902
43.171644
45.157671
49.653649
52.113533
53.404570
52.475929
51.826835
48.742890
45.713782
44.676661
39.931536
38.684607
35.491586
32.934546
31.674504
31.647682
29.803514
30.490756
29.251575
28.839707
28.450489
27.894974
29.306412
28.164983
30.041933
##ZVALUE=255
2.384782
2.220869
2.088547
2.331734
2.205968
2.513528
2.561808
2.972484
3.433824
8.052588
36.294460
105.542541
288.271904
509.147644
916.028023
1016.201973
1016.201973
1016.201973
1016.201973
1016.201973
1016.201973
1016.201973
952.411890
517.576933
288.780928
140.408874
111.261606
116.597414
132.811666
151.066780
156.422853
149.716735
138.188601
113.812685
89.811683
62.955618
45.814514
29.128790
21.082759
15.393496
14.271736
14.213920
12.799501
13.147593
13.061762
13.769865
14.219880
14.138818
13.254881
14.699697
15.499592
15.437603
13.966560
15.463829
15.711784
15.376806
14.890432
15.435815
15.559793
15.709996
15.511513
16.469955
16.143918
18.048882
17.830729
18.949509
20.650625
22.732615
24.833679
28.176904
31.528473
35.454631
40.292740
43.292642
45.636892
46.140552
45.441985
43.085814
41.239858
38.236976
36.176443
33.274889
31.228662
29.170513
28.135777
29.309988
27.308464
28.258562
28.446913
25.079846
26.791692
26.722550
25.539994
25.984645
26.535988
26.033521
##ZVALUE=260
1.977682
1.881719
2.094507
2.286434
2.196431
2.492666
2.693534
2.593994
2.871752
2.684593
3.445745
5.209446
17.537475
77.573657
180.670023
453.711748
771.108866
1016.167998
1016.167998
1016.167998
1016.167998
1016.167998
1016.167998
1016.167998
1016.167998
855.118036
459.881425
252.513885
127.327442
99.747777
112.691522
132.580400
151.793957
158.270001
156.979561
141.512752
119.576454
89.407563
67.842603
44.236779
29.755831
18.982887
15.446544
13.305545
11.683702
12.950897
13.390779
13.723969
12.465715
13.412833
13.420582
13.337731
13.792515
14.182925
14.134645
13.937950
13.163686
14.502406
14.787912
13.940930
15.108585
14.708638
15.401840
14.724731
16.610622
17.191768
18.133521
19.624829
20.803809
24.108887
27.132630
31.504631
34.027696
36.449432
38.859844
39.123893
38.543940
35.949945
35.869479
32.571554
31.000972
28.106570
28.003454
26.177764
24.684668
24.741888
24.066567
23.347735
23.171902
24.105906
22.998452
23.805499
22.544861
23.031831
23.068786
23.110509
##ZVALUE=265
1.845956
1.843572
1.937747
1.960993
1.860857
2.426505
2.392530
2.487898
2.184510
2.640486
2.778769
3.422499
3.661513
4.185438
12.399554
45.646429
164.662600
341.925621
621.234775
1016.201973
1016.201973
1016.201973
1016.201973
1016.201973
1016.201973
1016.201973
1016.201377
1016.201377
737.456679
355.312824
194.987655
97.232461
91.741681
118.983984
139.349699
157.583952
163.275003
156.975985
141.087770
112.894773
88.632703
61.110854
42.726994
27.184486
20.154715
13.712645
12.494922
12.524724
12.015700
12.134910
12.247562
12.319684
12.916923
12.449622
12.483597
13.190508
12.986660
13.179779
13.869405
13.729930
14.421940
13.745427
15.047789
14.136434
14.926791
15.146732
15.942454
17.309785
18.342733
21.121502
24.130940
26.938915
29.054880
31.651855
32.362938
32.665730
32.854676
30.360818
29.522777
26.682615
26.276708
25.004745
23.159981
21.327734
21.430850
21.624565
20.352602
21.246672
21.319985
20.040870
21.300912
20.383000
20.415783
20.729899
21.032691
21.201968
##ZVALUE=270
1.711845
1.862645
1.955628
1.982450
1.898408
1.973510
2.240539
2.590418
2.430677
2.839565
2.382994
2.801418
2.993941
3.503561
3.445745
3.858805
5.539656
27.420521
84.040761
280.554891
556.944013
957.444906
1016.196012
1016.196012
1016.196012
1016.196012
1016.196012
1016.196012
1016.196012
1016.196012
1012.609601
648.089647
346.149802
133.710504
84.514618
91.620684
112.385750
138.658881
153.444409
162.263513
157.890916
138.154626
117.457509
86.718798
65.543652
42.508841
29.498935
18.905997
15.347600
12.830496
12.978911
11.936426
11.928678
12.432933
12.641549
12.616515
12.858510
12.915730
12.773871
13.462901
13.312697
13.523698
14.021993
13.531446
13.331771
14.935732
15.794635
15.779734
18.371940
20.340681
21.803975
24.559498
27.544498
28.056502
29.186606
30.117631
28.810501
27.746558
25.896430
24.450421
21.822453
21.407604
20.604730
19.683838
19.244552
18.696785
18.969774
19.621849
18.994808
18.637776
18.497705
19.069910
19.248724
19.570589
19.412637
19.748807
##ZVALUE=275
1.721978
1.665950
1.975894
1.599789
1.759529
1.952648
2.102852
2.042651
2.234578
2.203584
2.333522
2.342463
2.293587
2.658963
3.026724
3.168583
3.497601
3.605485
4.368424
10.637641
43.289661
188.978910
414.525867
938.525796
1016.201973
1016.201973
1016.201973
1016.201973
1016.201973
1016.201973
1016.201973
1016.201973
1016.201973
776.575804
443.493724
185.219646
96.151829
71.201921
85.204840
113.646984
134.902596
152.601600
160.150528
153.157711
141.928792
110.184550
90.566874
62.433481
45.437813
29.584765
21.095872
15.325546
12.910962
11.660457
11.405945
11.852980
11.992455
12.234449
12.022853
12.681484
12.807846
12.944937
13.024807
13.098717
13.480783
13.940930
14.930964
15.616417
16.874671
19.174814
20.350814
22.976995
24.551749
26.526451
26.797652
26.882887
25.904775
24.679899
25.115609
21.969676
22.004843
20.104647
19.054413
17.659664
17.937422
17.324686
17.250776
17.259717
16.538501
16.926527
16.878843
17.020702
16.517639
15.931726
16.578436
15.869737
##ZVALUE=280
1.665950
1.643896
1.748800
1.864433
1.739860
1.759529
1.702905
1.783967
2.126694
2.026558
1.783967
2.086759
2.222657
2.261996
2.381802
2.642870
2.759695
2.828836
3.315806
3.936887
4.141927
5.541444
33.326745
112.992525
361.104608
676.710010
1016.201973
1016.201973
1016.201973
1016.201973
1016.201973
1016.201973
1016.201973
1016.201973
1016.201973
947.696567
550.219417
226.587653
107.944608
56.224465
60.490966
86.549520
106.658936
135.539770
150.467753
152.322650
151.300430
132.806897
114.185810
84.459782
65.157413
42.661428
29.899478
19.337535
14.835596
11.989474
11.105537
10.809898
11.519790
11.718869
11.766553
12.575984
11.788607
12.452602
12.339950
13.097525
13.438463
13.858676
15.675426
16.437769
18.969774
20.800829
22.707582
23.578405
24.125576
24.130940
23.319721
22.624731
21.441579
19.863844
18.689632
18.066764
17.299652
16.628504
15.990734
16.212463
16.263723
16.065836
16.207695
16.312599
15.735626
15.806556
15.408993
15.567541
15.989542
15.080571
##ZVALUE=285
1.677871
1.463890
1.542568
1.611710
1.721978
1.797676
1.852512
1.800656
1.687407
1.930594
1.806617
1.847744
1.968741
2.086759
2.134442
2.071857
2.464652
2.500415
2.911687
3.105998
3.191829
3.380775
4.121661
4.482865
15.898943
58.698654
208.477974
431.555510
939.576626
1016.218662
1016.218662
1016.218662
1016.218662
1016.218662
1016.218662
1016.218662
1016.218662
1016.218662
790.811777
347.577929
165.291429
59.781671
43.838620
59.066415
79.135895
108.952522
126.905441
145.717859
151.438713
147.444606
135.844946
110.883713
91.851950
64.761639
46.494603
28.810501
21.087527
14.775991
12.433529
11.686683
12.216568
11.316538
11.828542
11.697412
12.043715
12.528896
12.684464
13.159513
14.553666
15.598536
16.638637
17.949939
19.648671
20.505786
20.371675
21.455884
20.296574
20.411611
19.140840
18.285513
17.581582
16.846657
16.109943
16.177893
15.409589
15.760660
15.060902
15.602708
14.860630
15.074611
15.188456
14.427900
14.996529
15.033484
14.696717
14.585853
##ZVALUE=290
1.397729
1.586676
1.532435
1.344681
1.533628
1.551509
1.618862
1.519918
1.592636
1.565814
1.561642
1.573563
1.753569
1.843572
1.807809
2.200603
2.239943
2.197623
2.436638
2.482533
2.764463
3.118515
3.253818
3.720522
4.081726
4.539490
6.005764
31.994581
102.220774
324.455500
621.067882
1016.201973
1016.201973
1016.201973
1016.201973
1016.201973
1016.201973
1016.201973
1016.201973
1016.201973
1016.201377
535.117388
261.160731
85.637569
41.225553
40.689707
54.239631
79.106688
97.779632
123.522878
137.576461
147.478580
146.735907
130.376816
111.836791
84.139705
64.067841
42.858720
31.920671
20.601749
15.835762
12.596846
12.091994
11.858940
11.227727
12.045503
12.571812
12.950897
13.885498
15.509725
16.464591
17.688870
18.757582
20.344853
19.876957
19.258857
18.504858
18.068552
18.090606
16.499758
16.072989
15.336871
15.295744
15.824437
14.835000
14.632940
14.866590
14.924407
15.420914
14.647841
14.772415
13.901591
14.152527
13.566613
13.645887
14.549494
##ZVALUE=295
1.322627
1.404881
1.235604
1.325607
1.417994
1.208782
1.392961
1.546741
1.567602
1.548529
1.417994
1.615882
1.627803
1.506805
1.579523
1.723766
1.839995
1.909733
2.171993
2.289414
2.251863
2.477765
2.657771
2.854466
3.405809
3.502965
3.889799
4.055500
4.565716
9.317994
36.438704
169.045925
391.867757
922.093987
1016.124487
1016.124487
1016.124487
1016.124487
1016.124487
1016.124487
1016.124487
1016.124487
1016.124487
902.021527
475.181937
152.943730
60.581565
30.671954
34.880638
52.066445
69.904923
94.860792
113.420486
132.529736
140.820742
136.645436
125.688910
104.272962
85.615516
60.485601
44.815540
28.801560
21.348000
15.365481
12.691617
12.110472
11.946559
12.049675
13.378859
14.208555
15.796423
17.220974
17.658472
17.702579
18.817782
17.690659
17.456412
17.699599
16.000867
15.700459
15.329719
14.798641
14.822483
14.750957
14.803410
14.491677
14.502406
14.268756
14.388561
13.893843
14.034510
14.152527
13.714433
13.951659
13.852715
13.402700
##ZVALUE=300
1.409650
1.227856
1.418591
1.295805
1.458526
1.342893
1.419783
1.576543
1.666546
1.459718
1.693964
1.709461
1.649857
1.585484
1.878738
1.510978
1.678467
1.705885
1.941919
1.845956
2.010465
2.075434
2.335906
2.354980
2.641678
2.882481
3.165603
3.287792
3.790855
3.916621
4.719496
5.525947
23.885965
88.711977
311.515927
617.842674
1016.202569
1016.202569
1016.202569
1016.202569
1016.202569
1016.202569
1016.202569
1016.202569
1016.202569
1016.202569
684.324503
352.713466
109.014511
38.804412
26.431680
32.120943
47.352910
63.297749
87.552667
106.743574
125.938654
131.247640
130.495429
122.725964
104.127526
84.797740
61.200857
46.180487
29.607415
21.789670
15.650988
14.240742
13.628602
13.864636
15.060902
15.275478
16.989708
17.532706
17.555952
17.275810
16.498566
15.606880
15.459657
15.257597
14.856458
14.848709
14.661551
14.406443
14.151931
14.097691
14.442801
14.053583
14.290810
13.933778
14.015436
13.311505
13.278723
13.840795
13.801455
13.303757
##ZVALUE=305
1.184940
1.297593
1.369715
1.338720
1.272559
1.533628
1.280904
1.595616
1.385808
1.478791
1.442432
1.493692
1.316667
1.374483
1.643896
1.716614
1.771450
1.738667
1.686811
1.881719
1.922846
1.955628
2.037883
2.262592
2.416968
2.558827
2.897978
2.992749
2.953410
3.247857
3.616810
4.099607
4.534721
5.411506
9.679794
59.646964
175.977945
532.007813
956.540704
1016.201973
1016.201973
1016.201973
1016.201973
1016.201973
1016.201973
1016.201973
1016.201973
1016.201973
952.913761
423.335433
193.863511
52.786469
24.368763
23.388863
30.546784
46.281815
61.473846
84.243417
101.436973
119.890571
126.775503
125.606656
116.825700
98.446608
80.906749
59.442520
43.958426
29.278994
22.022724
18.205643
16.487837
16.499758
16.540885
17.204881
16.775727
16.455650
15.951991
15.914440
15.250444
15.110970
14.595985
14.551878
14.870763
14.214516
14.557838
14.261603
13.912916
14.567971
14.143586
14.560819
14.116764
14.002919
13.578534
13.737679
13.366938
13.349652
##ZVALUE=310
1.351833
1.310706
1.186728
1.211762
1.234412
1.294613
1.366735
1.342893
1.492500
1.397729
1.288652
1.579523
1.386404
1.605749
1.618862
1.590848
1.574755
1.713634
1.712441
1.877546
1.779795
1.948476
1.937747
2.201796
2.171993
2.063513
2.504587
2.601743
2.679825
2.994537
3.072619
3.296733
3.339648
3.940463
4.226565
4.951954
5.999804
28.173923
96.030235
332.458615
684.229732
1016.201973
1016.201973
1016.201973
1016.201973
1016.201973
1016.201973
1016.201973
1016.201973
1016.201973
1016.201973
741.757751
384.442806
119.443536
40.053725
19.454956
21.229982
29.305816
39.176941
57.150722
73.652864
95.226765
109.471679
118.832588
119.350553
111.049414
98.338723
78.051686
61.736703
43.859482
34.243464
25.901794
21.321774
18.175840
17.031431
16.188622
15.876889
15.620589
14.880896
15.214682
14.881492
14.541745
14.992952
14.639497
14.924407
14.916658
14.450550
14.739633
14.509559
14.520884
13.922453
13.952851
14.209747
13.937950
13.685822
13.017654
##ZVALUE=315
1.346469
1.262426
1.133680
1.306534
1.241565
1.289845
1.510978
1.401901
1.366735
1.339912
1.406670
1.473427
1.547933
1.500845
1.582503
1.308918
1.420975
1.533628
1.650453
1.695752
1.577735
1.886487
1.741648
1.991987
2.168417
2.167821
2.175570
2.411604
2.201796
2.338886
2.795458
2.559423
2.839565
3.056526
3.244877
3.827810
4.079938
4.829764
5.348921
13.307929
55.173635
235.650539
520.275831
1016.201973
1016.201973
1016.201973
1016.201973
1016.201973
1016.201973
1016.201973
1016.201973
1016.201973
1016.201973
980.192423
568.267703
197.528601
70.007443
21.166801
17.797947
20.284653
25.770664
38.492680
50.400496
71.846843
86.626410
104.296803
112.496614
115.364790
108.329654
92.898607
79.299808
61.552525
48.046708
32.971501
25.839806
19.690990
17.766953
15.805960
14.912486
14.852881
14.068484
14.873743
14.612675
14.714599
14.429688
14.667511
14.695525
14.718771
14.976859
14.738441
14.840961
14.509559
14.373660
14.089942
14.308691
14.028549
##ZVALUE=320
1.242757
1.325607
1.205802
1.270771
1.317859
1.296997
1.166463
1.344681
1.259446
1.299977
1.390576
1.470447
1.497865
1.342893
1.534820
1.573563
1.476407
1.415610
1.732707
1.532435
1.555681
1.631975
1.749992
1.851916
2.023578
1.931787
1.987815
2.048612
2.123713
2.297759
2.227426
2.556443
2.635717
2.915859
2.949834
3.352761
3.362894
3.705621
4.426837
4.710555
5.327463
7.143617
25.582910
139.397979
360.208750
934.291482
1016.201973
1016.201973
1016.201973
1016.201973
1016.201973
1016.201973
1016.201973
1016.201973
1016.201973
1016.201973
691.861510
288.940668
121.043921
30.236840
16.926527
16.393661
18.771887
24.274588
32.395720
49.583912
63.725710
82.397461
96.618533
108.303428
110.482574
104.522705
94.131827
76.315999
61.084628
44.024587
33.329725
23.877621
19.585490
16.141534
15.420914
14.656782
14.857650
14.635921
15.046597
14.661551
14.865994
14.812946
14.755726
14.383793
14.468431
14.183521
14.298558
14.372468
13.818741
13.355613
##ZVALUE=325
1.336932
1.541972
1.353621
1.325607
1.319647
1.325607
1.306534
1.446605
1.447797
1.641512
1.441836
1.481771
1.438856
1.368523
1.533628
1.535416
1.581907
1.557469
1.529455
1.667738
1.756549
1.851916
1.745820
1.872778
2.055764
1.871586
1.989603
2.098680
2.167821
2.140999
2.412796
2.342463
2.387762
2.684593
2.654791
2.987981
2.933741
3.333688
3.695488
3.870726
4.134774
4.489422
5.049706
6.358624
13.738871
97.193718
261.749625
698.235035
1016.286612
1016.286612
1016.286612
1016.286612
1016.286612
1016.286612
1016.286612
1016.286612
1016.286612
1016.286612
951.552987
417.881012
193.482637
51.173568
20.830631
15.147924
16.001463
18.805861
23.291707
34.030676
46.866536
67.180991
81.080794
97.242594
104.367733
104.867816
100.144744
84.478855
72.219968
54.831505
42.256713
29.364824
23.481846
18.375516
16.830564
15.265942
15.316606
14.979839
15.387535
14.607906
14.868975
15.067458
14.608502
14.366508
14.009476
14.202595
14.031529
13.316870
##ZVALUE=330
1.178980
1.142621
1.178980
1.192689
1.247525
1.141429
1.103878
1.179576
1.239777
1.213551
1.436472
1.232624
1.253486
1.405478
1.315475
1.226664
1.384616
1.307726
1.446605
1.403689
1.514554
1.550913
1.724958
1.665950
1.669526
1.769662
1.636744
1.854897
2.111793
1.949668
2.080798
1.784563
2.175570
2.080798
2.324581
2.403855
2.772808
2.685785
3.004670
3.026724
3.337860
3.371835
3.908873
4.356503
4.955530
6.742477
9.076595
32.743812
176.364779
854.181647
981.716514
1016.201973
1016.201973
1016.201973
1016.201973
1016.201973
1016.201973
1016.201973
1016.201973
1016.201973
1016.201973
649.685860
259.717703
107.278824
26.612878
15.489459
14.357567
15.416741
18.552542
23.874640
35.423636
45.738816
62.428713
75.687766
91.660619
96.952915
98.017454
93.420744
79.056621
66.956878
51.429868
39.737821
29.053688
23.350716
18.621683
16.487837
15.042424
14.772415
14.218688
14.467835
13.593435
13.863444
13.571978
13.352633
13.291836
13.435483
##ZVALUE=335
1.207590
1.177788
1.277924
1.273751
1.301765
1.290441
1.155734
1.045465
1.242757
1.249909
1.208782
1.246929
1.217723
1.363754
1.274943
1.395941
1.340508
1.283884
1.295805
1.489520
1.535416
1.544952
1.584888
1.590848
1.465678
1.487732
1.646876
1.675487
1.682639
1.789927
1.700521
1.808405
1.898408
2.088547
2.197623
2.121925
2.251863
2.461672
2.311468
2.651811
2.692938
2.878904
3.066659
3.631711
3.798604
3.963709
4.391670
5.369782
6.144643
18.433928
80.379844
337.374806
721.098781
1016.204953
1016.204953
1016.204953
1016.204953
1016.204953
1016.204953
1016.204953
1016.204953
1016.204953
1016.204953
841.742754
427.965522
134.558678
48.923492
17.931461
16.241670
16.105771
17.306805
20.449758
24.861693
34.295917
44.352412
60.014725
71.617961
84.138513
90.266466
92.579722
87.344646
74.458718
63.880682
50.918460
40.958524
28.860569
23.404956
18.497705
16.303658
15.056729
14.232993
13.972521
13.603568
13.328791
13.280511
13.012886
##ZVALUE=340
1.090765
1.200438
1.126528
1.236796
1.204610
1.293421
1.324415
1.279712
1.247525
1.205802
1.297593
1.165867
1.102686
1.397729
1.308918
1.421571
1.297593
1.413822
1.347661
1.261830
1.315475
1.379848
1.482964
1.621842
1.447797
1.466870
1.667738
1.663566
1.914501
1.619458
1.767874
1.805425
1.807809
1.803637
2.130866
2.035499
1.949668
2.235770
2.213717
2.358556
2.668500
2.864599
2.908707
2.930760
3.049970
3.555417
3.719926
4.293919
4.440546
5.280972
5.654693
9.664893
37.261844
206.774473
518.529415
1016.201973
1016.201973
1016.201973
1016.201973
1016.201973
1016.201973
1016.201973
1016.201973
1016.201973
1016.201973
1016.201973
609.431863
202.315450
72.449446
21.995902
17.050505
16.337633
16.859770
17.337799
18.964410
24.028420
30.556917
42.532682
53.175688
67.904592
78.833699
85.109472
86.379647
80.758929
74.034929
60.871840
50.120950
38.150549
30.153990
21.854639
17.496943
15.151501
13.750792
12.920499
12.799501
12.712479
##ZVALUE=345
1.283884
1.135468
1.171827
1.231432
1.015663
1.099706
1.218915
1.217723
1.117587
1.131892
1.338720
1.359582
1.368523
1.324415
1.263618
1.434684
1.345873
1.158714
1.299977
1.274943
1.476407
1.322627
1.478791
1.550913
1.595616
1.523495
1.629591
1.563430
1.679659
1.735687
1.847744
1.818538
1.746416
1.947880
1.766682
1.902580
1.973510
2.183914
2.180934
2.265573
2.284646
2.440810
2.416968
2.611876
2.893806
2.996922
3.317595
3.363490
3.664494
3.910661
4.238486
5.024672
5.577803
6.442666
16.636848
124.301910
354.302526
931.258798
1016.201973
1016.201973
1016.201973
1016.201973
1016.201973
1016.201973
1016.201973
1016.201973
1016.201973
1016.201973
902.853608
337.803960
137.561560
37.144423
20.267963
17.289519
16.573668
15.557408
15.443563
17.249584
20.632744
29.027462
37.172437
51.077604
60.727000
71.917772
77.318549
79.970956
76.693892
69.032907
59.864521
47.757626
38.345456
27.370453
21.783710
16.773939
14.705658
13.537407
##ZVALUE=350
1.270771
1.296997
1.314878
1.321435
1.301765
1.353621
1.214743
1.259446
1.370907
1.106858
1.219511
1.304746
1.227856
1.213551
1.462698
1.254678
1.335740
1.246929
1.450777
1.465678
1.575947
1.518726
1.474619
1.665950
1.655817
1.684427
1.571774
1.685619
1.643896
1.718998
1.903772
1.540780
1.606941
1.866817
1.904964
1.934767
2.044439
1.892447
2.029538
2.144575
2.286434
2.180934
2.421737
2.436638
2.487898
2.655983
2.907515
2.964735
3.252625
3.654957
3.721714
3.893971
4.239678
4.963875
5.322695
6.312728
9.080768
55.479407
192.580819
636.091828
1016.201973
1016.201973
1016.201973
1016.201973
1016.201973
1016.201973
1016.201973
1016.201973
1016.201973
1016.201973
986.738801
447.617769
195.949674
48.940778
21.713972
16.228557
14.930964
13.896823
13.219714
13.842583
15.541911
20.585656
25.483966
34.788847
43.520927
56.031942
64.166784
72.487593
74.215531
71.242452
65.460801
54.883957
45.945644
35.312772
28.346777
20.845532
##ZVALUE=355
1.503825
1.416802
1.362562
1.386404
1.403689
1.411438
1.414418
1.364946
1.451969
1.434684
1.328588
1.382828
1.426935
1.599789
1.536608
1.527667
1.584888
1.584888
1.682639
1.658797
1.704693
1.604557
1.589656
1.650453
1.699924
1.627803
1.669526
1.817942
1.662970
1.842976
1.803637
1.824498
1.742840
1.962781
2.000928
2.037883
2.018809
2.017617
2.038479
2.005696
2.192855
2.339482
2.481937
2.430677
2.582669
2.777576
2.606511
2.981424
2.983809
3.134608
3.386736
3.570914
3.674626
4.005432
4.461408
4.916787
5.188584
5.894899
6.858706
21.991730
84.736943
363.890529
785.415769
1016.280651
1016.280651
1016.280651
1016.280651
1016.280651
1016.280651
1016.280651
1016.280651
1016.280651
1016.280651
564.746857
261.775851
79.995990
28.108954
15.487671
14.176965
13.286471
12.831688
12.946725
13.435483
14.428496
17.342567
23.155808
29.504895
39.640665
47.386885
57.732463
63.480735
67.279935
65.244436
59.043765
52.340627
42.204857
##ZVALUE=360
1.472831
1.294613
1.325607
1.505613
1.290441
1.415610
1.298785
1.245737
1.403689
1.544952
1.453757
1.588464
1.447797
1.470447
1.458526
1.299977
1.533628
1.363754
1.713634
1.628995
1.541972
1.390576
1.336932
1.559854
1.704693
1.844764
1.608729
1.824498
1.754761
1.904964
1.732707
1.715422
1.842976
1.936555
1.811981
1.925826
1.945496
1.961589
2.184510
2.089739
2.067685
2.377629
2.285838
2.468824
2.434850
2.541542
2.550483
2.586842
2.925992
3.089905
3.272891
3.299713
3.397465
3.720522
3.928542
4.283786
4.432797
5.039573
5.338788
6.029606
6.773472
11.239648
39.288402
189.065933
469.473600
1016.201973
1016.201973
1016.201973
1016.201973
1016.201973
1016.201973
1016.201973
1016.201973
1016.201973
1016.201973
857.013464
429.361463
146.130919
50.028563
16.943812
14.440417
13.066530
12.805462
11.998415
11.586547
11.762977
12.602806
15.271902
18.209815
24.728775
31.791925
41.522980
47.988892
55.718422
58.764815
59.850812
##ZVALUE=365
1.402497
1.286864
1.256466
1.469851
1.229644
1.332760
1.451969
1.372695
1.258850
1.205802
1.359582
1.421571
1.422763
1.465678
1.425743
1.453757
1.387596
1.461506
1.457930
1.568794
1.423955
1.479983
1.668930
1.676679
1.608729
1.734495
1.595616
1.728535
1.809597
1.673698
1.832843
1.772642
1.704693
1.806617
1.822710
1.898408
1.864433
1.847744
2.051592
2.009869
2.031922
2.074838
2.492666
2.227426
2.278686
2.347827
2.361536
2.620816
2.567768
2.756715
2.983809
2.957582
3.047585
3.137589
3.357530
3.714561
3.794432
4.085898
4.379749
4.860759
5.442500
6.259680
6.875992
8.109808
16.369820
104.352832
303.954482
859.951973
1016.201973
1016.201973
1016.201973
1016.201973
1016.201973
1016.201973
1016.201973
1016.201973
1016.201973
1016.201377
637.098551
217.438936
80.641508
20.252466
13.749599
12.285709
11.998415
11.418462
10.903478
10.484457
10.657907
11.053681
12.650490
16.291738
20.076632
26.744604
33.847690
42.933822
##ZVALUE=370
1.341701
1.318455
1.358986
1.367927
1.339912
1.350641
1.221895
1.375675
1.215935
1.340508
1.340508
1.393557
1.472831
1.542568
1.407862
1.503825
1.394749
1.519918
1.582503
1.566410
1.597404
1.467466
1.711845
1.704693
1.747608
1.527667
1.705885
1.692772
1.506805
1.690984
1.562834
1.770854
1.704693
1.739860
1.746416
1.860857
1.902580
1.994967
1.960993
1.831651
2.088547
2.143979
2.107620
2.139807
2.141595
2.257824
2.235770
2.220869
2.399683
2.476573
2.563596
2.630949
2.651811
2.941489
2.776980
3.026724
3.289580
3.470778
3.793836
3.950596
4.239678
5.092621
5.096793
5.583763
5.985498
7.209778
10.261536
54.806471
195.070505
655.481815
1016.232967
1016.232967
1016.232967
1016.232967
1016.232967
1016.232967
1016.232967
1016.232967
1016.232967
1016.232967
817.018747
298.211575
125.310421
36.686659
15.974641
12.254715
11.280775
10.770559
10.081530
9.682775
9.293556
9.244680
9.604692
11.023879
13.457537
18.250942
##ZVALUE=375
1.210570
1.297593
1.196861
1.265407
1.187921
1.135468
1.119971
1.326799
1.377463
1.226664
1.310706
1.167655
1.141429
1.223683
1.003742
1.279712
1.342893
1.304746
1.322627
1.515746
1.458526
1.236796
1.459718
1.252890
1.405478
1.390576
1.368523
1.342893
1.397729
1.570582
1.582503
1.597404
1.545548
1.509786
1.423955
1.620650
1.725554
1.640916
1.526475
1.749992
1.685619
1.896620
1.737475
1.875758
1.858473
1.869798
1.841784
1.951456
2.136827
2.117753
2.170801
2.356768
2.336502
2.502799
2.447963
2.569556
2.578497
2.862811
2.964735
2.891421
3.199577
3.626943
3.660917
4.021525
4.458427
5.043745
5.456805
6.393790
8.096695
24.912953
95.589757
372.291803
815.236568
1016.201973
1016.201973
1016.201973
1016.201973
1016.201973
1016.201973
1016.201973
1016.201973
1016.201973
1016.201377
554.611683
258.418918
71.899891
25.020838
12.437701
10.678768
10.389686
9.533763
9.007454
8.764863
8.393526
8.562803
8.781552
##ZVALUE=380
1.018643
1.033545
1.081824
1.128912
1.208782
1.145601
1.173615
1.085997
1.066923
1.150966
1.009703
1.304746
1.251698
1.099706
1.071692
1.225471
0.935793
1.275539
1.257658
1.103878
1.262426
1.220703
1.300573
1.269579
1.055598
1.387596
1.293421
1.440644
1.420975
1.427531
1.290441
1.376867
1.380444
1.519918
1.491904
1.477599
1.456738
1.418591
1.454949
1.479983
1.610518
1.615882
1.662970
1.507998
1.622438
1.597404
1.701713
1.586676
1.886487
1.816750
1.830459
1.910925
2.149940
1.975894
2.091527
2.169609
2.209544
2.407432
2.470613
2.680421
2.674460
2.795458
2.970695
3.268719
3.475547
3.965497
4.295707
4.885793
5.687475
6.723404
7.576942
14.039874
54.953694
279.680490
658.906698
1016.201973
1016.201973
1016.201973
1016.201973
1016.201973
1016.201973
1016.201973
1016.201973
1016.201973
1016.201973
837.375522
407.160521
125.311613
43.863654
13.802648
10.634661
9.551644
8.840561
8.400679
8.044839
7.912517
##ZVALUE=385
1.001954
1.024604
1.093745
0.937581
1.040697
0.968575
0.958443
0.950694
1.026988
1.033545
1.018643
1.056790
1.068711
1.033545
1.028776
1.100898
1.000762
1.239777
1.121759
1.077652
1.131892
1.125932
1.116991
1.252890
1.233816
1.330972
1.291633
1.065731
1.190901
1.269579
1.334548
1.310706
1.390576
1.307726
1.482964
1.369715
1.357794
1.478791
1.359582
1.516938
1.324415
1.368523
1.487732
1.625419
1.576543
1.437664
1.586676
1.567602
1.586676
1.744628
1.739860
1.771450
1.868606
1.975894
1.905560
2.012849
2.002716
2.050996
2.203584
2.323985
2.424717
2.478957
2.663732
2.879500
3.104806
3.217459
3.501773
4.162788
4.560947
5.266666
5.915761
6.320477
6.978512
8.868575
26.216507
172.687769
458.288789
1016.201973
1016.201973
1016.201973
1016.201973
1016.201973
1016.201973
1016.201973
1016.201973
1016.201973
1016.201973
1016.201973
718.185902
279.666781
101.463795
20.244718
10.818839
9.066463
8.494854
8.152723
##ZVALUE=390
0.997782
1.012683
1.053810
1.061559
1.177788
1.007915
1.009703
1.099706
0.970960
0.966787
0.941753
0.995994
1.068711
0.939965
1.074672
1.104474
1.049638
1.046658
0.962615
1.024604
1.129508
1.222491
1.143813
1.215935
1.224875
1.013875
1.234412
1.089573
1.134872
1.324415
1.105666
1.331568
1.255870
1.236796
1.333952
1.253486
1.279712
1.419783
1.296997
1.225471
1.355410
1.348853
1.412630
1.552701
1.328588
1.461506
1.413822
1.483560
1.607537
1.481771
1.729727
1.632571
1.839995
1.872778
1.869798
1.877546
1.873970
2.012849
2.081990
2.036691
2.298951
2.549887
2.426505
2.695918
2.676845
3.009439
3.278852
3.749728
4.205704
4.835725
5.363822
5.408525
5.762577
6.305575
6.415844
7.275939
12.612939
84.986687
291.267633
918.181539
1016.202569
1016.202569
1016.202569
1016.202569
1016.202569
1016.202569
1016.202569
1016.202569
1016.202569
1016.202569
948.039293
389.871597
163.126588
35.287738
12.904406
9.245872
##ZVALUE=395
0.943542
1.057982
1.015663
0.994802
0.942945
1.112819
1.053810
1.057982
1.038909
1.108646
1.113415
1.036525
1.111627
0.984669
0.895858
0.890493
1.074672
1.081824
1.006722
1.051426
1.174808
0.982881
1.185536
1.101494
1.128912
1.150966
1.167655
1.239777
1.104474
1.312494
1.292825
1.297593
1.076460
1.205802
1.094937
1.166463
1.318455
1.374483
1.426935
1.344681
1.353621
1.379848
1.410842
1.495481
1.466870
1.521707
1.494884
1.530647
1.598597
1.817942
1.646876
1.878738
1.811981
1.931787
1.714826
1.976490
2.015829
1.927614
2.078414
2.102852
2.152920
2.321601
2.296567
2.472997
2.591610
2.973676
3.143549
3.653765
4.301667
4.425645
4.865527
4.939437
5.169511
5.157590
5.391836
5.870461
6.166697
7.122755
8.972883
50.148964
190.177560
671.683550
1016.201973
1016.201973
1016.201973
1016.201973
1016.201973
1016.201973
1016.201973
1016.201973
1016.201973
1016.201973
1016.201973
537.814498
242.414474
66.459775
##ZVALUE=400
0.977516
0.983477
1.103878
1.072884
0.939965
1.140833
0.931621
0.992417
0.859499
1.031756
0.965595
0.996590
0.972748
1.016855
1.147985
1.137853
1.103878
0.824928
1.136661
1.128912
1.209974
1.026988
1.264811
1.078844
1.217723
1.107454
1.109838
1.120567
1.256466
1.202822
1.117587
1.199841
1.303554
1.171827
1.204610
1.233816
1.329780
1.323819
1.253486
1.281500
1.476407
1.397729
1.425743
1.439452
1.503825
1.547933
1.585484
1.576543
1.566410
1.601577
1.718998
1.753569
1.787543
1.861453
1.750588
1.830459
1.901984
1.896620
2.002716
2.131462
2.112985
2.087951
2.291799
2.407432
2.523661
2.667904
3.174543
3.579855
3.809929
4.248619
4.415512
4.711747
4.694462
4.683733
4.720688
4.935861
5.012751
5.124807
5.781651
6.524920
7.697940
24.934411
105.762482
418.331623
879.374743
1016.201973
1016.201973
1016.201973
1016.201973
1016.201973
1016.201973
1016.201973
1016.201973
1016.201973
1016.201973
798.390508
##END
