##TITLE=QP00651
##FORMAT=SPECTACLE-ASCII V-1.2
##DATA TYPE=ULTRAVIOLET SPECTRUM
##SECOND TYPE=ULTRAVIOLET SPECTRUM
##DATE=12/11/17
##TIME=15:05:24
##SPECTROMETER/DATA SYSTEM=SPECTACLE
##XUNITS=NM EM
##YUNITS=ENERGY
##YFACTOR=1
##FIRSTX=220
##LASTX=410
##NPOINTS=96
##3DDATA=Equidistant
##ZUNITS=NM EX
##FIRSTZ=210
##LASTZ=400
##ZPOINTS=39
##XYDATA=(Y..Y)
##ZVALUE=210
2.430677
2.445579
2.013445
2.758503
2.529621
2.888441
2.943873
2.542734
2.088547
2.600551
1.834631
2.078414
1.789927
1.646876
2.448559
1.935959
2.704859
2.552867
2.279878
2.647638
2.619624
2.487898
2.715588
2.482533
2.594590
3.384948
3.248453
3.428459
3.406405
3.529787
3.394485
3.030896
2.745986
3.940463
4.129410
3.836751
4.103780
3.733635
3.512502
3.911853
3.522635
3.395677
3.430843
3.241897
3.669858
3.905892
3.678799
2.998710
3.308654
3.615618
4.013777
3.651977
4.192591
3.737807
4.093647
3.506541
3.950596
4.367828
3.721714
3.796816
3.704429
4.096627
4.287958
3.799796
4.718900
4.234910
3.927946
5.067587
5.579591
5.851984
6.367564
7.357597
7.849932
9.443760
9.240508
10.990500
9.835958
9.772778
10.326505
8.095503
8.204579
8.412600
6.322861
5.922914
5.440712
4.752874
3.617406
4.307628
3.969669
4.333854
3.918409
4.074574
4.998446
4.298687
4.724860
5.502701
##ZVALUE=215
6.497502
6.124973
5.804896
6.091595
5.228519
4.141927
4.170537
4.982948
4.598498
4.574656
4.717708
5.485415
4.057884
3.425479
3.368855
2.526641
3.352761
2.201796
2.454519
2.773404
3.014803
2.669692
2.903938
2.786517
2.632737
3.121495
3.260970
2.835989
2.920628
3.407598
2.795458
3.261566
3.511906
3.253818
3.653765
3.554821
3.444552
4.000664
3.762841
3.888607
3.527999
4.336834
3.950000
3.651977
4.347563
3.990531
4.045963
4.093647
4.072785
3.780723
4.059672
3.826618
3.852844
4.213452
3.815889
3.966689
5.228519
4.024506
4.261732
3.737807
4.900694
4.569888
3.933907
4.706979
4.822612
4.881620
4.462600
4.854798
5.566478
5.439520
6.191730
7.249713
7.503629
9.140968
9.352565
8.470416
9.998679
8.714795
8.107424
7.930994
7.421970
7.128716
6.929636
5.818605
4.905462
5.071759
4.786849
4.548430
3.728867
3.651977
3.812909
4.204512
4.499555
4.424453
3.945827
4.178882
##ZVALUE=220
20.509958
19.497871
22.000670
22.641420
18.997788
16.252995
13.906956
10.504723
11.015534
11.283755
11.144876
11.824965
12.043715
9.971857
9.306669
7.580519
5.376935
4.711747
3.023744
3.324747
2.716780
2.644658
2.578497
2.885461
3.565550
3.742576
3.251433
3.605485
3.357530
3.951788
3.833771
3.271699
3.775954
4.365444
4.426837
4.229546
4.385710
3.814697
3.770590
4.341602
4.219413
3.530979
3.787875
3.853440
3.397465
3.671646
3.749728
4.123449
4.414916
5.164742
4.921556
4.683733
4.232526
4.668832
5.095601
4.521608
4.488826
4.479885
5.057454
4.762411
4.392862
5.339980
5.334616
5.353689
5.116463
5.739927
5.318522
5.821586
6.506443
6.732941
7.279515
7.731915
7.665753
10.331869
10.588765
10.285974
9.613633
10.205507
10.724664
7.566810
8.974671
6.968975
6.951690
6.290674
6.583929
6.073713
5.441904
5.928874
5.626678
5.252957
4.905462
4.855990
5.015731
5.281568
4.761815
5.653501
##ZVALUE=225
39.291978
38.778782
48.089623
58.074594
61.746836
60.678720
58.310628
43.916702
34.273863
27.257800
24.867654
22.340417
24.018884
25.713444
27.168989
25.419593
19.394755
15.018582
12.519956
8.026958
5.638599
4.620552
3.489852
3.145933
3.895760
3.565550
3.422499
3.372431
4.094839
4.595518
4.299879
3.712773
3.917813
4.130602
4.295707
4.215837
4.843473
3.902912
4.742742
4.403591
4.572868
4.880428
3.985763
4.524589
4.344583
4.481673
4.775524
4.879832
4.185438
4.925728
4.785657
4.602671
5.213618
5.360842
4.987717
5.770922
5.630851
5.668998
5.672574
6.458759
6.386638
6.740689
6.763935
6.950498
6.703734
6.642938
6.894469
7.283688
7.661581
8.033514
9.088516
8.733869
9.372830
11.344552
12.262464
11.616945
10.226965
10.950565
10.020733
9.888411
9.657741
9.320974
8.266568
7.817745
8.428693
7.713437
7.373691
6.698966
6.511807
6.559491
7.340908
6.891489
6.568432
6.625652
7.649660
6.288886
##ZVALUE=230
36.574602
38.975477
59.821606
90.778470
109.862685
142.470598
155.355930
145.314932
130.444765
115.647912
81.244707
60.923696
45.178533
44.318438
43.802857
48.423409
51.971674
50.060749
44.721961
34.962893
26.607513
17.241836
10.998845
7.267594
4.850626
4.472733
4.320741
4.687905
4.763603
5.002618
4.609823
4.316568
4.916787
4.288554
5.561709
5.064607
5.108714
4.670620
4.956722
5.298853
4.963875
4.942417
4.626513
4.590750
4.624724
4.928708
5.495548
6.488562
5.999804
5.720854
5.104542
5.984902
6.456971
6.392598
7.108450
6.316900
6.671548
9.314418
7.096529
7.802844
6.956458
8.708835
8.312464
8.757710
8.627772
8.972883
9.700656
9.398460
11.132956
10.755658
11.953712
11.733770
12.260675
13.949871
12.939572
15.492439
14.179945
13.905764
13.311505
14.121532
12.622476
11.236668
11.329651
11.169910
11.597872
11.072755
10.669827
10.631680
10.418892
10.323524
10.769963
10.040998
9.885430
10.930896
9.889603
10.965466
##ZVALUE=235
13.675690
15.845895
31.564832
66.331625
104.014874
157.366991
211.088657
263.172984
294.080973
286.386609
255.386829
213.543773
150.584579
113.373995
81.221461
69.994926
71.677566
77.073574
82.890987
83.298683
81.642866
66.804886
53.617954
36.612749
24.814606
16.342998
10.675788
7.631779
6.192923
5.400777
6.376505
5.443692
5.972981
5.554557
4.963875
5.530715
6.048679
5.508661
6.125569
6.146431
5.747676
5.056858
4.741549
6.341934
5.661845
5.595684
5.502701
5.487800
6.203651
5.842447
6.280541
6.731749
7.322431
7.690787
8.477569
7.701516
9.395480
8.704662
9.302497
10.716915
10.253787
9.703636
10.308623
11.380911
11.535883
11.887550
13.398528
12.419820
13.388991
14.129877
13.870597
15.539527
15.220642
17.844439
16.630888
18.535852
18.299818
17.800927
16.337633
16.084909
17.805696
17.443895
15.956759
15.878677
15.269518
16.195774
13.689995
15.654564
14.604926
16.046762
15.720725
13.597608
12.561679
14.736652
14.481544
14.237761
##ZVALUE=240
1.763701
2.420545
7.456541
17.251968
43.253899
75.963736
147.494674
216.541886
327.987671
388.820767
434.047580
441.130996
408.870578
326.441526
255.915523
167.246461
123.731494
95.189810
89.924932
99.451542
103.688836
110.338926
111.039877
104.503632
82.387924
65.730810
47.434568
32.510757
20.998716
15.382767
10.547638
8.053780
8.979440
6.149411
7.123947
7.554889
7.544756
6.596446
6.544590
6.672740
5.681515
5.078912
5.985498
6.062984
5.240440
5.609989
5.902648
5.793571
7.315874
7.258654
7.368922
7.847548
8.090734
8.587837
9.279847
9.042621
9.356737
9.987950
10.696650
10.122657
11.500716
11.502504
12.389421
12.262464
13.704896
13.737679
15.275478
14.204979
14.930964
15.285611
17.385483
17.988682
17.836690
20.835996
20.809770
20.506978
21.337867
21.372437
19.855499
21.828413
19.331574
20.748973
18.147826
19.945502
19.327998
19.219518
18.317699
17.727613
18.014908
17.574430
17.198920
17.579794
17.357469
16.437769
17.242432
16.832948
##ZVALUE=245
1.862645
1.320839
1.536608
1.817942
5.244613
12.421608
37.396550
69.777966
149.764419
229.780674
347.507000
434.599519
493.667722
525.427461
496.038795
417.716503
339.759588
235.871673
166.950822
113.872886
95.880628
97.059608
111.641884
121.935606
130.972862
125.578642
111.777782
96.190572
72.142482
55.908561
39.553642
23.992658
16.812682
11.261702
8.773804
8.565784
7.450581
6.682873
7.214546
7.074475
6.861687
6.236434
5.657673
5.507469
5.833507
5.389452
5.394816
5.617738
6.190538
6.479621
6.532669
6.938577
7.081628
7.478595
7.542968
8.365512
9.240508
9.397864
11.046529
10.505915
11.896491
11.162758
11.740923
11.529922
13.131499
12.892485
13.723969
13.725758
15.293956
15.060902
16.033649
17.463565
17.098784
19.606948
19.482970
18.767715
19.434690
20.877719
19.182563
19.178987
19.481778
18.731952
17.913580
18.386841
19.026995
19.530654
19.454956
18.134713
19.526482
18.459558
18.262863
17.790794
17.932653
17.622709
17.334819
17.632842
##ZVALUE=250
1.409650
1.499653
1.547933
1.463890
1.684427
2.098680
1.893640
9.391904
24.033785
51.721931
122.842789
207.157731
339.705944
429.200530
526.798964
582.256913
576.993823
529.205799
455.249548
321.288705
227.164626
134.724975
101.337433
89.079738
100.905895
122.381449
132.482648
140.596628
134.734511
121.728778
103.372931
76.590776
59.178472
36.556721
24.504662
14.128685
9.989738
7.631779
7.280707
6.298423
5.809665
5.052686
5.048513
5.155802
5.110502
5.225539
4.867911
5.239844
5.273819
5.700588
6.016493
6.354451
6.738901
6.947517
7.072687
7.301569
7.994771
8.572936
8.653998
8.210540
8.891821
8.645654
9.792447
9.672642
10.038614
10.997653
10.128617
10.915995
12.199879
12.538433
12.961626
14.658570
15.319586
16.849637
16.468763
17.292500
16.584992
16.519427
17.747879
15.778542
17.758608
18.531680
17.727613
17.206669
17.301440
16.626716
18.093586
17.922521
17.603636
16.730428
17.224550
18.122792
17.330647
18.565655
16.325712
17.520785
##ZVALUE=255
1.232624
1.307726
1.508594
1.501441
1.579523
1.344681
1.549721
1.430511
1.733899
4.696846
15.596747
49.876571
94.052553
194.428563
286.653638
428.468585
530.952811
629.634857
654.476881
610.828996
532.730818
441.071987
285.577774
185.679793
108.294487
85.934997
85.722804
99.506974
124.234557
137.747526
143.340826
137.907863
128.322840
101.029873
79.272985
55.481791
38.283467
21.415949
13.620853
8.823872
6.010532
5.495548
5.185604
4.353523
4.563928
4.858971
4.588962
5.347729
4.466772
4.851818
5.424619
5.828738
5.431771
5.938411
6.477833
6.292462
6.088614
6.059408
7.311702
7.225871
7.169843
7.415414
8.730888
8.825660
9.146929
9.174943
9.700656
9.002686
10.269880
10.728836
11.780858
12.714863
13.388991
13.325810
13.595819
14.355779
14.316440
15.101433
15.200973
15.075803
14.872551
15.280843
15.089512
15.346408
15.133619
15.570521
15.634894
15.975833
16.709566
15.742779
15.852451
15.782714
15.728474
17.431974
16.972423
15.564561
##ZVALUE=260
1.042485
1.206994
1.375675
1.342893
1.379848
1.319647
1.218915
1.314878
1.646876
1.406670
1.730919
1.834631
7.689595
29.859543
63.756704
146.362782
238.149762
383.812785
500.218868
655.747652
705.719590
716.395974
635.332465
527.107716
349.497795
247.093439
145.027637
96.442699
73.425770
79.592466
96.990466
121.998787
136.806965
147.291422
141.919851
128.965974
107.220411
77.557564
56.733489
35.363436
21.408796
11.420846
8.242726
5.862713
5.151629
4.288554
4.447699
4.720688
4.912615
4.926920
4.657507
5.071759
5.120635
5.634427
5.796552
6.584525
6.392598
6.523728
6.932616
6.670952
6.455779
7.803440
7.650852
8.249879
7.808805
8.555651
8.491874
8.900762
9.162426
10.364652
10.320544
11.023879
11.666417
11.949539
12.743473
13.873577
12.994409
13.305545
13.827682
13.426542
13.941526
13.986826
13.706684
13.428926
13.469458
14.237761
14.332533
15.561581
14.786720
15.202761
14.939904
15.204549
15.329719
15.060902
15.731454
15.403628
##ZVALUE=265
1.217723
1.248717
1.231432
0.996590
1.347661
1.377463
1.245737
1.242757
1.265407
1.550913
1.387596
1.538992
1.699924
1.962781
4.325509
20.546913
49.700737
114.663839
198.705792
358.435512
494.941473
628.051758
760.920644
778.016448
709.720850
612.312555
458.373427
334.893465
190.454721
120.234489
83.042979
65.971613
76.425672
103.629827
124.934912
145.019889
151.937604
143.630505
129.337907
102.635622
80.912709
53.911805
36.973953
20.362735
12.163520
6.712675
5.458593
4.947782
5.023479
4.859567
5.719662
5.985498
5.580783
5.971789
6.380677
6.994605
7.055998
6.952882
6.962419
7.832646
7.084608
8.074641
8.300543
8.187890
7.882714
7.958412
8.769631
8.952618
9.438992
9.592772
10.684729
10.149479
11.332631
11.270642
12.003779
12.703538
12.776852
12.017488
12.851954
12.995601
12.910962
13.430715
12.315512
13.310909
13.672709
14.010668
14.406443
13.772845
13.898611
13.648868
14.108419
14.702678
14.642477
14.351606
14.290810
14.391541
##ZVALUE=270
1.021624
1.099706
1.149774
1.353621
1.192689
1.232624
1.375675
1.141429
1.304746
1.303554
1.272559
1.367927
1.262426
1.546741
1.560450
1.836419
2.125502
8.604527
26.152730
81.806779
159.161687
270.318985
460.441709
613.985658
768.126845
824.340582
804.014802
726.998448
570.370555
425.103903
292.863846
157.005787
92.900991
55.591464
56.204796
79.012513
100.015998
127.355456
142.658949
150.244832
145.644546
125.998855
106.837749
78.035593
56.337714
32.949448
21.826625
12.781620
8.498430
6.788969
5.421638
5.687475
6.161928
6.586909
6.374717
6.917715
6.545782
7.235408
7.620454
7.945895
8.348823
8.482933
8.429885
8.589625
8.635521
8.824468
8.333921
9.478927
9.048581
10.082722
10.277629
10.511875
10.742545
11.099577
10.899901
12.689829
11.600852
11.879802
12.089610
11.614561
12.365580
12.387633
11.912584
12.316704
12.686849
12.650490
12.542605
12.731552
13.217926
13.121963
13.532639
13.346672
13.177991
13.498664
13.051629
12.855530
##ZVALUE=275
1.027584
1.014471
0.985861
0.995994
0.822544
1.146793
1.117587
1.218915
1.083612
1.325607
1.112819
1.396537
1.074672
1.257658
1.303554
1.427531
1.467466
1.496673
1.772642
3.470778
14.637709
55.702925
114.060640
242.538452
379.600525
577.517748
698.452592
825.675726
853.098631
793.470740
693.313479
502.293706
359.968543
195.325613
114.701986
59.449673
44.799447
56.096911
73.543787
103.313923
122.296810
141.722560
147.783756
139.993429
125.855803
102.765560
81.160665
54.766536
39.707422
23.196936
15.891790
9.426475
7.626414
7.158518
6.980896
7.470846
7.476807
8.387566
8.234978
8.772612
8.976460
9.326935
9.263754
8.985996
9.500980
9.711981
9.699464
9.648800
10.363460
10.367632
10.438561
10.887980
11.209846
11.726618
11.989474
11.742711
11.853576
11.737943
11.959672
11.809468
12.033582
12.214780
11.747479
12.164712
12.265444
12.336969
11.926889
12.401938
12.215972
12.564659
12.237430
12.052655
12.629628
12.139678
12.583733
12.463927
##ZVALUE=280
0.830889
1.041889
0.980496
0.881553
0.946522
1.008511
1.022816
1.011491
1.192689
1.064539
1.165867
1.077652
1.120567
1.142621
1.121759
1.176596
1.049638
1.168847
1.557469
1.460910
1.688600
1.974702
9.596944
32.651424
96.525550
175.827742
320.373774
467.006564
651.999712
776.550770
852.842927
849.307775
769.168735
592.667460
439.603925
252.965689
151.314735
70.896745
42.957664
38.408637
50.568581
76.990724
96.670985
122.478604
138.270855
143.469572
138.468742
123.413801
103.895664
77.374578
58.397651
36.754608
25.490522
15.487671
11.681914
9.102821
8.848906
8.399487
8.671880
9.577870
9.695888
9.751916
10.442734
10.238886
10.393858
10.621548
10.617971
10.906458
10.892749
10.824800
11.408925
11.344552
11.257529
12.027621
11.689663
12.450814
11.912584
11.791587
11.594892
12.009740
11.622906
11.964440
11.901855
12.179613
12.092590
12.292862
12.119412
11.954904
11.526942
11.927485
11.451840
11.477470
12.141466
12.146831
12.377501
11.821985
##ZVALUE=285
0.856519
0.900626
0.847578
0.819564
0.967979
1.021624
1.056790
0.930429
0.885725
0.929832
0.953674
1.240969
1.061559
1.084805
1.042485
1.180768
1.220703
1.443624
1.286864
1.246929
1.440644
1.357794
1.635551
1.837611
3.949404
20.052791
49.639940
123.620629
217.278004
391.071439
530.809760
727.010965
828.313828
877.980590
834.422708
681.968927
539.212823
333.787799
209.043622
99.411607
54.044724
29.139519
32.092929
49.771667
69.011450
96.551776
114.874840
133.657455
141.007900
136.666894
127.026439
105.003715
85.045695
59.388876
42.305589
26.715994
18.531680
13.497472
11.829734
10.893941
11.311769
11.061430
11.219978
11.503696
11.578798
11.735559
11.967421
12.343526
12.421608
12.480617
12.661815
12.591481
12.722611
13.146996
12.718439
12.695789
12.664795
12.710690
12.720823
12.677908
12.363791
12.261868
12.574792
12.687445
12.696981
12.268424
12.455583
13.145804
12.299418
11.457801
12.386441
11.848807
11.566877
11.906624
11.702776
11.749864
##ZVALUE=290
0.793934
0.947714
0.841618
0.975728
0.810623
0.701547
0.890493
0.875592
0.924468
0.784993
0.876784
0.993609
0.940561
1.041889
1.137853
1.084805
1.143813
1.203418
1.105666
1.015663
1.129508
1.313686
1.149774
1.376867
1.611710
1.603961
2.288818
6.182790
30.748844
71.571469
141.580701
292.007923
439.967513
656.293631
787.105560
895.611644
886.516571
765.351653
629.194975
421.279669
283.223987
139.917731
74.659586
32.405853
23.498535
32.287836
44.835806
66.995621
87.830424
113.973618
129.765868
139.947534
137.908459
125.050545
108.312964
81.044436
62.458515
42.465925
31.606555
21.289587
17.004609
14.575720
13.397932
13.077855
13.412833
12.826920
12.779832
13.365746
13.703704
13.748407
13.318658
13.707876
13.370514
14.019608
13.114810
13.499856
13.546944
13.558865
13.138652
13.250709
13.438463
12.466908
12.999773
12.766719
13.150573
12.608767
12.484789
12.143850
12.192726
12.108684
11.794567
11.801720
12.213588
11.886954
12.342930
11.973977
##ZVALUE=295
0.881553
0.877976
0.934601
0.776649
0.805855
0.794530
0.812411
0.854731
0.884533
0.762939
0.931621
0.892878
0.810623
0.924468
0.902414
0.914931
0.923872
0.949502
1.007915
1.073480
1.165867
1.165867
1.179576
1.392961
1.462698
1.526475
1.529455
1.612902
2.030730
3.242493
10.782480
44.530630
100.290775
233.035684
371.598601
585.805774
733.950734
874.310732
900.493860
834.348798
715.819001
512.146950
355.111957
188.853741
104.995966
40.425658
22.618771
20.235777
28.557777
46.012998
62.894821
87.953806
108.323693
128.215551
134.609938
133.224726
123.908520
103.328824
85.941553
61.379671
46.636462
31.695962
23.859739
18.140674
15.714765
14.507771
14.346838
14.469624
14.280677
14.526844
14.567971
14.112592
14.493465
14.523864
14.229417
13.888478
13.949871
14.087558
14.219880
13.640523
13.377666
13.487935
13.038516
13.172626
13.256669
12.704730
13.103485
12.218952
12.769699
12.751818
12.098551
11.964440
11.901855
11.680722
11.881590
11.945963
##ZVALUE=300
0.857711
0.737906
0.820756
0.767708
0.762939
0.799894
0.869632
1.005530
0.824928
0.959635
0.794530
0.794530
0.884533
0.939965
0.952482
0.871420
0.864863
0.940561
0.969768
1.078844
1.056790
1.053810
1.038909
1.182556
1.102686
1.287460
1.288652
1.231432
1.378655
1.557469
1.747608
1.959801
6.818771
22.688508
75.637698
148.267746
300.104022
454.163551
788.260698
797.456503
879.842639
873.187780
755.783916
624.268651
415.455699
273.556709
138.104558
75.125694
30.266643
18.254519
20.338893
27.193427
43.114424
58.194995
84.297657
101.251006
121.854544
129.499435
129.426718
121.403933
103.453994
87.042451
63.781738
48.183799
32.196641
24.330616
18.538833
16.352534
14.831424
14.853477
14.622808
14.960766
14.712811
14.419556
14.632940
14.553666
13.838410
14.383793
14.374852
13.948679
13.630986
13.748407
13.498664
13.797879
13.234615
12.718439
12.884736
12.892485
12.757778
12.938976
12.529492
12.149811
12.101531
11.559725
11.622906
11.720657
##ZVALUE=305
0.752807
0.789762
0.722408
0.784993
0.753999
0.861883
0.674725
0.828505
0.659823
0.876784
0.802875
0.765920
0.718832
0.728965
0.787973
0.843406
0.817776
0.888705
0.827909
0.829697
0.773668
1.073480
0.963807
0.862479
1.016855
1.096725
1.084805
1.217723
1.191497
1.322627
1.346469
1.562834
1.462698
1.909733
2.968907
16.673803
43.843985
120.082498
216.060877
393.110514
546.302795
739.958882
841.391683
881.281495
823.960900
653.960705
509.963632
325.474739
205.229521
94.977617
49.424767
21.360517
15.916824
20.297766
27.451515
43.823719
58.876872
81.955791
99.262595
117.188692
123.596787
122.633576
114.737749
98.121762
81.331730
59.096813
45.474768
31.532645
24.290681
17.991662
15.916824
15.248656
14.696717
14.943480
14.144778
14.189482
14.294982
13.664961
13.805628
13.678670
14.260411
13.753772
13.734698
13.586879
13.751984
13.180971
13.189912
12.857914
12.755990
12.695789
12.545586
11.754632
12.270808
11.947751
11.823773
11.693835
##ZVALUE=310
0.741482
0.754595
0.721812
0.786781
0.649691
0.689626
0.553727
0.645518
0.772476
0.820756
0.844598
0.701547
0.846982
0.687838
0.808835
0.866652
0.863671
0.886917
0.808835
0.815988
0.863671
0.813603
0.896454
0.898838
0.795722
0.805855
0.927448
1.103878
1.164675
1.136661
1.254678
1.031756
1.340508
1.302958
1.491904
1.806617
2.081990
8.663535
30.958652
95.130801
171.527863
332.232714
482.428670
680.083036
807.274580
899.956822
880.782604
763.567686
628.323555
417.323709
282.234550
143.136978
78.812838
32.562613
17.882586
15.238523
18.629432
26.469827
36.569834
54.716468
70.576668
92.411637
104.516745
114.915967
118.097663
107.454658
96.357465
77.382922
62.296987
42.672753
32.733679
23.084879
18.305779
15.279651
14.345646
14.090538
13.717413
13.393760
13.290644
13.325810
13.599992
13.414621
13.074875
13.307929
13.346672
13.068914
12.880564
12.809634
13.201833
12.506843
12.374520
12.175441
12.198687
11.943579
11.653900
11.584759
##ZVALUE=315
0.917912
0.914931
0.756979
0.843406
0.758767
0.760555
0.842810
1.017451
0.788569
0.769496
0.728965
0.980496
0.695586
0.893474
0.848770
0.979900
0.897646
1.005530
1.019835
1.001954
1.038909
1.070499
1.144409
1.026988
1.185536
1.194477
1.133680
1.177788
1.088977
1.279712
1.105666
1.320839
1.352429
1.357794
1.543760
1.437664
1.585484
2.035499
1.905560
4.911423
19.280910
79.360604
160.683990
315.353870
464.530587
658.952594
778.594017
880.340934
900.834799
823.435783
707.689524
512.408018
361.257792
195.459723
108.373761
42.597651
21.443963
13.406873
13.925433
18.114448
23.381710
35.922527
48.248768
67.099929
82.722902
100.967884
108.846426
110.673904
104.156733
88.729858
74.474812
56.075454
42.859912
29.187799
21.713972
16.475916
14.567971
13.465881
13.257861
13.010502
12.949705
12.415648
12.389421
12.956858
13.144612
12.733936
12.704730
12.997985
12.935996
12.165904
12.306571
12.456775
12.264848
11.751652
11.797547
11.722445
##ZVALUE=320
0.754595
0.753999
0.699759
0.652671
0.699759
0.666976
0.683665
0.788569
0.905991
0.731945
0.648499
0.591874
0.870824
0.675917
0.863671
0.889897
0.768900
0.699759
0.675917
0.656843
0.772476
0.893474
0.950694
0.980496
1.015663
0.823736
1.041889
1.156926
0.983477
1.019835
1.052618
1.160502
1.190901
1.126528
1.100898
1.282692
1.448989
1.501441
1.380444
1.520514
1.730919
2.489686
9.613633
50.650835
121.014714
276.895761
428.493619
638.879538
772.738457
884.637833
913.001895
875.861645
774.883628
586.540699
429.825783
241.748691
139.728785
62.153935
30.977726
14.023781
11.030436
12.349486
14.296770
20.402670
28.327703
43.613911
57.643652
77.617764
90.978742
102.096796
104.139447
96.447468
88.401437
69.044828
54.793954
38.084984
28.749704
20.350814
16.155839
13.600588
12.746453
11.949539
11.897683
12.220740
12.215972
12.359619
12.329817
11.913776
11.944771
11.747479
11.844635
11.985898
11.517406
11.456609
11.185408
11.081696
##ZVALUE=325
0.765920
0.622869
0.548959
0.845790
0.676513
0.646710
0.808835
0.605583
0.731945
0.685453
0.768900
0.686646
0.866652
0.716448
0.738502
0.829697
0.742674
0.922680
0.956655
0.831485
0.809431
0.863671
0.886917
0.837445
0.760555
0.809431
0.791550
0.830889
0.919700
0.901818
0.998974
0.929832
1.085997
0.997782
1.134872
1.236796
1.028776
1.161695
1.199841
1.340508
1.293421
1.493692
1.712441
1.957417
3.355742
25.168657
68.227649
179.849863
310.739875
535.880923
698.236823
863.008499
922.147632
903.356671
809.541941
627.777576
476.226807
294.354558
180.655718
82.217455
40.928721
15.915632
9.906888
9.102821
9.938478
13.248920
18.036962
27.800798
39.830804
58.107972
72.029829
86.295605
93.566775
95.783472
90.470910
77.642798
65.179467
49.438477
37.076473
25.661588
19.510984
14.579892
12.756586
11.842847
12.053847
11.552572
11.515617
11.802912
11.541843
11.083484
11.515617
11.521578
10.993481
11.321902
11.619925
11.110902
##ZVALUE=330
0.620484
0.427961
0.600815
0.573993
0.547767
0.601411
0.693798
0.556707
0.755787
0.757575
0.721812
0.732541
0.780821
0.581741
0.838637
0.667572
0.590682
0.633597
0.713468
0.780821
0.712872
0.743866
0.816584
0.814795
0.786781
0.741482
0.682473
0.819564
0.843406
0.873804
0.806451
0.929832
0.810623
0.913739
0.799894
0.910759
0.930429
1.051426
0.888705
1.132488
1.013875
1.123548
1.150966
1.347661
1.718998
1.759529
2.244711
5.556941
28.237700
72.283745
176.932812
296.126008
490.620732
639.426708
791.335702
843.392015
799.177885
701.241493
527.029634
383.039713
212.415457
123.286843
52.538514
24.736524
10.206699
8.018613
8.039474
8.932948
12.295842
16.823411
27.721524
37.587881
53.651929
66.073537
81.315637
87.778568
89.673996
84.947944
73.304772
60.883760
45.509934
35.397410
25.178790
19.780993
15.187860
13.245940
11.947751
11.648536
11.031628
11.291504
10.699630
11.166930
10.920763
10.611415
10.890961
10.974407
##ZVALUE=335
0.616908
0.581741
0.570416
0.663996
0.548959
0.573993
0.626445
0.728965
0.557899
0.525713
0.574589
0.731945
0.713468
0.597835
0.632405
0.666976
0.704527
0.676513
0.733733
0.742674
0.687838
0.633597
0.652671
0.803471
0.855923
0.766516
0.718832
0.779629
0.817776
0.809431
0.752807
0.759959
0.916719
0.667572
0.896454
0.928640
0.931621
0.951886
0.844598
0.744462
0.958443
0.962615
1.073480
1.253486
1.072884
1.078844
1.287460
1.370907
1.439452
3.449917
11.356473
46.148896
99.370480
224.410892
361.392498
565.865636
704.515576
806.614757
813.809037
723.549724
602.729917
419.785976
287.086964
148.462653
80.420971
29.243827
13.804436
8.289814
7.750988
8.257627
9.175539
11.865497
16.200542
25.603771
36.392808
51.560998
63.955784
77.160001
83.294511
84.028840
80.064535
69.026947
58.804750
45.621991
35.725832
25.157928
20.200610
14.769435
12.935996
11.611581
10.963678
10.621548
10.842681
10.715723
10.322928
10.476708
##ZVALUE=340
0.665784
0.720620
0.522733
0.572801
0.776649
0.684857
0.688434
0.597835
0.681877
0.658631
0.606775
0.761747
0.682473
0.664592
0.576973
0.680685
0.669956
0.732541
0.713468
0.747442
0.753999
0.607967
0.637770
0.636578
0.686646
0.746846
0.730753
0.870824
0.676513
0.762939
0.763535
0.767708
0.636578
0.891685
0.701547
0.916719
0.878572
0.967979
1.041889
0.827909
0.864863
0.946522
0.933409
1.079440
1.027584
1.121759
1.146793
1.119971
1.137853
1.355410
1.521707
2.048612
5.769730
28.654933
70.878863
176.952481
300.567746
486.510992
629.681945
772.126913
813.180804
761.600733
663.380623
487.143993
344.062448
181.028843
100.644827
42.852759
19.189715
9.092689
8.026958
8.273721
8.172989
9.745955
11.827946
17.001629
23.912787
35.179853
46.723485
61.563849
71.704984
78.775883
80.108643
75.204968
68.052411
56.127906
45.583844
33.435822
26.112795
19.015670
15.415549
12.191534
11.155605
10.692477
10.254979
10.391474
##ZVALUE=345
0.694990
0.556707
0.613928
0.627637
0.626445
0.538826
0.624657
0.756979
0.652671
0.641942
0.475645
0.601411
0.653863
0.593662
0.668764
0.783801
0.651479
0.768900
0.657439
0.598431
0.558496
0.589490
0.578761
0.608563
0.713468
0.806451
0.726581
0.689626
0.752807
0.719428
0.816584
0.752807
0.749826
0.741482
0.772476
0.786781
0.763535
0.643730
0.832677
0.832677
0.687838
0.890493
0.955462
0.980496
1.044869
0.820756
0.909567
0.956655
1.057982
1.082420
1.097918
1.121759
1.296997
1.357794
2.740622
15.685558
43.030977
118.091702
210.686922
388.464928
528.944731
702.853799
781.132579
784.910917
717.744827
556.450486
410.518646
233.444571
135.333538
58.456659
27.295947
10.839701
8.041859
7.915497
8.097887
7.931590
8.716583
11.465549
14.859438
23.164749
31.556487
45.413971
55.617690
66.458583
71.059465
73.862672
71.629882
63.532591
55.896640
43.727756
34.380555
24.320483
19.200444
14.609694
12.383461
10.561943
##ZVALUE=350
0.551939
0.517964
0.643730
0.548959
0.329614
0.603795
0.433922
0.459552
0.630617
0.730753
0.678897
0.747442
0.554919
0.756979
0.620484
0.660419
0.656843
0.569820
0.557899
0.685453
0.716448
0.700951
0.803471
0.775456
0.756979
0.534654
0.757575
0.737906
0.594854
0.681877
0.832677
0.721812
0.810623
0.809431
0.788569
0.932813
0.756979
0.688434
0.815988
0.646710
0.665784
0.823736
0.818968
0.817776
0.819564
0.797510
0.976920
0.855923
0.946522
1.012683
1.090765
1.168847
1.209974
1.152754
1.213551
1.416802
1.933575
8.094907
25.088787
77.686906
148.535967
301.724672
432.806015
601.641536
711.224675
770.540833
737.007856
613.985658
472.485423
283.012986
173.516870
79.667568
37.648678
12.920499
8.514524
7.364750
7.349849
7.217526
7.558465
8.723736
10.784864
15.092492
20.469427
29.010773
37.084818
48.957467
57.540536
65.100789
67.846775
65.234900
60.398579
50.345659
42.343736
31.295419
24.394989
17.958879
##ZVALUE=355
0.626445
0.590682
0.519753
0.595450
0.679493
0.510812
0.581741
0.679493
0.580549
0.658631
0.786781
0.621676
0.549555
0.514984
0.612736
0.584722
0.553727
0.657439
0.694990
0.631809
0.533462
0.606775
0.741482
0.692606
0.549555
0.610948
0.751615
0.848770
0.773668
0.725985
0.720620
0.757575
0.629425
0.704527
0.730753
0.753999
0.962615
0.811815
0.953674
0.738502
0.745654
0.675917
0.801682
0.902414
0.799894
0.937581
0.934601
0.790954
0.825524
0.885725
0.905991
0.950694
1.152754
1.081824
1.131892
1.392961
1.214743
1.480579
1.499653
3.677607
12.506843
48.975945
100.252628
214.028955
337.044001
518.410802
634.355545
725.255609
730.960965
640.547872
529.232621
356.923938
230.057836
103.033781
50.149560
16.916990
9.061694
7.009506
6.861687
7.185936
6.967783
7.476807
7.935762
10.158420
12.509823
18.473864
24.376512
34.314990
42.551756
52.268505
57.563782
61.326623
60.916543
56.138635
49.421787
39.957762
##ZVALUE=360
0.734925
0.597835
0.736713
0.582933
0.597835
0.643730
0.450611
0.536442
0.599623
0.772476
0.614524
0.755787
0.612736
0.672936
0.661612
0.629425
0.593662
0.618696
0.770688
0.581741
0.727773
0.774860
0.828505
0.627637
0.785589
0.626445
0.734925
0.719428
0.587702
0.625849
0.603795
0.669956
0.637770
0.795722
0.691414
0.847578
0.711679
0.750422
0.712872
0.816584
0.734925
0.821948
0.693798
0.784993
0.875592
0.838637
0.885725
0.713468
0.872612
0.989437
0.873804
0.910759
0.866652
1.089573
1.051426
1.099706
1.094937
1.223683
1.217723
1.304746
1.457930
1.860857
6.588697
20.765662
69.325566
132.824779
261.936784
391.658545
566.614866
661.986470
698.606968
655.857921
536.170602
411.909819
251.411796
154.514909
68.138838
31.596422
11.044741
7.110834
6.541610
6.587505
6.641746
6.764531
6.862879
7.081628
8.706450
10.512471
14.859438
19.783974
27.833581
35.816431
45.358539
51.480532
55.249929
55.581927
##ZVALUE=365
0.586510
0.461936
0.636578
0.529885
0.538826
0.672936
0.674725
0.685453
0.711679
0.605583
0.691414
0.668764
0.556707
0.607967
0.606775
0.608563
0.643730
0.711679
0.650883
0.815988
0.763535
0.617504
0.600815
0.721812
0.638962
0.683665
0.700951
0.661612
0.569820
0.757575
0.707507
0.828505
0.672936
0.813603
0.699759
0.697970
0.744462
0.628829
0.674725
0.774860
0.700951
0.750422
0.929832
0.840425
0.857711
0.891685
0.896454
0.828505
0.679493
0.740886
0.686646
0.800490
0.811815
0.752807
1.002550
1.010895
1.006722
0.987649
0.986457
1.104474
1.271963
1.097918
1.260638
1.361966
3.199577
10.271668
41.888952
90.437531
207.723975
329.203606
495.702624
596.740842
666.480660
662.848949
576.579571
469.860435
308.171511
197.862983
94.674826
50.036907
18.801689
9.200573
6.431937
6.133914
6.112456
6.131530
6.210804
6.097555
6.482601
7.460713
9.369850
12.515783
18.398762
23.616552
32.068491
38.126707
##ZVALUE=370
0.552535
0.549555
0.578761
0.643730
0.543594
0.586510
0.675917
0.643730
0.677705
0.656843
0.447631
0.714660
0.684857
0.545979
0.578761
0.657439
0.520945
0.526905
0.650883
0.645518
0.622869
0.544786
0.607967
0.610948
0.737906
0.724792
0.628829
0.694990
0.644922
0.698566
0.636578
0.739694
0.720620
0.661612
0.618696
0.620484
0.672936
0.841618
0.702739
0.646710
0.838637
0.760555
0.573993
0.609756
0.788569
0.690818
0.761747
0.659823
0.732541
0.816584
0.826716
0.932813
0.831485
0.886917
0.782609
0.905991
0.843406
0.942945
0.789762
0.999570
1.023412
0.909567
1.197457
1.092553
1.376867
1.507998
1.744628
7.377863
23.494959
74.187517
141.866803
278.176665
401.741862
564.526916
649.165511
672.860742
617.974997
486.728549
363.209844
206.597447
118.271708
48.810840
22.527575
8.782744
6.214976
5.716681
5.819798
5.639791
5.723834
5.784631
5.671978
6.002784
6.431937
8.055568
10.596514
14.994740
##ZVALUE=375
0.590682
0.544786
0.613928
0.616908
0.714660
0.635982
0.617504
0.572801
0.573993
0.647902
0.499487
0.566840
0.467896
0.464916
0.615716
0.615716
0.547767
0.557899
0.638962
0.570416
0.604987
0.705719
0.574589
0.599623
0.605583
0.802875
0.653863
0.600815
0.703931
0.678897
0.663996
0.460744
0.722408
0.592470
0.576973
0.653863
0.563860
0.654459
0.740886
0.651479
0.709891
0.609756
0.778437
0.818968
0.609756
0.708699
0.846982
0.817776
0.626445
0.641942
0.783801
0.662804
0.601411
0.815988
0.874996
0.761747
0.814795
0.856519
0.805855
0.967979
0.790954
0.996590
0.863671
0.912547
1.011491
1.045465
1.106858
1.356602
1.443624
3.681779
12.162924
44.277906
95.454454
212.294459
329.790711
492.740870
588.248968
648.888946
633.938909
524.256825
407.230854
249.864459
159.737468
79.748631
41.023493
14.860630
7.433891
5.596876
5.314946
5.519986
5.357862
5.178452
5.199909
5.232692
5.447865
5.994439
##ZVALUE=380
0.645518
0.630617
0.497699
0.521541
0.385642
0.403523
0.526905
0.552535
0.696778
0.538826
0.634789
0.767708
0.477433
0.588894
0.604987
0.666976
0.686646
0.661612
0.559688
0.638962
0.506639
0.716448
0.598431
0.712872
0.617504
0.727773
0.558496
0.529885
0.600815
0.630617
0.666976
0.744462
0.653863
0.609756
0.660419
0.699759
0.608563
0.542998
0.616908
0.645518
0.708699
0.616908
0.701547
0.781417
0.741482
0.745654
0.629425
0.623465
0.780821
0.715852
0.638962
0.687838
0.811815
0.672936
0.913739
0.911951
0.919700
0.870824
0.722408
0.914931
0.916719
0.907779
0.825524
0.958443
0.930429
0.984669
1.023412
1.109838
1.240969
1.360774
1.558661
2.227426
6.656647
31.118989
73.513985
172.467828
278.574824
432.303548
544.368625
637.061596
638.031960
555.206537
459.656715
320.313573
218.952894
109.214783
56.575537
20.291805
9.902716
5.513430
5.098581
4.892945
4.997849
4.873872
4.905462
5.189776
##ZVALUE=385
0.564456
0.587702
0.440478
0.574589
0.509620
0.606775
0.685453
0.523925
0.481606
0.562668
0.602603
0.455976
0.595450
0.582933
0.656843
0.416636
0.521541
0.635982
0.536442
0.529885
0.722408
0.754595
0.679493
0.713468
0.483990
0.584722
0.489950
0.550747
0.595450
0.592470
0.603795
0.770688
0.826716
0.601411
0.646710
0.682473
0.744462
0.532866
0.575781
0.426769
0.694990
0.609756
0.558496
0.596642
0.599623
0.715852
0.572801
0.598431
0.591874
0.635982
0.655651
0.806451
0.708699
0.659823
0.598431
0.713468
0.663996
0.675917
0.730753
0.677705
0.668764
0.880957
0.849962
0.922680
0.911951
0.885725
1.028776
0.979900
1.007915
1.270771
1.196861
1.232624
1.395941
1.593828
3.474951
15.890002
42.573810
117.482543
204.499960
359.555483
478.222966
593.318939
622.988939
592.882633
520.293713
383.497477
274.679661
152.317882
87.341666
36.225915
15.970469
6.107688
4.738569
4.598498
4.612803
4.616976
##ZVALUE=390
0.532866
0.580549
0.573993
0.742674
0.767708
0.530481
0.528693
0.575781
0.440478
0.552535
0.525713
0.682473
0.592470
0.484586
0.528693
0.413656
0.568628
0.541806
0.548959
0.520945
0.488758
0.689626
0.571609
0.616908
0.502467
0.591874
0.555515
0.672936
0.589490
0.683665
0.612736
0.672936
0.673532
0.574589
0.615716
0.714660
0.710487
0.749826
0.686646
0.569820
0.581741
0.722408
0.636578
0.643730
0.563860
0.617504
0.679493
0.624657
0.647902
0.817776
0.778437
0.671744
0.733733
0.725985
0.745654
0.716448
0.749826
0.790954
0.868440
0.802875
0.730753
0.754595
0.744462
0.898838
0.703931
0.870824
0.846982
0.844598
1.001954
0.894666
1.199841
1.116991
1.149774
1.222491
1.307726
1.297593
2.129674
8.982420
28.532743
89.643002
170.103908
318.954587
431.767702
556.359887
623.030663
637.419820
586.948991
461.498499
351.374745
214.679837
125.101805
51.774979
24.996996
9.002686
5.341768
4.460812
##ZVALUE=395
0.432730
0.602603
0.613928
0.585914
0.635982
0.557899
0.676513
0.699759
0.559688
0.606775
0.411868
0.578761
0.463724
0.535846
0.663996
0.408888
0.541806
0.621676
0.523925
0.552535
0.490546
0.724792
0.525713
0.610948
0.608563
0.630617
0.490546
0.477433
0.540614
0.420809
0.496507
0.479817
0.651479
0.649691
0.621676
0.512600
0.575781
0.648499
0.704527
0.622869
0.618696
0.651479
0.715852
0.639558
0.716448
0.640750
0.678897
0.743866
0.545979
0.584722
0.731945
0.793934
0.786781
0.631809
0.856519
0.794530
0.658631
0.665784
0.671744
0.489950
0.778437
0.743866
0.690818
0.852942
0.833869
0.765920
0.877976
0.899434
0.835657
0.956655
0.993609
0.976920
1.011491
0.939965
1.017451
1.236796
1.140833
1.137853
1.571774
4.800558
18.022656
61.780810
121.394992
240.826607
349.819660
497.846007
586.706996
642.662644
623.196959
535.550714
419.879556
265.385509
169.950724
80.572963
39.019585
13.748407
##ZVALUE=400
0.651479
0.628829
0.559688
0.558496
0.556707
0.473857
0.762939
0.477433
0.589490
0.767708
0.562668
0.689626
0.585914
0.566840
0.492930
0.566840
0.585914
0.587702
0.583529
0.488758
0.632405
0.436902
0.484586
0.604987
0.534654
0.547767
0.608563
0.573993
0.651479
0.666976
0.504851
0.700951
0.621676
0.637770
0.580549
0.530481
0.627637
0.467896
0.585914
0.578761
0.513792
0.806451
0.573993
0.684857
0.769496
0.667572
0.707507
0.627637
0.652671
0.718832
0.544786
0.726581
0.711679
0.714660
0.614524
0.770688
0.611544
0.749826
0.728965
0.676513
0.729561
0.712872
0.729561
0.775456
0.790954
0.901818
0.885725
0.787973
1.005530
0.955462
0.939965
1.037717
1.027584
1.033545
1.029968
1.053810
0.935793
1.038909
1.075864
1.201630
1.354814
2.819896
9.816885
38.272738
81.907511
180.128813
284.983516
435.415506
534.484982
617.041588
625.602007
556.273460
463.594794
322.792530
216.109753
110.116601
##END
