##TITLE=QP0035F2
##FORMAT=SPECTACLE-ASCII V-1.2
##DATA TYPE=ULTRAVIOLET SPECTRUM
##SECOND TYPE=ULTRAVIOLET SPECTRUM
##DATE=12/11/17
##TIME=16:07:53
##SPECTROMETER/DATA SYSTEM=SPECTACLE
##XUNITS=NM EM
##YUNITS=ENERGY
##YFACTOR=1
##FIRSTX=220
##LASTX=410
##NPOINTS=96
##3DDATA=Equidistant
##ZUNITS=NM EX
##FIRSTZ=210
##LASTZ=400
##ZPOINTS=39
##XYDATA=(Y..Y)
##ZVALUE=210
2.893806
2.958775
2.862811
2.732873
2.429485
2.829432
3.540516
3.085732
4.028678
3.007650
3.243685
3.479719
4.237890
4.148483
4.151464
4.225969
4.699826
4.549623
5.738735
5.880594
6.246567
6.958842
7.636547
7.702708
6.889701
8.229613
7.500648
9.427667
8.935928
9.825826
9.167790
10.116696
10.911822
10.339618
10.787845
10.447502
12.324452
11.179447
12.254715
12.183785
11.654496
11.346936
13.016462
11.199713
13.128519
13.093948
12.603998
12.503862
13.639927
12.764931
12.748837
13.112426
14.300942
13.792515
13.237000
14.887452
14.059544
15.790462
15.037656
15.174747
15.908480
15.039444
14.801621
14.681816
15.318990
15.249848
16.385913
16.995668
20.745993
23.145676
27.430654
31.696558
38.185716
42.826533
50.195456
57.230592
62.389970
65.128803
64.172745
61.579943
58.664680
54.574609
44.001937
39.926767
34.569502
28.381944
22.333860
20.796657
16.870499
15.228987
15.224814
14.412999
14.045835
14.650822
14.736652
13.862848
##ZVALUE=215
9.123683
11.230707
9.060502
8.483529
6.848574
7.008910
5.645752
6.263852
6.116629
6.395578
6.157756
5.394816
5.432963
5.038977
4.958510
4.966855
4.569888
5.223751
5.586743
5.462766
5.857944
6.210804
7.334948
6.921887
7.873774
7.326603
7.772446
7.870793
8.997917
9.028912
8.458495
9.841919
9.918809
9.728670
9.892583
10.852814
11.338592
11.888742
11.774898
11.903644
12.089610
11.857748
11.141896
12.959838
12.401938
12.695789
12.725592
13.616681
12.939572
12.184978
12.061000
15.376806
15.142560
12.699962
12.477636
14.367700
14.723539
13.875961
14.634728
14.645457
15.873909
14.342666
13.957620
15.078783
15.822649
15.357733
16.607642
16.711950
19.231439
21.560788
25.055408
29.540658
31.958818
41.005611
44.346452
51.907897
54.250956
56.773424
56.382418
55.510998
54.636598
48.983693
45.716763
38.659573
33.195615
28.376579
22.764802
19.434690
15.985966
15.310645
14.361739
13.340712
13.744831
14.118552
13.566613
13.197660
##ZVALUE=220
31.084418
34.323931
37.622452
39.745569
37.737489
33.431649
28.468966
22.129416
16.014576
13.010502
13.482571
13.147593
13.314486
12.350678
10.683537
9.784698
8.779764
6.743670
6.060600
6.640553
6.910563
6.949902
7.341504
6.977916
8.637905
8.844733
8.872747
8.646846
8.195639
10.961890
11.085868
11.373758
11.338592
11.968613
11.340976
12.294650
11.994839
12.518764
12.711883
12.522936
12.448430
11.578798
14.163852
12.948513
13.304949
13.532639
12.461543
13.082623
13.495684
14.123917
14.534593
14.167428
15.948415
14.852881
16.021729
14.846921
15.603900
15.192628
15.708804
15.886426
16.165972
15.806556
15.050769
15.656948
15.441775
16.935468
16.272664
17.365813
20.234585
23.641586
24.784803
29.795766
33.975840
40.365458
47.512650
50.378442
53.650737
56.189895
56.192875
53.811669
52.952766
50.732493
46.525002
41.258931
37.041903
27.932525
24.965405
19.450784
18.019676
16.385913
15.952587
14.741421
15.393496
15.467405
14.874935
14.871955
##ZVALUE=225
71.002841
77.671409
103.610754
143.789649
157.346725
169.281960
161.468983
129.084587
97.268820
69.567561
41.093826
28.195977
27.125478
30.432940
26.072860
26.500821
23.921728
20.138621
16.445518
12.294650
10.280609
9.317994
8.753538
8.538961
8.655787
9.268522
10.138750
9.719729
10.553598
12.235641
12.831688
11.646748
13.189912
13.781786
12.990832
13.258457
14.309883
12.789965
13.629794
13.361573
14.225841
13.474822
13.205409
14.030933
14.971495
14.988780
13.876557
15.129447
15.018582
15.896559
14.939904
14.666915
15.618801
15.775561
15.444756
17.203689
15.653968
16.126633
16.480684
16.409755
15.528798
16.388893
17.089844
18.127561
17.431974
16.767979
17.568469
18.520951
19.992590
23.045540
27.560592
29.645562
35.319924
42.555928
42.693615
44.978857
48.900843
47.085881
48.246980
44.556856
43.050647
40.760636
36.251545
33.440590
29.507875
24.542809
20.868778
20.805597
18.934608
18.013716
16.750693
16.630888
16.703606
14.586449
16.601682
15.210509
##ZVALUE=230
72.324872
77.118874
147.421956
223.645568
329.445601
392.227769
452.381968
449.732542
387.395620
313.365459
205.013752
137.211680
91.840625
56.668520
49.332976
49.089789
53.017735
49.546957
46.836734
39.134622
30.289888
23.557544
16.320944
12.045503
10.346770
9.469986
10.837913
10.985732
10.768771
12.057424
11.537671
12.381673
12.705922
13.198853
13.775826
11.172891
13.197660
15.926957
13.902783
14.845729
16.504526
13.513565
13.503432
14.922619
14.605522
14.371872
15.435815
15.150905
15.210509
14.330745
15.623569
16.820431
16.816854
15.822649
16.337633
16.580820
18.362999
16.439557
17.362833
17.705560
17.591715
16.955733
17.473698
17.139912
19.668937
17.794967
19.086599
20.417571
21.801591
24.307966
28.559566
29.217601
35.995841
38.937926
41.740537
45.627952
44.065714
46.420693
43.804646
40.592551
39.106607
35.482645
32.431483
28.769970
26.448965
21.778941
23.640990
20.922422
18.069744
17.526746
16.790628
18.616915
16.877651
17.478466
16.029477
17.509460
##ZVALUE=235
25.081635
25.072694
72.792768
142.758489
281.336904
406.957865
610.246658
742.058754
829.539895
828.122497
714.080930
589.707494
450.570583
278.312564
184.245706
109.790564
83.792806
84.030628
81.573725
85.111856
81.695914
71.152449
51.514506
40.498972
28.919578
21.843910
16.858578
13.687611
14.065504
13.704896
13.851523
14.388561
13.185740
12.660623
14.909506
14.439821
14.054775
14.976859
14.499426
15.274882
15.825629
14.712811
15.531778
14.638901
15.038848
15.577674
14.715791
15.602708
16.721487
15.495420
15.277863
16.094446
16.150475
14.991760
17.295480
16.130805
16.215444
18.300414
17.252564
17.722845
16.540885
18.878579
18.959641
18.978715
19.691586
17.604828
19.487739
21.847486
21.646619
24.691820
27.321577
29.467940
34.603477
37.949681
41.025877
42.239428
43.381453
42.685866
42.346716
40.922761
36.627650
33.004880
30.922890
29.225945
26.723742
23.945570
22.967458
22.554994
20.051599
21.739602
20.273924
19.295812
20.502806
19.357800
21.177530
19.435883
##ZVALUE=240
2.997518
3.877878
10.042787
40.096641
97.330809
215.427876
367.487669
622.033477
844.112635
1016.201973
1016.201973
1016.201973
1016.201973
903.901458
651.842952
439.080000
252.461433
167.108774
123.787522
106.416941
119.409561
124.723911
122.219920
108.303428
93.398690
69.968700
54.517984
37.545562
27.461648
20.728707
19.842982
15.208721
14.971495
15.773773
15.140772
14.187694
15.835762
15.684962
14.720559
16.582608
15.725493
13.803840
16.750693
17.427802
17.248988
16.122460
18.066764
17.175674
16.222000
18.785000
16.109943
18.414855
19.118786
17.944574
18.634796
18.559694
18.886924
18.243790
18.504858
18.151999
19.573569
18.681884
19.935966
22.178888
21.865964
20.587444
20.566583
23.266673
24.413466
27.282834
29.586554
33.970475
39.147735
41.791797
43.290854
47.490597
47.338605
46.226978
46.838522
43.676496
40.016770
37.042499
33.949614
31.173825
29.516816
26.734471
24.873614
26.542544
25.131702
23.582578
24.566650
24.480820
22.966862
25.252700
22.370815
24.314523
##ZVALUE=245
2.346635
2.852678
2.841949
4.064441
10.963678
50.770640
137.177706
351.889729
609.169006
1003.264785
1016.548872
1016.548872
1016.548872
1016.548872
1016.548872
1016.548872
1016.548872
680.490732
418.923497
208.604932
142.406821
117.064714
124.270916
132.991672
141.156912
133.926868
121.518970
108.703971
79.180002
64.981580
44.101477
33.757687
24.613738
18.695593
18.082857
16.382933
16.470551
15.699863
17.587543
16.122460
17.725825
17.575622
18.581748
17.748475
18.743873
17.170906
17.752647
19.042492
18.414855
19.012690
17.658472
18.678904
17.633438
20.148754
19.098520
19.201636
19.643903
18.984675
18.719435
20.159483
19.857883
19.654632
20.471811
20.907521
21.334887
21.158457
22.469759
25.235415
26.852489
29.252768
31.977892
38.331747
41.223764
43.534636
48.363805
48.882961
51.415563
49.591660
47.100782
44.744611
45.439601
40.973425
36.613941
34.578443
31.407475
28.022528
28.908849
26.071668
26.855469
25.431514
25.718808
25.114417
24.122000
27.219653
25.582910
24.316907
##ZVALUE=250
2.694726
2.625585
2.970695
2.482533
3.394485
3.489852
6.343722
28.240681
151.039958
334.974527
772.326589
1016.201973
1016.201973
1016.201973
1016.201973
1016.201973
1016.201973
1016.201973
1016.201973
770.081878
468.940735
275.876522
148.765445
114.226937
117.147565
127.617717
148.143768
149.104595
143.480897
130.178928
119.026899
89.558959
67.831874
44.784546
32.652617
22.982955
18.759966
16.703606
16.420484
15.069842
14.950633
15.352964
15.593767
15.124679
15.670657
15.506744
15.992522
15.558600
15.572906
14.929771
15.996695
15.535951
15.466809
16.696453
15.537739
15.355945
16.184449
15.329719
16.104579
15.978813
16.845465
15.839934
17.065406
17.518997
17.027855
18.285513
18.348694
19.543767
20.889640
23.821592
25.940537
30.299425
32.619834
37.419796
39.007664
39.651990
41.367412
39.830804
39.148927
37.444830
35.590529
32.311678
29.928684
27.335882
25.970936
24.343729
22.735596
21.850467
22.911429
21.953583
23.520589
22.674799
21.961927
22.576451
22.390485
21.429658
##ZVALUE=255
2.585649
1.882911
2.508759
2.218485
2.546906
2.748966
3.164411
3.325939
5.422831
19.036531
118.149519
290.263891
575.778484
1016.202569
1016.202569
1016.202569
1016.202569
1016.202569
1016.202569
1016.202569
1016.202569
1010.615826
620.200634
379.761457
190.268755
131.641626
105.213523
113.008618
133.443475
150.436759
153.962970
154.105425
139.077902
114.063621
88.585615
61.068535
44.554472
28.937459
20.430684
14.747977
12.695789
13.226867
12.089610
13.617873
13.570786
11.948943
11.956692
13.536811
12.636781
13.112426
12.481809
13.511777
13.329983
12.004972
12.782812
12.057424
12.495518
12.050867
12.286901
12.293458
13.013482
12.839437
13.006926
13.012886
13.030767
13.329983
14.045835
15.348792
16.327500
17.211437
19.757748
23.006797
23.896694
26.703477
27.316809
27.922988
28.360486
29.513836
28.744936
27.433634
26.111603
23.938417
23.818612
21.032691
20.037889
20.060539
18.875599
18.355846
18.418431
18.662810
18.297434
18.685460
18.518567
18.416643
18.205643
19.176602
##ZVALUE=260
2.050996
2.170801
2.050996
1.819730
2.308488
2.273917
2.547503
2.539754
2.507567
2.881885
3.606677
5.458593
21.546483
112.143755
257.141590
604.141951
953.677893
1016.214490
1016.214490
1016.214490
1016.214490
1016.214490
1016.214490
1016.215086
780.495405
496.865511
270.290971
158.598423
97.603798
91.858506
109.276772
128.961802
149.315000
156.941414
152.755976
134.464502
114.265680
87.417960
65.369606
41.190982
27.815700
18.447638
13.101697
11.021495
11.067986
10.927916
10.526776
9.884834
10.732412
10.445714
10.444522
10.920763
10.716915
10.258555
10.500550
10.347962
9.883642
9.952784
9.785891
9.925961
9.836555
9.819865
10.191798
10.992885
10.688901
10.073781
11.400580
11.859536
12.284517
14.279485
14.246702
16.123652
17.812848
17.987490
19.132495
19.128919
18.953681
18.765926
18.533468
19.362569
17.756820
17.381907
17.125607
16.530752
16.076565
15.695691
16.158819
16.081929
14.916658
16.062856
16.801953
15.671849
15.344620
15.945435
16.893744
16.447902
##ZVALUE=265
1.721978
1.557469
1.645684
1.540780
1.708865
1.826882
1.851916
1.982450
1.912713
2.275705
2.529621
2.828836
2.805591
3.257990
9.499788
35.354495
132.774711
261.558890
465.132594
918.079615
1016.201973
1016.201973
1016.201973
1016.201973
1016.201973
1016.201973
892.852545
521.854758
321.708918
157.723427
97.390413
72.690845
84.648728
113.108754
131.414533
151.011944
156.361461
151.143670
136.579871
110.744834
85.577965
58.058500
40.654540
25.020838
16.750693
11.317730
9.471774
8.935928
8.355975
8.963943
8.441806
8.509755
8.333921
9.039640
8.942485
8.099675
8.020997
8.502603
8.661747
8.753538
7.527471
8.651614
8.455515
8.336902
8.867979
8.218884
8.833408
9.701848
9.295940
10.954738
11.806488
12.138486
13.058782
14.127493
14.445782
15.056729
15.587807
14.737844
14.714599
15.121698
13.868809
14.101863
14.366508
14.304519
14.184713
13.589859
13.786554
14.279485
13.184547
13.822913
13.437867
13.784766
13.836622
14.267564
14.381409
13.953447
##ZVALUE=270
1.369715
1.627803
1.452565
1.261830
1.501441
1.740456
1.550913
1.797676
1.771450
1.889467
2.164841
2.206564
2.250671
2.264977
2.557635
2.674460
3.599524
20.966530
70.042610
196.998715
356.423855
596.894622
982.825756
1016.288996
1016.288996
1016.288996
1016.288996
1016.288996
1016.288996
756.202936
500.119925
237.138867
125.921965
66.759586
62.755942
85.531473
109.346509
135.248899
149.303675
160.363913
153.567791
136.556625
114.354491
85.751414
61.515570
37.142634
26.754737
16.335845
11.738539
8.673668
8.682609
8.717775
7.913709
8.132458
8.073449
8.626580
8.499622
8.828640
8.285642
8.588433
8.246899
7.726550
8.065701
8.352995
8.550882
8.601546
9.177923
9.524822
10.067821
10.447502
11.147857
12.512803
13.399720
14.155507
13.795495
14.781952
14.863610
15.121698
14.810562
14.157891
13.881922
13.569593
13.240576
12.939572
12.804866
12.670755
12.503862
13.074875
12.991428
13.402700
13.162494
12.900829
12.299418
12.638569
13.285875
13.175607
##ZVALUE=275
1.538992
1.469851
1.438856
1.575947
1.524687
1.478791
1.380444
1.368523
1.438856
1.445413
1.824498
2.027750
1.832843
2.068877
2.178550
2.060533
2.744794
2.605915
3.577471
7.996559
36.557913
137.069821
269.899964
613.095760
1006.614566
1016.201973
1016.201973
1016.201973
1016.201973
1016.201973
1016.201973
1016.201377
766.068697
366.439819
193.361640
83.104968
55.553913
63.333511
81.083775
111.534595
131.616592
153.385997
156.860948
150.903463
136.697888
109.496713
87.096691
59.560537
41.635633
26.280880
17.678738
11.475682
9.240508
8.289814
7.603765
7.788539
7.597804
7.755756
7.793903
8.473992
8.443594
8.107424
8.186698
8.308887
8.285642
8.807778
8.785725
9.107590
9.576678
10.135770
10.904670
12.125969
12.621880
14.033914
14.406443
15.035868
14.743805
15.143752
15.420914
14.139414
13.782978
13.303757
13.697743
12.272596
12.420416
11.908412
11.951923
12.017488
11.943579
11.980534
11.519790
11.952519
11.581779
11.773705
12.072921
12.575984
##ZVALUE=280
1.457930
1.417994
1.238585
1.382828
1.427531
1.502633
1.314878
1.415610
1.572967
1.507998
1.742840
1.433492
1.864433
1.872778
1.842976
2.279878
2.097487
2.452731
2.479553
2.733469
2.980828
3.652573
21.120906
69.223642
218.353868
422.461629
852.329731
1016.202569
1016.202569
1016.202569
1016.202569
1016.202569
1016.202569
1016.202569
859.493613
436.684489
234.819651
95.714927
52.337646
43.761730
55.653453
82.029700
104.458928
129.590631
145.470500
153.561831
146.744847
131.307840
111.333728
82.856417
62.627792
38.965940
26.752949
15.871525
11.209846
8.534789
7.166862
7.281899
7.409453
7.148981
7.993579
7.775426
7.884502
7.888675
7.919669
8.251667
8.600950
8.749962
8.877516
9.645820
10.475516
10.366440
11.383891
11.977553
12.129545
12.917519
12.429953
12.554526
12.535453
12.179613
11.407733
11.637807
11.330843
10.976791
10.852814
10.088682
11.378527
10.466576
10.278821
10.913610
10.842681
10.741949
10.780692
10.761619
10.867715
10.270476
##ZVALUE=285
1.148582
0.986457
1.002550
1.249909
1.217723
1.279712
1.187921
1.186728
1.319647
1.125932
1.394749
1.270771
1.453757
1.476407
1.468658
1.455545
1.497865
1.542568
1.666546
2.088547
2.088547
2.049804
2.358556
2.565980
6.603003
20.820498
79.856515
186.515450
438.674688
714.836717
998.041034
1016.186476
1016.186476
1016.186476
1016.186476
1016.186476
803.866982
468.632579
277.000666
121.366978
61.354637
33.378601
35.084486
53.813457
73.655844
102.313757
123.478770
138.808489
147.688985
143.468976
131.896734
107.980967
88.090897
60.848594
42.068958
24.146438
16.084909
9.963512
7.971525
7.021427
6.429553
7.000566
6.824732
7.050633
7.003546
7.381439
7.443428
7.370710
8.131862
8.635521
8.200407
9.387732
9.211898
9.629726
9.887815
9.733438
9.987950
10.161996
9.996891
9.369850
9.926558
10.146499
10.019541
9.506941
10.074973
10.185838
10.074973
9.825826
10.231733
10.192990
9.856820
9.879470
9.801984
9.317994
9.677410
9.819865
##ZVALUE=290
1.071692
0.950694
1.107454
1.093745
1.019835
1.088977
0.865459
0.877976
0.914931
0.922680
1.121759
1.202822
1.109838
1.219511
1.190901
1.021624
1.372695
1.429915
1.415610
1.521707
1.605749
1.528859
1.757741
1.862645
1.896620
2.121925
3.032684
8.778572
39.237738
93.121529
181.197524
395.359397
630.877614
963.663459
1016.201973
1016.201973
1016.201973
1016.201973
847.770572
543.343425
347.724557
164.753795
82.724690
34.491420
25.532842
34.157634
48.363805
71.154833
91.393590
118.707418
132.613778
143.406987
138.924718
128.077865
107.865930
80.500841
59.928894
38.274527
25.839806
14.734864
10.739565
7.648468
6.943941
6.796718
6.640553
6.756783
6.527901
7.442832
7.723570
8.049607
7.667542
9.144545
8.878708
9.285808
9.264946
9.460449
9.209514
9.240508
8.857846
9.411573
9.423494
9.703636
9.695888
9.817481
9.722710
9.807944
9.608865
9.967685
9.540915
9.927750
9.892583
9.521842
9.389520
9.321570
9.663701
9.265542
##ZVALUE=295
1.061559
1.041889
0.945926
0.882745
0.960827
0.893474
0.926852
0.961423
0.974536
0.911951
1.057982
0.841618
0.950694
0.989437
1.136661
1.132488
1.224875
1.222491
1.174808
1.349449
1.284480
1.230836
1.501441
1.451969
1.671910
1.752973
1.892447
2.062917
2.191663
3.778934
10.806918
44.001937
100.564957
245.277882
412.756801
690.476894
894.104838
1016.201973
1016.201973
1016.201973
949.536562
687.582493
480.366945
255.723596
138.373971
50.235987
24.077892
21.098852
28.673410
45.892596
63.803792
89.445710
107.623935
128.290653
135.145783
132.632852
121.404529
100.226998
81.770420
56.248903
39.796829
24.060607
16.886592
10.883808
8.118749
6.980896
6.830692
6.941557
7.459521
7.555485
8.155704
8.240938
8.697510
8.911490
9.024739
9.234548
9.110570
9.451509
9.662509
9.221435
9.511709
9.502769
9.375811
9.407997
9.261966
9.972453
10.002851
9.380579
9.518862
9.436607
9.520650
9.776950
8.962750
9.036660
9.532571
9.598732
##ZVALUE=300
0.927448
0.912547
0.862479
1.033545
0.828505
0.881553
0.925660
0.921488
0.868440
0.943542
1.021624
1.049638
0.886917
1.003742
1.088977
1.052618
1.152754
1.144409
1.067519
1.101494
1.100898
1.145601
1.220703
1.186728
1.204610
1.400709
1.375675
1.406670
1.763701
1.692772
1.916885
2.162457
7.277727
26.577711
86.103678
167.783499
338.460803
511.587858
751.843452
903.787613
1016.202569
1016.202569
967.715979
834.725499
570.151806
372.033715
187.797546
98.887682
34.606457
18.122792
18.291473
25.100708
40.910840
56.628585
81.354976
101.195574
120.762587
127.804875
127.844810
119.547844
98.911524
81.132650
57.112575
41.330457
25.390983
17.259717
10.858774
8.776784
7.525682
7.704496
7.929802
7.759929
8.508563
9.042621
8.882880
9.135604
9.549856
8.978844
9.439588
9.562969
9.307861
9.102821
9.697676
9.395480
9.764433
9.803772
9.310842
9.687543
9.317994
9.518862
9.377599
9.376407
9.305477
9.339452
9.399652
9.789467
##ZVALUE=305
0.920892
0.856519
0.854731
0.920892
0.834465
1.070499
0.969768
0.829697
0.962615
0.948906
0.799894
0.861883
1.055598
1.017451
1.046658
1.062751
1.142621
1.004934
1.094937
1.007915
1.124740
1.066923
1.159906
1.055598
1.290441
1.265407
1.269579
1.551509
1.472831
1.583695
1.642704
1.747608
1.966953
2.188683
3.901720
29.756427
84.148645
207.902789
341.762900
556.199551
725.400448
922.406912
1016.202569
1016.202569
1016.202569
926.933885
747.606754
485.344529
303.819776
132.101774
61.129928
20.816922
13.354421
16.900897
23.801923
40.384531
56.698918
79.306960
97.572803
114.585757
121.608973
121.736526
112.926960
93.585849
77.463984
54.221749
39.533973
25.197864
17.455816
11.222959
9.283423
8.940697
8.491874
9.111762
9.070635
8.962750
9.115934
9.343624
9.136796
9.727478
9.386539
9.570718
9.544492
9.294748
9.528995
9.506941
9.890795
9.298921
9.709597
9.614825
9.578466
9.494424
9.467602
9.188652
9.166598
9.427667
##ZVALUE=310
0.868440
0.814795
0.867844
0.885725
0.779629
0.974536
0.780821
0.948906
0.997782
0.778437
0.878572
0.785589
0.990629
0.999570
0.986457
0.929832
1.014471
1.005530
0.913739
0.919700
1.133680
1.062751
1.125932
1.015663
1.387596
1.278520
1.123548
1.241565
1.402497
1.389980
1.402497
1.622438
1.579523
1.515746
2.018809
2.041459
2.514720
13.465881
51.771998
160.303712
279.842615
494.239926
675.848722
889.409781
1001.750827
1016.201973
1016.201973
998.269916
858.115554
596.033931
399.319530
195.912719
98.752975
33.717752
14.933944
11.482835
14.185905
22.894740
33.093691
51.211715
67.964792
90.654492
103.621483
114.653707
116.211772
108.385682
94.188452
74.940920
57.241917
38.200617
27.115941
18.104911
13.318658
10.617971
9.618998
9.303689
9.446740
9.089708
9.150505
9.116530
9.411573
9.526610
9.336472
9.637475
10.206699
9.936690
10.014772
9.755492
9.789467
9.742975
9.420514
9.934902
9.300709
9.200573
9.370446
9.485483
##ZVALUE=315
0.914931
0.873804
0.842810
0.805855
0.975728
0.980496
0.949502
1.000762
0.927448
0.870824
0.772476
0.746846
0.865459
0.912547
0.937581
0.839829
0.895858
0.908971
0.940561
0.923872
0.996590
1.020432
0.966787
0.991821
1.033545
1.168847
0.995994
1.052618
1.235604
1.230836
1.214743
1.334548
1.298785
1.362562
1.353621
1.684427
1.713634
1.894832
2.017617
4.510880
18.412471
75.055957
155.594945
318.387747
483.800769
715.757608
849.871635
959.779024
986.886621
906.309485
786.984563
576.369762
412.440896
227.284431
124.590993
45.654774
20.455718
10.202527
10.244846
13.838410
19.380450
32.565594
46.002865
65.793991
81.665516
100.080967
109.145641
110.532641
102.734566
88.568926
73.260665
54.188967
40.064454
24.824739
18.386841
12.855530
10.949969
9.405613
9.207726
9.299517
9.679794
9.056926
9.243488
9.780526
9.613633
9.864569
9.720922
9.981990
9.389520
9.691715
9.324551
9.787679
9.317994
9.566545
9.405613
9.280443
##ZVALUE=320
0.821948
0.719428
0.853539
0.755787
0.674725
0.776649
0.614524
0.859499
0.681877
0.776649
0.823736
0.793934
0.934601
0.866652
0.855923
1.002550
0.882745
0.851750
0.934601
0.968575
1.065731
1.095533
0.986457
0.968575
1.148582
0.914931
1.124740
1.026988
1.022816
1.075864
1.184940
1.120567
1.009703
1.193881
1.224875
1.333952
1.303554
1.314878
1.473427
1.574755
1.694560
2.023578
5.229712
25.979877
67.179799
175.357461
293.106437
486.176014
653.185844
852.728486
948.820710
988.966823
943.384767
797.191858
635.538697
398.751497
247.855783
110.764503
48.517585
13.603568
8.704662
9.986758
11.867881
18.494725
27.536750
44.006705
58.288574
78.131557
91.737509
101.858974
103.652477
98.032951
88.461637
67.951679
53.296685
36.743879
26.335716
17.830729
13.727546
10.868907
9.799600
9.625554
9.532571
9.907484
9.785891
9.816885
9.614825
9.786487
9.331703
9.472966
9.515882
9.515882
9.521842
9.058714
9.349585
9.216666
##ZVALUE=325
0.774860
0.873804
0.688434
0.688434
0.883937
0.817776
0.733733
0.956655
0.681877
0.853539
0.720620
0.798702
0.942945
0.796914
0.786781
0.771880
0.897646
0.687838
0.904799
0.820756
0.966787
0.625849
0.885725
0.786781
0.909567
0.871420
0.941753
0.904799
0.933409
1.160502
1.116991
1.045465
0.973940
1.038909
1.004934
1.266599
1.261830
1.148582
1.335740
1.425743
1.359582
1.572967
1.655817
1.891851
3.192425
18.302798
46.718717
121.134520
219.985843
408.761501
563.946962
769.764781
884.625912
953.328013
926.659703
796.163678
641.634464
425.797701
274.834633
125.501752
60.671568
19.085407
9.855628
8.275509
8.689761
12.353659
17.060637
28.675795
40.766597
58.836937
73.745847
89.783669
96.531510
98.376870
92.793703
78.260899
65.870881
48.663616
36.154985
24.292469
17.836690
13.365746
11.265874
10.417700
9.729862
9.948611
9.684563
9.986758
9.264946
9.692907
9.509921
9.190440
9.087920
9.365678
9.371638
9.428859
##ZVALUE=330
0.736713
0.870824
0.623465
0.763535
0.796914
0.721812
0.675917
0.831485
0.764728
0.615716
0.757575
0.883937
0.703931
0.703931
0.670552
0.835657
0.884533
0.901818
0.692606
0.697970
0.787973
0.744462
0.820756
0.733733
0.775456
0.958443
1.003742
0.865459
0.959635
0.912547
0.898838
1.000762
1.109838
0.885725
0.996590
1.110435
1.154542
0.961423
1.102686
1.149774
1.268983
1.410842
1.271963
1.567602
1.645684
1.718998
1.758933
7.376671
24.065971
78.876615
152.119994
303.351879
444.699526
643.170476
772.811770
875.884891
874.831676
790.343881
670.418739
474.575758
328.032970
168.944001
90.214610
32.826662
13.308525
8.056760
8.113980
9.431839
11.406541
17.885566
25.812984
39.676428
52.148700
70.229769
83.139539
92.303753
91.965795
85.876584
76.627731
60.208440
47.115684
32.050610
24.672747
17.763972
14.351606
11.352897
10.113716
9.750724
9.644628
9.543896
9.327531
8.839965
8.959770
9.148717
9.059906
9.202957
##ZVALUE=335
0.642538
0.687838
0.740886
0.782609
0.747442
0.638962
0.826716
0.598431
0.703931
0.805855
0.673532
0.598431
0.773668
0.727773
0.860691
0.785589
0.705719
0.681877
0.718832
0.851750
0.977516
0.956655
0.639558
0.791550
0.658631
0.841618
0.785589
0.787973
1.046658
0.884533
0.912547
0.876784
1.001954
0.938773
0.992417
0.884533
1.007915
1.116991
0.939965
1.020432
0.971556
1.109838
1.307726
1.212955
1.340508
1.293421
1.459718
1.649857
1.509786
3.622770
12.486577
48.081875
99.584460
219.388604
348.481536
542.406440
674.302578
782.125592
805.689692
734.255910
629.745722
446.874499
313.025713
169.471502
92.626810
33.924580
15.695691
8.427501
7.438660
7.944703
9.095669
11.613965
16.087890
26.078820
36.427975
52.992702
64.923763
79.043508
85.258484
87.168813
83.032846
70.590973
59.840679
45.088530
34.794807
24.192929
18.422604
13.458729
11.214614
10.268688
9.096861
8.978844
8.726716
8.613467
8.522868
8.833408
##ZVALUE=340
0.599623
0.633597
0.756979
0.575781
0.672936
0.685453
0.920892
0.708699
0.819564
0.804663
0.702739
0.647902
0.803471
0.621676
0.696778
0.703931
0.864863
0.777841
1.019835
0.872612
0.918508
0.790954
0.658631
0.875592
0.748634
0.883937
0.861883
0.834465
0.834465
0.749826
0.835657
1.026988
0.958443
0.986457
0.993609
1.064539
1.098514
1.131892
0.971556
1.123548
0.989437
1.185536
1.050830
1.093745
0.963807
1.106858
1.190901
1.156926
1.224875
1.402497
1.427531
2.168417
6.187558
29.169917
70.209503
171.436667
284.391642
457.798839
587.119460
727.038980
780.794024
745.381713
664.234757
503.506660
366.012454
200.968981
113.786459
43.551922
19.390583
8.953810
7.609725
7.500648
7.580519
9.318590
11.186600
17.678738
24.084449
35.778880
47.825575
63.520670
73.078871
81.117749
81.916451
76.349974
68.373680
55.449605
45.395494
33.814907
25.610924
17.592907
13.125539
10.359883
9.552836
8.605719
8.459687
8.573532
##ZVALUE=345
0.603795
0.749826
0.531673
0.586510
0.714660
0.724792
0.729561
0.839829
0.649691
0.599623
0.675917
0.753999
0.716448
0.847578
0.526905
0.590682
0.717640
0.758767
0.624657
0.583529
0.834465
0.686646
0.670552
0.641942
0.592470
0.656843
0.751615
0.819564
0.694990
0.859499
0.763535
0.808835
0.784993
0.631809
0.817776
0.724792
0.905991
0.758767
0.883937
0.830889
0.997782
0.924468
0.917912
1.065731
1.024604
1.029968
1.006722
1.088977
1.079440
1.142621
1.272559
1.298785
1.329780
1.406670
2.831817
16.640425
43.680668
113.317966
200.439692
360.578895
491.001010
650.769472
730.190873
752.678514
585.675836
564.819574
395.496488
225.020647
79.716444
60.781837
29.625893
11.516809
7.981658
7.630587
7.494688
7.589459
7.995963
13.138652
14.806986
28.461814
32.276511
45.863986
55.974722
67.624450
72.895885
72.783828
72.682500
60.027838
55.383444
34.342408
31.654835
18.583536
17.559528
12.008548
9.993911
8.915663
##ZVALUE=350
0.733733
0.537634
0.693798
0.589490
0.747442
0.740886
0.645518
0.764728
0.782609
0.607967
0.628829
0.765920
0.545979
0.659823
0.611544
0.718832
0.673532
0.891685
0.672936
0.787973
0.797510
0.714660
0.801682
0.550747
0.720620
0.805855
0.687838
0.768900
0.719428
0.798702
0.836849
0.674725
0.782609
0.871420
0.880957
0.858903
0.684857
0.909567
0.907779
0.891685
0.758767
0.837445
0.844598
0.937581
1.014471
0.992417
1.034737
1.038909
0.956655
1.060963
1.016855
1.090765
1.234412
1.302958
1.303554
1.451969
1.992583
6.302595
27.840734
64.726472
150.993466
252.234936
419.359803
546.289682
684.442520
730.205774
696.145892
607.153773
428.988934
297.734737
161.692500
88.072419
32.091737
14.562607
8.097887
7.267594
6.799698
6.729960
7.366538
7.836819
10.372996
13.572574
20.492673
27.527809
40.038824
49.461722
60.107708
65.850616
69.513917
67.114830
60.950518
51.949620
40.518641
32.182932
22.243857
17.305613
##ZVALUE=355
0.945926
0.941753
0.967979
0.965595
0.809431
0.922680
0.941753
0.987649
0.872612
0.855923
0.836849
0.795722
0.764728
0.937581
0.927448
0.837445
0.965595
0.898838
0.934601
0.846982
0.893474
0.936985
0.990629
1.101494
0.984669
0.926852
1.052618
0.999570
1.036525
0.933409
1.046658
1.111627
0.997782
0.935793
0.967979
1.058578
0.977516
1.034737
1.104474
0.938773
1.092553
1.025796
0.969768
1.098514
1.135468
1.003742
0.939965
1.181960
1.241565
1.288652
1.193881
1.289845
1.312494
1.335740
1.327991
1.460910
1.464486
1.548529
1.827478
4.345775
13.344884
49.929619
100.305676
207.783580
319.264531
488.198996
604.839921
699.179769
703.973770
618.386865
504.961610
336.984992
216.477513
96.997619
47.506690
16.332865
9.246469
7.022619
6.761551
6.688833
6.619692
7.065535
7.391572
9.502769
12.352467
18.052459
24.413466
34.298897
42.807460
52.979589
58.748722
62.658787
62.043667
55.994987
49.222708
39.291978
##ZVALUE=360
0.879765
0.816584
0.901818
0.876784
0.636578
0.712872
0.748634
0.872612
0.809431
0.852942
0.847578
0.929832
0.876784
0.768900
0.762939
0.921488
0.835657
0.769496
0.688434
0.833869
0.880957
0.826716
0.856519
0.877976
1.001954
0.979900
0.944734
0.945926
0.895858
0.843406
0.940561
0.844598
0.966787
0.890493
0.817776
0.757575
0.871420
0.981688
0.999570
0.985861
1.025796
0.902414
1.074672
1.066923
1.025796
1.048446
1.049638
0.914931
1.171827
0.944734
1.126528
1.273751
1.183748
1.272559
1.304746
1.171827
1.421571
1.389980
1.479983
1.325607
1.567602
2.297759
6.082654
26.160479
63.280463
153.780580
251.826644
403.925776
529.804826
649.491549
687.929988
645.726919
559.239984
389.818549
263.179541
129.736662
68.665743
26.688576
11.834502
6.773472
6.315708
6.115437
6.257892
6.112456
6.344914
6.748438
7.778406
10.548830
14.038682
20.408630
27.451515
37.702918
45.235753
52.500963
56.031942
56.434870
##ZVALUE=365
0.621676
0.784993
0.749826
0.722408
0.562668
0.558496
0.733733
0.551939
0.518560
0.551939
0.645518
0.710487
0.578761
0.699759
0.779629
0.744462
0.787973
0.852942
0.648499
0.733733
0.734925
0.634789
0.606775
0.662804
0.707507
0.782609
0.644922
0.790954
0.739694
0.670552
0.833869
0.765920
0.731945
0.599623
0.845790
0.801682
0.826716
0.939965
0.857711
0.753999
0.888705
0.826716
0.855923
0.753999
0.952482
0.798702
0.885725
0.817776
0.839829
0.966787
1.026988
0.940561
0.918508
0.839829
1.044869
1.155734
1.074672
1.014471
1.121759
1.176000
1.399517
1.442432
1.514554
1.814961
2.929568
14.956594
42.784810
115.250945
204.633474
353.287458
472.116470
596.928000
651.350617
640.447736
566.905737
419.237614
300.823450
168.942809
94.296932
36.412477
16.365647
7.072687
6.167889
5.759597
5.819798
5.681515
5.487800
5.585551
5.906820
6.602407
8.445978
12.511611
16.410947
23.672581
30.547976
39.919615
##ZVALUE=370
0.664592
0.745654
0.722408
0.644922
0.556707
0.621676
0.642538
0.688434
0.733733
0.539422
0.810623
0.665784
0.733733
0.564456
0.712872
0.726581
0.595450
0.612736
0.717640
0.756979
0.771880
0.702739
0.683665
0.639558
0.718832
0.798702
0.730753
0.810623
0.709891
0.756979
0.780821
0.689626
0.746846
0.821948
0.801682
0.739694
0.821948
0.754595
0.861883
0.797510
0.928640
0.889897
0.785589
0.754595
0.748634
0.788569
0.757575
0.889897
1.098514
0.808835
0.888705
0.881553
0.826716
0.820756
0.925660
1.086593
0.936985
0.996590
1.069903
1.018643
1.084805
1.137853
1.222491
1.186728
1.459718
1.412630
2.071857
8.635521
29.945970
91.385841
169.960856
308.895707
427.013636
574.184656
640.212893
648.968816
594.478846
466.298461
346.265435
199.754834
116.723776
48.310757
22.978783
8.779764
6.113648
5.467534
5.226731
5.238652
5.355477
5.101562
5.139709
5.597472
5.922914
7.389784
10.024905
14.821887
##ZVALUE=375
0.549555
0.510812
0.645518
0.661612
0.619888
0.683665
0.611544
0.598431
0.700951
0.675917
0.710487
0.575781
0.802875
0.653863
0.745654
0.580549
0.579953
0.698566
0.732541
0.610948
0.647902
0.640750
0.637770
0.626445
0.627637
0.681877
0.671744
0.799894
0.601411
0.801682
0.801682
0.637770
0.721812
0.731945
0.626445
0.873804
0.730753
0.834465
0.680685
0.829697
0.852942
0.873804
0.900626
0.767708
0.824928
0.742674
0.855923
0.802875
0.945926
0.826716
0.961423
0.775456
0.762939
0.956655
0.864863
0.819564
0.890493
0.958443
0.939965
1.010895
0.954866
0.961423
1.032948
1.152754
1.075864
1.021624
1.256466
1.410842
1.589656
3.926754
13.498664
52.427649
112.769008
243.638754
367.088914
527.905822
616.740584
664.758682
638.060570
520.325899
403.611660
246.101618
156.611800
78.897476
40.925741
14.467835
7.269979
5.104542
4.916787
4.825592
4.798770
4.874468
4.655719
4.624724
4.785657
5.551577
##ZVALUE=380
0.799894
0.786781
0.917912
0.782609
0.602603
0.805855
0.785589
0.683665
0.723600
0.791550
0.795722
0.795722
0.694990
0.761747
0.888705
0.900626
0.795722
0.928640
0.821948
0.757575
0.855923
0.943542
0.698566
0.697970
0.609756
0.830889
0.678897
0.738502
0.787973
0.976920
0.946522
0.813603
0.878572
0.844598
0.891685
0.825524
0.825524
0.852942
0.835657
0.742674
0.627637
0.783801
0.769496
0.877976
1.019835
0.834465
0.798702
1.048446
0.944734
0.899434
0.890493
0.915527
1.070499
0.935793
0.963807
0.860691
0.941753
1.030564
0.830889
0.995994
1.093745
1.130700
1.006722
1.004934
1.121759
1.085997
1.305938
1.303554
1.363754
1.510978
1.621842
2.333522
7.249713
33.323765
78.483820
181.852579
290.420651
444.719791
555.907488
642.928481
641.694665
550.331473
449.897647
313.391685
213.624835
106.246471
56.320429
21.184683
9.925961
5.443692
5.108714
4.583597
4.763603
4.499555
4.680753
4.503727
##ZVALUE=385
0.588894
0.746846
0.578761
0.589490
0.725985
0.478625
0.462532
0.489950
0.521541
0.589490
0.643730
0.606775
0.672936
0.575781
0.652671
0.574589
0.574589
0.532866
0.584722
0.704527
0.684857
0.636578
0.759959
0.732541
0.688434
0.729561
0.634789
0.783801
0.699759
0.653863
0.747442
0.561476
0.762939
0.528693
0.765920
0.682473
0.664592
0.688434
0.707507
0.655651
0.623465
0.835657
0.665784
0.517964
0.546575
0.704527
0.702739
0.788569
0.853539
0.760555
0.784993
0.754595
0.716448
0.770688
0.677705
0.769496
0.735521
0.794530
0.839829
0.845790
0.729561
0.863671
0.784993
0.747442
0.956655
0.918508
1.067519
0.933409
1.133680
1.238585
1.167655
1.329780
1.500845
1.639724
3.464818
18.364787
47.315955
118.427873
209.475756
365.613699
485.126972
597.984791
628.745556
595.620871
522.549748
384.255648
273.220539
149.581432
86.654425
36.944747
16.235709
5.876422
4.422665
4.277825
4.185438
4.155636
##ZVALUE=390
0.647902
0.732541
0.548959
0.564456
0.556707
0.770688
0.627637
0.644922
0.819564
0.584722
0.689626
0.740886
0.750422
0.651479
0.696778
0.643730
0.716448
0.753999
0.638962
0.755787
0.601411
0.653863
0.701547
0.709891
0.591874
0.737906
0.723600
0.600815
0.685453
0.727773
0.685453
0.698566
0.728965
0.694990
0.728965
0.667572
0.682473
0.760555
0.619888
0.760555
0.762939
0.662804
0.798702
0.762939
0.832677
0.788569
0.808835
0.675917
0.778437
0.928640
0.779629
0.723600
0.647902
0.910759
0.883937
0.772476
0.808835
0.808835
0.817776
0.728965
0.897646
0.761747
0.925660
0.757575
0.924468
0.992417
0.875592
0.999570
1.096725
1.062751
1.215935
1.317859
1.256466
1.446605
1.285672
1.394749
2.489686
8.693933
38.732886
87.057948
199.073553
310.528874
460.435748
560.777783
639.572740
645.724535
572.334528
475.896597
322.734714
218.786001
113.468766
60.076714
21.754503
9.554625
4.672408
4.221797
##ZVALUE=395
0.639558
0.538826
0.692606
0.644922
0.640750
0.675917
0.716448
0.666976
0.660419
0.628829
0.490546
0.657439
0.646710
0.731945
0.517964
0.578761
0.508428
0.646710
0.700951
0.628829
0.726581
0.546575
0.499487
0.586510
0.726581
0.748634
0.789762
0.804663
0.525713
0.613928
0.646710
0.584722
0.663996
0.588894
0.646710
0.625849
0.659823
0.705719
0.712872
0.706911
0.576973
0.551939
0.814795
0.597835
0.717640
0.706911
0.691414
0.536442
0.706911
0.697970
0.801682
0.705719
0.726581
0.824928
0.729561
0.781417
0.900626
0.620484
0.885725
0.923872
0.799894
0.834465
0.843406
0.949502
0.794530
1.005530
0.991821
0.930429
1.033545
1.093745
1.234412
1.182556
1.055598
1.085997
1.267791
1.272559
1.153946
1.303554
1.760721
6.865859
23.634434
74.986815
142.115951
258.075595
374.858975
528.315902
615.464449
666.576028
638.773441
532.837510
413.849950
256.127715
159.877539
71.111917
35.040975
12.379885
##ZVALUE=400
0.456572
0.408888
0.453591
0.565648
0.473857
0.408888
0.503659
0.473857
0.461936
0.511408
0.422597
0.480413
0.435710
0.511408
0.459552
0.393987
0.652671
0.539422
0.503659
0.438690
0.451803
0.422597
0.538826
0.565648
0.447631
0.493526
0.602603
0.564456
0.559688
0.637770
0.548959
0.690818
0.652671
0.562668
0.650883
0.442863
0.608563
0.719428
0.600815
0.602603
0.558496
0.557899
0.472665
0.541806
0.587702
0.583529
0.354648
0.646710
0.548959
0.587702
0.538826
0.564456
0.694990
0.638962
0.568628
0.620484
0.638962
0.723600
0.680685
0.632405
0.602603
0.506639
0.689626
0.687838
0.523925
0.714660
0.805855
0.832677
0.895858
0.844598
0.884533
0.979900
1.053810
0.975728
0.886917
0.869632
0.903606
1.206994
1.115799
1.109838
1.432896
2.818704
13.732910
37.987828
104.724765
186.575651
333.562493
449.498892
580.927730
631.939769
625.457764
563.937426
428.947806
314.438939
181.648731
109.437704
##END
