##TITLE=QP0060F1
##FORMAT=SPECTACLE-ASCII V-1.2
##DATA TYPE=ULTRAVIOLET SPECTRUM
##SECOND TYPE=ULTRAVIOLET SPECTRUM
##DATE=12/11/17
##TIME=14:55:04
##SPECTROMETER/DATA SYSTEM=SPECTACLE
##XUNITS=NM EM
##YUNITS=ENERGY
##YFACTOR=1
##FIRSTX=220
##LASTX=410
##NPOINTS=96
##3DDATA=Equidistant
##ZUNITS=NM EX
##FIRSTZ=210
##LASTZ=400
##ZPOINTS=39
##XYDATA=(Y..Y)
##ZVALUE=210
2.906919
2.978444
3.041625
2.748966
3.086925
2.827644
2.633929
3.064871
3.028512
2.614856
2.719760
2.636909
2.346635
2.848506
2.824664
2.770424
3.118515
3.305674
3.335476
3.581643
3.740788
4.015565
3.868937
3.587604
3.928542
3.966689
4.525781
4.010797
5.009770
4.801750
4.508495
5.957484
4.605651
5.193949
5.329847
4.679561
5.376935
5.137920
4.816651
4.774928
5.209446
4.989505
5.036592
4.415512
5.465746
5.943775
5.485415
5.541444
5.522966
5.308986
5.687475
5.141497
6.391406
6.371737
5.660653
5.899668
5.704761
7.345676
5.267859
6.056428
6.088614
5.860925
5.841851
6.263852
6.976724
6.695986
6.374717
7.651448
8.082986
9.751916
12.620687
14.116764
14.697909
17.434955
18.466711
18.947721
18.290877
19.039512
19.145608
18.187761
16.066432
14.824867
12.893677
10.905862
9.271502
7.997751
7.020831
7.010698
6.867647
6.540418
6.778836
5.797744
6.246567
7.256866
6.997585
6.430745
##ZVALUE=215
9.767413
8.644462
8.658767
6.612539
6.794930
4.774928
4.889965
5.451441
5.655885
6.527901
4.700422
4.908442
4.021525
3.879666
3.357530
3.254414
2.790689
2.973676
3.358722
3.696680
3.568530
3.610849
3.481507
3.471971
4.149675
4.214644
4.372597
4.817843
4.889965
4.368424
4.573464
4.901886
5.200505
5.619526
5.021691
4.880428
4.880428
5.275607
6.009936
5.864501
5.497932
4.661679
5.734563
6.132722
5.489588
5.730987
6.059408
6.113648
5.267859
5.918741
5.697608
6.062984
5.294681
6.438494
6.264448
6.262660
6.529689
6.633997
6.565452
7.042885
6.951690
6.040931
6.379485
6.162524
6.501675
6.245971
6.777644
7.358789
8.363724
8.651614
11.852980
12.156963
13.828874
14.188886
14.672875
16.794801
17.528534
17.231703
16.733408
15.270710
13.893843
13.573766
10.727644
10.798573
9.079576
8.788705
7.711649
7.771850
6.766915
7.486939
6.783605
6.282926
6.599426
6.122589
6.396770
6.418824
##ZVALUE=220
39.028525
39.760470
40.780902
37.993789
34.282804
26.078820
20.272732
15.042424
13.358593
12.115836
13.824701
13.951659
13.449788
11.906624
10.484457
7.993579
6.569624
5.400777
5.026460
4.441738
4.623532
3.779531
4.276633
4.481673
4.856586
5.146861
4.924536
5.132556
6.117821
5.771518
5.996823
7.003546
7.018447
7.330775
6.199479
6.999969
7.417798
7.290840
7.339716
8.097887
7.387996
7.263422
7.628798
7.191896
7.305741
7.042885
7.334948
7.454753
7.146597
8.217692
7.125735
7.290840
7.719994
7.646680
8.135438
7.545948
8.479953
8.195639
8.119941
8.398890
8.642673
8.731484
8.388758
9.202957
7.545948
9.948611
9.980798
9.880662
11.900663
12.140870
14.937520
15.442967
18.133521
21.348000
21.875501
23.959875
24.069548
26.267767
25.530457
25.113821
24.073720
21.990538
19.474626
18.141866
16.469955
14.136434
12.651682
11.320710
10.249615
10.056496
10.654926
9.210706
9.183884
8.975863
10.269880
10.049939
##ZVALUE=225
61.561465
71.636438
87.264776
111.913681
119.423866
118.434429
105.228424
85.157752
63.414574
46.059489
32.913685
29.786825
26.681423
28.409958
28.629899
25.924444
22.196770
17.733574
15.494823
10.196567
8.215904
6.439686
6.308556
6.000996
6.171465
6.063581
7.323623
7.315874
8.007884
7.329583
7.507801
7.856488
8.100867
10.068417
8.709431
8.055568
9.537935
9.384751
10.125637
9.532571
9.087920
9.171963
9.377599
9.844899
10.120869
9.504557
10.477901
9.684563
9.576678
9.856820
9.469986
10.432601
10.301471
10.228753
10.747910
9.816885
10.153651
11.942983
9.583831
10.694861
11.070967
9.758472
11.720657
12.267828
13.514757
12.451410
13.530850
14.168620
14.891624
17.108917
17.772913
20.707846
23.506880
26.918650
26.629567
30.188560
31.645894
29.504895
30.636787
27.970672
26.373863
24.380684
20.230412
20.870566
19.331574
17.157793
15.111566
14.504790
14.610887
14.860630
14.151931
14.935732
13.846755
13.660789
14.202595
14.174581
##ZVALUE=230
62.032938
66.568851
105.028749
166.731477
209.378600
252.683759
272.951722
260.608792
231.359601
199.372768
130.887628
92.991590
63.173771
54.215789
47.783852
49.552917
50.498843
53.001642
45.442581
35.084486
30.059814
18.608570
13.805628
9.346604
6.393790
7.267594
6.748438
7.125735
7.003546
6.771684
8.352995
9.111762
8.869767
8.167624
8.703470
9.306669
8.576512
8.827448
8.923411
8.123517
8.623600
8.428693
9.762645
8.626580
9.302497
8.032918
9.235740
9.019971
9.642839
8.684993
8.984804
8.928776
8.778572
9.507537
8.605719
9.295940
9.424686
9.933710
10.936856
9.888411
11.963844
11.617541
11.446476
12.599826
11.959672
13.374686
13.376474
14.030933
16.994476
15.709996
19.654632
20.288825
22.186637
25.293827
25.875568
27.857423
27.737617
26.425719
26.911497
27.836561
23.202896
22.298694
22.144914
21.091700
19.111633
19.510984
19.551516
18.545985
18.290877
18.774867
18.874407
18.136501
18.097758
19.180775
18.958449
19.041896
##ZVALUE=235
20.380616
24.412870
49.599409
131.248832
213.528872
336.499810
446.777940
580.627918
625.025630
615.708828
525.351763
411.102772
266.466737
187.919736
112.330914
86.863637
76.511502
75.824857
87.191463
84.877610
81.970692
67.697763
54.155588
40.365458
27.284622
19.165874
14.034510
9.776950
8.688569
9.165406
8.748770
9.931922
10.447502
11.294484
10.217428
10.760427
9.593964
11.881590
10.600686
10.200739
9.786487
9.252429
10.169744
10.108948
10.051727
9.808540
11.618733
11.014938
9.372830
10.386705
10.988712
9.942651
11.791587
11.389852
11.839867
11.821985
12.546778
11.237860
12.810826
13.895631
13.488531
14.396906
15.976429
14.961958
15.499592
15.881658
17.978549
19.699931
19.752979
21.152496
24.491549
28.525591
27.800798
30.811429
31.639934
32.868981
34.090877
32.391548
31.623840
31.626821
31.068921
31.366944
28.617978
28.661489
27.807951
27.823448
27.633905
28.880835
29.477477
27.708411
28.594732
28.396845
27.449727
25.879741
25.602579
24.540424
##ZVALUE=240
2.009869
2.623796
7.891655
18.582940
59.502721
111.951828
224.632621
351.539850
537.768602
663.502812
780.685544
794.885755
748.945475
610.809922
479.285717
297.650695
205.546618
131.508708
104.180574
98.563433
109.978914
114.502907
113.356709
101.295710
83.846450
66.679716
45.771599
33.531785
22.570491
16.375780
12.448430
10.591745
11.352897
9.451509
10.269880
10.339618
11.145473
9.905696
9.374619
9.426475
9.577870
10.001659
9.063482
9.349585
10.800958
9.188652
9.928942
9.781718
9.124875
9.928942
11.288524
10.241866
9.945631
11.366606
9.651780
10.908842
12.402534
11.749864
12.617707
12.493730
11.950731
14.028549
14.568567
16.211867
15.561581
16.260743
18.548965
18.891692
20.263791
21.906495
23.377538
25.488734
27.864575
31.997561
32.651424
36.069751
34.374595
36.185980
36.085844
39.249659
36.463737
36.885738
34.335852
31.325817
34.118891
33.808947
33.208728
32.257438
30.334592
31.456947
31.561852
32.003522
31.875968
33.415556
30.867457
29.937625
##ZVALUE=245
1.782775
1.749992
1.689792
2.257824
4.208684
16.771555
39.154887
109.775662
194.972754
316.622853
501.106977
627.903938
750.411749
749.966502
687.055588
590.309501
423.772931
306.437612
259.099603
128.090978
101.405978
97.871423
109.718442
122.799873
126.550794
122.612715
114.773512
94.410777
75.146556
52.101612
37.843585
22.689700
16.045570
11.293888
9.971857
8.245707
9.171963
9.596944
8.436441
8.861423
8.407831
7.800460
8.509755
8.334517
7.728934
7.638931
8.040667
8.008480
8.129478
8.866787
8.700490
9.293556
8.835793
8.303523
8.945465
9.293556
8.846521
9.659529
10.780692
11.512637
10.432601
11.154413
12.304783
12.911558
13.777614
14.092922
15.667677
16.647577
16.075969
19.342899
19.871593
23.622513
25.904775
26.783943
29.437542
29.709935
31.340718
29.878616
31.312704
33.464432
33.096671
30.891895
32.944679
30.775666
31.847954
30.953884
29.348731
31.441450
32.778978
30.534863
30.154586
31.041503
30.002594
30.600429
28.908849
30.780435
##ZVALUE=250
1.548529
1.463890
1.611710
1.465678
1.540780
1.842976
2.354980
7.963777
34.373999
73.965788
182.918906
297.508836
428.890586
600.706935
701.833963
768.576860
731.559992
630.906820
524.629951
345.834494
233.790874
157.493949
99.348426
91.024637
99.856853
113.954544
133.979917
136.883855
135.214925
119.704604
104.491711
77.057481
60.596466
36.640763
25.375485
14.720559
11.467934
9.457469
8.560419
7.411838
7.311702
7.751584
8.457899
8.472800
8.418560
7.817745
7.898808
8.121729
7.810593
7.159710
7.707477
8.379817
8.211732
8.107424
8.750558
8.583665
8.663535
8.138418
8.513927
9.115934
10.229945
9.643435
10.214448
10.453463
11.997819
12.154579
12.949705
13.239980
14.986992
15.653968
17.670989
18.554926
20.263791
22.951961
22.812486
25.100708
24.776459
26.609898
26.374459
26.703477
26.359558
26.396513
28.285980
27.016997
28.263927
28.245449
27.209520
28.519630
28.849840
27.649999
27.722716
28.713942
27.069449
28.503537
28.887987
28.217435
##ZVALUE=255
1.619458
1.554489
1.875758
1.664758
1.704693
1.510978
1.898408
1.752973
2.320409
4.534721
22.861958
56.713820
113.611817
251.457691
382.371545
578.440428
702.067614
805.519819
828.580856
757.398009
646.745563
508.985519
326.744914
214.276910
124.969482
93.199611
86.042881
96.815825
122.814775
134.670734
143.300891
137.626529
126.453638
101.131797
83.097816
56.720972
39.185882
23.823977
15.188456
9.919405
8.599758
8.014441
7.265806
7.547736
6.956458
8.156896
7.775426
7.972717
7.471442
7.570982
7.852912
7.162690
7.010698
7.689595
7.261634
7.439852
7.626414
7.806420
7.975698
7.967949
7.710457
8.329749
8.484721
9.502769
10.465980
10.983944
11.067986
11.734962
12.697577
14.082789
15.119910
16.747713
16.926527
19.601583
19.657612
20.866990
21.609664
22.431612
22.332668
23.021698
23.051500
23.876429
23.807883
24.147630
24.426579
24.814606
25.929809
24.997592
26.204586
26.065707
26.024580
25.964975
26.042461
26.155710
27.435422
27.322769
##ZVALUE=260
1.121759
1.140833
1.307726
1.316667
1.366735
1.307726
1.275539
1.195669
1.514554
1.578927
1.741648
2.261400
7.799864
34.761429
81.370473
198.059678
325.836539
518.394709
674.951673
856.568813
905.405879
892.388821
766.717792
619.454980
407.978892
280.972719
165.757537
108.971000
75.207949
79.314709
97.026825
121.731758
137.289762
145.866871
142.362714
125.919580
109.211802
79.673529
59.547424
36.726594
25.466681
14.530420
10.031462
7.565618
7.259846
7.076859
6.791949
7.173419
7.126927
7.094741
7.328987
6.863475
6.327629
7.177591
7.160902
7.027984
7.275939
7.008910
7.416606
7.787943
7.788539
8.026958
8.777976
8.296967
9.188652
9.634495
9.854436
11.314750
10.888577
12.322664
13.873577
14.467835
15.329719
17.064810
18.047690
18.506646
18.377900
20.283461
20.013452
20.712614
20.516515
21.476746
20.930767
22.261739
21.139979
22.133589
23.179650
23.335814
23.244619
23.649931
22.631884
23.394823
23.496747
25.042892
24.875998
24.931431
##ZVALUE=265
1.220703
1.206994
1.018643
1.093745
1.051426
1.112819
1.222491
1.140833
1.334548
1.540780
1.675487
1.643896
1.875758
2.096891
4.692674
23.637414
58.400631
147.804618
261.932611
480.474830
654.087663
804.896951
987.662673
1016.201973
968.787670
859.458447
663.577914
478.883982
276.693702
174.728632
92.467666
68.627596
77.022910
102.476478
124.646425
142.248869
151.204467
143.521428
128.791928
104.300976
83.225965
56.187510
38.238764
22.273660
14.969707
9.262562
7.724762
6.836653
7.034540
6.347895
6.451607
6.781816
6.787777
7.331967
7.040501
6.956458
6.712675
7.236600
7.001758
6.607771
7.392764
6.859899
7.798672
8.674860
8.531809
8.981824
9.218454
9.872913
10.783672
11.550784
11.811852
13.766885
14.776587
15.555620
15.433431
16.920567
17.082691
18.842816
17.831922
19.422770
18.946528
18.928647
19.310713
20.057559
20.517707
20.527840
21.153688
21.302700
21.611452
21.302700
21.852851
22.198558
22.657514
22.460818
22.742748
23.066998
##ZVALUE=270
0.927448
1.122952
0.906587
1.054406
1.065731
0.952482
1.335740
1.273751
1.295805
1.259446
1.286864
1.388788
1.423955
1.604557
1.674891
1.822710
2.138615
9.172559
29.865503
92.891455
185.125470
319.334865
545.273423
720.772743
905.961990
969.013572
960.085988
884.674788
706.628561
549.798608
388.766527
217.931867
131.337643
69.567561
59.005618
79.047680
100.324750
126.785636
141.603947
148.175955
144.390464
127.371550
109.492540
79.749823
58.580637
36.336780
23.984909
14.056563
10.126829
7.473826
6.867647
6.486773
6.654859
7.169843
6.753802
6.472468
6.812811
7.273555
6.843805
6.587505
7.643700
7.672906
7.666945
7.882714
8.723736
8.954406
9.621978
10.159612
10.202527
11.560917
11.585951
12.224913
13.189912
14.414787
14.483929
15.436411
16.180873
16.231537
16.904473
17.551780
18.299818
18.521547
18.347502
18.447638
19.430518
19.819736
19.709468
19.854903
19.779801
19.893646
20.164847
20.647645
20.645857
19.954443
20.740628
21.167994
##ZVALUE=275
1.044869
1.157522
0.823736
0.900626
1.038909
0.890493
0.886917
1.170635
1.273751
1.080632
1.141429
1.230836
1.193881
1.161695
1.486540
1.195669
1.420975
1.501441
1.829863
4.580617
17.661452
54.430962
163.548589
294.018984
511.764884
669.898987
836.573839
916.382670
935.536623
864.913464
749.174953
547.999740
390.816927
209.569931
123.677850
63.364506
47.779679
55.140853
74.008703
101.272464
120.514631
142.666698
146.001577
141.404867
128.789544
102.112889
80.785751
56.831837
40.092468
23.619533
15.780926
10.124445
7.561445
6.787777
6.607771
6.869435
7.042885
7.287860
7.260442
7.486939
7.608533
8.499622
8.724928
8.000731
8.897781
9.348989
9.250641
10.291934
10.680556
11.342764
12.372732
13.208985
13.745427
14.125705
15.097857
15.607476
15.768409
16.732812
17.148852
17.529726
17.782450
18.033981
17.753839
18.153787
18.267632
19.069910
19.394755
18.809438
18.874407
19.365549
19.925833
19.071698
19.954443
20.211935
20.228624
20.396709
##ZVALUE=280
0.900626
0.801682
0.799894
0.938773
1.062751
0.888705
0.862479
0.928640
1.038909
1.137853
0.986457
1.143813
1.134872
1.297593
1.311898
1.220703
1.429915
1.514554
1.570582
1.694560
1.887679
2.422929
15.460849
53.841472
170.481801
311.600566
546.930432
742.733479
974.358916
1016.201973
1016.201973
1002.835631
877.593756
637.000799
463.347435
259.327888
155.922771
74.078441
44.896603
39.642453
51.311851
74.878931
96.562505
122.050643
135.473609
142.106414
138.448477
122.751594
104.935765
76.743960
58.181882
37.215948
25.114417
14.538765
10.573864
7.857680
7.456541
6.994605
7.374883
8.023977
8.195639
8.243918
8.483529
9.043813
9.535551
9.882450
10.223985
10.521412
11.071563
12.104511
12.427568
13.478994
13.885498
14.885664
15.239716
15.469790
16.113520
17.126799
16.977787
16.731620
17.540455
18.074512
18.385649
17.911792
18.598437
18.658638
18.980503
18.949509
18.578768
18.812418
18.678904
19.081831
18.685460
19.121766
19.158721
19.445419
##ZVALUE=285
0.841618
1.008511
0.833869
0.689626
0.904799
0.962615
0.971556
0.879765
0.960827
0.868440
0.829697
1.103878
0.896454
0.986457
1.250505
1.324415
1.269579
1.389980
1.405478
1.389980
1.405478
1.775622
1.819730
2.116561
5.919933
25.602579
101.386905
206.618905
409.681797
612.861514
813.010931
1002.290845
1016.201973
1016.201973
959.405899
748.104453
578.434467
356.434584
222.990513
104.244947
56.475997
30.945539
32.434464
50.490499
67.088604
95.683932
116.241574
131.065845
138.601661
134.236813
123.555660
101.790428
82.304478
58.217645
41.036606
23.828745
15.731454
10.835528
8.902550
8.067489
8.069873
8.435845
8.773804
8.758903
9.519458
9.907484
10.780692
10.760427
11.537671
12.198687
12.887716
13.528466
14.385581
14.863610
15.412569
15.550852
16.094446
16.893744
16.889572
17.048717
17.132759
17.685890
17.362833
18.246770
17.990470
18.488765
18.482804
18.808842
18.845797
18.887520
18.514991
18.284917
18.891692
18.520951
18.647909
18.710494
##ZVALUE=290
0.763535
0.884533
0.809431
0.870824
0.943542
1.026988
0.937581
0.901818
0.890493
1.027584
0.860691
1.034737
1.122952
1.021624
1.102686
1.040697
1.191497
1.213551
1.176596
1.213551
1.238585
1.290441
1.572967
1.540780
1.653433
1.918674
2.394915
7.589459
43.025613
112.384558
216.026902
417.768955
605.986714
831.008554
936.636925
981.428027
944.463611
795.074701
645.010471
437.202454
289.162993
146.807432
79.335570
33.690929
23.440719
31.662583
44.339895
66.247582
86.202621
110.235810
125.345588
133.505464
132.513642
119.244456
103.482604
77.013969
58.166981
37.964582
26.459694
16.021729
12.240410
9.668469
9.255409
9.127855
9.334683
10.215640
10.182858
11.267662
11.287928
11.995435
12.949705
13.733506
14.403462
14.977455
15.113950
16.029477
15.466809
16.375780
16.679764
17.359853
17.172694
17.975569
17.844439
18.271804
18.958449
18.404722
18.574595
18.690825
18.424988
18.526912
18.996596
18.433928
18.766522
18.604994
18.140674
18.151999
##ZVALUE=295
1.083612
1.041889
0.995994
1.010895
1.035929
0.866652
0.959635
1.048446
1.003742
1.100898
1.169443
1.340508
0.982881
1.211762
1.192689
1.074672
1.171827
1.147985
1.099706
1.111627
1.298785
1.187921
1.440644
1.446605
1.461506
1.769662
1.592636
1.874566
2.101660
3.411770
11.658669
50.103664
108.579993
244.615674
385.988951
598.974824
736.520886
869.740844
901.743770
824.692845
711.968541
511.519909
359.862447
190.711617
107.287765
41.615963
22.612810
19.228458
26.025772
43.026805
59.125423
84.147453
101.347566
120.880604
126.842856
125.448704
116.349459
95.927715
78.672767
55.199862
41.018724
26.556849
18.439889
12.983680
10.999441
10.933876
10.832548
11.635423
11.581779
12.470484
12.918711
13.681650
14.381409
15.039444
15.367866
16.203523
16.353726
17.150640
17.218590
17.802715
17.788410
18.382668
18.343925
18.241405
18.694997
19.164681
19.817948
19.275546
19.139647
18.534660
18.835664
18.541813
19.003749
18.739700
18.249750
18.630624
##ZVALUE=300
0.705719
0.833869
0.722408
0.685453
0.803471
0.832677
0.901818
0.718832
0.910759
0.788569
0.681877
0.824928
0.861883
0.794530
0.889897
0.936985
0.997782
1.032948
0.952482
1.059771
1.122952
1.221895
1.132488
1.054406
1.024604
1.189709
1.184940
1.362562
1.443624
1.375675
1.684427
1.976490
7.417798
26.254654
84.745884
158.910751
319.394469
474.712849
673.314929
800.043941
885.469913
874.248743
758.846998
619.629622
414.939523
272.457004
138.910413
78.461766
29.673576
16.556978
16.989708
23.618937
38.680434
53.209662
77.363849
95.424652
114.623904
121.516585
120.631456
113.792419
93.855858
78.769922
57.087541
42.096972
27.552843
20.479560
14.348626
12.553930
12.695789
12.869835
13.468862
13.721585
14.544725
15.079975
15.491843
15.898943
16.462803
16.878843
17.649531
18.012524
17.724633
18.222928
18.653870
18.974543
19.364953
19.754767
19.419789
19.459724
19.428730
18.766522
19.321442
19.033551
18.576980
18.341541
18.820763
18.435717
##ZVALUE=305
0.741482
0.748634
0.730753
0.784993
0.695586
0.709891
0.822544
0.816584
0.746846
0.682473
0.763535
0.740886
0.760555
0.885725
0.879765
0.961423
0.833869
0.889897
0.816584
0.866652
0.897646
0.956655
1.019835
0.829697
0.844598
1.118779
1.147985
1.256466
1.262426
1.358986
1.293421
1.570582
1.689792
1.628995
3.968477
14.274716
54.989457
117.624402
257.737637
395.995975
611.059666
762.752891
892.652869
922.111869
843.750834
718.925595
517.442822
367.035866
196.231604
108.283758
41.405559
20.422935
12.215972
14.992952
23.718476
35.156608
56.698918
72.253942
93.765855
106.736422
116.207004
116.697550
108.126998
96.049905
74.177980
58.926940
40.394664
30.093789
20.443797
16.817451
14.746785
14.876723
15.217662
15.285611
16.082525
16.401410
16.939640
17.901659
17.632842
18.534660
19.250512
18.706918
19.372702
19.389987
19.515753
20.407438
20.692945
20.170808
20.024776
19.904971
20.137429
20.030737
19.338727
19.439459
19.199848
18.857718
##ZVALUE=310
0.744462
0.741482
0.709891
0.819564
0.609756
0.539422
0.538826
0.707507
0.691414
0.647902
0.657439
0.749826
0.859499
0.875592
0.848770
0.953674
0.788569
0.729561
0.802875
0.777841
0.742674
0.831485
0.788569
0.920892
0.914931
0.922680
1.011491
0.968575
1.063943
1.121759
1.218915
1.257658
1.478791
1.335740
1.492500
1.644492
1.696944
6.965995
23.993850
78.015924
151.881576
306.446552
454.554558
660.261512
795.840621
895.457864
881.584883
777.966976
645.733476
439.986587
295.493007
151.219964
81.767440
29.758811
14.444590
10.810494
13.422966
21.646619
30.983686
48.979521
65.209866
85.226893
99.540949
109.823942
111.745000
104.852915
93.529820
74.598789
59.225559
41.431785
32.135844
22.986531
19.026995
17.148852
16.744733
16.826987
17.000437
17.407537
18.183589
18.431544
19.508600
19.542575
19.815564
20.326972
20.383596
20.477772
20.671487
21.067858
20.383000
20.574927
20.475984
20.068884
20.257831
20.239949
20.360947
19.466877
##ZVALUE=315
0.916719
0.827909
0.908971
0.850558
0.861883
0.779629
0.874996
0.845790
0.834465
0.853539
0.906587
0.891685
0.775456
0.776649
0.953674
0.806451
0.876784
0.948906
0.927448
0.979900
0.832677
1.050830
1.119971
0.953674
1.018643
1.030564
1.151562
1.148582
1.131892
1.241565
1.233816
1.350641
1.383424
1.352429
1.383424
1.385808
1.581907
1.775622
1.904964
3.499985
12.463927
49.434900
107.947588
235.738754
379.243493
597.066879
730.032921
859.217644
892.424583
817.213655
709.388852
509.733558
364.912748
199.680924
110.595822
41.704774
18.918514
10.289550
10.110736
14.415979
19.230843
32.146573
44.308901
63.699484
79.161525
97.308755
105.850697
109.309554
103.195906
87.447762
75.443983
58.518648
45.291781
32.392740
25.585890
20.433664
19.087791
18.781424
18.640757
19.417405
19.470453
20.372868
20.641685
20.510554
21.227598
21.363497
21.418929
21.536946
21.421909
21.467805
21.542907
21.476746
21.282434
20.253658
20.381808
20.151734
##ZVALUE=320
0.516772
0.476837
0.465512
0.375509
0.484586
0.543594
0.471473
0.464916
0.554919
0.544786
0.569820
0.551939
0.487566
0.600815
0.666976
0.364780
0.503659
0.620484
0.626445
0.529885
0.555515
0.541806
0.529885
0.672936
0.708699
0.620484
0.655651
0.660419
0.789762
0.687838
0.753999
0.782609
0.787973
0.682473
0.789762
0.964999
0.917912
1.218915
1.189709
1.297593
1.372695
1.863837
5.231500
28.226972
71.824789
181.818604
294.965506
480.231643
636.823773
808.620453
879.588723
863.824487
778.759718
595.356822
435.563922
244.567990
140.969753
62.629580
29.429793
11.729598
9.445548
10.412931
12.452602
19.726753
27.422905
43.873787
57.169795
76.966882
90.370774
102.053881
103.098750
98.241568
88.834763
72.164536
58.111548
43.123960
33.896565
26.184916
22.985935
20.485520
20.155907
20.196438
20.190477
20.742416
20.659566
21.508932
21.007657
20.903945
20.666718
21.129847
20.832419
21.086931
20.973682
20.431876
20.539761
20.180941
##ZVALUE=325
0.576973
0.652671
0.679493
0.615716
0.767708
0.630617
0.829697
0.668764
0.684857
0.621676
0.765920
0.695586
0.664592
0.716448
0.729561
0.739694
0.767708
0.759959
0.751615
0.828505
0.754595
0.765920
0.719428
0.806451
0.860691
0.945926
0.665784
0.836849
0.673532
0.792742
0.878572
0.862479
0.927448
1.153946
1.086593
0.984669
1.121759
1.110435
1.000762
1.060963
1.365542
1.399517
1.617670
1.638532
3.512502
19.883513
53.516626
136.004686
234.654546
408.776999
557.529926
734.770894
825.517774
851.237774
788.014531
620.678663
471.499562
289.674997
179.201961
82.549453
40.584803
15.049577
9.723902
9.618998
10.793805
13.497472
19.018650
30.024648
41.241646
58.147907
73.605776
88.982582
96.031427
99.002719
94.947815
82.518458
71.663857
54.722428
44.129491
32.919645
27.092695
22.954941
21.278858
20.945668
20.899773
21.387935
21.315813
21.443963
21.336675
21.667480
21.364689
21.379590
20.701885
20.970702
20.821691
20.818710
##ZVALUE=330
0.541806
0.580549
0.591874
0.499487
0.516772
0.550747
0.573993
0.593662
0.610948
0.653863
0.623465
0.704527
0.696778
0.627637
0.678897
0.721812
0.787973
0.773668
0.725985
0.759959
0.845790
0.850558
0.922680
0.718832
0.668764
0.825524
0.794530
0.735521
0.705719
0.819564
0.843406
0.853539
0.856519
0.883937
0.840425
0.921488
1.010895
1.179576
1.064539
1.089573
1.088977
1.119971
1.217723
1.307726
1.305938
1.537800
1.824498
8.618832
28.953552
91.491938
172.316432
333.691835
476.817489
670.751929
779.950023
847.639441
815.351009
688.936710
549.010634
354.861617
226.971507
109.458566
56.633949
22.479892
12.374520
9.525418
9.624958
11.198521
13.738871
20.567775
28.394461
41.108727
54.767728
72.809458
84.150434
93.508959
94.500780
89.978576
81.158876
66.368580
54.931641
41.309595
34.402609
27.695894
24.620891
22.467971
21.721721
21.160841
20.608902
20.716786
20.913482
20.985603
20.138621
20.373464
20.220876
20.219684
##ZVALUE=335
0.693798
0.628829
0.522733
0.725985
0.514984
0.493526
0.504851
0.638962
0.545979
0.591874
0.713468
0.490546
0.691414
0.732541
0.736713
0.629425
0.664592
0.763535
0.755787
0.525713
0.690818
0.785589
0.610948
0.709891
0.866652
0.771880
0.708699
0.704527
0.757575
0.772476
0.748634
0.899434
0.846982
0.987649
0.873804
0.873804
0.814795
0.959635
0.851750
1.029968
1.118779
1.131892
0.912547
1.245737
1.106858
1.197457
1.251698
1.612902
1.581907
4.057884
15.763640
64.948797
134.173632
278.585553
424.636602
627.625585
749.865770
834.347606
835.385919
736.208558
613.817573
427.949429
293.059945
153.979659
82.696676
30.752420
15.104413
9.931922
9.886622
10.437965
11.777878
15.073419
19.434690
29.488802
39.677620
55.288672
67.214966
80.935955
87.570548
89.994669
85.582733
75.721741
65.831542
53.833723
44.390559
34.458637
29.017925
24.197698
22.058487
21.134615
20.153522
19.981861
20.091534
19.648671
19.649863
19.655824
##ZVALUE=340
0.732541
0.630617
0.662804
0.750422
0.622869
0.725985
0.607967
0.562668
0.641942
0.660419
0.535846
0.660419
0.617504
0.635982
0.660419
0.608563
0.572801
0.734925
0.595450
0.828505
0.676513
0.782609
0.679493
0.803471
0.760555
0.751615
0.703931
0.713468
0.759959
0.836849
0.964999
0.845790
1.039505
0.880957
0.910759
0.918508
0.795722
0.745654
0.861883
0.785589
0.836849
0.751615
0.869632
0.989437
0.970960
1.006722
1.145601
1.235604
1.231432
1.546741
1.517534
1.963973
8.157492
26.406646
84.757805
167.787671
339.489579
479.438901
659.543872
762.099028
816.496611
780.060887
645.098686
511.005521
320.966840
203.502774
96.978545
48.455000
17.968416
11.019707
10.296702
10.618567
11.070967
12.692809
15.998483
19.538999
28.534532
38.015842
53.461790
65.444708
77.585578
83.674788
85.294843
82.721710
73.752999
64.891577
51.662922
42.492747
33.181906
27.898550
23.628473
21.178722
20.080805
19.335747
19.096732
19.014478
##ZVALUE=345
0.587702
0.581741
0.667572
0.628829
0.553727
0.765920
0.542998
0.618696
0.607967
0.642538
0.658631
0.592470
0.730753
0.580549
0.679493
0.634789
0.593662
0.613928
0.757575
0.729561
0.614524
0.690818
0.733733
0.654459
0.810623
0.739694
0.645518
0.763535
0.660419
0.794530
0.719428
0.873804
0.783801
0.668764
0.843406
0.662804
0.826716
0.810623
0.916719
0.818968
0.938773
0.947714
0.902414
0.714660
1.095533
0.941753
1.156926
1.106858
0.955462
1.118779
1.220703
1.199841
1.441836
1.653433
3.891587
14.391541
57.951808
117.512941
245.870948
378.734469
575.225949
708.295703
806.442499
804.848671
701.375008
577.609539
391.355753
258.284807
122.454762
61.981678
24.043918
13.737679
10.148883
10.366440
10.871887
11.300445
12.663603
14.475584
20.101666
26.135445
37.558675
47.314763
60.768723
69.298744
76.996684
78.985691
76.716542
71.196556
60.345531
51.443577
41.569471
32.851696
26.214719
22.396445
19.650459
18.707514
##ZVALUE=350
0.586510
0.570416
0.708699
0.529885
0.643730
0.686646
0.612736
0.579953
0.645518
0.669956
0.686646
0.489950
0.504851
0.614524
0.635982
0.572801
0.536442
0.723600
0.673532
0.554919
0.596642
0.775456
0.746846
0.722408
0.812411
0.669956
0.652671
0.759959
0.780821
0.835657
0.778437
0.677705
0.826716
0.761747
0.635982
0.681877
0.911951
0.755787
0.816584
0.830889
0.788569
0.861883
0.817776
0.741482
1.003742
0.916719
0.917912
1.029968
1.002550
1.147985
1.101494
1.127720
1.099706
1.122952
1.360774
1.446605
1.997948
8.826852
28.379560
89.442730
169.538856
327.066779
473.660827
653.122663
760.734677
812.667012
769.806504
623.839498
479.031801
294.822454
179.439783
81.123710
40.126443
15.393496
10.503531
9.911656
10.262728
10.508895
11.130571
12.370944
14.275908
19.381642
24.833679
33.936501
42.504668
54.341555
62.049627
70.103407
72.584748
71.018934
66.087842
56.457520
48.705935
39.137602
32.073855
25.786757
##ZVALUE=355
0.526905
0.653863
0.550747
0.491738
0.540614
0.557899
0.594854
0.841618
0.584722
0.540614
0.615716
0.637770
0.741482
0.469685
0.770688
0.623465
0.660419
0.778437
0.684857
0.780821
0.690818
0.712872
0.615716
0.742674
0.735521
0.615716
0.616908
0.698566
0.668764
0.798702
0.684857
0.685453
0.679493
0.750422
0.647902
0.816584
0.713468
0.710487
0.813603
0.776649
0.870824
0.912547
0.932813
0.851750
0.888705
0.897646
0.966787
0.908971
0.918508
1.050830
1.003742
1.053810
1.201630
1.130700
1.180768
1.316667
1.336932
1.663566
1.873970
3.583431
19.171834
51.005483
135.406852
235.078931
422.152877
580.692887
774.098635
869.521499
872.506499
774.973035
565.219522
406.176448
225.659609
122.592449
47.777891
23.162961
11.385679
9.812713
9.786487
10.016561
10.644794
11.097789
12.106895
13.993979
17.332435
21.677613
29.861927
36.784410
48.784614
55.965781
63.441992
65.987706
65.414906
61.331987
53.413510
46.542883
##ZVALUE=360
0.737906
0.527501
0.627637
0.639558
0.706911
0.618696
0.647902
0.569820
0.726581
0.628829
0.601411
0.667572
0.766516
0.710487
0.732541
0.615716
0.726581
0.648499
0.634789
0.627637
0.669956
0.515580
0.595450
0.575781
0.694990
0.813603
0.596642
0.709891
0.648499
0.687838
0.904799
0.850558
0.785589
0.695586
0.724792
0.948906
0.803471
0.852942
0.708699
0.813603
0.732541
0.806451
0.841618
0.846982
0.818968
0.791550
0.682473
0.992417
0.878572
0.881553
1.029968
0.885725
0.941753
1.176000
0.964999
1.063943
1.046658
1.260638
1.305938
1.558661
1.667738
2.454519
6.782413
30.936003
73.056817
177.142620
291.740894
484.066010
662.803650
860.661864
942.927599
920.535922
805.675983
562.934875
368.410945
171.063542
85.842609
30.784607
14.675856
9.546876
8.892417
9.329915
9.193420
9.764433
9.960532
10.739565
11.995435
14.893413
17.861724
24.291873
31.195879
40.774941
47.629476
54.884553
58.404803
60.047507
##ZVALUE=365
0.563860
0.536442
0.625849
0.568628
0.629425
0.524521
0.554919
0.775456
0.831485
0.576973
0.745654
0.668764
0.645518
0.603795
0.590682
0.629425
0.505447
0.604987
0.625849
0.773668
0.622869
0.593662
0.629425
0.622869
0.687838
0.717640
0.613928
0.764728
0.709891
0.598431
0.767708
0.705719
0.639558
0.709891
0.704527
0.648499
0.612736
0.730753
0.839829
0.833869
0.741482
0.881553
0.758767
0.817776
0.986457
0.824928
0.853539
0.842810
0.984669
0.921488
0.894666
0.918508
0.859499
0.829697
0.942945
0.955462
1.062751
1.252890
1.108646
1.236796
1.352429
1.383424
1.336932
1.662970
3.039837
17.176867
45.381784
118.785501
216.229558
392.219424
535.050631
712.503791
803.869963
836.257935
775.312781
623.414516
458.683968
248.392820
137.362480
49.456954
20.505786
9.227991
8.386970
8.289814
8.424520
8.813739
8.829832
9.172559
9.655952
10.362864
12.188554
16.080737
20.223856
27.619600
34.020543
42.878985
##ZVALUE=370
0.492930
0.618696
0.675917
0.606775
0.571609
0.529885
0.714660
0.462532
0.565648
0.631809
0.576973
0.625849
0.576973
0.609756
0.622869
0.716448
0.718832
0.670552
0.584722
0.575781
0.640750
0.630617
0.679493
0.681877
0.642538
0.782609
0.585914
0.677705
0.490546
0.612736
0.556707
0.553727
0.658631
0.826716
0.495911
0.711679
0.639558
0.662804
0.493526
0.752807
0.651479
0.690818
0.704527
0.659823
0.797510
0.816584
0.855923
0.721812
0.906587
0.804663
0.657439
0.908971
0.779629
0.816584
0.934601
0.771880
0.929832
0.911951
1.016855
0.837445
1.041889
1.059771
1.253486
1.285672
1.260638
1.547933
1.954436
8.779764
28.428435
92.032552
171.060562
318.259597
455.045700
627.709627
712.893009
740.510821
691.388845
563.742518
430.125594
252.206922
148.181915
61.948895
30.112863
12.227893
8.048415
7.438660
7.538795
7.698536
8.129478
8.023977
8.301735
8.622408
9.625554
11.486411
13.992786
18.302798
##ZVALUE=375
0.650883
0.638962
0.767708
0.599623
0.619888
0.742674
0.669956
0.741482
0.662804
0.631809
0.700951
0.778437
0.823736
0.717640
0.590682
0.681877
0.739694
0.802875
0.788569
0.892878
0.732541
0.872612
0.710487
0.785589
0.850558
0.809431
0.771880
0.762939
0.709891
0.753999
0.701547
0.720620
0.856519
0.638962
0.955462
0.747442
0.830889
0.936985
0.870824
0.902414
0.909567
0.712872
0.885725
0.864863
0.890493
1.005530
0.779629
0.900626
0.825524
0.955462
0.773668
0.826716
0.771880
0.953674
0.893474
0.876784
0.818968
0.991821
0.892878
1.162887
1.087785
1.111627
1.163483
1.254678
1.076460
1.460910
1.415610
1.507998
1.848936
4.696846
15.917420
56.171417
119.263530
258.867741
395.300984
575.555563
676.765442
737.592578
711.113811
587.653518
458.979011
285.120606
182.947516
93.742609
50.248504
18.331409
9.541512
7.194877
7.153749
7.033944
7.335544
7.468462
7.491708
7.883906
7.956624
8.696914
##ZVALUE=380
0.565648
0.500679
0.564456
0.417829
0.539422
0.509620
0.468493
0.531673
0.453591
0.524521
0.490546
0.540614
0.527501
0.603795
0.507832
0.623465
0.555515
0.618696
0.556707
0.584722
0.645518
0.593662
0.682473
0.662804
0.552535
0.744462
0.536442
0.691414
0.762939
0.594854
0.648499
0.633597
0.638962
0.594854
0.648499
0.575781
0.586510
0.639558
0.551939
0.564456
0.561476
0.591874
0.650883
0.677705
0.947714
0.778437
0.840425
0.804663
0.817776
0.815988
0.825524
0.739694
0.707507
0.727773
0.855923
0.976920
0.714660
0.788569
0.780821
0.871420
0.858903
0.808835
0.768900
1.070499
0.885725
1.017451
0.998974
1.152754
1.272559
1.396537
1.626611
2.418756
7.905960
38.341880
90.728998
213.769674
342.669487
525.291562
658.892989
762.862563
757.196546
648.853779
529.934764
368.696451
247.315764
123.720765
65.126419
24.785995
11.820793
7.064939
6.357431
6.281734
6.307960
6.774664
6.799698
7.115602
##ZVALUE=385
0.613928
0.519753
0.555515
0.532866
0.612736
0.608563
0.512600
0.510812
0.512600
0.555515
0.471473
0.569820
0.510812
0.708699
0.588894
0.555515
0.516772
0.698566
0.555515
0.694990
0.690818
0.759959
0.401735
0.644922
0.588894
0.564456
0.587702
0.648499
0.664592
0.615716
0.678897
0.654459
0.813603
0.636578
0.619888
0.536442
0.734925
0.795722
0.597835
0.778437
0.635982
0.656843
0.607967
0.777841
0.627637
0.642538
0.680685
0.648499
0.830889
0.638962
0.705719
0.817776
0.848770
0.798702
0.780821
0.664592
0.723600
0.791550
0.763535
0.683665
0.838637
0.891685
0.852942
0.893474
0.827909
0.959635
1.114607
1.167655
1.218915
1.277924
1.259446
1.441836
1.527667
1.823902
4.143715
20.659566
53.809881
140.550733
251.854658
452.667475
602.108836
751.730800
789.769888
746.805668
652.439594
470.093489
329.054594
177.435875
99.764466
42.682886
18.284917
7.426739
5.949736
6.138682
6.064773
6.173849
##ZVALUE=390
0.577569
0.553727
0.408888
0.369549
0.452995
0.522733
0.342727
0.550747
0.498891
0.650883
0.622869
0.470877
0.606775
0.398755
0.564456
0.602603
0.511408
0.605583
0.575781
0.533462
0.663996
0.464916
0.580549
0.545979
0.541806
0.439882
0.405908
0.616908
0.568628
0.454783
0.629425
0.566840
0.576973
0.500679
0.515580
0.696778
0.615716
0.469685
0.604987
0.650883
0.543594
0.527501
0.573993
0.780821
0.723600
0.649691
0.626445
0.638962
0.620484
0.633597
0.621676
0.535846
0.622869
0.709891
0.640750
0.640750
0.798702
0.723600
0.810623
0.831485
0.800490
0.727773
0.669956
0.902414
0.911951
0.957847
0.799894
1.023412
1.024604
1.150966
1.018643
1.029968
1.273751
1.462698
1.429915
1.504421
2.216697
11.320710
33.361912
100.214481
190.681815
360.999703
496.961474
652.901530
747.810006
786.921978
737.255812
592.089891
451.871753
270.988941
156.015754
62.929988
28.948784
9.766817
6.193519
5.528927
##ZVALUE=395
0.537634
0.615716
0.480413
0.601411
0.570416
0.557899
0.611544
0.477433
0.567436
0.532866
0.518560
0.480413
0.388622
0.571609
0.656843
0.576973
0.672936
0.657439
0.626445
0.475645
0.609756
0.624657
0.605583
0.578761
0.533462
0.628829
0.670552
0.568628
0.642538
0.512600
0.630617
0.650883
0.684857
0.600815
0.556707
0.645518
0.678897
0.597835
0.607967
0.659823
0.677705
0.580549
0.477433
0.612736
0.681877
0.717640
0.707507
0.541806
0.673532
0.502467
0.764728
0.724792
0.636578
0.775456
0.809431
0.864863
0.814795
0.729561
0.650883
0.817776
0.849962
0.665784
0.701547
0.674725
0.783801
0.705719
0.880957
0.885725
0.893474
1.068711
1.065731
1.006722
0.988841
1.148582
1.199841
1.089573
1.047850
1.163483
1.374483
5.740523
20.275712
69.589615
134.970546
265.531540
388.469696
562.865734
675.666928
761.020780
759.727955
667.345524
539.652705
342.869759
219.181776
103.349686
48.983693
16.041994
##ZVALUE=400
0.466704
0.609756
0.410676
0.344515
0.653863
0.563860
0.541806
0.576973
0.429749
0.479817
0.523925
0.430942
0.457764
0.570416
0.480413
0.617504
0.631809
0.380874
0.636578
0.650883
0.480413
0.474453
0.504851
0.665784
0.670552
0.578761
0.557899
0.512600
0.521541
0.690818
0.541806
0.504851
0.590682
0.604987
0.687838
0.478625
0.594854
0.567436
0.595450
0.700951
0.675917
0.687838
0.625849
0.559688
0.755787
0.717640
0.631809
0.690818
0.548959
0.568628
0.726581
0.807643
0.788569
0.592470
0.579953
0.590682
0.727773
0.774860
0.607967
0.728965
0.619888
0.782609
0.886917
0.626445
0.841618
0.927448
0.879765
0.903606
0.972748
1.119971
1.043677
1.215935
0.992417
0.983477
0.981688
1.039505
1.198649
1.240969
1.076460
1.393557
1.487732
3.269911
11.562705
40.633678
86.869597
193.798542
309.484601
476.104617
591.932535
701.052547
731.473565
667.413473
569.658875
392.889977
268.330574
140.506625
##END
