##TITLE=QP00602
##FORMAT=SPECTACLE-ASCII V-1.2
##DATA TYPE=ULTRAVIOLET SPECTRUM
##SECOND TYPE=ULTRAVIOLET SPECTRUM
##DATE=12/11/17
##TIME=14:49:26
##SPECTROMETER/DATA SYSTEM=SPECTACLE
##XUNITS=NM EM
##YUNITS=ENERGY
##YFACTOR=1
##FIRSTX=220
##LASTX=410
##NPOINTS=96
##3DDATA=Equidistant
##ZUNITS=NM EX
##FIRSTZ=210
##LASTZ=400
##ZPOINTS=39
##XYDATA=(Y..Y)
##ZVALUE=210
2.138615
2.068877
2.482533
2.190471
2.342463
2.910495
2.734661
2.518892
2.636909
2.804995
2.747774
2.119541
2.575517
2.419949
2.556443
2.597570
2.268553
2.575517
2.875924
3.189445
3.038645
3.798604
3.224611
3.530979
3.409982
3.966689
3.650784
4.154444
4.139543
4.793406
4.506707
5.194545
4.600883
4.908442
4.559755
4.738569
5.259514
5.675554
5.667806
5.575418
6.085634
5.607605
5.372763
5.953908
6.817579
6.591678
6.106496
6.866455
6.902814
6.649494
6.196499
7.028580
6.960630
7.179976
7.693768
7.298589
7.923841
8.388758
7.541776
8.653998
7.888675
7.736683
8.552670
8.175969
8.255839
8.511543
8.455515
9.808540
11.433959
12.841821
15.906692
18.989444
22.834539
22.971630
26.068687
27.088523
27.498603
29.000640
28.225780
26.956797
24.941564
22.009611
20.266771
19.427538
16.214848
12.253523
9.910464
9.742975
7.998943
8.312464
7.334948
8.160472
7.764697
7.791519
8.888841
8.082986
##ZVALUE=215
8.297563
6.412864
5.771518
5.866885
5.747676
5.139709
5.309582
5.660653
5.585551
5.209446
5.248785
5.020499
4.180670
3.479719
2.805591
2.669692
2.787709
2.885461
3.012419
3.373623
3.116727
3.417730
3.609657
3.694892
4.019737
3.615618
4.445910
4.214644
3.633499
5.058646
4.314780
5.065799
5.920529
4.738569
5.783439
5.366802
5.219579
5.149841
6.086826
5.014539
5.619526
5.533695
5.463958
5.636811
6.589890
6.199479
6.320477
6.383657
6.357431
6.686449
7.005930
7.090569
6.429553
6.211996
7.900000
6.747842
7.128716
6.453991
6.948709
6.492734
8.164644
7.644892
7.058978
7.386804
7.799864
8.026958
7.866621
9.305477
10.194778
11.546612
14.160872
17.087460
16.831756
20.807981
22.242665
23.421645
24.923682
22.852421
23.630857
23.770928
22.002459
21.175742
18.383861
16.571879
13.524890
12.258887
10.185838
9.814501
8.252859
8.187890
7.562637
7.627606
8.195639
7.508993
8.392930
8.664727
##ZVALUE=220
26.317835
26.798844
26.612878
26.756525
23.311973
18.840432
16.101599
13.312697
11.716485
11.276603
12.692809
13.463497
11.555552
12.134910
9.646416
7.827878
5.568862
4.600883
4.013777
3.224611
4.031658
3.782511
4.171729
3.954768
4.333854
4.861951
5.090833
5.280972
5.017519
4.904866
5.682707
5.622506
5.262494
5.892515
5.657673
5.829930
6.350875
6.078482
5.522966
6.183982
6.792545
6.714463
6.284714
7.237792
6.835461
6.516576
6.549954
7.584691
7.247925
7.520914
7.051826
7.622838
7.502437
8.767843
7.142425
8.075833
8.234978
7.931590
8.622408
8.555651
7.018447
9.004474
8.382797
9.161830
8.124709
8.480549
9.538531
10.288954
11.600852
12.150407
15.266538
17.443895
19.867420
21.226406
21.034479
24.126768
26.391745
24.031997
23.820996
23.635626
20.842552
21.100640
19.516945
18.181801
16.136765
12.224913
11.245608
9.874701
10.579824
9.216666
9.980798
9.756684
9.380579
9.098649
9.889603
9.728670
##ZVALUE=225
45.593977
49.968958
62.826872
75.907707
84.553957
81.856847
74.235797
56.289434
43.942928
31.865835
27.273893
24.334788
26.217699
28.407574
26.453733
25.024414
21.326542
17.780662
13.098717
9.949803
6.600618
5.176663
3.779531
4.354715
4.392862
4.732609
5.214810
5.580783
5.465746
5.938411
5.172491
5.459785
5.535483
4.993677
6.091595
6.404519
5.980730
6.519556
6.500483
7.639527
7.353425
7.185936
6.486773
8.891821
7.495880
7.639527
7.307529
7.534623
8.032918
7.498860
7.795691
8.816719
7.557869
7.678866
8.047819
8.578897
9.220839
8.042455
9.486675
8.379817
8.596778
9.870529
10.016561
9.703636
9.628534
9.774566
10.704994
11.987686
13.746619
14.596581
15.992522
17.161965
21.337867
22.617579
23.705959
23.092628
23.705959
25.476813
22.235513
18.698573
19.342899
19.063950
18.401742
15.827417
15.615821
14.077425
14.676452
13.120770
13.168454
13.089776
12.496710
12.536645
12.091994
13.457537
13.466477
11.003613
##ZVALUE=230
40.287971
42.248964
66.219568
116.094947
147.374868
179.076791
186.626911
192.561746
168.326497
142.522454
97.927451
71.123838
48.212409
43.761730
45.669675
47.390461
50.587654
49.548745
43.673515
38.442612
30.686855
19.059777
12.682676
8.335710
6.570816
5.439520
5.567670
4.754663
5.583763
5.327463
4.946589
6.146431
6.325841
5.823970
6.579757
6.320477
6.680489
5.980730
7.660985
7.496476
7.375479
6.972551
6.882548
7.304549
7.516742
6.958842
7.607937
7.761717
7.889867
7.971525
8.337498
7.176995
8.888841
9.343624
9.127855
9.596944
9.859800
9.816885
9.783506
10.403991
9.987950
11.053681
11.653900
12.161732
12.711883
13.066530
13.683438
13.778806
16.398430
16.702414
19.421577
21.196604
23.006797
27.641654
26.407838
27.454495
26.640892
26.456714
26.185513
23.390651
23.528934
23.411512
23.288727
19.728541
20.245910
19.974709
19.263625
19.276738
18.392801
19.027591
19.123554
18.574595
18.600821
17.954707
19.085407
18.260479
##ZVALUE=235
11.864901
14.256835
34.656525
66.624880
134.899616
194.194913
283.511877
342.394710
389.115810
389.061570
340.567827
277.860761
212.271810
137.192607
98.613501
79.738498
71.955919
78.601837
85.203648
86.465478
78.479648
69.636703
53.609610
37.607551
25.458932
16.684532
11.167526
8.143783
7.220507
7.099509
7.021427
7.244945
7.225871
6.226897
7.485747
7.026792
8.103848
7.694960
7.921457
8.042455
8.114576
7.030964
7.462502
7.192492
8.126497
8.900762
7.731915
8.424520
9.047985
8.161664
9.182692
8.838773
8.322597
9.055734
9.908676
10.139942
9.969473
11.328459
11.037588
11.063814
12.183785
13.327599
12.783408
13.670921
13.989806
14.532804
16.001463
16.682744
19.426942
20.027757
22.737980
24.333000
27.084947
30.831695
31.118989
31.666756
30.419827
32.092929
31.041503
29.626489
30.469894
28.959513
27.041435
28.256774
28.454661
28.166771
27.800798
27.794838
27.036667
27.104616
26.600957
26.142597
25.396943
26.714802
25.635958
25.480986
##ZVALUE=240
1.503825
1.674891
4.810691
16.340613
36.585927
82.341433
141.352415
244.078636
335.060954
442.190766
483.771563
493.629575
438.814759
377.825499
276.150703
195.693970
126.378536
99.679828
87.323785
94.999671
104.010701
112.734437
108.366609
98.593831
86.992979
66.145658
48.173666
32.882690
20.922422
13.869405
10.587573
8.899570
8.462667
8.695722
6.994605
7.777810
7.947683
6.942749
7.692575
8.726716
8.097887
7.789731
6.592870
6.787777
7.333755
7.233620
7.121563
7.371902
7.916689
8.249879
8.502603
8.379817
7.882714
8.540750
8.930564
9.233952
9.090900
10.708570
11.095405
10.861754
12.287498
12.241602
13.344884
12.840629
16.038418
14.687777
17.288923
18.450618
16.813874
21.124482
23.450851
25.247931
27.630925
30.487776
30.370951
31.128526
33.040643
32.309890
32.421947
32.802820
33.386946
33.393502
33.058524
32.592416
30.448437
31.401515
30.051470
33.706427
32.151937
31.287670
30.020475
31.374693
30.226707
30.054450
28.473735
29.130578
##ZVALUE=245
1.336932
1.405478
1.421571
1.730919
4.327893
11.423826
37.357807
75.306892
171.352625
261.585712
405.374765
509.987473
579.010844
610.668659
585.822463
481.292605
396.263003
264.356732
192.412734
120.636821
98.478794
95.910430
109.696984
124.684572
125.645995
124.413967
110.519528
92.576742
69.784522
54.569840
39.741993
24.490952
16.111732
11.590719
9.165406
9.028912
7.924438
8.001924
7.064939
8.543730
7.734895
7.481575
7.414818
7.352829
7.526875
6.560683
6.500483
7.132888
7.880926
7.198453
6.978512
7.685423
7.069707
8.207560
7.648468
8.074641
7.654428
8.939505
9.698868
9.422898
10.103583
10.511875
10.626912
12.646914
12.760758
12.893677
15.519857
17.871857
19.292831
21.132827
22.711754
24.154782
25.583506
28.264523
29.210448
31.787753
31.494498
30.403733
31.287670
32.360554
30.778646
30.913949
32.036901
30.928850
30.911565
31.477809
32.354593
31.457543
31.506419
31.838417
33.054948
30.419827
30.389428
30.044913
31.462908
31.707883
##ZVALUE=250
1.365542
1.346469
1.477599
1.318455
1.155734
1.550913
2.207756
7.645488
45.263767
96.299648
219.477415
352.685452
486.656427
662.811995
773.126483
827.817917
798.120499
686.646700
561.083555
387.623906
262.261629
173.831582
106.886625
94.648004
103.886724
116.585493
130.750537
134.571791
130.610466
119.544864
103.347898
76.764822
58.279634
36.991835
24.338961
14.790893
12.006760
8.724928
8.652806
8.059740
7.471442
7.012486
7.289648
7.091761
6.872416
7.925630
7.178783
5.857944
6.869435
6.292462
7.162690
7.323623
7.144809
7.239580
7.992983
7.393956
8.305907
7.846951
7.893443
9.850860
9.091496
10.239482
10.208488
11.599660
12.113452
11.876822
12.260675
14.921427
14.530420
17.570853
18.859506
21.307468
23.375750
24.189949
26.238561
28.057694
27.818680
30.185580
28.515458
32.030940
29.633641
29.726624
29.791594
28.842688
29.560924
29.502511
28.477907
29.935837
27.956963
29.915571
28.398633
29.798746
30.617714
30.141473
29.776692
29.993653
##ZVALUE=255
1.153946
1.197457
1.245737
1.531839
1.297593
1.491904
1.386404
1.305938
1.947880
3.587604
19.289851
56.923628
133.950710
298.692584
452.696681
696.569681
836.556554
958.576798
983.124971
884.688497
749.879479
583.130717
357.554555
232.397914
126.715899
93.068480
85.786581
99.282861
122.443438
131.849647
140.540004
137.943625
127.286911
106.161833
80.868602
54.485798
39.616823
21.090508
14.872551
9.503961
7.878542
6.942749
6.261468
6.579757
6.091595
6.717443
6.865859
6.100535
6.850958
7.362962
6.029606
6.103516
7.210970
7.095933
6.552935
7.068515
7.176995
7.631779
7.840991
7.803440
8.034706
8.750558
9.007454
9.369850
10.337830
10.777712
11.876822
12.868643
13.170838
15.993714
16.238689
17.849803
19.282699
22.080541
22.431612
23.908615
24.581552
24.577975
24.916530
27.335882
25.614500
25.775433
26.113987
26.703477
27.043819
27.313828
25.801659
28.228760
26.857853
26.831627
26.478767
27.633905
26.014447
28.036833
28.523803
27.689934
##ZVALUE=260
1.260638
1.114607
1.154542
1.511574
1.363754
1.313686
1.300573
1.155734
1.463890
1.487732
1.674891
2.441406
9.533763
36.407709
79.633594
184.702873
293.687582
479.582548
629.431605
818.197727
912.835598
916.105509
811.810493
673.540831
454.587936
310.858488
177.542567
113.722682
76.913834
78.096986
93.962550
118.656754
136.621594
146.632791
142.256618
125.836730
108.661652
79.182982
59.636831
36.922693
24.841428
12.733936
9.159446
6.787777
6.382465
6.264448
5.636811
6.330609
5.919933
6.116629
5.877614
6.120801
6.195903
6.340742
6.394982
6.371737
6.785989
6.737709
6.648898
6.982684
7.195473
7.837415
7.701516
8.926988
8.845925
9.850860
10.618567
11.711717
11.679530
12.831688
12.910962
15.667677
16.658902
18.749833
17.963648
20.071864
19.579530
20.009875
20.568967
21.810532
21.563768
23.082495
22.123456
22.756457
22.862554
24.224520
23.535490
25.151968
25.023818
24.495721
24.795532
25.156736
25.035739
26.020408
25.271773
26.529431
##ZVALUE=265
0.948906
0.916719
1.088977
0.958443
1.206994
1.057982
1.028776
1.196861
1.146793
1.243949
1.245737
1.494884
1.624823
2.022982
4.121661
20.031929
48.752427
123.346448
223.427415
418.065786
595.201850
763.894916
927.608609
967.316031
887.176991
766.365528
569.430590
401.192904
223.561525
139.951706
86.447597
66.619515
75.544715
100.716949
122.334957
140.969753
148.072839
142.679811
127.584934
102.622509
79.926848
53.906441
37.442446
20.530820
13.799667
8.099675
6.478429
6.147623
5.601645
5.724430
6.137490
5.837679
6.559491
6.524920
6.306767
6.686449
6.850958
6.866455
6.765723
7.369518
7.280707
7.524490
8.374453
8.428693
8.853674
9.888411
9.583831
10.597706
11.760592
12.226701
13.312697
14.472604
16.002655
15.835762
16.371608
18.311739
18.778443
18.974543
19.521713
19.655824
19.626617
21.797419
21.032691
21.774769
21.236539
22.669435
22.727847
22.630692
22.848845
23.554564
24.074912
23.306608
23.916960
23.568869
24.060607
24.198890
##ZVALUE=270
0.968575
0.889897
0.940561
1.045465
0.943542
1.008511
1.194477
1.048446
1.114607
1.276731
1.231432
1.390576
1.549721
1.428723
1.564622
1.445413
1.894832
8.033514
25.630593
88.529587
175.686479
314.267874
560.245514
749.984980
959.364772
1016.199589
1016.199589
922.796726
721.139908
549.999475
386.520624
204.614997
117.604733
62.083602
58.102608
78.570843
100.162625
125.130415
140.454769
148.141980
145.470500
127.605796
107.438564
79.030991
57.918429
34.805536
23.256540
14.426708
9.729862
7.383823
6.549954
6.169677
6.688833
6.642938
6.921887
7.057786
6.612539
7.347465
7.282495
7.542968
7.961988
7.776618
8.236766
8.671880
8.985996
9.857416
9.611845
10.799766
11.606812
12.641549
12.341738
14.869571
14.943480
16.390681
16.991496
18.112659
18.401742
18.732548
18.401742
18.726587
18.951893
18.994808
19.833446
20.250678
21.583438
20.719767
20.337701
20.990968
21.115541
21.936893
21.668673
21.785498
22.148490
22.563934
22.341609
22.689700
##ZVALUE=275
0.920892
0.839829
0.857711
0.965595
0.864863
0.936985
0.999570
1.018643
1.077652
0.978708
1.072884
1.130700
1.237988
1.241565
1.183748
1.385808
1.533628
1.433492
2.095699
4.216433
15.191436
44.211745
136.627555
258.379579
496.160984
687.160492
917.200446
1016.201973
1016.201973
1016.201973
923.983455
678.267479
480.310917
251.657963
142.836571
67.433715
47.584772
55.994987
74.494481
100.155473
120.916963
140.190721
146.556497
138.880610
125.525594
102.368593
80.689788
55.750608
40.261745
23.184419
15.514493
9.524822
8.137822
6.891489
6.902814
6.462932
7.381439
6.986856
7.555485
7.959604
8.718967
8.597970
8.827448
8.966923
9.106994
10.010600
10.726452
10.967851
11.949539
12.626648
13.192892
14.277697
14.934540
16.093850
16.599894
17.121434
17.819405
18.226504
18.481612
19.104481
19.056797
19.377470
19.434690
19.152761
20.016432
20.436645
19.727945
20.674467
20.578504
20.182729
21.091700
20.735860
21.461844
20.416975
21.010637
21.379590
##ZVALUE=280
1.176596
0.901818
0.890493
1.027584
1.060963
0.922680
0.907779
0.993609
0.779629
0.919700
1.132488
1.109838
1.056790
1.122952
1.207590
1.207590
1.305938
1.463890
1.542568
1.683831
1.902580
2.319813
9.689927
32.022595
103.724599
197.759867
379.145741
567.625761
844.246745
1010.316610
1016.276479
1016.276479
1016.276479
783.499479
574.631691
326.144695
193.223953
86.084604
48.034787
39.307475
50.850511
75.322986
96.983910
120.768547
135.294795
142.572522
137.108564
121.480823
103.926659
77.200532
57.060719
35.520792
24.906993
14.934540
11.065602
8.105636
8.153915
7.759929
7.423759
8.222461
8.170605
8.652806
9.089708
9.704828
9.633899
10.303855
11.017919
11.304617
11.883974
12.983680
13.259649
14.405847
15.342832
16.509891
16.339421
16.980767
17.256737
18.160939
18.652678
18.019676
19.232631
19.360781
18.522739
19.816756
19.166470
19.932985
20.040870
20.326972
19.791722
19.746423
20.129681
20.443797
20.883679
20.046830
20.048618
21.137595
##ZVALUE=285
0.905991
0.837445
0.866652
0.850558
0.898838
1.029968
0.971556
1.028776
1.018643
0.996590
1.074672
1.073480
1.247525
1.157522
0.896454
1.163483
1.018643
1.352429
1.423955
1.453757
1.539588
1.646876
1.711845
2.110600
4.865527
17.408729
59.223771
125.472546
281.037688
441.689491
628.774762
900.785923
1016.293764
1016.293764
1016.293764
974.481702
766.765475
473.365784
292.811990
133.751631
67.238808
34.136772
33.489466
49.308538
68.980455
94.474554
114.869475
130.906701
136.726499
133.948922
124.501586
102.042556
82.059503
56.880713
40.801764
24.033785
16.829967
11.358857
9.118915
8.551478
8.501410
8.740425
9.432435
9.651780
10.276437
10.490417
10.635853
11.505485
12.487769
13.172626
14.080405
14.513731
15.214682
16.338825
16.615987
16.895533
17.575622
18.338561
18.077493
18.372536
18.610954
19.510984
18.737912
19.090772
19.064546
19.868612
19.493699
19.974709
19.555688
20.305514
20.588636
19.636750
20.053983
20.132661
20.400882
20.846725
##ZVALUE=290
0.835657
0.773668
0.711679
0.820756
0.866652
0.880957
1.015663
0.969768
0.808835
0.823736
1.079440
1.027584
0.928640
0.982881
0.800490
1.060963
1.165867
0.848770
0.912547
1.117587
1.046658
1.176000
1.434684
1.546741
1.595616
1.904964
2.494454
7.160902
33.984780
78.378916
188.378692
329.846740
525.400639
819.607973
1004.519463
1016.204953
1016.204953
1016.204953
956.490040
658.658743
434.940457
217.378736
110.363960
39.151907
25.318861
31.932592
44.237971
67.241788
85.808635
109.450817
124.563575
133.230686
131.073594
118.893981
101.154447
76.853633
58.471560
38.129687
26.909709
17.221570
12.789965
10.012984
9.907484
9.846687
10.113716
10.587573
11.357665
12.371540
12.178421
13.689995
14.298558
14.505982
15.629530
16.554594
16.733408
17.387867
17.906427
18.001795
17.736554
18.373728
19.199848
19.135475
18.898845
19.810796
19.917488
19.765496
20.342469
19.868612
19.757748
20.213723
19.637942
20.254850
20.297766
20.069480
19.617677
19.743443
##ZVALUE=295
0.772476
0.761747
0.749826
0.729561
0.827909
0.874996
0.871420
0.966787
0.796914
0.799894
0.900626
0.927448
0.778437
0.790954
0.916719
0.991821
0.988841
1.166463
0.917912
1.125932
0.929832
1.186728
1.188517
1.316667
1.421571
1.415610
1.623631
1.518726
1.830459
3.150702
10.828972
48.741698
112.108588
268.331766
443.765521
724.811554
920.469761
1016.205549
1016.205549
1016.205549
1016.205549
805.879831
578.371882
316.484571
175.256729
62.037706
29.371977
20.315647
26.907921
44.803619
59.504509
83.612800
101.402998
120.259523
128.245950
124.412775
116.022825
97.846985
77.984929
55.129528
41.116476
26.724935
19.968748
13.731718
12.116432
11.354685
11.016726
11.584759
12.124777
13.251901
13.822913
14.708638
15.497804
16.318560
16.649961
17.415881
18.375516
18.333793
18.660426
18.805861
19.207597
19.134879
19.473433
19.883513
19.620657
20.443797
20.478964
19.476414
20.504594
19.881725
19.829869
20.128489
20.036697
19.225478
19.950867
19.400716
##ZVALUE=300
0.794530
0.788569
0.721812
0.804663
0.989437
0.878572
0.714660
0.773668
0.824928
0.795722
0.861883
0.676513
0.773668
0.764728
0.941753
0.863671
0.820756
1.027584
0.827909
0.985861
1.164675
0.856519
1.109838
1.091957
1.009703
1.170635
1.330972
1.301765
1.673698
1.557469
1.732707
2.074838
5.304813
31.377673
79.024434
205.988884
359.445810
626.276731
844.599605
1016.201973
1016.201973
1016.201973
1016.201973
863.990784
669.028759
404.322743
251.472592
116.057992
56.446791
20.389557
16.803741
25.198460
35.836697
56.224465
73.818564
97.893476
112.827420
123.218894
120.606422
111.072659
99.533796
77.190995
59.095621
40.449500
29.514432
19.579530
15.797615
13.812780
13.561845
13.440847
14.055967
15.238523
15.756488
16.385913
16.973615
17.654896
17.600656
18.253922
18.665791
19.270778
19.604564
19.740462
19.748807
20.247698
20.353794
20.928979
20.703673
20.845532
21.043420
20.172596
20.540953
20.285845
20.192862
19.963980
20.146966
19.471645
##ZVALUE=305
0.713468
0.655651
0.880957
0.824928
0.771880
0.851750
0.759959
0.586510
0.837445
0.841618
0.760555
0.793934
0.828505
0.995994
0.885725
1.011491
0.946522
0.866652
0.890493
0.952482
0.990629
0.922680
0.949502
1.040697
1.070499
1.152754
1.054406
1.105666
1.228452
1.178980
1.464486
1.487732
1.778603
2.071857
3.071427
19.042492
54.733753
153.224468
280.859470
517.902970
720.958710
970.363617
1016.206741
1016.206741
1016.206741
853.436589
673.681498
441.669822
284.419656
137.603879
72.816610
26.193857
14.331937
16.300678
23.098588
37.824512
53.676963
74.485540
91.466904
107.831955
117.121935
114.735961
107.795596
92.715621
77.268481
55.308938
42.441487
28.691888
22.325516
17.075539
15.840530
16.067624
16.147494
16.986728
16.790628
17.918944
18.215775
18.904805
19.270778
20.179749
20.048618
19.966960
20.679832
21.107793
20.888448
21.556616
21.592975
21.841526
21.179914
21.485686
20.921826
21.442771
20.505786
20.648837
20.672679
20.093918
##ZVALUE=310
0.693798
0.619888
0.732541
0.600815
0.754595
0.652671
0.682473
0.678897
0.631809
0.688434
0.788569
0.682473
0.619888
0.559688
0.806451
0.737906
0.622869
0.694990
0.725985
0.950694
1.057982
0.684857
0.835657
0.980496
0.885725
1.080632
1.016855
1.205802
0.964999
1.097918
1.219511
1.276731
1.308918
1.419783
1.543760
1.738667
2.033710
7.865429
28.156638
97.810626
194.604993
402.750969
620.131493
916.520953
1016.201973
1016.201973
1016.201973
1009.813547
835.251808
558.384657
369.218588
184.823871
100.187659
37.567616
16.853809
11.130571
14.575720
22.158623
31.608939
48.378706
63.987970
85.762739
97.675920
109.933615
112.058520
104.500651
93.612671
75.744987
60.440898
42.952895
33.292770
24.896860
20.789504
18.444657
18.058419
17.735958
17.783642
19.025803
19.631982
19.865632
20.483732
21.301508
21.027923
20.988584
21.681786
21.481514
22.636652
22.352934
22.176504
21.798611
21.782517
21.542907
21.006465
21.237731
21.153688
20.895600
##ZVALUE=315
0.642538
0.753999
0.602603
0.639558
0.693798
0.635982
0.684857
0.682473
0.601411
0.587702
0.674725
0.656843
0.780821
0.624657
0.571609
0.510812
0.723600
0.502467
0.683665
0.758767
0.839829
0.840425
0.846982
1.022816
0.831485
0.787973
0.804663
0.826716
1.088977
1.213551
1.123548
0.945926
0.931621
1.333952
1.103878
1.481771
1.531839
1.562834
1.738667
4.000664
15.238523
66.810846
148.919821
333.011746
527.765751
815.848708
994.772911
1016.196609
1016.196609
1016.196609
910.364985
651.338696
457.524657
244.971514
135.635734
51.217675
23.216605
10.887980
10.849833
14.510751
20.016432
32.141805
44.474602
62.877536
79.122782
96.584558
106.122494
106.691718
102.653503
88.269711
74.758530
58.788657
46.189427
32.614470
26.595592
21.435618
20.027757
19.328594
20.012856
20.282865
20.427704
20.762682
20.942688
21.550655
21.431446
22.359490
22.232533
22.239685
22.154450
21.621585
21.731853
21.862984
21.474957
21.654963
20.578504
21.379590
##ZVALUE=320
0.639558
0.601411
0.528693
0.543594
0.721812
0.715852
0.778437
0.673532
0.749826
0.667572
0.712872
0.668764
0.729561
0.690818
0.657439
0.834465
0.813603
0.875592
0.828505
0.810623
0.917912
0.878572
0.830889
0.893474
0.843406
0.947714
0.917912
0.910759
1.007915
1.058578
0.835657
1.043677
1.070499
1.000762
1.051426
1.205802
1.450777
1.524687
1.575947
1.768470
1.736879
2.703667
7.453561
39.998889
104.146600
265.911818
434.190035
701.539516
925.353765
1016.201973
1016.201973
1016.201973
1016.201973
860.202909
625.017881
347.350836
199.423432
84.026456
37.804842
13.351440
10.338426
10.977983
13.524890
19.909739
28.186440
44.355989
58.078766
77.621937
90.598464
102.050900
104.191899
99.017620
90.554953
71.651936
59.633851
44.080615
34.826994
27.025938
23.727417
22.056699
21.400452
21.635890
21.833777
21.835566
21.780729
22.016764
22.250414
22.657514
22.059679
22.424459
22.088885
21.982789
21.677613
21.582842
21.261573
21.105409
##ZVALUE=325
0.613928
0.447631
0.568628
0.737906
0.624657
0.618696
0.603795
0.508428
0.644922
0.697970
0.724792
0.665784
0.744462
0.709891
0.717640
0.661612
0.735521
0.640750
0.796914
0.652671
0.789762
0.855923
0.793934
0.670552
0.644922
0.840425
0.717640
0.967979
0.913739
0.960827
0.926852
0.940561
0.878572
1.058578
1.118779
1.055598
1.243949
1.364946
1.282692
1.255870
1.553893
1.716614
1.768470
1.926422
4.372597
18.083453
74.692965
160.015821
356.805921
569.102764
883.454680
1016.201973
1016.201973
1016.201973
1016.201973
921.633840
627.023578
430.936813
230.856538
126.502514
48.158765
21.333694
11.079907
9.835958
11.508465
13.903975
19.916892
28.250813
43.863654
59.060454
76.974630
89.016557
97.614527
101.193786
94.390512
85.743666
70.313811
57.416558
43.243766
34.694672
26.894808
24.864674
22.597909
21.344423
22.000670
21.707416
21.858811
22.261739
22.146702
22.124648
22.086501
22.128820
22.163987
21.583438
21.656752
20.955801
##ZVALUE=330
0.727773
0.670552
0.610948
0.665784
0.604987
0.658631
0.805855
0.669956
0.653863
0.782609
0.762939
0.618696
0.653863
0.815988
0.919700
0.803471
0.811815
0.750422
0.724792
0.875592
0.800490
0.834465
0.867844
0.877976
1.100898
1.048446
0.860691
0.869632
0.874996
0.975728
1.007915
0.845790
0.887513
0.985861
1.068711
0.927448
1.038909
1.256466
1.194477
1.335740
1.454949
1.529455
1.598597
1.482964
1.783967
2.011657
2.528429
9.848475
33.672452
122.196674
250.295401
524.235964
781.576633
1016.224623
1016.224623
1016.224623
1016.224623
1016.224623
856.493711
543.855429
347.220898
162.132978
84.136724
30.993819
14.545918
10.060668
10.591745
11.983514
14.946461
21.332502
29.248595
42.533875
55.097938
73.109865
84.089637
94.316602
95.951557
90.099573
81.482530
67.334771
55.436492
42.255521
34.883618
28.187633
25.277734
23.039579
22.605658
21.881461
21.428466
21.721721
21.528602
21.260977
21.845698
21.053553
20.925999
21.390915
##ZVALUE=335
0.536442
0.669956
0.486970
0.456572
0.622869
0.476837
0.688434
0.720620
0.678897
0.659823
0.764728
0.682473
0.754595
0.759959
0.760555
0.676513
0.673532
0.606775
0.620484
0.668764
0.733733
0.629425
0.661612
0.822544
0.776649
0.864863
0.758767
0.912547
0.787973
0.826716
0.888705
1.056790
0.805855
0.847578
1.054406
0.857711
0.970960
1.022816
0.912547
0.982881
1.138449
1.144409
1.263618
1.313686
1.439452
1.681447
1.634955
1.843572
2.132654
4.477501
16.174912
67.344904
150.949955
365.813971
603.856444
971.552730
1016.206741
1016.206741
1016.206741
1016.206741
959.578753
631.650686
415.811539
213.257670
112.227798
39.342642
18.635988
11.325479
10.773540
11.663437
12.636781
16.063452
20.507574
30.271411
40.354729
55.887699
68.610907
79.904795
88.344812
90.118647
85.787773
75.319409
66.546798
54.132938
45.285821
34.897923
29.621720
24.765730
23.067594
21.757483
21.213889
20.998716
20.525455
20.444989
20.661950
20.798445
##ZVALUE=340
0.851750
0.781417
0.821948
0.871420
0.748634
0.802875
0.794530
0.806451
0.908971
0.842810
0.874996
0.891685
0.875592
0.845790
0.909567
0.892878
0.844598
0.880957
0.900626
0.866652
0.798702
0.868440
0.951886
0.791550
0.835657
1.041889
0.838637
0.921488
1.059771
0.987649
1.028776
0.917912
1.009703
1.152754
1.133680
1.157522
1.020432
0.997782
1.130700
1.081824
1.259446
1.289845
1.332760
1.367927
1.379848
1.549721
1.575947
1.629591
1.822710
1.855493
2.279878
2.839565
7.349849
38.414001
99.424720
267.280936
475.701690
804.712772
1016.395688
1016.395688
1016.395688
1016.395688
1016.395688
825.110674
568.531752
288.974643
154.410601
61.969757
26.498437
12.434721
11.347532
11.648536
12.107491
13.792515
16.365647
22.145510
28.733611
41.231513
51.845908
67.348480
77.128410
85.180998
86.482763
81.416965
75.642467
63.366890
53.290725
42.273998
35.220981
28.084517
24.641752
21.578670
20.598769
20.451546
19.976497
19.790530
##ZVALUE=345
0.680685
0.465512
0.644922
0.670552
0.617504
0.580549
0.617504
0.408888
0.682473
0.775456
0.719428
0.701547
0.625849
0.685453
0.650883
0.691414
0.614524
0.515580
0.699759
0.606775
0.599623
0.683665
0.808835
0.768900
0.727773
0.813603
0.927448
0.747442
0.767708
0.759959
0.870824
0.733733
0.898838
0.938773
0.851750
0.899434
0.892878
0.787973
0.923872
1.083612
0.821948
1.024604
0.880957
1.090765
1.287460
1.363754
1.335740
1.364946
1.392961
1.467466
1.709461
1.558661
1.657605
1.961589
3.434420
20.411015
58.587790
166.086555
307.043791
589.789748
839.226842
1016.201973
1016.201973
1016.201973
1016.201973
982.503891
736.989975
421.316624
232.797861
88.818669
41.104555
15.527606
12.085438
11.552572
12.011528
12.361407
13.408661
15.886426
19.709468
28.539896
37.219524
50.864816
60.152411
70.930719
76.526999
79.276562
77.115893
69.767833
62.292814
50.882697
42.179823
32.120943
27.748942
22.617579
20.978451
19.712448
##ZVALUE=350
0.615716
0.585914
0.674725
0.611544
0.460744
0.567436
0.550747
0.681877
0.615716
0.653863
0.631809
0.673532
0.597835
0.524521
0.662804
0.749826
0.688434
0.676513
0.583529
0.766516
0.615716
0.712872
0.804663
0.763535
0.823736
0.622869
0.735521
0.661612
0.771880
0.745654
0.718832
0.629425
0.726581
0.857711
0.652671
0.861883
0.907779
0.999570
0.908971
0.897646
0.884533
0.946522
0.926852
1.001954
0.985861
1.194477
1.117587
1.120567
1.237988
1.264811
1.229644
1.412630
1.521707
1.515746
1.802444
1.941919
2.828836
8.023977
37.307739
92.074871
235.719681
409.647822
706.151724
954.771638
1016.201973
1016.201973
1016.201973
1016.201973
814.830661
551.536679
275.103450
148.647428
56.988597
23.623705
11.909604
11.483431
10.926723
11.346936
12.221932
13.050437
15.664697
19.234419
25.931597
33.125877
43.843985
52.764416
64.188838
69.297552
73.219538
71.361661
65.752864
59.057474
47.614574
39.504766
31.199455
26.533604
##ZVALUE=355
0.634789
0.647902
0.655651
0.711679
0.771880
0.620484
0.622869
0.760555
0.585914
0.749826
0.750422
0.612736
0.499487
0.625849
0.639558
0.715852
0.626445
0.700951
0.622869
0.597835
0.597835
0.683665
0.627637
0.713468
0.675917
0.613928
0.696778
0.878572
0.635982
0.720620
0.755787
0.765920
0.778437
0.809431
0.822544
0.764728
0.705719
0.811815
0.848770
0.718832
0.884533
0.949502
0.828505
0.881553
0.845790
0.852942
0.959635
0.859499
1.107454
1.058578
1.207590
1.169443
1.136661
1.447797
1.339912
1.555681
1.665950
1.767874
1.868606
5.125999
19.447803
75.133443
155.912042
331.420898
527.153015
834.332705
1015.179753
1016.201973
1016.201973
1016.201973
911.716819
619.936585
394.483805
173.295736
82.911849
26.487708
13.284683
10.363460
10.263920
10.598898
10.811687
11.486411
12.571812
14.756918
17.357469
23.164749
28.802752
38.834810
46.851635
55.949688
62.785745
66.385865
65.896511
61.349869
55.529475
45.630932
##ZVALUE=360
0.729561
0.535846
0.751615
0.732541
0.544786
0.671744
0.613928
0.648499
0.649691
0.736713
0.606775
0.627637
0.710487
0.652671
0.664592
0.653863
0.709891
0.834465
0.788569
0.601411
0.681877
0.660419
0.640750
0.742674
0.764728
0.601411
0.547767
0.712872
0.754595
0.768900
0.682473
0.709891
0.821948
0.808835
0.895858
0.680685
0.626445
0.684857
0.819564
0.910759
0.850558
0.937581
0.789762
0.950694
0.937581
1.016855
0.918508
1.136661
1.120567
1.062751
1.167655
1.223683
1.190901
1.211762
1.197457
1.395941
1.496673
1.422763
1.660585
1.847744
1.946688
2.953410
8.159876
37.737489
91.820955
239.164829
401.929617
669.445992
892.784595
1016.198993
1016.198993
1016.198993
1003.392935
725.106001
496.624708
264.719725
138.551593
44.478774
18.668771
9.943843
9.548664
9.926558
9.987950
10.462999
10.555983
11.243820
12.309551
15.098453
18.604994
25.225878
31.541586
41.335821
49.085617
56.542754
59.657693
59.917569
##ZVALUE=365
0.658631
0.630617
0.544786
0.658631
0.685453
0.503659
0.687838
0.551939
0.647902
0.562668
0.620484
0.685453
0.633597
0.675917
0.812411
0.523925
0.714660
0.613928
0.649691
0.687838
0.617504
0.760555
0.708699
0.627637
0.749826
0.772476
0.736713
0.807643
0.722408
0.785589
0.726581
0.675917
0.654459
0.741482
0.787973
0.687838
0.758767
0.721812
0.789762
0.822544
0.861883
0.782609
0.868440
0.885725
0.835657
0.927448
0.896454
0.714660
0.809431
0.912547
1.017451
1.080632
1.072884
1.084805
0.967979
1.105666
1.129508
1.411438
1.127720
1.395941
1.641512
1.839995
1.987815
2.104640
4.555583
16.935468
67.497492
147.937536
340.055823
540.349483
820.913911
992.277861
1016.201973
1016.201973
1016.201973
886.938572
602.472425
381.692648
173.395872
81.236959
23.921728
11.465549
8.936524
8.796453
8.929968
9.221435
9.306669
9.531975
10.285974
10.763407
12.833476
15.676618
21.489859
27.319789
35.555959
42.362809
##ZVALUE=370
0.449419
0.483990
0.500679
0.442863
0.457764
0.578761
0.456572
0.433922
0.337958
0.461936
0.430942
0.401735
0.534654
0.586510
0.545979
0.491738
0.555515
0.370741
0.499487
0.462532
0.603795
0.453591
0.491738
0.560880
0.683665
0.484586
0.671744
0.608563
0.423789
0.539422
0.468493
0.594854
0.654459
0.694990
0.643730
0.582933
0.572801
0.485778
0.668764
0.634789
0.731945
0.551939
0.777841
0.689626
0.815988
0.705719
0.820756
0.801682
0.750422
0.789762
0.836849
0.961423
0.736713
0.778437
0.859499
0.963807
0.974536
0.986457
1.108646
1.146793
1.083612
1.217723
1.347661
1.552701
1.538992
1.852512
2.453923
12.228489
42.503476
137.476921
257.295966
483.771563
700.981617
957.712531
1016.123891
1016.123891
1015.587449
827.841759
622.944832
363.307595
212.058425
85.702538
39.655566
14.715791
8.986592
7.891655
8.149743
8.079410
8.198619
8.430481
8.407831
9.077787
9.932518
11.986494
13.917685
18.827915
##ZVALUE=375
0.611544
0.562668
0.596642
0.533462
0.556707
0.476837
0.441670
0.588894
0.601411
0.759959
0.571609
0.591874
0.691414
0.607967
0.507832
0.619888
0.611544
0.606775
0.579953
0.585914
0.632405
0.642538
0.689626
0.648499
0.600815
0.740886
0.666976
0.646710
0.615716
0.709891
0.727773
0.571609
0.587702
0.624657
0.699759
0.556707
0.726581
0.736713
0.759959
0.855923
0.838637
0.875592
0.735521
0.778437
0.683665
0.771880
0.807643
0.712872
0.839829
0.848770
0.849962
0.902414
0.809431
0.869632
0.947714
0.764728
0.930429
0.878572
1.099706
1.196861
1.118779
1.045465
1.284480
1.306534
1.285672
1.405478
1.503825
1.910925
2.124906
6.172657
22.144914
81.475973
179.388523
400.537848
612.312555
905.750990
1016.201973
1016.201973
1016.201973
988.625884
792.521834
499.818921
319.283605
158.861876
78.083873
24.725795
11.206865
7.723570
7.316470
7.543564
7.506609
7.551908
7.797480
7.877946
8.322597
8.919835
##ZVALUE=380
0.507832
0.652671
0.443459
0.436902
0.450611
0.501871
0.502467
0.536442
0.644922
0.624657
0.535846
0.561476
0.774860
0.500679
0.638962
0.603795
0.592470
0.618696
0.575781
0.535846
0.532866
0.601411
0.520945
0.596642
0.517964
0.480413
0.619888
0.628829
0.490546
0.564456
0.514984
0.693798
0.591874
0.597835
0.673532
0.641942
0.703931
0.599623
0.794530
0.662804
0.811815
0.636578
0.773668
0.819564
0.640750
0.772476
0.809431
0.681877
0.634789
0.820756
0.669956
0.660419
0.710487
0.743866
0.818968
0.847578
0.770688
0.850558
0.920892
0.937581
0.919700
0.911951
1.040697
1.007915
1.153946
1.265407
1.235604
1.468658
1.509786
1.766682
2.055764
3.201962
11.103749
56.368709
134.193897
319.498777
523.163676
821.857452
1012.556553
1016.201973
1016.201973
1016.201973
853.061676
562.818646
367.114544
179.243684
94.790459
34.275651
14.940500
7.949471
6.813407
6.840825
6.819963
7.117987
6.969571
7.250905
##ZVALUE=385
0.528693
0.497699
0.423789
0.606775
0.434518
0.589490
0.486970
0.447631
0.498891
0.526905
0.566840
0.573993
0.622869
0.359416
0.470877
0.533462
0.567436
0.594854
0.622869
0.529885
0.670552
0.595450
0.672936
0.609756
0.493526
0.576973
0.600815
0.433922
0.641942
0.564456
0.593662
0.546575
0.602603
0.684857
0.543594
0.600815
0.549555
0.702739
0.751615
0.685453
0.533462
0.673532
0.750422
0.686646
0.706911
0.718832
0.602603
0.599623
0.674725
0.699759
0.665784
0.668764
0.822544
0.799894
0.855923
0.810623
0.848770
0.745654
0.875592
1.000762
0.920892
0.925660
0.826716
0.950694
0.978708
1.169443
1.115799
1.168847
1.467466
1.615882
1.770854
1.923442
1.683831
2.422929
5.599856
31.711459
85.900426
225.761533
398.392677
691.823959
916.524529
1016.212702
1016.212702
1016.212702
949.964523
687.229633
483.775735
266.855955
151.142478
63.227415
27.043819
8.662939
6.624460
6.210804
6.045699
6.271601
##ZVALUE=390
0.399947
0.442863
0.400543
0.433922
0.385642
0.387430
0.517964
0.483990
0.598431
0.437498
0.471473
0.438690
0.361800
0.576973
0.590682
0.466704
0.357628
0.480413
0.497699
0.432730
0.550747
0.584722
0.561476
0.471473
0.491738
0.369549
0.447631
0.664592
0.511408
0.475645
0.676513
0.468493
0.645518
0.648499
0.618696
0.733733
0.737906
0.582933
0.547767
0.732541
0.571609
0.603795
0.674725
0.560880
0.562668
0.431538
0.668764
0.692606
0.624657
0.713468
0.850558
0.846982
0.552535
0.666976
0.772476
0.766516
0.655651
0.664592
0.656843
0.754595
0.858903
0.850558
0.807643
0.967979
0.982881
1.019835
0.979900
1.256466
1.195669
1.273751
1.456738
1.457930
1.667738
1.784563
1.769662
1.769662
3.122687
15.502572
50.688982
166.950822
327.482820
632.097721
870.905519
1016.144753
1016.144753
1016.144753
1016.144753
913.155675
683.683753
404.419899
231.317878
91.730952
42.195916
13.968945
7.369518
5.769730
##ZVALUE=395
0.516772
0.560880
0.698566
0.543594
0.491738
0.558496
0.668764
0.454783
0.562668
0.562668
0.608563
0.377893
0.655651
0.485778
0.414848
0.470877
0.445843
0.712872
0.567436
0.443459
0.508428
0.471473
0.557899
0.599623
0.467896
0.656843
0.550747
0.597835
0.668764
0.613928
0.481606
0.559688
0.576973
0.591874
0.595450
0.576973
0.527501
0.571609
0.543594
0.548959
0.682473
0.567436
0.613928
0.754595
0.810623
0.657439
0.695586
0.701547
0.602603
0.683665
0.709891
0.737906
0.743866
0.798702
0.700951
0.680685
0.833869
0.753999
0.832677
0.657439
0.745654
0.810623
0.983477
1.030564
0.968575
1.025796
1.099706
1.151562
1.219511
1.325607
1.475811
1.257658
1.460910
1.647472
1.428723
1.771450
1.646876
1.727939
2.259612
8.186698
30.075908
108.510852
218.345523
449.446440
678.860545
990.432501
1016.202569
1016.202569
1016.202569
1016.202569
870.638490
527.519584
329.154730
152.644515
71.213841
22.886992
##ZVALUE=400
0.385642
0.444651
0.386834
0.385642
0.491738
0.423789
0.395775
0.452995
0.388622
0.335574
0.529885
0.353456
0.398755
0.369549
0.482798
0.478625
0.537634
0.465512
0.526905
0.423789
0.353456
0.637770
0.532866
0.463724
0.411868
0.399947
0.486970
0.475645
0.574589
0.501871
0.533462
0.469685
0.415444
0.578761
0.344515
0.435710
0.557899
0.599623
0.486970
0.607967
0.496507
0.617504
0.576973
0.577569
0.556707
0.501871
0.485778
0.469685
0.515580
0.598431
0.609756
0.538826
0.631809
0.638962
0.639558
0.623465
0.635982
0.664592
0.724792
0.703931
0.778437
0.634789
0.761747
0.823736
0.751615
0.798702
0.721812
0.892878
1.011491
1.218915
1.120567
1.300573
1.273751
1.203418
1.274943
1.278520
1.405478
1.346469
1.428723
1.425743
1.886487
4.311800
16.353726
61.330795
137.536526
324.885845
537.785888
855.239034
1016.129851
1016.129851
1016.129851
1016.129851
884.028673
571.834445
371.188521
186.886787
##END
