##TITLE=QP00302
##FORMAT=SPECTACLE-ASCII V-1.2
##DATA TYPE=ULTRAVIOLET SPECTRUM
##SECOND TYPE=ULTRAVIOLET SPECTRUM
##DATE=12/11/17
##TIME=15:31:59
##SPECTROMETER/DATA SYSTEM=SPECTACLE
##XUNITS=NM EM
##YUNITS=ENERGY
##YFACTOR=1
##FIRSTX=220
##LASTX=410
##NPOINTS=96
##3DDATA=Equidistant
##ZUNITS=NM EX
##FIRSTZ=210
##LASTZ=400
##ZPOINTS=39
##XYDATA=(Y..Y)
##ZVALUE=210
2.523661
2.498627
2.676845
2.522469
2.793670
2.713799
3.300905
3.085732
3.446937
2.728701
2.607703
2.631545
3.525615
3.589988
4.132986
3.994703
3.720522
3.796816
5.121827
4.818439
5.285740
5.419850
6.000996
6.732941
6.337762
6.852746
7.678866
7.011890
7.596612
9.487867
8.748770
8.350611
8.306503
9.556413
8.835793
9.429455
9.841919
10.708570
11.006594
11.417866
11.209846
11.636615
11.590719
12.877584
13.385415
13.219714
13.336539
14.685988
14.031529
16.483665
14.970899
16.029477
16.105771
15.371442
16.019940
16.738772
18.093586
16.947985
16.825795
19.043684
17.766953
18.805861
18.628836
18.976927
20.280480
18.800497
23.202896
25.140643
26.856661
33.653975
37.338734
48.244596
53.401589
63.734651
69.936514
72.763562
72.634816
72.772503
70.273876
64.437985
59.097409
52.786469
46.170950
39.545894
34.338832
28.019547
25.279522
22.855997
20.652413
19.739866
19.656420
20.184517
18.796921
18.810630
19.512773
19.725561
##ZVALUE=215
8.874536
10.042787
7.306933
7.090569
5.636811
5.369782
4.257560
5.713701
6.305575
6.224513
5.281568
4.679561
5.363822
4.408956
4.857779
3.681779
4.175901
4.076958
4.444718
5.099773
5.710721
5.744696
5.498528
5.928874
5.873442
6.706715
7.347465
7.137656
7.645488
7.676482
9.314418
9.012818
8.516908
8.241534
9.179711
8.828640
10.345578
10.595918
11.154413
10.179877
12.142658
11.290908
12.331605
13.025999
12.032986
12.657642
12.592673
14.063716
14.182925
14.666915
13.529658
14.417768
15.465617
14.648438
16.053915
17.342567
17.171502
15.899539
16.137958
16.862750
17.279983
17.981529
16.360879
18.851757
19.225478
19.746423
19.612908
22.648573
26.956797
30.901432
35.679936
44.142604
47.198534
56.226850
58.295727
65.326691
63.644648
61.363578
56.414604
57.180524
48.593879
40.310621
39.681792
32.943487
29.610991
26.346445
24.368763
21.042824
21.028519
18.022656
18.595457
19.333959
18.567443
18.051863
15.781522
17.534494
##ZVALUE=220
32.938719
34.142733
36.139488
33.356547
33.009648
23.591518
21.016598
13.613701
12.327433
11.021495
12.073517
12.123585
12.676716
11.402965
10.034442
8.884668
6.508827
5.754828
5.357862
5.313754
4.870892
4.935861
5.577803
6.467700
6.939769
7.531643
7.189512
6.459951
7.966757
7.411838
8.239746
8.203983
8.743405
9.547472
8.922815
9.687543
10.504723
10.724664
10.534525
10.300875
10.207891
12.626648
13.082623
12.170672
12.872815
13.219714
13.615489
13.252497
13.910532
16.218424
13.605952
13.707876
13.630986
15.492439
14.740825
16.549826
16.800761
15.766621
16.648769
16.788840
16.966462
18.156767
17.096996
18.260479
19.363761
18.492937
20.756721
22.286773
24.720430
28.884411
34.152865
41.221976
45.316815
54.652691
54.672956
56.857467
59.213638
58.677793
57.734847
50.285459
48.526525
45.637488
37.747622
33.395886
30.954480
25.933981
23.625493
20.694733
20.884871
19.946694
19.781590
20.658970
17.858744
18.448830
18.396974
18.782616
##ZVALUE=225
56.882501
57.417750
82.460642
95.664859
106.204748
106.701851
97.103715
78.306794
53.764582
39.049983
26.596785
22.882819
25.288463
25.335550
27.643442
23.663640
23.902655
17.429590
13.884902
10.584593
7.707477
6.943941
6.535649
6.463528
7.270575
6.495714
7.292628
6.955862
7.969737
7.846951
8.336902
7.600784
9.547472
9.470582
10.190606
10.552406
9.621978
11.543632
11.308789
10.377765
12.125969
11.952519
13.883710
11.863708
13.255477
13.237000
14.221668
14.672875
13.986826
14.275908
15.131831
14.916658
16.584992
15.971661
15.199780
17.168522
15.993714
17.144680
18.111467
17.118454
17.452836
17.316937
17.908812
19.297600
18.888712
20.847917
21.150708
21.748543
25.606751
28.362870
32.071471
37.021637
40.739775
47.868490
49.301982
50.615668
50.874949
51.230788
50.205588
45.866966
42.829514
37.046671
35.705566
31.762719
28.195977
26.560426
25.994778
23.108721
23.660660
22.087693
22.288561
20.094514
19.720793
21.124482
22.447705
20.014644
##ZVALUE=230
47.626495
55.335760
87.553859
147.258639
193.930864
246.280432
265.778899
268.360972
230.943561
201.031566
133.863688
94.734430
62.817931
49.584508
49.013495
48.066974
50.765872
47.589540
43.588877
37.431717
29.340982
20.721555
14.485717
10.566711
9.586811
7.740855
8.253455
9.045601
9.634495
8.825660
8.903742
9.772778
10.291934
9.660721
11.826754
12.605786
12.617707
12.053847
12.286901
12.187958
14.606714
12.276769
12.997985
14.066696
15.739799
16.086698
16.493797
16.156435
17.761588
17.220974
16.179681
16.773939
17.482638
18.204451
17.337799
18.634796
19.224882
20.734668
19.988418
20.799637
20.820498
20.116568
20.848513
22.809505
24.209619
24.809837
26.549697
26.542544
30.773878
35.313964
38.601756
44.131875
49.000978
52.419901
53.076744
56.678653
57.808757
55.214763
53.496957
51.372647
47.733784
44.387579
38.364530
38.083792
35.087466
31.823516
30.273795
32.078624
29.838681
29.603839
28.724670
28.691888
27.103424
28.594732
28.099418
27.597547
##ZVALUE=235
16.967654
19.642711
38.676858
103.658438
166.735649
281.304717
370.719433
492.875576
536.891818
547.578931
494.997501
413.511992
273.575783
199.136734
125.953555
89.823604
76.555610
79.150796
83.557963
84.943771
81.059933
67.993999
53.185821
38.760900
28.993487
20.215511
14.794469
13.209581
12.289882
11.265874
11.708736
11.937618
11.793971
11.536479
12.682676
12.394786
13.207793
13.709664
14.406443
14.845729
14.948845
15.432835
13.712645
15.870929
14.554858
17.128587
16.747713
17.614961
16.381741
17.344952
17.112494
18.504858
18.904805
18.910766
19.620657
20.302534
22.557974
23.357868
22.781491
22.358894
23.589730
24.043918
25.264621
27.522445
26.947856
27.870536
29.488802
31.986833
35.117865
42.040944
45.449734
50.358772
58.578849
60.632825
66.412687
64.057708
66.313744
64.143538
62.561631
59.248805
58.164597
51.451921
48.035979
44.727921
44.674873
40.654540
38.065910
40.097833
35.661459
38.344860
37.393570
37.082434
35.811663
33.195615
36.554933
35.494566
##ZVALUE=240
2.726912
2.495646
9.162426
24.012923
70.795417
135.383606
272.753835
415.634513
621.067882
748.421550
876.512527
879.292488
824.199915
653.133988
507.971644
322.659612
214.629769
135.614872
113.026500
104.454756
107.882619
116.386414
120.320916
103.630424
88.622570
71.795583
49.488544
36.215782
26.444793
18.544793
15.979409
13.293624
13.595819
13.864636
13.282895
12.921691
13.514757
13.078451
15.178919
14.417768
14.347434
14.053583
13.783574
16.313791
15.100837
15.138984
16.938448
16.397834
15.683770
17.070770
16.703606
19.442439
18.584728
18.654466
20.485520
21.006465
21.389723
20.748973
22.975802
21.686554
24.740696
25.275946
24.260879
26.865602
28.683543
30.599833
31.119585
34.792423
37.083626
42.852759
48.706532
53.257942
56.143999
63.302517
67.081451
69.543719
69.023967
68.234801
65.693855
61.565638
62.944889
55.246949
53.842664
50.224662
47.887564
47.349930
44.477582
46.939850
44.097900
43.278933
43.784976
45.778751
45.366883
41.643977
42.378902
42.273998
##ZVALUE=245
1.753569
1.890659
2.083778
2.255440
6.240606
18.649697
62.637925
129.847527
293.111801
455.810428
711.764693
901.210904
1016.169786
1016.201973
1016.201973
868.054032
697.544813
474.768877
308.541656
174.363852
126.606822
110.657811
114.474893
125.690699
130.979419
132.008791
114.294887
99.877715
73.787570
58.739781
39.300919
27.662516
22.034645
16.187429
13.600588
14.741421
13.292432
13.089776
13.344884
12.371540
12.730956
12.837648
12.725592
12.887716
14.079809
14.074445
14.078617
13.949871
14.405847
14.878511
17.219782
15.427470
15.406609
16.541481
16.262531
17.781854
18.247962
19.413829
18.615723
18.834472
19.987822
21.602511
20.430684
23.252964
23.250580
25.808811
28.334856
30.313730
32.125711
36.766529
39.679408
46.742558
50.674677
52.402616
54.057837
57.505965
59.907436
55.167675
54.099560
51.247478
50.542951
49.093962
47.825575
46.440959
45.131445
43.737888
42.977929
42.301416
41.871667
42.761564
42.889714
40.206909
42.717457
40.515661
40.856600
39.616823
##ZVALUE=250
1.738667
1.756549
1.852512
2.166629
2.559423
1.990795
3.905892
11.893511
51.541924
114.340782
273.979902
447.472930
661.813021
954.045653
1016.201973
1016.201973
1016.201973
1016.201973
942.246914
633.334517
416.103005
263.861418
143.628716
110.047460
108.951926
123.474598
140.100718
144.138932
137.250423
124.423504
111.632943
82.165003
64.322948
41.036606
27.340651
17.939806
14.600754
12.403727
12.349486
12.066960
12.199879
12.479424
11.454821
11.763573
11.937618
12.951493
12.818575
12.643933
13.031960
13.162494
12.586713
13.770461
13.761520
14.543533
14.073849
15.287995
15.023947
15.500784
16.118884
16.153455
16.920567
18.344522
18.789768
18.717647
20.273924
21.720529
22.923946
25.432706
27.149916
29.670596
33.956766
38.775802
41.446686
46.351552
44.868588
47.649741
48.342943
47.588944
47.961473
45.479536
44.064522
41.767955
41.772723
42.134523
40.831566
37.996769
38.138628
38.650632
39.132833
39.918423
39.052963
37.997961
38.150549
37.522912
38.005710
36.923885
##ZVALUE=255
1.682639
1.855493
1.804829
1.989603
2.153516
2.144575
2.124906
2.267957
2.796650
7.123947
35.288930
88.369846
180.494785
395.376682
603.604913
935.343504
1016.201973
1016.201973
1016.201973
1016.201973
1016.201973
936.373472
597.040653
377.394557
194.034576
127.285719
102.030635
108.902454
129.221678
144.020915
149.509907
145.851970
131.853819
103.875995
85.785985
58.117509
42.713881
26.932955
18.278956
13.122559
11.522770
10.222793
11.334419
11.191964
10.861754
11.010766
10.996461
11.684895
10.817647
11.518598
11.850595
12.692809
12.098551
12.453794
12.442470
14.165640
13.485551
12.472868
13.499856
14.155507
15.019774
15.796423
16.060472
17.158985
17.093420
19.110441
18.489957
20.137429
23.542643
27.077794
28.090477
30.639768
34.881830
38.794875
38.871765
39.669871
39.879680
39.005876
40.045977
38.373470
37.292838
36.213994
36.677718
36.425591
35.175681
33.973455
34.816861
34.000874
34.417510
34.687519
36.923885
34.023523
34.570694
34.676790
36.113858
35.630465
##ZVALUE=260
1.608729
1.474619
1.674891
1.668930
1.843572
1.942515
2.053976
2.063513
2.543926
2.272725
2.652407
4.174709
13.633966
56.933761
131.830573
323.477983
537.726879
887.785554
1016.201973
1016.201973
1016.201973
1016.201973
1016.201973
1016.201973
821.575522
552.475452
305.998921
178.873539
101.100802
88.838935
104.668736
129.807591
146.695971
155.918002
153.725743
133.816004
111.889839
84.553957
61.874986
40.877461
28.395653
18.238425
13.715625
11.267662
10.788441
10.690689
12.105703
11.605620
11.768937
12.055635
11.665821
11.862516
12.595654
12.515783
12.767911
12.635589
13.722777
13.002753
12.867451
13.536811
13.883710
14.730692
14.461875
16.300678
16.865730
16.940832
17.781854
20.234585
21.147728
24.005771
24.610758
27.817488
32.069683
34.055710
35.495758
35.788417
36.425591
35.429597
34.986734
34.171939
32.568574
31.558871
32.625794
32.170415
32.148957
30.974746
31.556487
31.442642
31.464696
32.270551
32.255650
32.284856
32.432675
34.060478
32.894611
34.375787
##ZVALUE=265
1.431704
1.372695
1.522899
1.534820
1.636744
1.736879
1.809597
1.846552
2.030730
1.984835
2.211928
2.331734
2.575517
2.718568
7.215738
42.585731
106.648803
259.589553
459.619761
842.399001
1016.201973
1016.201973
1016.201973
1016.201973
1016.201973
1016.201973
1016.201973
791.391730
431.369543
245.374441
138.109922
80.947876
84.334612
109.906793
132.927895
154.776573
158.585906
153.095722
137.148499
110.705495
90.032816
60.130954
44.093728
26.366711
20.032525
13.932586
12.469888
12.320876
12.191534
11.288524
11.745691
12.264848
12.098551
12.258887
12.456775
13.128519
12.198687
12.789965
13.378859
13.466477
13.136864
13.505816
14.659762
14.748573
15.352964
16.799569
17.184615
17.868876
19.323826
21.886826
22.399426
25.877953
26.585460
28.410554
29.486418
30.897856
32.112598
30.636787
29.354692
30.407906
30.241609
28.768778
27.841926
28.482676
29.014945
28.030872
30.230880
29.000640
30.359626
29.906631
28.850436
29.719472
30.115843
31.171441
29.735565
30.273795
##ZVALUE=270
1.563430
1.624823
1.543760
1.461506
1.821518
1.761913
1.407862
1.786947
1.578927
1.525879
1.949668
2.055764
2.120733
2.241731
2.471805
3.008842
3.799796
17.155409
54.945946
185.657740
367.732644
639.318824
1016.201973
1016.201973
1016.201973
1016.201973
1016.201973
1016.201973
1016.201973
1016.201973
737.826824
378.904939
203.681588
88.372827
69.135427
87.632537
110.798478
137.476921
152.416825
159.869790
156.820416
139.868855
116.260648
88.564754
65.453649
42.120814
29.987693
20.083785
16.000867
13.532639
12.703538
12.960434
12.862682
13.074875
13.280511
12.925863
13.480783
13.895631
14.286637
13.632774
14.114976
14.535785
14.615655
15.732646
16.029477
16.349554
17.158985
18.222928
18.634796
21.798611
22.982955
25.488734
26.567578
27.996898
28.998852
28.768778
29.168725
28.804541
28.179884
28.748512
27.792454
27.875900
27.743578
27.660728
27.756691
26.391745
26.692748
27.378798
28.113723
27.572513
27.941465
28.260946
29.001832
28.319955
28.953552
28.336644
##ZVALUE=275
1.473427
1.396537
1.376867
1.306534
1.473427
1.394749
1.556873
1.590848
1.855493
1.754761
1.548529
1.831651
2.007484
2.082586
2.225637
2.330542
2.475977
2.778769
3.350973
8.768439
35.860538
112.043619
325.312614
591.308475
1015.880704
1016.201973
1016.201973
1016.201973
1016.201973
1016.201973
1016.201973
1016.201377
947.697759
507.190824
292.935967
126.578808
73.112845
65.314770
84.580779
112.336874
133.713484
152.119994
159.958005
152.486563
138.765574
110.476613
90.018511
64.807534
47.506690
30.175447
22.856593
16.121864
14.806986
13.659596
13.564825
13.424754
13.662577
13.597608
14.108419
14.667511
14.721751
14.869571
15.915632
16.623735
15.707612
16.899705
18.021464
19.292831
19.495487
20.869970
22.770762
25.509596
27.043819
28.293729
28.754473
29.382706
28.791428
28.779507
28.962493
29.164553
28.687716
27.216673
26.672482
25.862455
26.934743
26.198626
26.359558
26.269555
25.993586
27.110577
27.403831
26.927590
26.622415
26.807785
26.663542
27.287602
##ZVALUE=280
1.232624
1.235604
1.308918
1.433492
1.434684
1.483560
1.367927
1.473427
1.711845
1.674891
1.765490
1.867414
1.534820
1.907945
1.862645
2.060533
2.211928
2.213717
2.189875
2.781749
3.071427
4.200935
22.510886
81.407428
271.638632
506.205559
935.017467
1016.196012
1016.196012
1016.196012
1016.196012
1016.196012
1016.196012
1016.196012
1016.196012
637.179017
376.907587
164.778829
85.121989
52.713752
60.445666
85.561872
109.260678
135.590434
149.710774
155.055523
150.210857
136.099458
115.396976
87.547898
65.751672
45.190454
31.688809
21.357536
16.789436
14.572740
13.707876
14.306903
14.869571
15.084743
15.121698
15.755892
16.315579
16.213655
16.436577
17.107725
17.827749
18.018484
20.049810
21.174550
22.455454
24.597645
25.783777
26.835799
27.835965
28.132796
28.342605
28.800964
27.970672
27.466416
26.226640
26.939511
26.540756
26.924610
26.191473
26.399493
26.342869
26.375651
26.034713
26.395917
26.414990
26.271939
26.917458
26.154518
25.458932
25.911927
##ZVALUE=285
1.290441
1.356602
1.412630
1.391768
1.359582
1.516938
1.372695
1.422763
1.489520
1.481771
1.550913
1.352429
1.750588
1.754761
2.063513
1.790524
1.842976
2.182722
2.181530
2.532601
2.742410
2.970695
3.065467
3.687739
10.527968
40.250421
146.093369
326.406956
738.912821
1016.201973
1016.201973
1016.201973
1016.201973
1016.201973
1016.201973
1016.201973
1016.201973
948.470831
578.179955
266.567469
129.596591
52.596927
42.204857
57.652593
77.448487
106.345415
124.510527
144.844651
149.680972
145.448446
135.949850
110.275745
90.773702
64.900517
47.318935
31.311512
23.438931
17.711520
15.467405
14.650822
14.598966
15.285611
15.903711
16.371608
17.041564
17.482638
18.070936
19.526482
20.228624
21.618605
23.229718
24.033785
26.184916
27.329922
26.900768
28.294921
27.808547
28.326511
27.915835
27.780533
27.658939
27.070642
26.480556
26.326776
25.598407
26.377439
26.180744
26.290417
25.630593
26.021600
26.219487
26.152730
26.587844
26.090741
26.062727
26.110411
##ZVALUE=290
1.518726
1.443624
1.392961
1.474619
1.449585
1.580715
1.541972
1.487732
1.364946
1.738667
1.656413
1.752973
1.709461
1.921654
1.670718
1.809597
1.916885
1.949668
1.953840
2.173781
2.207756
2.469420
2.730489
2.924800
3.479719
3.643632
5.116463
15.648007
79.051852
197.313428
404.443741
889.151692
1016.201973
1016.201973
1016.201973
1016.201973
1016.201973
1016.201973
1016.201973
1016.201973
1002.832651
496.385694
235.711932
76.154470
37.884712
40.422678
52.870512
76.524615
96.178651
122.072697
135.176778
145.738721
143.712759
130.573511
112.601519
85.154772
66.185594
46.040416
34.513474
23.347735
19.710660
16.503930
15.883446
16.114712
16.172528
17.925501
18.261671
18.374920
19.971728
21.197796
22.813678
24.093986
25.299788
26.150942
26.905537
26.788712
27.111769
26.376843
26.916862
26.443601
26.277900
26.276708
26.335716
27.102828
26.620626
26.684999
26.137829
26.504993
26.462674
26.614666
26.314855
25.874972
25.937557
25.369525
25.063753
25.273561
##ZVALUE=295
1.336932
1.204610
1.542568
1.272559
1.368523
1.530647
1.214743
1.561642
1.506805
1.575947
1.503825
1.431704
1.454949
1.578927
1.560450
1.576543
1.780987
1.816750
1.695752
1.988411
1.900792
2.055764
2.130866
2.424717
2.557635
2.981424
3.367662
3.589988
4.301667
7.964969
28.853416
132.118464
309.562683
754.091740
1016.194820
1016.194820
1016.194820
1016.194820
1016.194820
1016.194820
1016.194820
1016.194820
1016.194820
609.871745
313.327909
107.824802
47.108531
28.125644
33.867955
51.584840
67.962408
94.215870
112.702847
132.607818
139.337778
136.570930
125.215650
104.697943
86.818933
62.349439
46.637654
32.290816
24.876595
19.241571
17.151833
16.349554
17.547607
18.508434
18.613935
20.550489
21.952987
23.263693
24.558902
25.318861
26.158690
26.785731
26.248693
25.734901
25.940537
25.862455
25.526881
26.139617
26.104450
26.368499
25.908947
26.744604
26.779771
26.594996
26.885867
26.483536
26.660562
26.381612
26.399493
26.054978
25.975704
25.227666
##ZVALUE=300
1.176000
1.278520
1.253486
1.249909
1.356602
1.240969
1.464486
1.331568
1.338720
1.385808
1.450777
1.401901
1.481771
1.485944
1.509786
1.602769
1.610518
1.729727
1.625419
1.725554
1.796484
1.845956
2.205968
2.059937
2.345443
2.509952
2.563000
2.777576
3.127456
3.533959
3.706813
4.694462
12.195706
74.951649
195.719004
525.859594
933.241844
1016.201973
1016.201973
1016.201973
1016.201973
1016.201973
1016.201973
1016.201973
1016.201973
924.355388
532.348752
220.252872
95.261931
30.171871
23.566484
32.109618
44.249892
64.110756
82.884431
107.643604
123.768449
131.813884
132.196546
120.694637
105.765462
83.791614
66.324472
46.469569
35.019517
24.672747
21.091700
19.221902
19.506812
19.869804
21.617413
22.772551
23.648739
24.577975
24.946928
25.533438
26.344657
25.736690
26.268959
26.199818
25.686622
25.658607
25.368929
26.075840
26.493669
26.991963
27.031898
27.830601
26.677847
26.752949
26.300550
25.666952
25.669932
25.546551
25.659800
25.807619
##ZVALUE=305
1.090765
1.152754
1.244545
1.285672
1.345873
1.357794
1.399517
1.364946
1.338720
1.380444
1.400709
1.240969
1.637936
1.280904
1.216531
1.624823
1.499653
1.553893
1.460910
1.589656
1.781583
1.738667
1.772642
1.857877
1.929998
1.958609
2.225637
2.427697
2.409816
2.527833
2.832413
3.404617
3.541708
4.093647
7.529855
47.912002
141.398907
406.533480
749.844909
1016.242504
1016.242504
1016.242504
1016.242504
1016.242504
1016.242504
1016.242504
1016.242504
1016.242504
725.448728
309.208632
142.921805
43.519735
21.871924
22.865534
29.703975
45.333505
61.124563
83.891749
100.046992
119.180679
126.132965
125.559568
118.155479
100.320578
84.295869
62.188506
48.968792
34.693480
27.354956
23.585558
22.437572
22.418499
23.699999
24.221539
25.044680
25.158525
25.583506
25.154948
25.201440
26.082993
25.909543
26.258826
26.572943
26.786923
27.389526
27.605891
27.088523
27.856827
27.429461
27.363896
27.085543
26.555657
27.208924
26.187897
26.805997
25.685430
##ZVALUE=310
1.200438
1.061559
1.030564
1.022816
1.181960
1.262426
1.215935
1.193881
1.334548
1.094937
1.303554
1.293421
1.273751
1.271963
1.422763
1.325607
1.465678
1.419783
1.452565
1.425743
1.642704
1.514554
1.615882
1.864433
1.893640
1.845956
1.860857
2.005696
2.401471
2.226830
2.781749
3.057718
3.051758
3.162622
3.451705
3.993511
4.817843
23.531914
83.070993
286.842585
566.259623
1016.201973
1016.201973
1016.201973
1016.201973
1016.201973
1016.201973
1016.201973
1016.201973
1016.201973
1016.201973
566.508770
283.236504
88.172555
33.569932
17.935634
20.605922
29.280782
38.473606
56.302547
73.003769
96.099973
110.198855
119.631886
120.710731
113.986731
101.847649
82.071424
66.568851
48.978925
39.662719
30.909777
28.248429
25.516748
25.752783
25.525689
25.164485
24.627447
25.252700
25.060773
26.154518
26.596785
26.980639
27.505755
27.848482
28.328896
27.708411
28.360486
27.579665
28.368831
27.290583
27.778745
27.044415
27.429461
26.695728
26.792884
##ZVALUE=315
1.114607
1.220703
1.247525
1.239777
1.113415
1.285672
1.197457
1.151562
1.305938
1.268983
1.148582
1.252890
1.389980
1.433492
1.298785
1.367927
1.276731
1.400709
1.477599
1.545548
1.559854
1.467466
1.542568
1.697540
1.581907
1.767874
1.861453
2.031922
2.277493
2.060533
2.287626
2.283454
2.576709
2.725720
2.917647
3.092885
3.274679
3.733635
4.684925
8.292794
52.365661
158.618093
469.740629
859.357715
1016.201973
1016.201973
1016.201973
1016.201973
1016.201973
1016.201973
1016.201973
1016.201973
1016.201377
831.525922
369.046926
166.787505
41.885972
19.237995
16.734600
19.978881
26.736856
36.421418
52.644610
67.860484
90.547800
105.212927
114.737749
116.559863
110.785961
99.589825
81.035495
67.387819
51.050782
42.122602
32.673478
29.247999
27.037859
26.114583
25.720596
25.917888
26.105642
25.969744
26.880503
27.704835
27.724504
27.943850
28.298497
28.070807
28.474927
28.294921
28.336644
27.916431
27.824640
27.259588
27.587414
27.689934
##ZVALUE=320
1.138449
1.084805
1.103878
1.127720
1.246929
1.319647
1.223683
1.151562
1.061559
1.197457
1.270771
1.215935
1.194477
1.328588
1.416802
1.230836
1.444817
1.368523
1.334548
1.410842
1.590848
1.522899
1.382828
1.667738
1.798868
1.558661
1.664758
1.759529
1.886487
2.018809
2.166629
2.180934
2.156496
2.207756
2.433658
2.691746
2.930760
3.257990
3.632903
3.917813
4.431605
5.802512
20.229816
120.599866
324.221849
853.245854
1016.201973
1016.201973
1016.201973
1016.201973
1016.201973
1016.201973
1016.201973
1016.201973
1016.201973
968.151689
575.071573
241.428614
102.706552
26.744604
16.004443
16.494989
19.234419
25.624633
33.678412
50.838590
64.961910
86.904764
101.201534
111.323595
115.078688
108.487606
98.748803
81.777573
68.183541
51.539540
41.977763
34.046769
29.507875
27.239919
26.829839
27.087927
27.524829
27.496815
28.179884
27.973652
28.345585
28.629899
28.705597
27.962923
28.578639
28.059483
27.915835
27.732849
27.539730
27.513504
##ZVALUE=325
1.174808
1.104474
1.255870
1.214743
1.122952
1.258850
1.269579
1.109838
1.244545
1.197457
1.233816
1.098514
1.288652
1.414418
1.307726
1.183748
1.352429
1.407862
1.389980
1.449585
1.298785
1.550913
1.558661
1.621842
1.682639
1.531839
1.754761
1.698732
1.798868
1.742840
2.017617
2.018809
2.020597
2.203584
2.350807
2.487898
2.507567
2.848506
2.937913
3.092885
3.580451
3.985763
4.215837
5.208850
11.092424
72.487593
202.466846
577.580929
989.691615
1016.202569
1016.202569
1016.202569
1016.202569
1016.202569
1016.202569
1016.202569
1016.202569
1016.202569
771.319866
347.437859
160.956979
42.486787
18.979907
16.160607
16.980767
20.592809
25.583506
36.372542
49.337745
70.302486
84.040761
99.314451
108.472705
110.253692
105.232000
91.824532
79.677701
63.178539
50.986409
39.856434
34.645796
29.681921
28.832555
28.057694
28.321743
27.810931
27.715564
28.114915
28.568506
28.437972
28.607845
27.827621
27.959943
28.091669
27.837753
27.722716
##ZVALUE=330
1.290441
1.478791
1.456738
1.367927
1.395941
1.413822
1.459718
1.468658
1.451969
1.423955
1.437664
1.481771
1.597404
1.541972
1.576543
1.745820
1.512766
1.661777
1.574755
1.667738
1.576543
1.629591
1.536608
1.645684
1.925826
1.891851
1.927614
2.016425
1.896620
2.106428
2.055764
2.261996
2.316833
2.201796
2.430677
2.460480
2.780557
2.664924
2.870560
2.978444
3.314614
3.539920
3.746748
4.331470
4.420877
5.441904
6.941557
36.984682
123.494864
411.987901
796.386600
1016.439795
1016.439795
1016.439795
1016.439795
1016.439795
1016.439795
1016.439795
1016.439795
1016.439795
1014.292836
481.321812
233.480930
78.951716
30.988455
16.974807
16.851425
17.715693
21.728873
28.626919
37.260652
51.580667
63.893795
83.012581
95.885992
103.544593
105.813742
98.639727
90.022683
74.377656
62.465668
48.752427
41.446686
35.088658
32.227635
29.677749
28.874874
28.288960
28.459430
27.746558
27.934909
27.932525
27.558804
27.585626
27.065873
27.165413
##ZVALUE=335
1.218915
1.109838
1.019835
1.130700
1.155734
1.075864
1.165867
1.215935
1.177788
1.115799
1.238585
1.288652
1.330972
1.308918
1.162887
1.159906
1.211762
1.213551
1.295805
1.414418
1.465678
1.295805
1.443624
1.436472
1.581907
1.558661
1.534820
1.439452
1.561642
1.600981
1.765490
1.856685
1.619458
1.861453
1.900792
2.002716
2.067685
2.354980
2.173781
2.315640
2.392530
2.881885
2.872944
3.101826
3.442764
3.899932
4.420877
4.673600
5.566478
17.514825
70.485473
282.997489
588.298440
1016.201973
1016.201973
1016.201973
1016.201973
1016.201973
1016.201973
1016.201973
1016.201973
1016.201973
1016.201973
689.307451
337.470770
103.220940
39.325953
18.558502
17.742515
18.472672
19.583702
23.352504
27.946830
38.716793
49.169660
65.530539
77.896714
90.705752
97.410679
94.906688
95.996857
75.635910
74.759722
61.040521
51.117539
41.121840
35.627484
30.592680
28.473735
27.286410
26.684999
26.228428
26.733875
26.091933
25.879741
26.010871
##ZVALUE=340
1.114607
1.304746
0.955462
0.985861
1.122952
1.137853
1.056790
1.189709
1.355410
1.125932
1.143813
1.244545
1.103878
1.060963
1.204610
1.275539
1.185536
1.150966
1.248717
1.261830
1.190901
1.344681
1.313686
1.500845
1.183748
1.407862
1.506805
1.598597
1.475811
1.636744
1.687407
1.601577
1.832843
1.738667
1.888871
1.838803
1.917481
2.015829
2.024770
1.985431
2.301931
2.502799
2.598763
2.847910
2.768636
3.097653
3.406405
3.766418
4.212856
4.444718
5.075932
8.867979
35.941601
199.087858
487.779975
1016.201973
1016.201973
1016.201973
1016.201973
1016.201973
1016.201973
1016.201973
1016.201973
1016.201973
1016.201973
979.023576
544.113517
180.898905
65.716505
22.525787
18.608570
18.950701
19.440651
20.975471
24.044514
28.799772
35.613775
47.864914
59.168935
75.057745
85.119605
93.562603
94.578862
89.553595
81.643462
69.458485
60.093999
48.657656
40.706992
33.489466
29.935837
27.018785
25.767684
25.403500
25.259852
25.179982
##ZVALUE=345
1.165867
1.114607
1.199841
1.074672
1.077652
1.091957
1.130700
1.211762
1.149774
1.084805
1.185536
0.999570
0.997782
1.081824
1.195669
1.140833
1.123548
1.157522
1.242757
1.204610
1.360774
1.363754
1.301765
1.365542
1.324415
1.581907
1.447797
1.482964
1.453757
1.623631
1.526475
1.550913
1.592636
1.626611
1.611710
1.641512
1.747608
1.775622
1.821518
1.939535
1.922846
2.048612
2.309680
2.425909
2.444983
2.738833
2.881885
3.181696
3.473759
3.498793
3.698468
4.324913
5.027652
6.155968
15.620589
111.510754
318.730474
844.630599
1016.204953
1016.204953
1016.204953
1016.204953
1016.204953
1016.204953
1016.204953
1016.204953
1016.204953
1016.204953
799.923539
320.062637
125.929713
35.532713
20.639896
19.787550
19.387603
18.636584
19.474626
21.469593
25.323629
33.942461
43.222904
57.882667
68.144798
79.566836
85.666776
87.446570
85.781813
77.513456
69.365501
57.082772
48.383474
37.340522
32.709837
28.007627
25.775433
24.396777
##ZVALUE=350
1.146793
1.044869
1.121759
1.040697
1.222491
1.155734
1.117587
1.157522
1.244545
1.187921
1.241565
1.214743
1.362562
1.160502
1.326799
1.149774
1.179576
1.051426
1.179576
1.276731
1.406670
1.418591
1.207590
1.320839
1.315475
1.306534
1.462698
1.292825
1.564622
1.493692
1.386404
1.415610
1.582503
1.572967
1.419783
1.592636
1.756549
1.689792
1.747608
1.912713
1.877546
1.843572
1.920462
2.017617
2.359748
2.219677
2.672672
2.658963
2.660751
3.095865
3.083944
3.280640
3.705621
4.092455
4.585981
5.274415
7.447600
46.965480
168.007612
556.712747
995.976925
1016.202569
1016.202569
1016.202569
1016.202569
1016.202569
1016.202569
1016.202569
1016.202569
1016.202569
862.886906
360.893011
157.090425
41.551590
21.277666
17.391443
16.909838
16.315579
16.641617
18.090606
20.083785
25.320649
31.025410
40.173531
48.549771
61.525702
70.604682
78.687668
81.260800
79.158545
73.901415
63.211918
54.841638
44.485927
36.718845
29.990673
##ZVALUE=355
1.381636
1.431704
1.249909
1.363754
1.259446
1.334548
1.376867
1.364946
1.390576
1.331568
1.352429
1.427531
1.425743
1.261830
1.430511
1.415610
1.515746
1.352429
1.375675
1.466870
1.364946
1.432896
1.444817
1.609921
1.370907
1.436472
1.694560
1.528859
1.493692
1.566410
1.589656
1.705885
1.631975
1.717806
1.654625
1.744628
1.823902
1.772642
1.916885
1.931787
2.106428
2.119541
2.104640
2.126694
2.317429
2.376437
2.408624
2.607703
2.889633
2.913475
2.956986
3.142953
3.322959
3.583431
3.950596
4.086494
4.627705
5.125999
6.216764
14.524460
95.654726
277.425647
791.418552
1016.359925
1016.359925
1016.359925
1016.359925
1016.359925
1016.359925
1016.359925
1016.359925
1016.359925
973.672867
551.168919
195.613503
75.542927
23.293495
17.282963
16.260743
15.961528
16.194582
16.237497
17.478466
18.972754
22.660494
27.276874
35.843849
44.074655
55.262446
62.914491
69.472790
73.345900
71.654916
67.771673
59.168935
52.287579
##ZVALUE=360
1.319647
1.339912
1.202822
1.526475
1.502633
1.377463
1.455545
1.475811
1.434684
1.490712
1.273751
1.497865
1.488924
1.409650
1.521707
1.445413
1.463890
1.323819
1.501441
1.610518
1.599789
1.486540
1.494884
1.671910
1.613498
1.644492
1.504421
1.592636
1.634955
1.714826
1.788735
1.689792
1.694560
1.887679
1.755953
1.938939
1.890659
1.931787
1.909733
1.839995
1.912713
2.132654
2.118945
2.364516
2.291799
2.189875
2.406836
2.391934
2.571940
2.598763
2.639890
2.859831
3.079772
3.020763
3.495812
3.551841
3.843904
4.178882
4.398823
4.979968
5.658865
9.341836
33.778548
164.746642
400.937796
951.938033
1016.407609
1016.407609
1016.407609
1016.407609
1016.407609
1016.407609
1016.407609
1016.407609
1016.407609
616.495609
307.647586
103.097558
37.166476
16.403794
15.061498
15.061498
14.586449
14.629960
14.917850
15.610456
16.515851
19.505620
22.880435
29.705763
36.655664
46.377778
54.146647
62.341690
65.775514
66.319704
##ZVALUE=365
0.991821
1.151562
1.060963
0.975728
1.360774
1.178980
1.165867
1.088977
1.250505
1.274943
1.290441
1.203418
0.943542
1.358986
1.254678
1.398921
1.268983
1.094937
1.412630
1.336932
1.241565
1.356602
1.341701
1.094937
1.362562
1.372695
1.472831
1.440644
1.496673
1.307726
1.386404
1.617670
1.551509
1.537800
1.542568
1.575947
1.571774
1.795888
1.515746
1.633763
1.704693
1.712441
1.784563
1.927614
1.944900
1.943707
1.966953
1.984835
2.073646
2.090931
2.429485
2.422929
2.483726
2.604723
2.800822
2.918839
3.042817
3.209710
3.398657
3.923774
4.314780
4.664660
5.415678
6.077886
13.171434
86.903572
242.542028
652.499795
1016.201973
1016.201973
1016.201973
1016.201973
1016.201973
1016.201973
1016.201973
1016.201973
1016.201973
858.744979
445.463657
156.025887
59.701800
17.982721
14.330745
13.619661
13.173819
12.992620
13.284683
13.005733
13.382435
14.570951
16.322732
20.387769
24.112463
32.098889
38.375854
47.377944
##ZVALUE=370
0.894666
0.940561
0.922680
1.046658
1.185536
1.065731
1.082420
1.198649
1.102686
1.237988
1.129508
0.893474
1.238585
1.069903
1.159906
1.191497
1.144409
1.100898
0.986457
1.152754
1.095533
1.278520
1.229644
1.232624
1.116991
1.141429
1.288652
1.239777
1.103878
1.266599
1.265407
1.421571
1.185536
1.194477
1.220703
1.325607
1.350641
1.410842
1.442432
1.333952
1.543760
1.626611
1.700521
1.614690
1.661777
1.703501
1.656413
1.702905
1.794696
1.942515
1.910925
1.990795
1.984835
2.065897
2.187490
2.356768
2.542734
2.524853
2.546906
2.789497
2.992749
3.418922
3.579855
4.107952
4.518628
5.419850
7.383823
37.993789
135.978460
462.957621
909.054875
1016.167998
1016.167998
1016.167998
1016.167998
1016.167998
1016.167998
1016.167998
1016.167998
986.058712
568.178892
207.901597
88.887811
28.287768
14.706850
12.291670
11.683702
11.756420
11.729598
11.810660
11.909604
12.199879
12.780428
14.585853
17.209649
21.949410
##ZVALUE=375
1.065731
1.069903
1.043677
0.926852
0.947714
0.983477
1.083612
1.070499
1.101494
1.057982
1.088977
1.125932
0.906587
1.105666
1.203418
1.168847
1.003742
1.072884
1.084805
1.101494
1.054406
1.198649
1.051426
1.144409
0.908971
1.161695
1.211762
1.210570
1.214743
1.091957
1.300573
1.325607
1.302958
1.353621
1.311898
1.259446
1.218915
1.180768
1.312494
1.235604
1.206994
1.365542
1.397729
1.326799
1.523495
1.458526
1.433492
1.600981
1.542568
1.557469
1.763701
1.753569
1.764894
1.934767
2.011657
1.945496
2.053976
2.097487
2.163649
2.412796
2.548695
2.714992
2.677441
3.133416
3.209710
3.740788
4.031658
4.742742
5.804896
18.987656
70.058703
268.640518
594.671965
1016.201973
1016.201973
1016.201973
1016.201973
1016.201973
1016.201973
1016.201973
1016.201973
1016.201973
948.203802
455.338955
218.440890
60.959458
21.385550
11.863708
11.491776
11.070967
10.810494
10.742545
10.515451
10.751486
11.012554
11.791587
##ZVALUE=380
0.899434
0.837445
0.920892
0.866652
0.799894
0.954866
0.856519
1.060963
0.996590
0.818968
0.961423
0.981688
1.047850
0.899434
0.879765
0.816584
0.803471
0.936985
0.830889
0.956655
1.045465
0.951886
1.119971
0.982881
0.925660
0.996590
1.038909
1.032948
1.005530
0.980496
1.043677
0.982881
1.170635
1.092553
1.064539
1.091957
1.196861
1.124740
1.144409
1.198649
1.094937
1.117587
1.235604
1.273751
1.176000
1.393557
1.505613
1.423955
1.508594
1.610518
1.409650
1.595616
1.523495
1.707673
1.853704
1.849532
1.754761
1.901984
1.842976
1.978874
2.141595
2.208948
2.302527
2.482533
2.737641
2.881885
3.402829
3.767610
4.390478
4.953742
5.566478
10.350943
40.199757
197.005868
468.650460
1016.201973
1016.201973
1016.201973
1016.201973
1016.201973
1016.201973
1016.201973
1016.201973
1016.201973
1016.201973
563.125610
279.863477
89.274645
32.540560
12.583733
10.674596
10.177493
10.104775
9.876490
9.647608
9.869933
##ZVALUE=385
0.904799
0.829697
0.930429
1.085997
0.843406
0.766516
1.046658
1.044869
1.010895
0.931621
0.883937
0.824928
0.860691
0.941753
0.925660
0.970960
0.920892
0.925660
0.964999
0.872612
0.923872
0.808835
1.085997
1.083612
0.872612
0.901818
1.004934
0.975728
1.106858
1.145601
1.209974
1.100898
1.160502
1.159906
1.051426
1.137853
1.238585
1.149774
1.159906
0.910759
1.209974
1.198649
1.223683
1.248717
1.305938
1.265407
1.333952
1.408458
1.309514
1.383424
1.399517
1.632571
1.542568
1.609921
1.615882
1.657605
1.710653
1.667738
1.723766
1.853704
1.882911
1.959801
2.177954
2.216697
2.389550
2.599955
2.912879
3.102422
3.651977
4.120469
4.485846
4.933476
5.397797
6.690621
17.981529
117.082000
318.085551
833.981037
1016.201973
1016.201973
1016.201973
1016.201973
1016.201973
1016.201973
1016.201973
1016.201973
1016.201973
794.582963
428.943634
161.521435
59.455633
15.555620
10.220408
9.566545
9.600520
9.172559
##ZVALUE=390
0.930429
1.007915
0.892878
0.814795
0.858903
0.824928
0.775456
0.946522
0.784993
0.825524
0.777841
0.800490
0.804663
0.808835
1.022816
0.797510
0.943542
0.988841
0.850558
0.717640
0.935793
0.934601
0.889897
0.918508
0.870824
0.891685
1.027584
1.111627
0.918508
1.100898
1.147985
0.992417
1.094937
1.007915
1.150966
1.190901
1.039505
1.167655
1.094937
1.203418
1.358986
1.131892
1.202822
1.183748
1.250505
1.351833
1.426935
1.339912
1.263618
1.305938
1.259446
1.552701
1.470447
1.450777
1.310706
1.530647
1.595616
1.679659
1.780987
1.733899
1.757741
1.794696
1.923442
2.062917
2.325773
2.323985
2.596974
2.980828
3.228784
3.731847
3.998876
4.237890
4.231930
4.591942
4.842877
5.338788
9.403825
59.248805
192.399621
602.036715
1016.202569
1016.202569
1016.202569
1016.202569
1016.202569
1016.202569
1016.202569
1016.202569
1016.202569
1016.202569
667.275786
245.669484
103.007555
27.641654
11.985898
9.137988
##ZVALUE=395
0.845790
0.772476
0.893474
0.861883
0.797510
0.879765
0.893474
0.868440
0.763535
0.799894
0.911951
0.919700
0.790954
0.761747
0.930429
0.916719
0.974536
0.907779
0.859499
0.913739
0.969768
0.946522
0.919700
0.947714
0.948906
0.870824
0.956655
0.962615
1.266599
0.988841
1.076460
0.914931
0.990629
1.081824
1.154542
1.199841
1.089573
1.007915
1.233816
1.236796
1.182556
1.217723
1.216531
1.090765
1.241565
1.170635
1.350641
1.320839
1.351833
1.260638
1.381636
1.406670
1.480579
1.519918
1.500845
1.420975
1.663566
1.709461
1.655817
1.638532
1.663566
1.923442
1.960993
2.184510
2.167821
2.190471
2.412796
2.541542
2.891421
3.213882
3.612638
3.816485
4.009604
3.846884
3.893971
4.164577
4.347563
5.064607
6.287694
29.513836
117.419958
437.344909
871.875882
1016.201973
1016.201973
1016.201973
1016.201973
1016.201973
1016.201973
1016.201973
1016.201973
1016.201973
964.658856
453.766584
202.928782
54.287910
##ZVALUE=400
0.967979
1.053810
1.132488
1.065731
0.955462
0.885725
0.937581
0.967979
1.046658
0.937581
1.078844
0.992417
1.022816
1.067519
1.093745
1.027584
1.131892
1.063943
1.071692
1.067519
0.978708
1.115799
1.042485
0.938773
1.110435
1.096725
1.099706
1.076460
1.215935
1.259446
1.113415
1.317859
1.226664
1.272559
1.209974
1.149774
1.272559
1.287460
1.293421
1.313686
1.318455
1.325607
1.398921
1.350641
1.325607
1.309514
1.246929
1.546741
1.388788
1.440644
1.415610
1.510978
1.580715
1.627803
1.634955
1.591444
1.578927
1.686811
1.730919
1.924634
1.920462
1.893640
1.962781
1.994967
2.230406
2.542734
2.541542
2.743602
2.971888
3.366470
3.450513
3.780723
3.728867
3.720522
3.741980
3.750920
3.906488
4.083514
4.523993
5.210638
6.012917
18.032789
72.484612
284.898877
624.169707
1016.357541
1016.357541
1016.357541
1016.357541
1016.357541
1016.357541
1016.357541
1016.357541
1016.357541
1016.357541
642.660856
##END
