##TITLE=QP00601
##FORMAT=SPECTACLE-ASCII V-1.2
##DATA TYPE=ULTRAVIOLET SPECTRUM
##SECOND TYPE=ULTRAVIOLET SPECTRUM
##DATE=12/11/17
##TIME=14:45:49
##SPECTROMETER/DATA SYSTEM=SPECTACLE
##XUNITS=NM EM
##YUNITS=ENERGY
##YFACTOR=1
##FIRSTX=220
##LASTX=410
##NPOINTS=96
##3DDATA=Equidistant
##ZUNITS=NM EX
##FIRSTZ=210
##LASTZ=400
##ZPOINTS=39
##XYDATA=(Y..Y)
##ZVALUE=210
1.950860
1.947880
1.969934
2.314448
2.512932
2.650619
3.115535
2.889633
1.952648
2.545714
1.815557
1.642704
1.695752
2.071857
1.987815
1.782775
2.142787
2.280474
2.428889
2.185702
2.351999
2.503991
2.751946
2.620816
3.155470
2.572536
3.463626
2.889633
3.014803
3.167987
2.690554
3.131628
3.006458
4.005432
3.839731
3.221631
3.890991
3.871918
3.604889
3.956556
3.769994
3.891587
3.720522
3.971457
4.426837
4.441738
3.601909
4.093647
4.889965
4.589558
4.786849
4.501939
3.922582
4.052520
4.797578
4.564524
4.982948
4.879832
4.724860
4.206896
5.637407
5.138516
4.349947
5.442500
5.366802
5.472898
5.401969
5.514622
6.391406
8.060932
7.788539
9.910464
11.062622
12.228489
13.769865
12.915730
14.513731
13.043880
12.405515
12.120605
11.395812
9.940863
9.155869
8.462667
7.484555
6.251931
5.526543
4.915595
6.015897
5.768538
4.663467
4.748702
4.561543
5.301833
4.978776
6.182790
##ZVALUE=215
7.263422
5.879998
5.716681
4.700422
5.003810
4.585981
4.493594
5.124807
5.299449
5.330443
4.771948
4.614592
4.206896
3.458858
2.920628
2.145767
2.381802
2.379417
2.541542
2.298951
2.427697
1.995564
2.650619
2.933741
3.220439
2.820492
3.292561
3.066659
3.183484
4.222989
2.871752
3.206730
3.396869
3.900528
4.048944
4.034638
4.282594
4.544854
3.914833
3.854632
3.766418
3.995895
4.347563
4.484653
4.190803
4.136562
4.637837
4.815459
3.966689
4.251599
4.968643
4.672408
5.518794
5.295873
4.283786
5.140901
5.037785
4.857779
5.318522
5.601645
4.896522
5.281568
5.252957
5.393624
4.971623
4.944801
5.745888
5.839467
6.330609
8.172989
8.866787
9.739995
11.794567
12.002587
10.951757
12.938976
13.843775
13.202429
13.046861
11.455417
11.791587
10.584593
9.821653
7.908940
7.375479
6.812811
5.376935
6.445646
5.581975
5.567670
5.634427
5.976558
5.427599
5.672574
6.035566
5.609989
##ZVALUE=220
21.782517
19.474626
22.453666
22.942424
19.329786
17.927885
13.678670
11.435747
11.381507
10.968447
13.338923
12.164712
11.992455
10.822415
10.013580
7.749796
5.423427
4.775524
3.600717
3.000498
2.809763
2.471805
3.594756
2.960563
3.044605
2.992749
3.546476
3.126860
3.689528
3.962517
3.905892
3.707409
4.042983
4.307628
3.592968
4.085898
4.188418
4.127622
4.819632
4.126430
3.652573
4.713535
4.987717
4.104972
4.855990
4.844666
4.728436
4.884601
5.420446
4.881620
4.708767
5.185604
5.285740
5.491972
5.676746
4.941821
5.754828
5.543828
5.483627
5.293489
6.055832
5.030632
5.606413
4.789829
5.764961
6.132722
6.037951
6.794930
7.334948
9.204745
10.590553
10.749698
10.839701
11.653900
13.280511
14.691949
14.895797
13.476610
13.551712
13.577938
12.205839
11.232495
10.869503
9.667873
8.688569
8.194447
7.813573
6.529689
7.592440
6.522536
8.520484
6.777644
7.176995
7.855892
6.201863
7.570982
##ZVALUE=225
33.013821
37.059784
46.951771
56.969523
64.362884
62.956810
61.167479
49.490929
37.812591
31.472445
23.994446
23.073554
23.872852
26.814938
25.552511
26.421547
21.435618
18.417835
12.836456
8.116961
5.520582
3.832579
4.110932
3.476739
3.061891
3.719926
3.798604
3.639460
4.855990
3.656745
4.702806
4.052520
4.076958
4.407763
5.019903
5.242825
4.993677
5.009770
5.119443
5.106926
5.821586
5.944967
4.802942
4.993677
5.266666
5.356669
6.287694
5.227923
5.374551
5.513430
6.282926
6.683469
6.325841
6.281734
7.059574
5.365610
6.597638
6.279945
7.269979
7.205606
6.264448
6.921887
7.900000
7.874966
8.127689
7.343888
8.010864
9.040833
10.662675
11.170506
11.549592
13.570786
14.708638
15.454888
16.093850
16.587973
15.932918
15.404820
15.262961
16.062856
13.476610
14.306903
13.170838
12.091994
12.872815
11.065602
10.587573
11.725426
11.301637
11.308789
11.524558
10.092854
10.295510
11.757612
11.052489
11.297464
##ZVALUE=230
30.296445
31.844974
51.558614
85.531473
112.116933
141.890645
154.527426
155.802965
141.240954
125.017762
87.215900
64.932704
46.093464
45.355558
46.994686
50.909519
51.997900
51.741600
43.463707
38.332939
28.142929
19.109845
13.662577
7.201433
5.781651
4.595518
5.409718
4.559755
4.988909
4.599690
4.759431
5.036592
5.153418
5.787611
5.230904
5.534887
5.145669
5.793571
6.262660
6.137490
6.247759
5.199909
6.015897
6.291866
5.863905
6.087422
6.295443
6.163716
7.071495
6.552935
7.211566
7.182956
6.925464
7.132888
7.076859
7.740855
7.155538
7.718801
8.711815
9.226799
8.459687
9.882450
9.432435
10.325909
10.259748
11.283755
12.277961
12.078881
13.125539
13.722777
14.740825
15.461445
18.093586
19.358993
21.363497
20.277500
20.813942
21.464825
20.194650
19.609928
18.336773
18.946528
18.456578
17.944574
17.980933
18.228889
17.157793
17.616749
17.930865
17.546415
17.436743
16.482472
17.372966
18.033981
17.067790
18.729568
##ZVALUE=235
11.475682
13.334751
25.753975
59.653521
98.802447
162.720680
211.891532
277.105570
303.343534
309.201479
278.857946
229.776502
160.751939
114.143491
87.637901
74.522495
73.363781
78.221560
87.587833
84.265471
75.740814
68.027973
52.567720
38.945675
25.699735
17.210841
9.783506
6.438494
5.765557
6.491542
6.892681
5.669594
7.270575
5.873442
5.039573
6.073713
6.072521
6.481409
6.622672
6.928444
6.575584
6.748438
6.362796
5.695820
6.231666
5.830526
6.455779
6.586909
6.444454
6.809831
7.228851
6.688833
6.706715
7.786751
8.681417
9.545684
7.872581
10.008812
8.240938
9.809732
10.504723
12.336969
11.849999
12.643933
12.777448
11.856556
15.159845
15.193820
17.295480
18.852949
18.686652
22.688508
22.296906
24.780631
26.046634
26.118755
27.145743
26.317835
25.195479
27.471781
27.116537
26.558638
26.059747
24.484992
25.237799
25.840998
25.966763
25.661588
25.660992
24.853945
24.818778
25.775433
25.491714
23.770928
24.609566
25.035739
##ZVALUE=240
1.432896
1.561642
5.125999
12.619495
36.045909
70.790648
141.080618
214.068890
319.235921
391.033888
457.092524
453.029871
423.359871
340.936780
262.759924
171.656609
128.630996
94.988942
89.480877
95.334649
108.963847
111.341476
108.033419
99.692941
76.962709
62.311888
43.990612
31.803846
20.006895
13.750792
9.943843
7.937551
7.268786
7.526875
7.315874
7.058978
6.090999
6.893873
6.712675
6.703734
6.207824
6.198883
6.086826
6.452799
6.439686
6.101727
6.676912
7.188916
6.466508
6.264448
6.861687
7.503629
7.349849
7.361770
7.659793
8.428693
8.255839
9.431839
8.878708
9.229779
10.709763
11.746883
10.932684
12.842417
12.623668
13.308525
14.194846
16.121864
17.977953
18.025637
21.153688
21.990538
23.736954
26.882887
26.325583
28.597713
30.761957
30.496716
30.428767
30.577779
30.874610
30.887723
30.291677
30.105710
29.678941
29.759407
29.850602
30.522943
29.468536
30.355453
29.882789
30.868649
30.891895
30.570626
29.218793
29.497743
##ZVALUE=245
1.203418
1.365542
1.361966
1.703501
3.350973
9.806752
29.861927
66.105723
145.105720
231.322646
361.628532
453.372002
526.627898
554.560423
532.357693
442.667603
365.722775
247.824788
180.981755
113.745928
94.675422
94.393492
106.884837
118.150711
122.233629
121.544600
106.676817
94.468594
71.056485
52.753687
37.612915
22.448897
15.366673
10.053515
7.909536
7.729530
7.288456
7.719994
7.359982
6.740689
6.458759
6.417632
6.476641
5.821586
6.344914
5.840659
6.518960
5.828738
6.399751
6.399751
5.679727
6.297827
6.292462
6.372929
6.147623
7.465482
6.962419
8.209944
8.297563
8.363724
8.236766
10.458827
10.057688
10.362864
12.399554
13.137460
14.435649
13.979673
15.962720
17.626882
18.696785
21.467805
22.817850
24.570823
26.226640
25.663972
27.190447
27.519464
29.004812
28.592944
29.480457
27.992725
29.197931
31.069517
30.199885
28.840899
30.221939
30.784607
29.594898
30.906796
28.810501
31.025410
29.368997
29.357672
29.147863
31.144619
##ZVALUE=250
1.070499
1.239777
1.307726
1.241565
1.454949
1.153946
1.968741
5.921721
24.776459
53.922534
128.878951
219.110847
322.188735
473.112464
563.095808
635.071993
640.686750
563.730001
480.255485
336.997509
232.884884
159.242749
98.692775
88.171959
102.160573
115.679502
127.867460
132.703781
131.435990
119.253993
97.399950
80.808997
58.891773
35.705566
24.280548
13.758540
9.986758
7.148981
6.431937
6.038547
6.468892
6.037951
6.214976
5.569458
5.692840
5.448461
6.031990
5.906820
5.788803
6.167889
5.741715
5.660653
5.977750
6.529689
5.912781
6.623864
6.612539
7.187724
6.333590
7.384419
8.432865
8.640885
9.287000
9.320974
11.067986
10.387897
12.316704
11.927485
14.300942
15.226603
16.972423
18.183589
20.658970
21.831989
22.187829
23.952723
24.411678
24.633408
25.322437
24.978518
27.107596
26.389956
26.624799
26.896000
27.705431
26.278496
28.137565
28.664470
28.235912
27.449727
27.987957
27.254820
27.766824
28.506517
28.062463
27.716756
##ZVALUE=255
1.177788
1.169443
1.214743
1.073480
1.187921
1.200438
1.534820
1.448989
1.575947
3.422499
16.630888
42.516589
85.445642
183.309913
297.771692
460.544825
577.436686
692.964792
729.200840
685.746670
595.317483
473.610759
305.614471
195.763707
110.928416
88.360906
84.718466
96.178651
120.806694
132.944584
139.796734
139.633417
127.872825
99.486709
80.358982
52.357912
36.210418
20.564795
13.951659
8.284450
5.532503
5.646944
6.027818
5.615950
5.802512
5.388856
5.375743
5.743504
5.279779
5.617738
5.432963
5.757809
5.580783
5.292892
5.348921
6.339550
6.013513
5.915761
6.146431
6.728768
6.660819
7.569790
8.171797
8.069873
9.541512
9.834766
10.468960
10.592937
11.767745
13.656616
15.039444
15.323758
17.958879
18.620491
18.950701
21.305680
20.477772
21.913648
22.232533
22.100806
22.427440
23.576617
23.506880
24.715662
24.676919
25.584698
24.514794
25.331974
25.675893
26.340485
25.091767
25.605559
25.378466
26.174784
26.109815
28.755665
##ZVALUE=260
1.159906
0.907779
1.199841
0.900626
0.937581
1.364946
1.060963
1.222491
1.330972
1.316667
1.545548
2.248883
7.108450
29.048920
63.154697
149.445534
246.620774
414.899588
551.823974
712.555647
786.193609
788.034797
711.411834
578.759909
393.227935
272.680521
159.928799
101.613998
74.786544
76.568723
99.652410
118.066669
131.444931
141.032934
139.664412
126.124620
103.762746
77.985525
56.264997
36.241412
23.105741
12.532473
8.689761
5.820990
5.348921
5.345941
5.237460
5.322695
5.395412
5.180836
5.364418
5.666614
5.394816
5.612969
5.652905
6.371737
5.620718
5.840659
6.634593
6.925464
7.111430
6.980896
7.164478
8.029938
8.124709
8.801818
9.515882
10.431409
11.043549
11.985898
13.350844
14.242530
14.784932
16.479492
17.085671
16.950965
18.483996
18.730760
20.109415
20.017624
19.477606
21.803975
21.371841
21.847486
21.637678
21.794438
23.234487
24.377704
22.783875
23.566484
23.437738
23.686886
23.927689
24.476647
24.698973
24.341941
##ZVALUE=265
0.940561
0.951886
1.097918
1.056790
1.113415
1.191497
1.030564
1.164675
0.972748
1.183748
1.392961
1.549721
1.574755
1.687407
3.140569
17.120838
43.928623
111.917853
200.107694
382.473469
542.528033
696.403980
853.620768
887.175798
808.613896
698.598623
516.653657
369.079709
208.306909
129.138827
75.151920
65.670609
74.620843
101.429820
120.536685
141.723752
146.029592
139.794946
125.186443
101.062655
78.934431
52.891970
35.124421
19.720793
12.166500
7.955432
5.544424
5.582571
5.450845
5.768538
5.158782
5.481839
5.296469
5.660653
5.860925
5.223751
6.009936
5.896688
6.079674
6.222725
6.782413
6.894469
7.574558
8.198619
8.418560
8.950830
9.047985
10.224581
11.153817
11.186600
11.795759
12.936592
13.831854
15.535951
15.723705
16.186833
16.976595
17.400980
17.732978
17.850995
18.799901
19.282699
19.057989
19.849539
19.736886
21.799803
20.834804
21.281838
21.805763
20.802617
21.616817
22.446513
22.756457
23.191571
23.927689
23.123622
##ZVALUE=270
1.124740
1.191497
0.910759
0.893474
0.874996
0.999570
1.288652
1.151562
1.206994
1.122952
1.229644
1.329780
1.190901
1.486540
1.500845
1.488924
2.401471
6.678700
20.092726
71.876645
147.961974
312.902927
472.447872
690.039992
828.690529
919.964910
911.144018
802.584887
666.520596
470.121503
319.747925
171.033740
99.841952
57.501793
56.596994
77.221990
97.186565
123.703480
139.708519
145.337582
141.646862
124.647617
106.508732
78.086853
58.269501
33.321977
22.057891
12.934804
8.730888
6.617904
5.203485
5.699992
5.472898
5.817413
6.186962
5.964637
5.972981
6.468892
6.345510
7.041693
6.849766
6.840825
7.893443
7.831454
8.196831
9.224415
9.153485
10.174513
10.576844
11.505485
12.004972
12.397766
12.727976
14.511943
14.940500
15.786886
16.898513
16.385913
16.537905
17.307997
17.509460
18.390417
18.521547
19.349456
18.931627
19.550920
18.875599
19.914508
20.029545
20.659566
20.890832
19.985437
21.297932
21.328926
21.534562
21.549463
##ZVALUE=275
0.827909
0.806451
0.707507
0.911951
0.696778
0.689626
0.893474
0.793934
0.824928
0.835657
1.082420
0.895858
1.032948
1.119971
1.100898
1.322627
1.224875
1.205802
1.667738
3.891587
13.951659
41.910410
125.312805
237.395763
443.970561
606.849790
803.096890
924.865603
974.872708
929.631591
817.362666
614.306927
439.677835
234.563947
137.248635
64.664483
46.478510
54.433942
71.291924
98.767877
118.612647
136.764646
141.251683
139.197707
125.459433
99.865794
78.771710
55.534840
37.995577
23.140907
14.833808
9.181499
6.858706
6.309748
6.144643
6.736517
6.303787
6.652474
6.985664
6.862879
6.830692
7.698536
7.977486
8.507967
8.885860
8.844733
9.208918
9.792447
10.714531
11.659861
11.559725
12.735724
13.711452
14.180541
14.780760
15.334487
16.058683
16.237497
16.680956
17.169714
17.082691
17.901659
17.942786
18.486977
18.380880
18.681884
19.168854
19.046664
19.008517
19.539595
19.471645
19.908547
19.805431
18.973947
20.410419
20.107627
##ZVALUE=280
0.880957
0.933409
0.853539
0.885725
0.859499
0.930429
1.104474
0.911951
0.902414
0.853539
1.107454
0.980496
1.035929
0.956655
1.150966
1.327991
1.356602
1.316667
1.352429
1.584888
1.470447
1.935959
9.052753
31.217933
98.078847
184.544921
353.133678
526.866913
754.220486
901.376605
985.691547
991.493464
898.744464
688.939691
513.104796
295.145512
177.927613
82.173944
46.369433
37.915707
49.154758
74.580908
94.767809
119.216442
133.419633
140.331984
135.347843
120.663643
103.354454
76.233745
56.418777
35.325885
23.613572
14.696717
9.715557
7.221699
6.936789
6.734729
6.847978
6.910563
7.368922
8.041859
8.082986
8.275509
8.578897
9.685755
9.729862
10.182858
10.709763
11.623502
11.915565
13.034940
13.509989
14.328957
15.084743
15.436411
15.528798
16.237497
16.404986
17.162561
17.542839
17.454624
17.559528
17.532706
18.025637
19.155741
18.274784
18.121600
19.337535
18.797517
19.686818
19.638538
19.075871
19.899607
19.402504
19.548535
##ZVALUE=285
0.831485
0.720620
0.792742
0.852942
0.843406
0.743866
0.880957
0.898838
0.910759
0.973940
1.029968
1.045465
0.897646
1.013875
0.959635
1.261830
1.160502
1.073480
1.046658
1.243949
1.157522
1.439452
1.588464
1.803637
4.324913
15.505552
52.701831
113.791823
256.896019
403.962731
617.612004
794.080496
933.381915
1010.941863
952.493548
788.857937
620.526671
392.010808
246.182680
119.552612
62.908530
31.536818
30.762553
48.210621
66.468716
93.498826
110.998750
129.515529
136.605501
132.623911
122.432709
102.604628
82.995892
56.965947
39.142966
23.147464
15.248656
10.385513
8.487701
7.886887
7.764697
7.797480
8.467436
9.319782
9.269714
9.938478
10.289550
10.822415
11.399984
11.984706
12.832880
13.390779
13.679862
14.435649
15.417933
15.599728
15.931726
16.203523
16.483665
16.792417
17.325878
17.219782
18.025637
18.156767
18.021464
18.638968
18.679500
18.197894
18.938780
19.422770
18.957853
19.427538
18.734932
18.886924
19.434690
18.902421
##ZVALUE=290
0.713468
0.692606
0.715852
0.902414
0.889897
0.836849
0.938773
0.850558
0.562668
0.719428
0.874996
0.903606
0.779629
0.944734
0.901818
1.051426
0.978708
1.039505
1.036525
1.099706
1.068711
1.248717
1.108646
1.346469
1.671910
1.717806
2.242923
6.373525
29.126406
72.959661
146.542788
315.075517
491.038561
748.818517
912.692547
1016.201973
1016.201973
902.503729
740.094781
499.022603
334.334970
166.852474
90.341568
36.448836
23.301840
30.683875
43.181777
64.874887
84.425807
108.587742
123.010874
130.958557
131.968856
117.120743
102.279782
76.137781
57.212710
36.660433
26.757717
16.419888
11.952519
9.583831
9.445548
9.106994
9.172559
9.731650
10.185838
11.055470
11.683702
11.996627
12.947917
14.069676
14.954805
15.196800
15.923977
15.814900
16.072989
16.813874
16.687512
17.279983
17.531514
17.832518
17.868876
18.560886
18.422604
18.323660
18.743873
18.500686
18.889904
18.641949
18.639565
19.047856
18.651485
18.918514
18.829703
19.531846
##ZVALUE=295
0.788569
0.690818
0.785589
0.684857
0.761747
0.715852
0.646710
0.842810
0.699759
0.549555
0.825524
0.739694
0.900626
0.857711
1.032948
0.964999
1.029968
1.005530
0.988841
1.069903
0.989437
1.100898
1.369715
1.232624
1.433492
1.450777
1.501441
1.705885
1.824498
3.143549
10.639429
47.175884
109.661818
254.600644
414.116979
662.644506
834.558010
1004.057527
1016.201973
969.241858
831.933618
598.596931
415.819883
219.904780
120.992661
45.803785
24.141669
19.641519
25.642514
42.717457
57.970881
82.187653
99.791884
118.005872
126.444697
124.269724
114.349723
95.468760
77.616572
54.433942
40.583611
25.821924
18.471479
13.076663
10.940433
10.529757
10.520816
10.978580
11.602640
12.594461
13.448596
14.270544
14.988780
15.139580
15.530586
15.526414
16.373992
17.322898
17.580986
17.583966
18.083453
18.855929
19.094944
18.559694
18.812418
19.247532
19.339919
19.700527
18.886924
18.911958
19.239783
18.569827
18.707514
18.475652
18.452406
18.523932
##ZVALUE=300
0.694990
0.848770
0.776649
0.716448
0.788569
0.826716
0.741482
0.628829
0.723600
0.820756
0.710487
0.835657
0.972748
0.831485
0.877976
0.799894
0.686646
0.793934
0.911951
0.781417
1.025796
1.027584
1.176596
1.076460
1.206994
1.158714
1.164675
1.215935
1.450777
1.491904
1.774430
2.039671
7.146597
23.519993
80.618858
162.867904
339.363813
519.909859
772.945881
928.985476
1016.201973
1016.201973
901.700854
748.538971
497.750640
324.781537
168.118477
89.618564
33.351779
17.839670
16.457438
23.271441
38.068891
52.828789
75.268745
93.284845
111.877918
119.869709
119.852424
112.586617
95.436573
78.248978
57.489872
42.722821
27.923584
20.805597
15.381575
12.984872
12.446642
12.869835
13.709664
14.377832
14.508963
15.383959
16.153455
16.531944
16.872883
17.181635
18.480420
18.192530
18.789768
18.817782
19.025803
19.150972
19.415617
19.990802
20.287633
19.407868
19.373894
19.604564
18.984675
19.530654
19.018650
18.762946
19.475818
19.102693
##ZVALUE=305
0.686646
0.787973
0.584722
0.644922
0.634789
0.719428
0.630617
0.768900
0.651479
0.691414
0.647902
0.739694
0.607967
0.855923
0.675917
0.796914
0.745654
0.873804
0.707507
0.781417
0.901818
1.099706
0.934601
0.866652
1.068711
0.886917
0.960827
1.177788
1.148582
1.299977
1.496673
1.623631
1.550913
1.818538
2.643466
16.126633
45.773983
132.296681
238.996744
448.541641
633.713007
865.129828
998.494625
1016.176939
983.785987
789.922476
621.115565
398.115516
252.570510
115.482807
56.467652
20.109415
12.986660
16.148686
22.610426
37.336946
51.831603
73.164701
88.922977
107.047558
114.645958
113.868713
107.515454
90.725422
76.064467
54.736733
41.265488
29.186606
21.629930
16.929507
14.831424
14.373660
15.248656
15.643835
16.001463
16.784668
16.752481
17.684698
17.752647
18.527508
19.110441
19.482970
19.767880
19.905567
19.717813
19.583702
20.317435
20.146966
19.877553
20.057559
20.177960
19.985437
19.504428
19.616485
19.580722
19.506812
##ZVALUE=310
0.578761
0.718832
0.607967
0.596642
0.556707
0.588894
0.729561
0.599623
0.587702
0.663996
0.888705
0.820756
0.626445
0.627637
0.779629
0.805855
0.781417
0.858903
0.731945
0.937581
0.898838
0.805855
0.744462
0.936985
0.925660
0.992417
1.044869
1.229644
1.045465
1.022816
1.200438
1.361966
1.351833
1.427531
1.553893
1.630783
1.794696
7.069707
23.156404
79.774857
159.637928
338.324904
515.553951
768.505931
941.997766
1016.201973
1016.201973
953.791738
789.220929
533.455610
359.810591
183.300972
97.733736
35.205483
15.670657
10.930896
13.574958
21.592975
31.284690
48.557520
64.401627
84.896684
98.697543
107.504725
110.605955
102.595687
93.009472
74.661970
58.890581
41.834712
32.239556
23.563504
20.154715
17.337799
17.023683
17.105937
17.645955
18.097758
17.780662
19.289851
19.599795
19.718409
20.004511
19.738674
20.238757
20.934939
20.536780
20.380616
20.484924
20.930767
21.052957
20.587444
20.693541
20.237565
19.887686
20.245910
##ZVALUE=315
0.575781
0.620484
0.462532
0.701547
0.532866
0.616908
0.572801
0.564456
0.655651
0.751615
0.631809
0.691414
0.680685
0.578761
0.731945
0.709891
0.856519
0.670552
0.788569
0.866652
0.832677
0.655651
0.698566
0.862479
0.809431
0.824928
0.886917
1.084805
1.136661
1.090765
1.059771
1.077652
1.215935
1.138449
1.244545
1.377463
1.377463
1.644492
1.766682
3.418922
12.192726
50.236583
113.737583
264.220834
425.181985
682.489872
855.719447
1014.291644
1016.201973
1009.364724
888.704658
649.681687
464.639664
252.615809
138.989687
52.548647
23.217797
10.749698
10.402799
14.097691
19.822717
31.451583
43.308735
61.986446
77.582598
96.755624
103.381872
106.635690
101.369619
88.162422
74.479580
57.044625
44.801831
31.915903
25.421977
20.671487
18.934608
18.452406
18.614531
18.843412
19.226670
19.497871
19.947886
21.241903
20.568967
20.724535
20.621419
21.136999
20.833611
20.692945
21.007657
20.549893
20.294785
20.696521
20.350814
20.110607
##ZVALUE=320
0.587702
0.667572
0.543594
0.730753
0.595450
0.734925
0.598431
0.569820
0.555515
0.548959
0.741482
0.678897
0.729561
0.818968
0.603795
0.707507
0.615716
0.601411
0.722408
0.852942
0.847578
0.435710
0.727773
0.791550
0.744462
0.930429
0.905991
0.827909
0.695586
0.983477
1.027584
0.887513
0.902414
1.048446
1.062751
1.025796
1.219511
1.258850
1.489520
1.501441
1.764894
2.120733
5.606413
30.312538
74.902773
195.594430
328.189731
550.980568
743.262768
970.471501
1016.169786
1016.169786
976.836681
756.425858
553.350449
312.309861
181.216598
78.103542
35.869479
13.105869
9.967685
10.538697
13.063550
19.081831
27.225614
42.147636
55.927634
75.831413
88.036656
99.110603
101.589561
98.077655
88.812709
70.678592
58.483481
42.878985
33.839941
26.510954
22.267699
20.020604
19.901991
19.568801
20.185709
20.404458
20.562410
21.030903
21.319985
20.954609
21.024942
20.902753
21.186471
20.848513
20.763874
20.383596
20.538568
20.524859
##ZVALUE=325
0.590682
0.714660
0.568628
0.717640
0.514984
0.532866
0.631809
0.479817
0.617504
0.728965
0.728965
0.637770
0.583529
0.729561
0.676513
0.589490
0.816584
0.782609
0.723600
0.772476
0.723600
0.772476
0.724792
0.773668
0.809431
0.708699
0.763535
0.859499
0.892878
0.902414
0.871420
0.885725
0.932813
0.824928
0.916719
0.963807
1.105666
0.964999
1.093745
1.270771
1.401901
1.496673
1.570582
1.800656
3.142953
19.184947
50.968528
134.410858
250.046849
472.592711
672.304630
916.872025
1016.198993
1016.198993
1009.782553
804.699659
614.603758
379.528999
230.631828
101.277828
48.805475
17.406940
10.312796
9.646416
10.534525
14.271736
19.071698
28.904676
40.473938
59.561729
71.793795
87.734461
94.799995
97.693801
92.890859
80.739856
69.348812
54.191947
43.294430
32.476783
26.981831
23.004413
21.742582
20.504594
20.761490
20.411611
20.880699
20.725727
20.465851
20.611882
20.789504
20.775795
20.444989
19.997954
20.704865
20.757914
##ZVALUE=330
0.563860
0.634789
0.608563
0.528693
0.625849
0.641942
0.708699
0.596642
0.754595
0.679493
0.748634
0.665784
0.811815
0.769496
0.713468
0.665784
0.679493
0.816584
0.644922
0.736713
0.816584
0.730753
0.724792
0.741482
0.792742
0.752807
0.871420
0.864863
0.809431
0.894666
1.009703
0.870824
0.797510
0.732541
0.937581
0.858903
0.970960
1.000762
1.064539
1.295805
1.189709
1.227856
1.124740
1.395941
1.609921
1.676679
2.070665
8.763671
28.393865
92.389584
179.211497
364.618897
539.280772
797.922015
969.062448
1016.239524
1016.239524
915.431976
736.217499
487.017632
316.898823
149.655938
75.375438
27.836561
13.491511
10.091662
10.113716
11.542439
13.832450
20.439625
27.638674
41.240454
53.957701
70.669651
81.976652
91.049671
93.571544
87.878704
79.500675
65.196753
53.905845
40.436983
33.844709
27.647614
24.389625
21.124482
20.483732
20.580888
20.297766
20.437837
20.348430
20.187497
20.141602
19.988418
19.906759
19.968748
##ZVALUE=335
0.589490
0.565648
0.551939
0.630617
0.521541
0.554919
0.576973
0.498891
0.630617
0.547767
0.518560
0.586510
0.525713
0.665784
0.672936
0.515580
0.481606
0.561476
0.650883
0.703931
0.659823
0.647902
0.735521
0.621676
0.724792
0.621676
0.671744
0.707507
0.756979
0.645518
0.934601
0.831485
0.712872
0.916719
0.910759
0.805855
0.767708
0.917912
0.952482
0.679493
0.994802
0.933409
1.120567
1.199841
1.184940
1.260638
1.467466
1.546741
1.678467
3.805757
13.769865
54.216981
114.756823
258.044600
419.945717
677.479506
855.842829
1014.441848
1016.201973
965.806842
812.610984
565.794706
385.212898
200.615525
107.077956
38.325787
17.509460
10.297894
10.238886
10.715723
11.696815
14.912486
19.551516
28.782487
38.841963
54.744482
66.039562
79.358816
86.509585
88.635683
84.549785
74.471831
65.488815
52.811503
44.094920
33.524632
28.225780
23.181438
21.443963
20.135641
19.608736
19.443631
19.454956
19.352436
19.599795
19.403696
##ZVALUE=340
0.248551
0.395775
0.451803
0.421405
0.395775
0.415444
0.449419
0.463724
0.439882
0.415444
0.558496
0.473857
0.526905
0.536442
0.465512
0.591874
0.650883
0.637770
0.687838
0.499487
0.531673
0.711679
0.639558
0.598431
0.605583
0.509620
0.610948
0.671744
0.858903
0.741482
0.617504
0.795722
0.731945
0.718832
0.803471
0.752807
0.804663
0.897646
0.712872
0.769496
0.862479
0.798702
0.973940
0.891685
0.912547
0.976920
1.053810
1.258850
1.137853
1.189709
1.368523
2.162457
6.988645
36.674738
90.322495
226.529837
380.729437
628.224015
817.306638
1006.394625
1016.075015
1016.075015
905.109644
676.997900
476.318598
247.561932
142.208934
61.715841
28.253794
11.530519
9.977818
10.382533
11.247993
12.709498
15.195608
20.731688
27.695894
38.935542
50.353408
65.498948
75.776577
82.868934
84.319711
80.129504
74.069500
61.754584
51.968694
40.360689
33.435822
26.812553
23.371577
19.741654
19.114614
18.318892
18.615723
18.736720
##ZVALUE=345
0.554919
0.515580
0.649691
0.411868
0.579953
0.680685
0.495911
0.574589
0.636578
0.637770
0.592470
0.554919
0.541806
0.515580
0.765920
0.681877
0.662804
0.683665
0.705719
0.764728
0.629425
0.707507
0.713468
0.543594
0.636578
0.678897
0.650883
0.668764
0.779629
0.711679
0.795722
0.731945
0.695586
0.818968
0.829697
0.701547
0.815988
0.935793
0.888705
0.791550
0.860691
1.060963
1.043677
0.834465
1.017451
0.972748
1.011491
0.997782
1.161695
1.220703
1.287460
1.425743
1.557469
1.753569
3.231764
19.930601
57.787895
152.831674
274.757743
501.178503
685.129762
905.361772
1007.218957
1016.196012
944.619775
728.521943
544.916987
322.514772
184.007883
73.649883
35.042763
14.545918
10.565519
10.385513
10.672808
11.328459
12.516975
15.050769
19.058585
26.414990
35.606623
49.030781
58.810711
70.298910
74.976683
77.555776
75.564981
68.996549
61.176419
49.468875
41.388869
30.916929
26.525855
21.641850
19.758940
18.316507
##ZVALUE=350
0.589490
0.475645
0.588894
0.536442
0.730753
0.583529
0.609756
0.575781
0.650883
0.463724
0.484586
0.667572
0.630617
0.522733
0.573993
0.495911
0.698566
0.621676
0.594854
0.632405
0.602603
0.623465
0.572801
0.524521
0.686646
0.649691
0.620484
0.611544
0.521541
0.618696
0.692606
0.694990
0.662804
0.752807
0.799894
0.808835
0.700951
0.747442
0.978708
0.745654
0.729561
0.686646
0.763535
0.825524
0.921488
0.867844
0.894666
0.914931
1.046658
1.031756
1.045465
0.855923
1.205802
1.203418
1.497865
1.596808
2.133846
11.054873
34.319758
103.713870
194.974542
383.271575
552.033782
764.988661
899.112821
981.581807
939.192772
776.802897
601.733923
361.601710
223.680735
106.358528
51.046610
17.476678
10.808706
9.890795
9.989738
10.455847
10.978580
12.321472
13.950467
18.917918
23.665428
32.480955
41.011572
53.368807
61.385632
69.461465
71.380734
70.720911
65.456629
55.772662
47.601461
37.726760
30.843616
24.821758
##ZVALUE=355
0.553727
0.569820
0.614524
0.547767
0.673532
0.583529
0.600815
0.605583
0.455976
0.619888
0.670552
0.689626
0.514984
0.727773
0.539422
0.630617
0.511408
0.613928
0.607967
0.660419
0.682473
0.635982
0.730753
0.713468
0.729561
0.604987
0.743866
0.719428
0.675917
0.675917
0.662804
0.748634
0.633597
0.735521
0.745654
0.830889
0.741482
0.701547
0.687838
0.714660
0.655651
0.733733
0.821948
0.964999
0.943542
0.953674
0.904799
0.924468
0.946522
0.941753
0.976920
0.947714
1.044869
1.005530
1.117587
1.237988
1.396537
1.598597
1.828671
3.467798
20.086765
56.823492
152.266622
267.948508
486.909747
660.593510
867.452025
956.853032
953.754783
847.921968
635.625720
464.632511
264.335871
147.059560
58.165789
27.057528
11.403561
9.748936
9.616613
10.004640
10.404587
10.685921
11.671782
13.195872
16.922951
21.332502
28.905869
36.416650
47.579408
54.397583
61.886907
64.337850
64.588785
60.524940
52.765608
45.585632
##ZVALUE=360
0.469685
0.540614
0.588894
0.673532
0.799894
0.530481
0.607967
0.687838
0.555515
0.623465
0.524521
0.600815
0.528693
0.606775
0.672936
0.751615
0.665784
0.616908
0.577569
0.509620
0.659823
0.562668
0.551939
0.566840
0.522733
0.621676
0.667572
0.625849
0.784993
0.750422
0.640750
0.757575
0.725985
0.559688
0.606775
0.658631
0.825524
0.810623
0.839829
0.754595
0.685453
0.775456
0.836849
0.730753
0.890493
0.951886
0.851750
0.841618
0.967979
0.915527
1.021624
1.132488
1.105666
1.068711
1.290441
1.291633
1.183748
1.470447
1.388788
1.767874
1.800656
2.682805
7.464886
36.125779
85.891485
210.044980
352.087617
586.412549
751.309991
912.875533
956.027508
882.736444
750.555992
512.585640
346.857905
176.892877
95.380545
38.203597
17.312765
9.445548
9.083748
9.012818
9.111762
9.806752
10.061860
10.453463
11.619925
14.367700
17.842650
23.717880
30.498505
40.023923
47.408938
54.308772
58.226585
59.111714
##ZVALUE=365
0.573993
0.598431
0.489950
0.595450
0.746846
0.603795
0.598431
0.641942
0.630617
0.438690
0.540614
0.568628
0.683665
0.626445
0.688434
0.698566
0.690818
0.768900
0.567436
0.511408
0.682473
0.561476
0.526905
0.720620
0.709891
0.673532
0.727773
0.649691
0.801682
0.753999
0.578761
0.704527
0.702739
0.585914
0.792742
0.649691
0.651479
0.686646
0.654459
0.769496
0.703931
0.791550
0.886917
0.720620
0.783801
0.801682
0.818968
0.708699
0.682473
0.861883
0.895858
0.760555
0.986457
0.874996
1.077652
1.028776
1.108646
1.104474
1.151562
1.253486
1.224875
1.290441
1.489520
1.826882
3.404617
19.266605
53.570867
141.771436
259.692669
472.522974
642.623901
831.141472
913.453698
899.828672
804.815888
616.027713
446.807742
243.663788
138.872862
55.559874
24.806857
10.329485
8.349419
8.464456
8.607507
8.405447
8.567572
9.000897
9.225607
10.319948
12.057424
16.030669
19.929409
27.715564
34.261942
42.197704
##ZVALUE=370
0.606775
0.637770
0.419617
0.575781
0.634789
0.666976
0.682473
0.592470
0.578761
0.568628
0.623465
0.698566
0.631809
0.580549
0.586510
0.659823
0.645518
0.436902
0.440478
0.505447
0.565648
0.655651
0.747442
0.665784
0.677705
0.663996
0.607967
0.637770
0.626445
0.641942
0.719428
0.638962
0.543594
0.770688
0.796914
0.604987
0.667572
0.808835
0.816584
0.722408
0.759959
0.639558
0.690818
0.650883
0.715852
0.699759
0.844598
0.781417
0.782609
0.672936
0.826716
0.736713
0.813603
0.983477
1.017451
0.983477
1.031756
0.903606
0.977516
0.893474
1.082420
1.070499
1.082420
1.441836
1.291633
1.754761
2.140999
9.920597
35.225749
117.204785
214.414597
407.477617
586.056709
814.467669
929.868817
936.290026
861.105919
682.860017
511.765480
287.768841
163.332820
67.099929
31.788945
12.731552
8.266568
7.630587
7.558465
7.757545
7.801652
8.072853
8.425713
8.663535
9.535551
11.339784
13.575554
18.107891
##ZVALUE=375
0.434518
0.528693
0.574589
0.630617
0.420809
0.599623
0.568628
0.536442
0.658631
0.471473
0.586510
0.588894
0.569820
0.540614
0.639558
0.484586
0.620484
0.508428
0.604987
0.681877
0.499487
0.723600
0.584722
0.664592
0.479817
0.618696
0.641942
0.581741
0.511408
0.606775
0.670552
0.512600
0.734925
0.579953
0.600815
0.666976
0.764728
0.623465
0.537634
0.579953
0.654459
0.703931
0.747442
0.869632
0.727773
0.690818
0.714660
0.669956
0.613928
0.725985
0.737906
0.712872
0.731945
0.804663
0.839829
0.913739
0.785589
0.867844
0.879765
0.717640
0.903606
1.015663
1.035929
1.030564
1.148582
1.222491
1.281500
1.445413
1.828671
4.403591
16.645789
64.947605
140.488744
304.789543
463.251472
678.911805
815.637708
911.118984
888.390541
743.200779
585.464835
365.063548
234.421492
117.624998
59.808493
20.539761
9.655952
7.280707
6.983876
6.972551
7.351637
7.404685
7.365942
7.513762
7.976890
8.684993
##ZVALUE=380
0.391603
0.517964
0.599623
0.541806
0.490546
0.475645
0.590682
0.421405
0.412464
0.552535
0.536442
0.483990
0.523925
0.568628
0.540614
0.595450
0.491738
0.552535
0.509620
0.613928
0.414848
0.567436
0.609756
0.698566
0.574589
0.644922
0.592470
0.642538
0.670552
0.680685
0.735521
0.526905
0.673532
0.638962
0.750422
0.534654
0.653863
0.801682
0.466704
0.779629
0.473857
0.645518
0.627637
0.646710
0.511408
0.544786
0.633597
0.698566
0.688434
0.722408
0.678897
0.562668
0.828505
0.769496
0.857711
0.649691
0.675917
0.626445
0.776649
0.738502
0.830889
0.894666
0.983477
0.839829
1.065731
0.959635
1.035929
1.388788
1.505613
1.540780
1.686811
2.595782
9.003878
44.989586
107.029676
250.870585
402.728915
624.281764
788.760781
923.702717
938.817859
832.118988
694.981813
480.731726
320.599675
160.174966
82.321763
29.207468
12.874603
7.251501
6.480813
6.453991
6.523728
6.859899
7.001758
7.076859
##ZVALUE=385
0.378489
0.454783
0.563860
0.450611
0.324845
0.467896
0.351667
0.390410
0.485778
0.465512
0.452995
0.544786
0.527501
0.556707
0.505447
0.533462
0.466704
0.391603
0.435710
0.432730
0.458956
0.436902
0.570416
0.589490
0.573993
0.468493
0.526905
0.545979
0.598431
0.509620
0.683665
0.490546
0.740886
0.572801
0.625849
0.380874
0.697970
0.746846
0.530481
0.763535
0.717640
0.617504
0.708699
0.794530
0.610948
0.605583
0.581741
0.548959
0.650883
0.663996
0.800490
0.839829
0.669956
0.636578
0.735521
0.672936
0.808835
0.656843
0.737906
0.724792
0.981688
0.908971
0.861883
0.766516
0.860691
1.114607
1.104474
1.055598
1.205802
1.296997
1.341701
1.557469
1.568794
1.973510
4.549623
27.178526
70.623755
184.368491
318.772793
549.880862
735.387802
926.223993
955.266953
905.403495
795.563459
591.089725
420.048833
232.146978
134.116411
54.559708
22.400618
8.155704
6.259680
5.997419
5.994439
6.043911
##ZVALUE=390
0.436902
0.496507
0.420809
0.508428
0.374913
0.356436
0.524521
0.366569
0.591874
0.493526
0.476837
0.622869
0.503659
0.525713
0.460744
0.543594
0.500679
0.434518
0.397563
0.579953
0.717640
0.673532
0.626445
0.549555
0.673532
0.678897
0.573993
0.574589
0.565648
0.445843
0.571609
0.353456
0.597835
0.558496
0.602603
0.674725
0.640750
0.578761
0.607967
0.604987
0.545979
0.605583
0.667572
0.555515
0.778437
0.590682
0.643730
0.602603
0.535846
0.624657
0.553727
0.701547
0.717640
0.687838
0.589490
0.620484
0.718832
0.714660
0.669956
0.635982
0.823736
0.891685
0.808835
0.865459
0.906587
0.988841
0.991821
1.029968
1.078844
1.244545
1.185536
1.194477
1.209974
1.256466
1.459718
1.724958
2.445579
12.519956
40.437579
129.033923
243.886709
462.074876
626.709461
806.026459
920.364857
958.918929
873.794556
694.223642
523.023009
317.340493
185.812712
75.112581
34.199953
10.559559
6.345510
5.451441
##ZVALUE=395
0.443459
0.516772
0.453591
0.375509
0.421405
0.433922
0.566840
0.503659
0.522733
0.414848
0.468493
0.449419
0.315905
0.476837
0.385642
0.475645
0.368953
0.560880
0.478625
0.512600
0.534654
0.463724
0.539422
0.673532
0.498891
0.486970
0.526905
0.547767
0.548959
0.502467
0.447631
0.595450
0.640750
0.594854
0.702739
0.668764
0.578761
0.370741
0.641942
0.646710
0.571609
0.765920
0.699759
0.636578
0.687838
0.727773
0.638962
0.798702
0.819564
0.614524
0.663996
0.669956
0.647902
0.631809
0.733733
0.622869
0.713468
0.622869
0.799894
0.832677
0.704527
0.755787
0.703931
0.828505
0.817776
0.898838
0.941753
1.043677
0.935793
1.064539
1.360774
1.127720
1.136661
1.094937
1.334548
1.301765
1.169443
1.435876
1.706481
6.871819
26.189685
93.065500
178.988576
341.905951
507.296920
730.918646
861.019492
935.246944
911.930799
770.553946
610.322952
382.742882
237.206817
104.056001
50.513744
17.551780
##ZVALUE=400
0.533462
0.544786
0.388622
0.504851
0.473857
0.549555
0.489950
0.332594
0.497699
0.648499
0.448823
0.536442
0.473857
0.394583
0.463724
0.348687
0.640750
0.451803
0.490546
0.556707
0.616908
0.518560
0.409484
0.493526
0.611544
0.534654
0.649691
0.681877
0.506639
0.588894
0.579953
0.582933
0.629425
0.594854
0.536442
0.471473
0.537634
0.672936
0.615716
0.534654
0.721812
0.515580
0.587702
0.702739
0.764728
0.725985
0.757575
0.801682
0.762939
0.655651
0.689626
0.500679
0.617504
0.751615
0.572801
0.538826
0.669956
0.603795
0.465512
0.902414
0.758767
0.781417
0.795722
0.884533
0.628829
0.702739
0.859499
0.820756
0.953674
0.959635
1.043677
1.082420
1.025796
1.224875
1.089573
0.994802
0.997782
1.186728
1.411438
1.318455
1.655817
3.787875
13.610721
52.129626
115.822554
263.863802
422.118902
656.617880
815.016031
934.773684
934.402943
826.668739
668.002963
440.881848
292.493701
147.481561
##END
