##TITLE=QP0030F1
##FORMAT=SPECTACLE-ASCII V-1.2
##DATA TYPE=ULTRAVIOLET SPECTRUM
##SECOND TYPE=ULTRAVIOLET SPECTRUM
##DATE=12/11/17
##TIME=15:43:27
##SPECTROMETER/DATA SYSTEM=SPECTACLE
##XUNITS=NM EM
##YUNITS=ENERGY
##YFACTOR=1
##FIRSTX=220
##LASTX=410
##NPOINTS=96
##3DDATA=Equidistant
##ZUNITS=NM EX
##FIRSTZ=210
##LASTZ=400
##ZPOINTS=39
##XYDATA=(Y..Y)
##ZVALUE=210
2.360940
2.382994
2.830625
2.365708
2.818704
2.964735
3.013611
2.907515
3.053546
2.725720
3.221631
3.051758
2.739429
2.110600
2.262592
2.543926
2.483726
2.788901
2.650619
3.116727
3.082752
3.162622
3.313422
3.966689
3.895760
3.162622
3.444552
4.094839
3.773570
4.662871
4.144907
3.832579
4.190803
4.713535
3.922582
5.114675
4.801750
4.262924
4.167557
5.184412
4.843473
4.549623
5.330443
4.570484
4.566908
5.164742
4.795790
5.259514
4.598498
4.698634
4.987717
5.194545
5.027652
5.022883
5.159974
5.190969
5.420446
4.794598
4.832745
4.909635
4.909635
4.781485
5.831718
5.535483
6.626844
5.904436
5.722642
6.092787
7.026792
7.522702
8.325577
9.806752
11.497736
12.863874
13.118982
13.399720
12.434721
13.859868
12.892485
12.968779
12.858510
11.241436
10.628700
9.327531
8.050799
7.103682
5.625486
6.417632
5.837679
5.303621
5.973577
6.090999
6.392598
6.338954
6.443858
5.834699
##ZVALUE=215
5.252957
6.849766
6.299615
4.871488
4.958510
4.924536
4.906654
5.561709
5.035996
5.777478
4.785657
4.236698
3.964901
3.629923
2.652407
2.337694
2.708435
3.187656
3.042817
2.954602
3.134608
3.469586
3.483891
3.357530
3.641844
3.882647
4.443526
3.565550
4.343987
4.677773
4.632473
5.047917
4.806519
5.337596
4.699826
4.782677
4.776716
4.925728
6.265640
5.153418
5.315542
4.964471
5.280972
6.023645
5.028844
5.068779
5.113482
4.950762
5.413890
4.843473
5.406737
4.900694
6.328821
5.488992
5.153418
6.277561
5.806684
6.246567
6.126761
6.076694
6.172657
6.263852
5.602837
6.460547
6.125569
6.158948
7.046461
6.747842
7.077456
9.257793
9.478927
12.076497
11.484623
13.026595
13.046861
14.016628
13.269782
12.694597
12.930632
11.708736
11.897683
10.396838
9.550452
9.269714
8.159876
7.886887
6.460547
7.077456
6.935596
5.599856
5.673766
6.169677
5.672574
6.350875
6.071925
5.976558
##ZVALUE=220
20.241737
20.882487
21.373630
21.431446
18.358827
16.136765
13.602972
10.719895
10.865927
11.731982
12.188554
11.467934
13.283491
10.662675
9.316802
7.374883
6.273985
5.054474
3.809929
3.629923
4.055500
3.682971
3.381968
3.628731
3.610849
4.568696
4.296899
4.315972
4.450679
4.394650
5.210638
6.029606
5.571842
6.623864
5.908608
6.340742
6.515980
7.108450
7.788539
6.717443
7.236600
6.964803
7.190704
7.238984
7.253885
7.181764
6.979704
6.644726
6.564856
6.943941
6.137490
7.126927
7.008910
6.724000
7.385612
6.344914
5.925894
7.171631
6.038547
7.078648
7.258654
7.441640
6.763935
7.686615
8.149743
6.862879
7.748604
8.137822
8.064508
9.707808
10.417700
11.554956
12.700558
13.642907
13.602972
15.801787
15.060902
14.137626
13.701916
12.934804
14.281869
10.810494
11.619925
9.985566
9.949803
8.827448
8.259416
8.517504
8.356571
8.004904
7.984638
7.839799
7.747412
7.350445
8.118749
7.596612
##ZVALUE=225
37.795901
40.462613
48.631430
62.157512
66.868663
62.332749
54.649711
48.265457
33.983588
29.471517
24.028420
22.857785
23.422837
25.941730
24.377704
23.690462
21.693707
17.075539
13.707876
7.883906
7.124543
5.140901
4.553795
5.027652
4.556775
4.694462
5.023479
5.103946
5.326867
6.125569
6.640553
6.755590
6.340742
7.700920
7.975698
7.392764
8.244514
9.820461
9.568930
8.511543
8.898973
9.326935
8.615851
9.326935
9.001493
10.124445
9.291768
8.876920
8.855462
9.457469
9.471774
9.050965
8.700490
8.856654
9.884834
9.376407
9.650588
9.077787
9.696484
10.284781
10.056496
8.729696
8.766651
9.300709
10.372996
10.042787
10.704994
10.375977
11.280775
12.012720
13.786554
15.035868
15.202761
16.260743
18.379688
18.209815
16.414523
18.491745
17.033815
16.318560
14.442801
14.819503
14.818907
13.481975
14.413595
13.484955
12.946725
12.684464
13.934970
11.633635
12.958646
13.251901
11.516809
12.606978
11.428595
11.168718
##ZVALUE=230
33.723712
36.549568
67.600608
93.567967
125.032663
148.340464
163.160563
160.940886
141.876936
118.406415
77.857971
61.562657
50.027966
42.696595
44.807792
49.206614
49.002767
48.445463
42.242408
34.850836
27.107000
20.962954
12.255907
7.956624
6.821752
5.407929
6.618500
5.210638
6.549954
6.491542
7.756948
7.402897
7.602572
8.693933
10.248423
9.022951
9.913445
8.651614
9.827614
10.967851
11.235476
11.352897
10.490417
11.865497
11.071563
10.631680
11.159778
10.685921
10.506511
9.860992
10.873675
10.526776
10.905862
11.489987
12.061000
11.548996
11.258721
11.532903
11.718869
12.197495
12.308955
13.156533
12.359619
13.729930
14.749765
13.813972
13.967752
15.180707
15.921593
16.760826
18.674731
21.206737
22.095442
23.414493
24.373531
24.900436
24.451613
23.917556
25.442839
24.662614
24.222732
22.427440
22.419691
21.114945
20.994544
19.441843
20.393729
18.399954
20.095706
19.361973
19.345880
19.351840
18.413663
19.492507
19.536614
18.489957
##ZVALUE=235
15.312433
17.852783
33.441782
80.728531
126.898885
191.293955
245.173573
305.065513
331.457853
327.108502
281.171799
231.551528
158.315897
114.208460
83.473921
68.300962
72.473884
78.327656
81.524849
84.027648
78.696609
67.272782
51.333904
35.420656
26.071668
15.745759
11.638999
8.546710
8.343458
6.877780
7.454753
7.986426
8.516908
8.008480
8.825660
9.493828
10.200739
11.053681
10.663867
10.797977
10.789633
10.970831
10.834932
11.341572
11.353493
10.547638
12.018681
11.546612
12.041926
11.606812
12.306571
12.355447
11.798739
12.298822
13.268590
12.038946
13.245940
14.387965
14.871955
14.636517
13.983846
16.674995
17.126799
16.035438
16.255975
19.664764
18.845797
20.341873
21.885633
21.505952
24.640560
25.864840
27.910471
30.410886
33.832788
32.289624
34.201741
32.918453
32.531619
32.653809
32.830834
30.551553
30.703545
30.647516
30.434728
29.043555
28.168559
28.315783
26.787519
26.847720
26.924610
27.967691
28.031468
26.563406
28.187633
26.738644
##ZVALUE=240
2.180934
2.050996
7.686615
18.500686
50.356984
92.719793
179.134607
267.492533
379.197598
441.978574
506.897569
496.187806
459.146500
367.910862
278.871655
182.946920
134.257674
101.342797
93.890429
100.864768
109.929442
116.894841
114.424825
100.914836
80.694556
64.406991
47.706962
33.620596
22.179484
15.370846
11.690855
9.843707
9.607673
9.648800
8.905530
9.436607
9.910464
9.493828
10.248423
10.320544
10.689497
10.305643
10.182858
10.857582
12.548566
11.623502
12.173653
12.041926
12.390614
11.938810
12.152791
12.537837
12.864470
12.853742
14.261603
14.311671
14.086962
14.479756
14.545918
15.304685
15.983582
17.916560
17.551780
17.839670
18.757582
18.808842
20.259619
21.812916
23.235679
24.699569
24.939775
28.580427
31.499863
33.754706
31.102896
34.407973
37.146807
36.388636
34.807920
34.659505
35.519600
34.738779
34.784675
34.687519
36.021471
33.719540
33.858418
32.785535
32.572746
35.015941
35.660863
34.389496
34.964681
33.026934
33.169985
33.420920
##ZVALUE=245
1.969934
1.910925
1.962781
2.012849
3.060699
13.296604
32.475591
86.118579
153.600574
242.194533
384.086967
492.220521
591.787696
615.163445
581.283569
507.077575
372.122526
278.638601
175.138712
121.318698
100.730658
99.396706
112.296939
122.665763
131.407976
124.598742
113.602877
94.497800
74.889660
55.222511
38.999915
22.836924
16.031861
12.072921
10.039806
8.966923
9.151697
9.001493
9.043813
9.014606
9.431839
9.893775
9.771585
11.655688
9.916425
10.659695
10.168552
11.514425
11.642575
11.890531
11.815429
11.762977
12.941957
12.414455
13.278723
12.689829
12.613535
13.637543
14.133453
13.940930
13.774633
15.005469
15.119910
15.744567
16.448498
17.704964
18.056631
20.121932
20.868778
23.056865
24.157763
27.279854
27.942657
30.014515
33.356547
32.795668
34.278631
32.867789
33.498406
35.422444
34.091473
33.248663
33.474565
35.295486
32.441616
33.692718
32.749772
33.874512
33.513904
33.379793
33.776760
33.689737
35.596490
35.366416
34.675598
33.372641
##ZVALUE=250
1.700521
1.766682
1.653433
1.390576
1.913905
1.802444
2.691746
7.181764
29.473901
63.294768
146.748424
245.658755
358.972549
512.814522
615.689754
681.698918
677.357912
604.524612
508.501530
348.587632
241.207480
159.569979
103.366971
95.127821
105.220675
116.858482
134.103894
142.124891
136.835575
123.519897
106.999874
81.323981
59.789419
38.566589
24.466515
15.086532
11.502504
9.380579
10.148883
9.210706
9.836555
9.191632
9.270906
9.963512
10.450482
10.247827
10.475516
9.472966
10.958910
10.929704
11.095405
12.208819
11.638999
11.854768
12.304783
12.035966
12.342930
13.368726
12.529492
12.265444
13.086796
13.672709
14.089942
14.592409
14.911890
15.871525
15.839934
17.478466
18.354654
20.545721
20.846725
23.035407
25.194883
26.298761
26.069880
29.423833
28.109550
28.604865
30.921698
29.062629
30.941963
29.382706
33.805966
30.997992
31.289458
30.346513
32.164454
32.861829
33.025742
32.028556
33.212900
33.444762
33.517480
31.086802
32.603741
33.204556
##ZVALUE=255
1.563430
1.597404
1.790524
1.754761
1.649857
1.782775
1.828671
2.079606
2.383590
4.385710
15.235543
51.853657
105.418563
211.595893
331.134796
471.089482
645.217896
734.047890
784.199834
749.021769
624.982715
495.336652
309.273601
197.883844
131.298900
91.537833
91.491938
105.645657
124.222636
139.737725
146.905780
144.693851
129.573941
103.222728
83.213449
56.236982
39.287806
23.665428
16.771555
11.999607
10.004640
9.806752
10.524988
10.621548
10.475516
11.212826
11.934638
10.765791
11.097789
11.609793
10.698438
11.694431
11.809468
11.337996
11.087656
11.961460
11.589527
12.262464
11.586547
11.882782
12.345910
12.341738
13.965964
13.839602
12.967587
14.683604
14.339685
15.923977
16.032457
16.740561
18.514991
20.594001
21.185875
21.614432
22.689700
23.381710
25.565624
25.509000
26.868582
26.763678
27.320981
27.736425
28.194785
28.743744
29.423833
27.463436
29.434562
29.704571
30.164719
31.111836
29.020905
30.664802
31.531453
30.520558
29.605627
30.199885
##ZVALUE=260
1.351833
1.331568
1.342893
1.537800
1.392961
1.623631
1.373887
1.728535
1.640916
1.749992
2.109408
3.072619
8.572936
33.658743
70.851445
169.461966
274.478793
446.380973
589.144826
762.144923
838.084817
843.158960
737.713575
610.175729
412.513614
283.617973
167.306662
109.653473
82.241893
81.522465
99.595785
126.852989
143.395662
151.802897
150.153637
128.541589
113.091469
85.213780
62.511563
39.600730
27.994514
17.559528
13.417602
12.134910
11.129975
10.877848
10.762811
11.618733
11.629462
11.585951
10.712743
11.933446
11.723638
12.403727
11.548996
11.401772
11.338592
10.840893
11.172891
11.660457
11.692643
11.300445
11.827946
11.963844
12.316704
13.107657
13.256669
14.791489
15.275478
16.264915
16.340613
17.384887
18.082857
20.193458
20.594001
21.214485
22.274852
23.670793
23.785830
23.444891
24.896860
24.468899
24.405718
26.153922
26.523471
26.484728
26.455522
27.301908
26.693940
27.839541
29.064417
28.295517
27.893782
27.965903
28.910637
29.602647
##ZVALUE=265
1.237988
1.355410
1.209974
1.285672
1.214743
1.362562
1.443624
1.640916
1.463890
1.608729
1.684427
1.879930
1.737475
1.832843
4.819632
22.429824
52.140951
126.403570
219.805837
402.105451
562.886596
712.940693
859.165788
883.162022
803.894997
685.431957
505.079627
354.342461
201.358795
122.809410
82.534552
69.380999
81.753731
113.260746
133.257508
153.300762
160.274506
152.457952
139.428973
111.918449
89.163780
60.850978
44.054985
26.739836
18.592477
14.660954
13.473630
12.137890
11.479855
11.457801
12.004972
11.687875
11.808872
11.795759
11.250973
11.381507
11.520982
11.150837
10.909438
11.250973
11.739731
12.246966
12.111664
12.151599
12.253523
12.586713
13.478994
14.116764
14.075637
15.089512
15.962720
17.006993
16.869903
19.319654
19.389987
19.645691
20.994544
21.475554
21.471977
21.809936
22.459626
23.139715
22.786856
24.338961
24.189949
25.183558
25.893450
25.358796
24.897456
25.837421
25.608540
26.271939
26.197433
26.996732
28.094649
27.009845
##ZVALUE=270
1.273751
1.221895
1.223683
1.160502
1.297593
1.410842
1.476407
1.361966
1.332760
1.469851
1.479983
1.291633
1.678467
1.568794
1.758933
1.968741
2.397895
10.968447
31.532645
95.208883
178.567767
308.505893
513.562560
686.887503
851.237774
914.769769
898.943543
807.986856
634.104013
470.932722
325.467587
169.790983
99.868774
60.446858
62.098503
86.238980
108.725429
136.840940
152.767897
162.239671
156.542659
138.609409
118.984580
90.045929
67.932606
42.157769
30.676723
20.773411
16.165972
13.238788
12.424588
12.692809
12.407899
12.325644
11.730790
12.042522
12.091994
11.520982
11.980534
11.904836
11.712909
12.048483
11.961460
11.557937
11.908412
13.060570
12.606978
13.587475
13.207793
15.178919
15.319586
16.588569
16.765594
18.437505
18.910766
19.253492
20.157695
20.179749
20.717978
21.440983
21.640658
22.555590
22.372603
22.986531
23.191571
23.604631
24.042726
23.913980
24.394989
24.587512
25.229454
25.937557
25.574565
25.425553
25.717616
25.668740
##ZVALUE=275
1.197457
1.093745
1.214743
1.188517
1.245737
1.162887
1.247525
1.152754
1.282692
1.204610
1.576543
1.362562
1.359582
1.318455
1.491904
1.732707
1.650453
1.597404
1.973510
4.979968
17.674565
46.916008
132.046938
243.516564
443.994999
600.730777
785.191655
900.336504
945.331454
893.705487
750.429034
591.579676
413.388610
220.249891
126.930475
64.860582
50.634742
62.705874
82.450509
113.381743
133.194923
151.661634
156.846642
154.464841
141.042471
112.767816
91.573000
64.929724
48.755407
30.911565
22.698641
16.044974
13.381839
12.469888
13.001561
12.243986
12.058616
12.250543
12.219548
12.530684
11.995435
12.441874
12.294650
12.563467
12.873411
13.471842
13.892651
14.175773
15.022755
15.737414
16.141534
16.729832
17.616749
18.589497
19.041896
19.208789
20.372868
20.132661
20.320415
21.155477
21.563768
22.010803
22.405982
22.525787
23.528934
23.277998
23.811460
24.233460
24.886727
24.590492
24.035573
25.014877
24.483800
25.250912
25.106668
23.893714
##ZVALUE=280
1.114607
1.090765
1.022816
0.943542
0.926852
1.116991
0.986457
1.210570
1.197457
1.347661
1.033545
1.311898
1.232624
1.243949
1.434684
1.408458
1.341701
1.572967
1.625419
1.896620
1.928806
2.204776
10.348558
34.232736
104.553699
190.403461
343.580842
494.665504
702.919960
821.353793
908.095837
908.877850
822.412968
629.376769
469.513535
267.442465
162.384510
77.046752
49.222708
44.897795
58.545470
85.333586
107.351542
132.656693
148.962736
155.356526
148.985982
134.299994
113.834739
84.207654
64.916611
42.707920
31.374693
19.471645
15.494823
12.560487
12.071729
12.432933
11.749864
12.149811
12.325644
12.748837
12.585521
13.210773
13.230443
13.818741
14.268756
14.435649
14.687777
15.554428
16.196966
17.605424
17.386675
18.152595
18.384457
18.553734
19.112825
20.960569
20.700693
22.316575
22.257566
22.295713
23.100972
22.552609
23.589730
24.295449
23.784637
24.770498
24.460554
24.744868
24.689436
24.308562
24.305582
23.567677
23.955703
24.714470
##ZVALUE=285
1.078844
0.888705
0.958443
1.114607
1.092553
0.998974
0.963807
0.960827
1.107454
1.066923
1.142621
1.211762
0.964999
1.147985
1.226664
1.314878
1.459718
1.378655
1.507998
1.439452
1.285672
1.451969
1.914501
1.896620
5.331635
19.343495
52.119493
139.218569
234.409571
414.617658
566.519499
764.379501
862.040520
898.212790
848.434567
697.193742
549.682975
341.049433
216.195583
105.567575
57.816505
35.588741
37.336946
56.592822
75.954795
105.159879
124.131441
144.173503
148.951411
144.028664
131.649971
108.841658
89.588761
63.110590
44.586658
28.629899
20.730495
14.475584
12.766719
11.869669
11.613965
12.390614
12.256503
12.694597
13.074875
13.771653
13.813972
14.730692
15.336871
15.928745
16.842484
17.353892
17.703772
18.476844
19.442439
19.910932
19.984841
20.899773
21.988750
22.563934
23.113489
22.926927
23.906827
24.079680
24.254918
25.030971
24.785995
24.373531
24.658442
25.485754
24.594665
25.322437
24.689436
25.019646
24.618506
24.680495
##ZVALUE=290
0.896454
0.879765
1.147985
0.985861
0.953674
0.955462
0.956655
1.038909
1.050830
1.198649
1.128912
1.137853
1.203418
1.184940
1.246929
1.145601
1.135468
1.084805
1.213551
1.311898
1.402497
1.410842
1.810789
1.688600
1.839995
1.775622
2.651811
7.273555
34.228563
84.064603
165.908933
335.108638
500.129461
720.872879
848.919749
932.778716
906.306505
778.118968
637.547970
432.049632
286.048651
144.264698
76.644421
33.989549
25.851727
35.193563
48.261881
71.589947
92.640519
120.048523
132.878423
143.751502
142.295957
127.405524
109.481812
81.962943
62.907934
41.998625
29.873848
19.247532
15.405416
12.656450
12.064576
12.614727
12.879968
13.128519
13.901591
14.499426
15.095472
16.176701
17.066598
17.638803
18.493533
18.996596
19.713640
19.912720
21.057725
21.410584
22.355914
22.928715
23.671985
24.229884
24.569631
24.281740
25.556684
25.721788
25.120974
25.653839
26.646852
25.774837
25.922656
25.890470
25.627613
25.635958
25.810599
25.490522
##ZVALUE=295
0.869632
1.010895
0.897646
1.032948
0.710487
0.911951
0.957847
0.957847
0.984669
0.920892
0.994802
1.039505
1.043677
0.887513
0.966787
1.226664
1.059771
1.269579
1.316667
1.202822
1.353621
1.434684
1.301765
1.443624
1.661777
1.820922
1.541972
1.695752
1.905560
3.259778
10.974407
48.692822
113.089681
264.619589
417.655706
644.439459
793.835521
920.384526
936.664939
855.335593
730.690956
519.740582
363.026857
192.766786
106.127858
42.060614
23.622513
20.964742
29.576421
47.216415
64.953566
90.629458
109.688640
128.647685
135.997534
133.131742
123.116970
103.600621
83.376765
60.016513
43.599606
29.061437
21.398664
15.859604
13.793707
13.656616
13.423562
14.215708
14.970899
15.815496
16.666651
17.216802
18.295646
19.293427
20.187497
21.019578
21.096468
21.686554
22.901893
23.522973
24.344921
24.681687
24.825931
25.849938
26.273727
26.922822
26.718974
27.100444
27.089715
26.827455
26.545525
26.720762
26.268959
25.870800
25.451779
26.223660
##ZVALUE=300
0.948906
0.904799
0.903606
0.892878
0.853539
0.914931
0.793934
0.932813
1.054406
0.960827
0.860691
0.882745
0.951886
1.116991
1.044869
1.029968
1.048446
1.236796
1.189709
1.215935
1.197457
1.098514
1.063943
1.072884
1.304746
1.270771
1.354814
1.307726
1.480579
1.855493
1.830459
2.253652
5.078912
27.139783
68.240762
174.934864
297.842622
506.638885
677.601695
862.928629
933.514833
916.345716
813.529491
615.441799
450.688601
254.936814
149.457455
66.362619
32.633543
16.917586
17.651916
28.227568
38.477778
61.070919
81.187487
105.848908
120.684505
130.971670
129.588842
118.683577
103.261471
80.180764
62.364936
43.605566
31.616688
21.442771
17.687678
15.721917
15.601516
16.004443
16.312599
17.610788
18.064976
19.439459
20.253658
21.141768
21.840930
22.729635
23.198724
24.825931
25.474429
26.035905
26.454926
27.189851
27.646422
27.955770
28.128624
28.473735
27.965903
28.337836
28.717518
28.105974
28.017759
27.105808
27.770996
27.298927
##ZVALUE=305
0.909567
0.981688
0.879765
0.979900
0.869632
0.876784
0.776649
0.814795
0.891685
1.003742
0.932813
0.781417
0.783801
1.043677
0.879765
1.001954
0.940561
1.035929
1.021624
1.051426
1.067519
1.047850
0.972748
1.197457
1.063943
1.233816
1.340508
1.235604
1.177788
1.267791
1.278520
1.492500
1.614690
1.937747
2.808571
15.979409
43.517947
120.659471
220.385790
406.318903
566.731691
762.567520
872.365832
908.083916
847.169757
676.171780
525.395870
334.762931
210.545659
95.362663
47.302842
18.448830
13.515949
17.739534
25.101900
41.030645
56.648850
79.945922
97.734928
115.874410
123.830438
123.431683
116.236806
98.499656
81.735849
58.869720
45.109987
31.177998
24.530888
19.274950
18.368959
17.797947
18.889904
19.861460
20.661950
21.260977
22.290945
23.890734
24.377704
25.854707
26.389956
27.749538
27.622581
28.635859
29.146671
29.209852
29.623508
29.801726
29.881001
29.831529
29.961467
29.371977
29.286742
29.042959
28.551817
28.088689
##ZVALUE=310
0.828505
0.863671
0.814795
0.801682
0.723600
0.786781
0.729561
0.953674
0.896454
0.790954
0.702739
0.863671
0.964999
0.768900
0.996590
0.829697
1.001954
1.055598
0.906587
0.883937
1.113415
0.873804
0.883937
1.033545
1.099706
1.274943
1.112819
1.124740
1.012683
1.319647
1.410842
1.215935
1.334548
1.470447
1.680851
1.854897
2.033710
7.129908
21.796823
72.784424
144.901872
301.156640
455.417633
675.766468
818.004608
918.741822
905.714035
790.804029
646.272898
428.774953
281.835794
140.177608
74.809790
29.223561
14.701486
12.003779
15.868545
23.575425
34.877658
53.489804
70.485473
93.193650
107.647777
118.061900
119.504929
111.907721
99.171996
78.848004
63.805580
45.951605
36.357641
26.994944
24.095774
21.778941
21.098852
22.429824
22.908449
24.288893
25.425553
26.290417
27.375817
28.229952
29.184818
30.126572
30.065775
30.668974
31.178594
31.313896
31.724572
31.476617
31.373501
30.873418
31.073689
30.961633
30.706525
29.510856
##ZVALUE=315
0.679493
0.732541
0.698566
0.773668
0.919700
0.900626
0.737906
0.764728
0.826716
0.847578
0.973940
0.944734
0.824928
0.812411
0.859499
0.943542
0.769496
0.805855
0.898838
0.988841
0.976920
0.899434
1.005530
1.063943
1.071692
0.988841
1.052618
1.097918
1.177788
1.047850
1.047850
1.197457
1.264811
1.210570
1.399517
1.307726
1.540780
1.765490
1.788735
3.320575
11.504889
45.970678
100.463629
228.112936
376.698971
607.916713
757.463574
891.735554
925.542712
843.893886
720.309615
508.132577
356.020927
189.439654
103.918910
38.847923
18.505454
10.971427
11.884570
15.847683
21.798611
35.473704
48.972964
68.664551
84.956884
104.664564
111.958981
114.668608
108.006597
93.907714
80.451965
61.654449
50.126910
36.493540
30.700564
26.059747
24.932623
25.221705
25.598407
26.877522
28.006434
28.900504
30.395985
30.229688
30.773878
32.048821
32.485723
32.404661
32.808781
32.199621
32.742620
32.603741
32.695532
32.004714
32.560825
31.818748
##ZVALUE=320
0.712872
0.843406
0.704527
0.828505
0.829697
0.662804
0.791550
0.791550
0.831485
0.854731
0.932813
0.822544
0.916719
0.772476
0.870824
0.770688
0.837445
0.901818
0.876784
0.908971
0.926852
1.027584
0.989437
1.067519
1.097918
0.942945
1.026988
1.046658
0.981688
1.028776
1.172423
1.316667
1.179576
1.332760
1.192689
1.211762
1.246929
1.397729
1.419783
1.436472
1.886487
2.001524
5.199909
25.227666
63.803792
167.612433
282.932520
479.307771
639.718771
830.302835
906.398892
887.455940
796.139836
599.741936
432.979465
237.739682
135.952830
60.290694
28.887987
12.623668
10.170937
11.938810
14.811754
21.443963
30.928850
47.604442
62.270761
82.316995
96.353889
109.160542
111.541748
104.488730
96.420646
79.680681
64.838529
49.325824
40.659904
33.031702
30.021667
28.748512
28.989911
29.144883
30.254722
31.069517
31.701922
32.658577
32.866001
33.357739
33.461452
33.232570
33.485889
33.728480
33.256412
32.611489
32.950640
32.531619
##ZVALUE=325
0.778437
0.847578
0.702739
0.704527
0.817776
0.782609
0.804663
0.815988
0.967979
0.867844
0.895858
0.861883
0.735521
0.911951
0.696778
0.818968
0.920892
0.936985
0.978708
0.871420
0.934601
0.838637
0.795722
0.877976
0.957847
0.960827
0.884533
1.013875
1.048446
0.990629
1.003742
0.999570
0.987649
1.113415
1.126528
1.144409
1.196861
1.274943
1.323819
1.249909
1.425743
1.580715
1.538992
1.746416
3.409982
16.991496
43.711662
113.647580
208.976865
406.772494
575.307608
783.793926
892.951488
924.713016
852.385759
659.093857
494.925976
300.426483
180.104971
81.068873
40.107965
16.330481
10.573864
10.641813
11.826754
16.037822
21.249652
32.685995
44.890642
64.521432
79.307556
96.069574
104.053617
108.052492
103.071928
90.223551
78.110695
62.366724
52.284598
41.085482
35.885572
32.755733
31.571984
31.765699
32.128692
32.743812
32.374859
33.148527
33.239722
33.415556
33.105612
33.557415
33.214688
32.482743
32.657981
32.738447
##ZVALUE=330
0.876784
0.680685
0.768900
0.702739
0.860691
0.650883
0.681877
0.796914
0.866652
0.728965
0.960827
0.812411
0.942945
0.815988
0.833869
0.855923
0.822544
0.867844
0.783801
0.725985
0.901818
0.744462
0.757575
0.956655
0.960827
0.961423
0.835657
0.956655
0.934601
0.982881
0.989437
1.004934
1.073480
0.960827
1.085997
1.019835
1.116991
1.173615
1.223683
1.211762
1.229644
1.418591
1.341701
1.473427
1.512766
1.649857
2.117753
7.806420
22.877455
74.205995
146.743655
306.001902
467.047691
704.457760
861.550570
961.569548
924.942493
771.750808
602.355599
375.127792
237.393975
109.498501
57.304502
23.098588
12.960434
10.873675
11.364818
12.957454
16.330481
24.023652
31.803846
46.327710
60.410500
79.621673
92.334747
102.270842
104.444623
99.303722
90.550780
75.469613
64.044595
50.551891
43.380857
38.172603
35.091639
33.493638
32.812953
32.530427
32.480955
32.822490
32.569766
32.657981
32.706857
32.240748
31.956434
31.952858
##ZVALUE=335
0.764728
0.776649
0.669956
0.753999
0.761747
0.680685
0.780821
0.748634
0.639558
0.554919
0.599623
0.744462
0.836849
0.768900
0.730753
0.601411
0.714660
0.719428
0.845790
0.781417
0.685453
0.723600
0.731945
1.025796
0.850558
0.797510
0.990629
0.845790
0.851750
0.772476
0.991821
0.816584
0.855923
0.954866
0.853539
1.003742
1.082420
1.056790
1.047850
1.108646
1.113415
1.218915
1.167655
1.124740
1.391768
1.341701
1.268983
1.543760
1.755953
3.733635
11.935830
45.736432
97.791553
221.570730
366.742611
601.151586
770.684481
913.304687
939.303637
839.713812
693.007708
452.858806
300.384760
158.023834
84.451437
32.146573
16.263723
11.485815
11.392832
12.475848
13.888478
17.979741
22.970438
34.087896
45.425892
63.831806
76.323748
90.501904
98.807812
101.184845
97.107887
86.267591
76.267719
62.308908
53.942800
43.898821
39.326549
35.349727
33.241510
31.805634
31.453967
31.152964
30.899644
30.594468
30.550957
30.515790
##ZVALUE=340
0.868440
0.803471
0.818968
0.891685
0.785589
0.890493
0.885725
0.982881
0.859499
0.813603
0.872612
0.954866
0.878572
0.839829
0.860691
0.898838
1.062751
0.857711
0.974536
0.926852
0.999570
1.022816
0.992417
0.976920
1.065731
1.128912
0.970960
1.023412
1.009703
0.970960
1.125932
1.163483
1.091957
1.067519
1.103878
1.096725
1.229644
1.293421
1.202822
1.317859
1.008511
1.100898
1.356602
1.251698
1.188517
1.407862
1.320839
1.452565
1.625419
1.516938
1.646876
2.340674
5.772710
28.449893
68.249702
168.609619
283.998847
464.965701
613.580942
770.689845
829.991698
796.790719
702.618957
526.738763
377.972722
202.687979
115.437508
50.722957
24.068952
12.572408
11.664629
12.948513
13.262630
15.645623
18.930435
25.619864
33.182502
46.685934
58.897734
75.240731
86.663961
94.860792
97.020864
92.366934
85.249543
73.708892
64.448714
52.007437
44.855475
37.976503
33.350587
30.564666
29.656887
28.846860
28.202534
28.348565
##ZVALUE=345
0.608563
0.778437
0.672936
0.665784
0.768900
0.587702
0.891685
0.788569
0.638962
0.572801
0.778437
0.533462
0.693798
0.787973
0.638962
0.749826
0.714660
0.776649
0.692606
0.780821
0.715852
0.862479
0.810623
0.852942
0.776649
0.787973
0.862479
0.675917
0.706911
0.818968
0.776649
0.792742
0.838637
0.935793
0.886917
0.775456
0.962615
0.895858
0.942945
1.017451
0.934601
1.155734
1.056790
0.994802
1.053810
1.113415
1.049638
1.345873
1.243949
1.209974
1.260638
1.311898
1.561642
1.654625
2.952814
15.668869
42.745471
112.392902
198.208690
356.878638
493.874550
666.007996
746.502876
765.053630
719.226003
578.685999
443.306565
268.331766
163.629651
75.509548
37.088990
15.852451
12.019873
12.573600
13.100505
14.155507
15.746951
19.099712
23.910403
33.326745
43.074489
58.078766
68.746805
81.857443
87.243915
89.654922
88.201761
80.870986
72.034597
59.313774
50.168633
40.378571
34.758449
30.244589
28.180480
26.855469
##ZVALUE=350
0.662804
0.682473
0.881553
0.651479
0.753999
0.588894
0.693798
0.730753
0.841618
0.837445
0.781417
0.847578
0.755787
0.713468
0.788569
0.576973
0.877976
0.734925
0.607967
0.680685
0.840425
0.679493
0.855923
0.702739
0.875592
0.686646
0.931621
0.821948
0.802875
0.927448
0.934601
0.608563
0.835657
0.746846
0.656843
0.986457
0.752807
0.908971
0.972748
0.849962
0.921488
0.830889
0.951886
0.960827
1.023412
1.052618
1.225471
1.121759
1.112819
1.202822
1.189709
1.029968
1.126528
1.356602
1.413822
1.598597
1.961589
7.794499
24.380684
76.210499
143.528581
282.014608
409.298539
577.542782
690.290928
763.949752
748.814940
644.415617
519.053936
333.804488
217.244625
107.753873
55.060983
20.198822
12.579560
12.024641
12.432933
13.107657
14.068484
15.715957
18.831491
24.221539
30.534863
40.077567
49.426556
62.609911
72.258711
79.639554
82.392693
80.433488
75.280666
64.677000
55.904984
45.107603
37.903786
31.429529
##ZVALUE=355
0.703931
0.676513
0.675917
0.586510
0.655651
0.769496
0.736713
0.820756
0.660419
0.648499
0.804663
0.767708
0.651479
0.655651
0.777841
0.725985
0.693798
0.760555
0.780821
0.753999
0.697970
0.718832
0.585914
0.739694
0.835657
0.761747
0.945926
0.897646
0.859499
0.794530
0.706911
0.957847
0.909567
0.758767
0.830889
0.881553
0.911951
0.917912
1.048446
0.863671
1.001954
0.794530
0.890493
0.857711
0.973940
1.017451
0.770688
1.014471
1.141429
1.198649
1.114607
1.107454
1.159906
1.260638
1.267791
1.276731
1.371503
1.536608
1.744628
4.078746
13.432503
50.886869
103.447437
214.164853
334.997773
521.127582
643.573999
748.000741
771.543980
699.948668
597.011447
424.264669
287.818909
142.670870
74.956417
26.518703
14.071465
11.362433
11.650920
12.112856
12.809634
14.108419
14.771819
17.511845
20.633936
27.234554
34.024715
44.614673
52.995682
63.292980
69.406629
73.449612
72.742701
67.032576
60.674548
51.263571
##ZVALUE=360
0.773668
0.755787
0.671744
0.837445
0.740886
0.747442
0.784993
0.759959
0.773668
0.841618
0.584722
0.665784
0.634789
0.812411
0.633597
0.567436
0.783801
0.685453
0.713468
0.713468
0.870824
0.689626
0.898838
0.721812
0.756979
0.642538
0.756979
0.735521
0.871420
0.814795
0.792742
0.924468
0.818968
0.703931
0.789762
0.809431
0.737906
0.692606
0.922680
0.974536
0.810623
0.879765
0.791550
0.825524
0.949502
0.945926
1.005530
0.936985
1.095533
1.146793
1.090765
1.095533
1.155734
1.261830
1.104474
1.244545
1.100898
1.380444
1.390576
1.500845
1.665950
2.380610
6.182790
26.014447
60.976744
148.635507
252.815485
422.225595
555.479527
696.464777
756.415725
744.745731
669.582486
503.601432
364.441872
199.435949
115.855932
47.291517
20.110607
10.838509
10.570884
11.105537
11.151433
11.738539
12.194514
13.128519
14.456511
17.360449
20.834804
28.816462
35.808682
46.525598
53.819418
61.808825
64.752698
65.411925
##ZVALUE=365
0.768900
0.669956
0.673532
0.622869
0.694990
0.690818
0.808835
0.705719
0.621676
0.727773
0.750422
0.838637
0.600815
0.772476
0.739694
0.762939
0.791550
0.795722
0.658631
0.747442
0.809431
0.603795
0.616908
0.720620
0.794530
0.934601
0.664592
0.744462
0.893474
0.754595
0.777841
0.872612
0.880957
0.967979
0.932813
0.925660
0.880957
0.948906
0.909567
0.868440
0.857711
0.918508
0.966787
0.842810
1.005530
0.860691
1.002550
0.888705
0.885725
1.003742
1.001954
1.042485
1.105666
1.269579
1.070499
1.209974
1.223683
1.115799
1.244545
1.154542
1.302958
1.540780
1.682639
1.752973
3.156662
16.470551
42.995811
108.562708
194.710493
354.921818
479.686856
626.740456
714.125037
751.049519
707.474947
575.868487
448.631644
281.106830
169.530511
71.237683
30.492544
11.272430
9.667873
9.788871
10.217428
10.171533
10.678768
10.719895
11.369586
12.797713
14.338493
18.751621
22.971630
30.948520
37.479997
47.229528
##ZVALUE=370
0.644922
0.688434
0.630617
0.699759
0.518560
0.686646
0.705719
0.811815
0.845790
0.885725
0.764728
0.829697
0.790954
0.692606
0.663996
0.640750
0.808835
0.882745
0.794530
0.786781
0.577569
0.724792
0.668764
0.836849
0.526905
0.756979
0.778437
0.879765
0.738502
0.796914
0.853539
0.798702
0.791550
0.905991
0.752807
0.611544
0.899434
0.835657
0.781417
0.870824
0.825524
0.722408
0.862479
0.850558
0.797510
0.888705
0.900626
0.984669
0.956655
0.985861
0.766516
0.945926
0.813603
1.059771
0.983477
0.904799
1.048446
0.991821
1.099706
1.178980
1.173615
1.298785
1.335740
1.322627
1.312494
1.633763
2.027750
8.917451
27.973652
82.975626
157.148838
290.951729
418.524742
590.729713
688.501596
752.702951
733.352900
626.205802
503.028631
322.015882
200.627446
91.319680
43.882728
14.658570
9.542704
8.805990
9.019971
8.901954
9.540915
9.413958
9.539723
10.181665
11.109710
13.056993
15.720725
20.405650
##ZVALUE=375
0.665784
0.696778
0.723600
0.706911
0.739694
0.665784
0.672936
0.603795
0.693798
0.730753
0.767708
0.797510
0.759959
0.655651
0.631809
0.758767
0.685453
0.673532
0.782609
0.660419
0.589490
0.738502
0.753999
0.747442
0.669956
0.736713
0.706911
0.719428
0.561476
0.583529
0.769496
0.644922
0.627637
0.826716
0.769496
0.690818
0.750422
0.698566
0.765920
0.784993
0.907779
0.794530
0.834465
0.805855
0.804663
0.760555
0.847578
0.682473
0.732541
0.645518
0.851750
0.874996
0.823736
0.854731
0.795722
1.012683
0.960827
0.893474
0.983477
0.980496
1.048446
1.096725
1.065731
1.108646
1.414418
1.179576
1.333952
1.530647
1.592636
4.378557
13.968945
47.839880
99.639893
217.432976
337.231755
513.585806
633.673668
737.159848
759.109855
688.372850
576.772690
392.377973
266.646743
145.146847
78.215599
27.149916
11.947751
8.171797
8.153915
8.136630
8.174777
8.408427
9.062886
8.803606
9.188652
10.125637
##ZVALUE=380
0.634789
0.607967
0.542998
0.696778
0.689626
0.620484
0.837445
0.731945
0.669956
0.618696
0.621676
0.671744
0.786781
0.647902
0.739694
0.712872
0.775456
0.665784
0.826716
0.750422
0.615716
0.744462
0.705719
0.665784
0.787973
0.683665
0.693798
0.667572
0.653863
0.696778
0.745654
0.700951
0.823736
0.774860
0.701547
0.769496
0.890493
0.736713
0.769496
0.784993
0.573993
0.746846
0.804663
0.704527
0.829697
0.918508
0.732541
0.726581
0.737906
0.776649
0.729561
0.713468
0.720620
0.753999
0.763535
0.856519
0.873804
0.869632
0.788569
0.988841
0.894666
0.891685
0.961423
1.058578
1.142621
1.128912
1.135468
1.302958
1.209974
1.476407
1.568794
2.587438
7.789731
34.647584
76.787472
177.487731
284.142494
446.688533
573.990941
703.717470
742.365718
692.364573
606.955886
450.000763
324.415565
178.308487
101.893544
40.106773
17.259717
7.930994
7.299781
7.302761
7.594824
7.479787
7.582903
8.191466
##ZVALUE=385
0.559688
0.833869
0.710487
0.669956
0.631809
0.661612
0.591874
0.568628
0.643730
0.572801
0.638962
0.640750
0.562668
0.743866
0.635982
0.692606
0.589490
0.657439
0.796914
0.762939
0.797510
0.680685
0.627637
0.642538
0.700951
0.637770
0.559688
0.745654
1.019835
0.699759
0.850558
0.768900
0.614524
0.708699
0.636578
0.911951
0.682473
0.712872
0.702739
0.978708
0.784993
0.765920
0.691414
0.640750
0.869632
0.751615
0.779629
0.896454
0.803471
0.708699
0.776649
0.734925
0.922680
0.967979
0.728965
0.756979
0.886917
0.585914
0.777841
0.732541
0.882745
1.015663
0.945926
0.892878
0.947714
0.877976
1.024604
1.073480
1.170635
1.233816
1.289845
1.304746
1.403689
1.686811
3.915429
18.082857
47.073960
124.554634
214.595795
374.375582
500.849485
639.906526
692.214966
692.339540
633.364916
492.203832
366.389751
214.959979
130.150914
60.081482
27.961731
9.583831
6.698966
6.702542
6.734729
6.914735
##ZVALUE=390
0.523925
0.619888
0.644922
0.576973
0.589490
0.578761
0.786781
0.471473
0.649691
0.800490
0.633597
0.520945
0.571609
0.688434
0.676513
0.729561
0.705719
0.641942
0.638962
0.795722
0.613928
0.655651
0.637770
0.703931
0.681877
0.815988
0.776649
0.588894
0.617504
0.650883
0.726581
0.705719
0.699759
0.771880
0.540614
0.745654
0.767708
0.926852
0.682473
0.774860
0.762939
0.711679
0.643730
0.772476
0.827909
0.705719
0.812411
0.717640
0.859499
0.649691
0.635982
0.745654
0.615716
0.938773
0.885725
0.830889
0.795722
0.693798
0.880957
0.819564
0.820756
0.825524
0.766516
0.861883
0.829697
0.884533
1.044869
1.004934
1.181960
1.214743
1.291633
1.172423
1.315475
1.401901
1.315475
1.462698
2.247691
11.057854
34.871697
103.326440
188.798904
342.395902
461.426973
593.905449
673.509836
713.492036
676.684976
554.857850
437.166691
276.921988
165.936947
71.557760
34.410954
10.802746
6.729960
6.233454
##ZVALUE=395
0.532866
0.405908
0.636578
0.544786
0.644922
0.682473
0.778437
0.583529
0.813603
0.671744
0.696778
0.600815
0.598431
0.548959
0.718832
0.663996
0.608563
0.651479
0.548959
0.710487
0.583529
0.727773
0.898838
0.756979
0.734925
0.717640
0.710487
0.747442
0.787973
0.573993
0.659823
0.685453
0.775456
0.590682
0.617504
0.657439
0.710487
0.604987
0.782609
0.886917
0.731945
0.847578
0.855923
0.667572
0.764728
0.725985
0.694990
0.856519
0.851750
0.882745
0.711679
0.689626
0.787973
0.780821
0.727773
0.598431
0.858903
0.789762
0.882745
0.781417
0.798702
0.843406
0.764728
0.784993
0.890493
0.933409
0.952482
0.978708
1.159906
1.193881
1.169443
1.089573
1.173615
1.276731
1.203418
1.172423
1.366735
1.486540
1.852512
6.361604
23.183823
79.104900
148.679614
282.243490
401.811004
561.103821
660.880804
734.772682
735.914707
641.011596
514.506698
326.748490
207.859874
99.451542
48.040748
16.318560
##ZVALUE=400
0.633597
0.465512
0.598431
0.654459
0.570416
0.717640
0.653863
0.612736
0.617504
0.638962
0.638962
0.662804
0.574589
0.663996
0.764728
0.657439
0.579953
0.703931
0.609756
0.616908
0.583529
0.636578
0.531673
0.612736
0.560880
0.769496
0.577569
0.668764
0.567436
0.584722
0.685453
0.732541
0.736713
0.799894
0.675917
0.721812
0.842810
0.613928
0.620484
0.553727
0.752807
0.816584
0.630617
0.771880
0.824928
0.712872
0.727773
0.738502
0.842810
0.842810
0.727773
0.749826
0.779629
0.696778
0.801682
0.889897
0.894666
0.673532
0.725985
0.910759
0.801682
0.824928
0.847578
0.927448
0.775456
0.796914
1.008511
0.958443
1.076460
1.077652
1.207590
1.195669
0.983477
1.101494
1.199841
1.127720
1.180768
1.253486
1.373887
1.391768
1.689792
2.835989
14.766455
41.158795
114.637613
206.278563
365.733504
489.498973
630.226731
698.886514
707.222819
648.898482
509.417653
384.585857
233.731866
142.028928
##END
