##TITLE=QP0065F1
##FORMAT=SPECTACLE-ASCII V-1.2
##DATA TYPE=ULTRAVIOLET SPECTRUM
##SECOND TYPE=ULTRAVIOLET SPECTRUM
##DATE=12/11/17
##TIME=15:13:48
##SPECTROMETER/DATA SYSTEM=SPECTACLE
##XUNITS=NM EM
##YUNITS=ENERGY
##YFACTOR=1
##FIRSTX=220
##LASTX=410
##NPOINTS=96
##3DDATA=Equidistant
##ZUNITS=NM EX
##FIRSTZ=210
##LASTZ=400
##ZPOINTS=39
##XYDATA=(Y..Y)
##ZVALUE=210
1.922846
2.976656
2.279878
2.596974
2.508759
2.651811
2.822876
2.360940
2.930760
2.654791
2.240539
2.761483
2.501607
2.145767
2.463460
2.644658
2.603531
2.838969
2.764463
2.723932
3.086925
3.053546
3.290772
2.836585
3.026724
3.350973
4.052520
3.601909
4.060864
4.203916
4.552603
4.698634
4.782677
4.933476
3.741980
5.397797
4.420877
4.829764
4.717708
4.913807
4.497766
4.585981
4.341602
5.148649
4.801750
5.053878
4.876852
5.697608
4.718900
5.070567
4.435778
5.518794
5.356669
5.575418
5.125999
5.509853
5.726814
5.794764
5.593896
5.053878
4.969835
5.142689
6.008744
5.499721
7.141829
5.790591
6.226897
7.029772
8.993745
9.391904
10.629892
11.871457
13.255477
13.029575
14.691949
16.386509
16.945601
18.844604
19.305944
18.171668
17.399788
16.136765
13.804436
13.020635
10.247827
9.154677
7.923841
6.666780
6.665587
4.991889
5.310774
5.015731
5.205870
6.053448
5.612969
6.608963
##ZVALUE=215
6.907582
6.627440
6.370544
5.927682
4.500747
4.938841
4.981756
5.220771
5.447865
6.421804
6.101727
4.861951
4.349947
3.075600
2.788901
3.346801
3.566742
2.642870
2.771616
2.923608
3.402829
3.682971
3.618598
3.928542
4.075766
3.998876
3.975630
3.478527
4.056692
4.010797
3.577471
4.718900
5.155802
4.888773
5.411506
5.205870
4.757643
5.534887
5.508661
5.021691
5.907416
4.643798
4.582405
5.351901
4.959702
4.512668
4.907846
5.016923
5.531907
4.961491
5.358458
6.020665
5.588531
5.554557
5.706549
4.829764
5.746484
5.867481
5.663633
5.330443
5.689859
5.299449
5.734563
5.763769
6.216764
5.582571
5.822778
5.913973
7.243752
7.510781
8.004904
9.699464
11.036992
12.989640
12.613535
13.660789
14.195442
13.414621
13.762712
13.295412
13.339520
11.359453
11.957884
8.948445
9.640455
8.068681
6.972551
6.338954
5.545616
4.819632
5.250573
5.463958
5.385876
4.104972
4.611611
5.603433
##ZVALUE=220
21.812916
22.001863
26.926994
24.963617
24.824739
19.866824
18.115640
15.876889
12.208819
10.952950
12.645721
11.552572
12.982488
12.153983
9.210706
7.188916
6.331801
4.581809
4.248619
3.511906
3.093481
3.598928
3.787875
3.848672
4.257560
3.956556
4.086494
4.221797
4.708767
4.621744
5.322695
5.738735
6.211996
5.674958
5.320907
6.008744
6.026626
6.724000
6.144643
5.485415
5.811453
5.266666
5.846620
5.615950
5.421638
5.798936
6.284714
5.728602
5.842447
5.066991
5.137920
5.551577
6.380677
5.915761
6.040931
5.783439
5.680919
6.080866
5.917549
6.271601
6.256700
6.360412
6.749630
6.392598
6.029606
7.069707
7.155538
7.046461
7.612705
9.262562
8.986592
9.808540
10.661483
13.118982
12.993813
14.233589
14.095902
13.216734
13.142824
12.469888
11.686683
10.303855
10.309815
9.976625
9.113550
7.398725
6.743670
6.246567
6.337762
6.684661
6.010532
4.791617
6.155968
6.146431
6.677508
5.558729
##ZVALUE=225
43.127537
45.003891
56.552887
75.992942
85.527897
80.974698
72.000623
57.798624
45.241714
32.911897
26.768446
23.698807
25.914907
27.325749
27.823448
25.438666
22.159815
18.546581
12.160540
8.796453
5.979538
4.118681
4.136562
4.362464
4.857779
4.457831
5.421638
5.781651
5.049706
6.346703
6.312728
6.306767
7.021427
7.868409
6.998777
8.214712
7.263422
6.805658
7.365942
6.087422
7.642508
7.021427
6.061792
6.221533
6.497502
6.678700
6.036758
5.765557
7.077456
6.865859
6.397963
7.002950
6.923676
7.135868
7.694960
7.502437
7.229447
6.875992
6.933808
7.731915
7.905960
8.413792
8.564591
7.551908
8.088946
8.138418
8.064508
9.018779
9.367466
10.279417
11.545420
12.578964
12.147427
14.148951
14.064908
13.332963
14.742613
13.407469
13.130903
13.095737
11.224747
11.457801
10.129809
10.621548
10.290742
9.521842
9.578466
9.314418
8.431673
9.014606
8.543730
7.622838
8.178949
7.943511
7.017851
6.981492
##ZVALUE=230
37.160516
42.429566
64.223409
107.219815
143.432617
176.444650
193.811655
193.336606
177.727938
144.519806
101.079941
70.806742
51.348805
45.599937
45.163631
48.646927
53.333640
49.764514
44.451952
36.180615
28.586984
19.762516
14.944673
8.098483
6.129742
6.524920
6.225705
6.699562
6.882548
7.109642
7.036924
7.616878
7.341504
8.912683
8.209944
7.714629
7.016659
7.814765
8.471608
7.906556
8.005500
7.563829
7.991791
6.990433
7.248521
6.891489
8.433461
8.563995
9.111762
8.675456
8.389950
8.760691
9.171963
8.543730
9.664893
8.466840
8.960962
9.505749
10.574460
10.992885
10.234714
12.471676
11.254549
12.028813
11.321902
12.367964
11.577606
12.259483
12.731552
13.434887
15.073419
16.036630
17.050505
18.133521
17.546415
17.721653
20.741820
18.851757
17.305613
16.442537
16.485453
15.982985
15.079975
16.593933
14.221668
14.248490
13.285875
13.453960
11.745691
13.536811
11.637807
11.891723
12.129545
12.435913
13.131499
12.260675
##ZVALUE=235
11.908412
13.088584
35.846829
68.006516
120.298862
204.981565
264.595747
355.727673
407.496691
415.635705
389.111638
314.479470
238.403678
149.914622
110.798478
83.702803
74.237585
79.037547
83.543658
83.011985
75.997710
69.733858
53.411722
38.621426
24.479628
17.667413
10.893941
9.592772
7.351637
8.613467
9.024739
8.834600
9.508729
9.445548
9.259582
9.147525
9.326935
9.113550
8.782744
9.734631
8.209944
7.901788
8.737445
8.852482
9.692907
10.350943
9.210706
9.452701
9.935498
9.525418
11.121631
10.608435
10.416508
11.889935
12.305975
13.028979
13.403893
13.242960
15.150905
15.134811
13.520718
15.294552
13.936758
14.761686
15.921593
16.736984
15.209913
16.434789
16.836524
18.854737
19.539595
20.958781
23.841858
24.161935
26.562810
25.777817
25.596619
24.718642
25.759935
22.927523
23.476481
20.233989
24.655461
19.724965
19.511580
19.678473
18.895864
17.821789
17.872453
18.052459
17.162561
16.683936
18.035769
15.397668
16.767979
15.858412
##ZVALUE=240
1.920462
2.276897
4.463792
15.974641
37.749410
91.091990
163.169503
292.149782
408.283472
517.146587
632.245541
651.379824
594.865680
509.179831
380.221605
267.853737
163.768530
114.964843
95.995665
98.855495
109.567642
115.378499
115.921497
98.711848
86.729527
61.261654
50.105453
31.143427
23.530722
15.068650
11.473894
9.873509
10.180473
9.571910
10.136962
9.756684
9.383559
9.660721
10.259748
9.730458
9.379983
9.386539
10.249615
9.182692
9.917617
10.623932
11.339784
10.885000
10.710955
12.480617
10.972619
12.123585
12.703538
13.343692
12.688637
14.071465
14.176965
14.864802
15.411973
15.660524
16.418695
16.759634
16.273856
15.514493
17.088652
17.602444
18.626451
18.622875
20.113587
22.597909
23.669600
24.662614
27.227998
25.831461
26.164651
28.709769
29.725432
29.607415
28.263927
28.894544
28.548837
25.191903
25.174618
23.867488
23.304820
22.689700
23.345947
22.426844
22.727847
21.657944
22.220612
20.982623
21.813512
19.540787
20.918846
21.326542
##ZVALUE=245
1.647472
1.474619
1.947880
1.680851
4.236698
10.066628
34.996867
74.292421
181.538463
286.389589
472.381711
603.622794
708.617568
748.080015
731.186867
613.331795
502.504706
333.353877
236.680508
139.759779
104.818940
97.906590
112.075806
123.692751
127.955675
126.617551
110.637546
99.154711
73.719621
54.549575
41.507483
24.853945
17.068982
12.170672
9.933710
10.141730
10.626912
10.500550
8.380413
9.176731
9.244680
9.532571
9.026527
8.597970
9.124875
9.158850
10.515451
10.012984
10.180473
11.337996
10.147691
11.000633
13.026595
13.082623
12.063980
12.368560
13.010502
13.279915
13.364553
14.756918
14.715791
16.061664
14.321804
16.405582
16.640425
16.351938
16.808510
17.914772
17.805696
18.073916
21.218657
21.572709
22.425652
22.804737
23.535490
25.124550
27.088523
24.825931
24.990439
25.555491
25.000572
25.341511
23.706555
25.065541
22.585988
22.993684
22.769570
21.085739
22.424459
22.633672
21.838546
19.914508
21.896958
21.592975
20.612478
21.016598
##ZVALUE=250
1.549721
1.396537
1.524687
1.720786
1.761913
1.652837
2.400875
6.205440
25.206804
55.798888
139.375925
236.676931
352.834463
512.718558
627.058744
704.270601
704.357624
617.956519
519.288778
355.712771
244.034529
160.234571
101.819634
91.082454
102.407932
121.248960
133.136511
135.346651
134.987831
122.150779
105.616450
80.572963
59.908628
35.965443
24.755597
14.865994
11.170506
9.461641
8.914471
8.670688
8.716583
8.215904
7.978678
8.855462
8.422732
8.267760
7.875562
9.112954
8.893609
9.359717
10.075569
9.748936
9.881854
9.742975
10.114908
11.580586
11.485815
10.550618
11.827946
11.290908
12.584925
12.262464
12.670755
12.216568
12.527704
13.672709
12.823939
13.725758
14.641881
14.896989
16.140938
16.214848
17.192960
17.610788
18.862486
19.704700
20.011663
20.480752
20.287633
20.121932
20.535588
19.926429
19.434690
20.733476
19.627810
18.998981
20.508766
19.015670
19.571781
19.195676
18.815994
20.043850
20.088553
19.559860
19.125938
19.181967
##ZVALUE=255
1.343489
1.477599
1.345873
1.391768
1.447797
1.467466
1.470447
1.765490
2.068877
3.857613
17.000437
41.645765
86.032748
190.987587
297.536850
461.316705
567.911863
676.778555
709.068775
659.378767
570.403934
456.520915
284.155607
185.644627
110.333562
88.577867
88.439584
103.241801
128.171444
137.043595
142.712593
142.191648
128.114820
104.629993
82.385540
55.715442
39.629936
22.372603
15.166998
10.265708
7.630587
7.280707
7.630587
7.729530
7.846951
7.395744
7.767677
8.349419
8.366704
8.230805
8.585453
8.622408
9.288788
8.755922
8.963943
8.691549
9.096861
9.287596
9.919405
9.146929
9.967685
10.185838
10.558963
10.618567
10.882616
10.782480
11.513829
11.542439
11.579990
12.180805
12.980700
13.735890
14.075637
15.489459
16.307831
16.334653
16.280413
17.564893
16.985536
16.624928
17.496943
18.051863
18.492937
17.693639
17.078519
18.068552
16.818643
17.898679
17.806888
16.684532
17.672777
17.141700
17.523766
17.885566
18.169880
17.762780
##ZVALUE=260
1.559854
1.275539
1.128912
1.295805
1.368523
1.357794
1.394749
1.460910
1.479983
1.511574
1.835823
2.205968
6.658435
27.389526
60.076714
148.586631
242.202878
397.494435
530.527830
689.662695
758.416653
762.429833
669.203997
542.810559
366.599560
251.397491
147.560835
98.969936
73.397756
80.672503
96.808672
124.534965
138.250589
148.660541
145.285726
128.643513
109.020472
82.596540
59.741735
38.000941
24.613738
13.830662
10.337830
8.211732
6.979704
6.896853
6.942749
6.973743
7.839799
7.238984
7.938743
7.855892
8.228421
8.151531
9.313822
8.289814
8.460879
8.517504
9.268522
9.054542
9.216666
9.308457
9.498000
9.751916
9.486675
11.003613
10.148883
10.094643
10.443926
11.522770
11.709929
12.058616
13.006926
13.647676
13.764501
14.798641
14.838576
14.599562
14.316440
15.005469
15.273690
15.447736
15.820861
16.115904
15.576482
15.433431
16.242862
16.379952
15.705824
16.512871
16.377568
17.260909
16.380548
16.989708
17.226934
16.893744
##ZVALUE=265
1.235604
1.265407
1.048446
1.388788
1.216531
1.347661
1.142621
1.341701
1.281500
1.528859
1.278520
1.579523
1.541972
1.906753
3.703833
18.251538
44.121742
109.454989
196.880698
365.703702
515.963435
653.132796
785.811543
810.363889
732.845664
638.948679
475.244522
335.823894
188.968778
119.522810
80.772638
65.357685
79.265833
105.997920
125.472546
147.041678
151.383877
144.709945
131.452680
105.114579
83.977580
56.087971
37.596822
21.791458
13.345480
9.041429
7.339716
7.118583
7.154942
7.363558
7.453561
7.943511
8.478761
7.779598
8.316636
9.037852
7.972717
8.594990
8.659959
8.929968
9.170771
9.262562
9.261966
8.751750
9.489655
9.819865
9.947419
10.095835
10.852814
11.058450
11.283755
11.815429
12.249947
12.594461
12.408495
12.848973
13.903975
13.552904
12.956858
14.089942
13.866425
14.501810
14.385581
14.156699
15.379786
13.935566
13.540983
14.655590
15.141964
14.984608
14.628768
15.385747
15.544891
14.934540
15.995502
16.034842
##ZVALUE=270
1.084805
1.130700
1.012683
0.975728
1.114607
1.212955
1.081824
1.092553
1.162887
1.310706
1.378655
1.345873
1.606941
1.327991
1.556873
1.641512
2.212524
8.859634
25.466681
81.420541
153.755546
259.647965
453.559756
613.894463
772.909522
830.952525
817.051530
732.553005
572.443008
429.918766
267.110467
163.853765
96.199512
57.077408
57.428479
81.832409
103.208423
129.365921
143.661499
151.855946
146.239996
130.877495
108.833909
80.785751
58.270693
35.735965
23.679733
14.565587
10.320544
8.156896
8.330941
8.087754
7.528663
7.817745
8.735657
9.113550
8.759499
8.924603
9.941459
9.943843
9.706616
9.664893
10.151863
9.841919
10.311604
9.842515
10.281801
10.495782
10.729432
10.930896
10.636449
12.059808
12.084842
12.172461
12.853742
13.124943
13.004541
13.069510
12.143850
12.700558
13.245940
13.593435
13.892651
13.999939
13.990998
13.886690
13.980865
14.306903
14.715791
14.067888
13.912916
14.091730
14.838576
14.222860
14.659762
14.863610
##ZVALUE=275
1.326799
1.219511
1.208782
1.221895
1.210570
1.270771
1.013875
1.317859
1.190901
1.428723
1.401901
1.411438
1.489520
1.211762
1.555681
1.328588
1.690984
1.743436
2.033710
4.134774
14.393926
42.554736
119.508505
221.799016
404.876471
552.219748
720.520020
821.390748
860.252976
805.874467
713.708997
529.882908
374.705791
201.229453
119.972825
59.778690
46.127439
55.575967
74.246526
102.569461
123.922825
142.706633
150.816441
143.475533
131.271482
105.339885
84.541440
58.323741
40.550828
24.641752
16.867518
11.265874
9.405613
9.137988
9.047985
9.141564
9.282827
9.590983
9.929538
10.269880
10.295510
11.009574
10.401607
10.433793
10.949969
10.117888
11.483431
11.139512
11.565685
11.549592
12.009740
12.024641
12.073517
12.470484
13.119578
13.512969
13.751984
13.248920
13.552904
13.784766
13.949871
13.595819
13.070703
13.521910
13.947487
13.947487
13.266802
13.668537
14.080405
14.154911
13.393760
13.395548
13.358593
13.930798
14.324784
14.432669
##ZVALUE=280
0.972748
1.001954
0.969768
1.122952
0.974536
1.034737
1.050830
1.017451
0.936985
0.718832
1.005530
0.989437
0.972748
1.018643
1.188517
1.435876
1.491904
1.464486
1.456738
1.784563
1.732707
2.065897
9.361506
30.783415
96.228719
173.334479
319.808722
467.950702
666.734576
776.453018
852.437019
849.993825
769.844651
592.110753
435.227752
249.788761
147.963762
70.996881
43.598413
38.681626
52.544475
77.114701
99.293590
124.900937
137.788653
146.415830
141.489506
125.978589
108.893514
79.162717
61.361790
38.719773
27.496815
17.136931
12.561679
10.948777
10.477901
10.304451
10.401607
10.774732
11.557937
11.335611
11.082888
11.751652
11.512637
11.866689
11.841655
12.157559
12.708902
12.500882
12.675524
12.358427
12.996793
12.725592
12.837648
12.871623
13.040900
13.270974
13.659596
13.857484
13.139844
13.909936
13.566613
13.230443
13.771653
13.125539
13.504624
14.267564
13.317466
14.089942
12.902617
13.185740
13.205409
13.121963
13.586879
13.016462
##ZVALUE=285
0.966787
0.958443
0.877976
0.975728
0.698566
0.877976
1.029968
0.997782
0.955462
1.050830
0.966787
0.949502
1.205802
1.130700
1.099706
1.120567
1.188517
1.221895
1.163483
1.179576
1.342893
1.670718
1.712441
1.721978
4.611611
14.734864
50.985813
106.501579
228.848457
362.252593
511.916876
709.505677
823.632479
886.510611
832.178593
682.089925
537.083745
336.220860
211.097598
101.880431
55.502653
31.011701
32.544732
51.748753
71.428418
99.930763
118.192434
133.961439
142.462850
140.935779
129.695535
106.735826
88.132620
61.416626
45.281649
28.010607
20.041466
14.903545
13.188720
12.595654
12.400746
13.085604
12.821555
12.879968
12.862682
12.754798
13.020635
13.010502
13.185740
13.244748
14.160872
14.357567
14.478564
14.134645
13.819933
13.965964
13.573766
14.047623
14.216900
13.803840
14.113784
14.369488
14.143586
14.273524
14.479756
13.945699
14.219880
14.498830
13.808608
13.825893
13.995767
13.784766
13.247728
12.918711
13.235807
13.518929
##ZVALUE=290
0.853539
0.764728
0.831485
0.893474
0.821948
1.042485
0.933409
1.050830
0.957847
0.818968
0.936985
1.034737
1.022816
1.039505
0.965595
1.096725
1.126528
1.018643
1.077652
1.170635
1.360774
1.344681
1.388788
1.297593
1.528859
1.634955
2.311468
6.400943
26.825666
68.333745
133.712888
281.430483
433.131456
649.516582
776.864886
880.155563
869.827867
750.413537
616.299510
416.539907
275.207758
139.465928
73.961616
32.505989
23.566484
32.418966
45.930743
68.623424
89.251995
117.323995
129.138827
140.517950
141.235590
126.128793
109.423995
83.685517
63.610673
43.729544
32.288432
22.486448
17.931461
15.432835
14.747977
13.869405
13.736486
14.107823
14.206767
15.003681
14.206767
15.024543
14.463663
14.998913
15.590787
14.882684
14.438629
15.194416
14.634728
14.937520
14.910698
15.164614
14.671683
14.528632
15.273690
14.212728
14.303923
14.081597
14.844537
14.672875
14.716983
14.021993
14.568567
13.977885
13.502836
13.935566
13.438463
13.596416
##ZVALUE=295
0.888705
0.817776
0.930429
0.918508
0.909567
0.778437
0.713468
0.896454
0.901818
0.761747
0.862479
0.898838
0.859499
0.950694
1.029968
1.039505
1.071692
1.185536
1.170635
1.199841
1.074672
1.177788
1.090765
1.245737
1.223683
1.270771
1.336932
1.573563
1.878738
2.660751
9.511709
41.271448
93.966722
222.080946
357.939005
568.852425
712.359548
848.401785
880.599022
811.448693
695.869923
496.896505
347.557664
185.088515
103.399754
40.639639
22.609830
20.695925
28.067827
47.109723
63.933730
90.142488
110.009909
130.669475
137.645602
135.130882
124.913454
105.173588
85.993409
63.433647
47.707558
32.910705
24.682879
18.929839
16.825795
15.552640
15.908480
15.625954
16.026497
15.603900
15.194416
15.578866
15.957952
16.163588
16.006827
15.545487
15.938878
15.495420
15.335679
15.786886
16.283989
15.763640
15.884638
15.564561
15.558600
15.116930
14.921427
14.301538
14.714599
15.247464
14.707446
14.066696
13.759732
13.786554
13.966560
13.712645
##ZVALUE=300
0.819564
0.977516
0.853539
0.904799
0.750422
0.765920
0.745654
0.732541
0.680685
0.865459
0.832677
0.880957
0.851750
0.937581
0.866652
0.800490
0.790954
1.026988
1.133680
1.065731
0.974536
1.239777
1.048446
1.145601
1.193881
1.321435
1.226664
1.244545
1.400709
1.472831
1.611710
1.968741
6.549954
21.985769
74.377656
146.313906
296.592712
445.984602
654.340982
780.355930
870.539546
859.849453
744.269490
614.483953
410.278440
266.884565
136.893988
75.838566
30.668974
18.106699
20.711422
27.918816
44.078827
60.102940
84.556937
101.800561
123.862624
132.046938
130.768418
123.186707
105.692744
88.271499
64.761639
49.882531
34.061670
25.570989
20.827651
18.050671
16.792417
16.367435
16.640425
16.111732
16.242862
15.863776
16.407967
16.023517
15.528798
16.474724
15.905499
16.176701
16.496778
16.669631
16.565919
15.743971
15.725493
16.012788
15.699863
15.425682
15.869737
14.980435
15.079975
14.687777
14.934540
14.408827
14.122725
14.175773
##ZVALUE=305
0.738502
0.855923
0.900626
0.943542
0.789762
0.890493
0.819564
0.847578
0.767708
0.749826
0.875592
1.000762
0.842810
0.850558
0.825524
0.953674
0.841618
0.875592
0.792742
1.010895
0.983477
1.030564
0.986457
0.956655
0.971556
1.067519
1.247525
1.287460
1.157522
1.327991
1.356602
1.619458
1.374483
1.657605
2.943873
14.783740
41.372776
117.438436
212.293863
390.910506
546.586514
728.793740
831.341743
864.509940
811.501741
646.383762
505.613685
311.535597
197.356939
95.034838
50.418973
22.069812
16.587973
20.661950
27.679801
44.935942
60.557723
83.392859
101.180673
117.396712
126.484632
125.609636
117.600560
100.614429
83.448887
61.677694
47.398806
32.331944
25.326610
19.383430
17.676950
16.622543
16.047955
16.701818
15.726686
15.683770
15.979409
16.476512
16.167760
16.235709
16.494989
16.398430
16.761422
16.495585
15.992522
16.480684
16.352534
16.320944
15.590787
15.584826
15.434623
14.828444
14.970899
14.786720
14.673471
14.301538
##ZVALUE=310
0.751615
0.639558
0.716448
0.699759
0.788569
0.740886
0.788569
0.697970
0.785589
0.928640
0.862479
0.742674
0.690818
0.687838
0.823736
0.607967
0.981688
0.705719
0.892878
0.805855
0.819564
0.985861
1.011491
1.143813
0.923872
1.071692
1.003742
0.968575
1.034737
1.269579
1.134872
1.149774
1.377463
1.269579
1.330972
1.712441
1.800656
6.429553
21.068454
70.534945
138.677955
283.543468
429.841876
631.536841
761.902928
857.688785
843.246579
739.612579
610.925555
413.148999
277.693868
141.392946
78.533888
32.175779
17.832518
14.975667
19.082427
26.963949
37.509799
56.255460
72.203875
94.260573
107.082725
118.756890
118.278861
111.491680
98.610520
80.293417
63.257813
44.065714
33.119917
24.437904
20.092726
16.524792
15.803576
15.414953
15.387535
15.898943
15.638471
16.191602
16.040802
15.994906
16.691685
16.458631
16.855597
16.484857
16.814470
16.343594
16.316772
15.909672
15.629530
15.383959
15.540719
15.097857
14.750957
14.851689
##ZVALUE=315
0.776649
0.757575
0.713468
0.874996
0.723600
0.679493
0.805855
0.708699
0.743866
0.672936
0.746846
0.893474
0.865459
0.810623
0.882745
0.796914
0.861883
0.871420
0.924468
0.797510
0.856519
1.197457
0.917912
0.930429
0.980496
1.006722
0.900626
0.925660
0.835657
0.929832
0.888705
1.072884
0.999570
1.199841
1.314878
1.345873
1.458526
1.437664
1.453757
3.033876
10.751486
44.320822
97.292662
219.571590
354.170799
564.138889
699.007511
821.083784
855.994821
788.076520
675.203800
489.156842
346.938968
186.759830
105.366707
42.204857
21.403432
13.738871
14.362931
18.394589
23.490787
36.334991
48.531890
68.479776
83.854795
100.673437
110.360980
111.609697
105.933547
91.497898
76.204538
56.985617
44.052601
30.391812
23.732781
18.162727
16.124845
15.971661
15.278459
14.894605
15.809536
15.495420
15.932918
16.192794
16.359687
16.153455
16.415715
15.988946
16.326904
16.150475
15.949607
15.825629
16.006827
15.619993
15.652776
15.240908
##ZVALUE=320
0.766516
0.543594
0.571609
0.637770
0.744462
0.737906
0.754595
0.750422
0.804663
0.803471
0.771880
0.641942
0.814795
0.797510
0.754595
0.689626
0.748634
0.889897
0.892878
0.752807
0.712872
0.875592
0.978708
0.906587
0.796914
0.857711
0.820756
0.851750
0.868440
1.007915
0.920892
0.738502
1.169443
1.018643
1.058578
1.241565
1.090765
1.350641
1.416802
1.358986
1.531839
1.820922
4.914999
25.810599
63.044429
160.291791
266.462564
446.854830
593.344569
760.958791
834.525824
819.949508
739.946961
569.967628
417.490005
235.269666
135.519505
58.246851
29.430985
14.244914
11.282563
12.301803
14.762878
21.408796
29.451847
45.812726
59.527755
79.105496
92.944503
103.722811
105.581880
97.820759
88.240504
69.710612
56.675673
41.248798
30.640960
22.608638
18.368959
16.299486
15.708804
15.722513
15.108585
15.694499
15.659928
16.129613
15.867949
16.537905
16.247630
15.814900
15.873909
15.761852
15.547872
15.076995
15.138984
15.060902
##ZVALUE=325
0.627637
0.757575
0.738502
0.920892
0.761747
0.832677
0.636578
0.781417
0.797510
0.615716
0.748634
0.722408
0.868440
0.770688
0.820756
0.691414
0.741482
0.733733
0.893474
0.829697
0.729561
0.753999
0.956655
0.795722
0.810623
0.893474
0.981688
0.678897
0.996590
0.954866
1.156926
1.000762
1.009703
1.053810
0.998974
0.955462
1.190901
1.381636
1.230836
1.191497
1.341701
1.391768
1.374483
1.581907
2.775788
15.229583
41.055679
110.620856
198.980570
368.199944
513.381958
690.203905
784.854889
818.972588
766.057968
610.072017
464.439988
286.842585
176.378489
78.988671
39.931536
15.626550
9.941459
9.533763
10.403991
13.806820
18.745661
28.894544
40.695667
59.978962
73.548555
88.227987
95.839500
98.704696
93.742609
80.373883
67.566633
51.699877
39.654970
27.130842
21.863580
18.055439
16.475916
15.340447
15.242696
15.611649
15.348792
15.472770
15.394688
15.508533
15.605688
15.552640
15.188456
15.212893
15.117526
15.094876
##ZVALUE=330
0.781417
0.765920
0.669956
0.741482
0.632405
0.620484
0.614524
0.729561
0.774860
0.597835
0.502467
0.602603
0.510812
0.789762
0.865459
0.657439
0.720620
0.710487
0.539422
0.905991
0.845790
0.869632
0.776649
0.878572
0.732541
0.779629
0.797510
0.927448
0.788569
0.786781
0.821948
0.958443
0.779629
0.931621
0.920892
0.941753
0.966787
0.962615
0.946522
1.089573
1.108646
1.321435
1.248717
1.317859
1.327991
1.377463
1.877546
7.156730
22.671819
73.201656
139.573812
281.283855
417.737961
609.691739
728.458762
802.099705
778.928995
660.629869
534.042716
349.254608
224.618912
103.879571
54.639578
21.382570
11.445880
8.432865
8.475780
9.905696
12.752414
18.590689
25.740862
40.121675
52.854419
69.911480
82.555413
90.787411
92.025995
87.531805
78.370571
62.540770
50.567985
36.922693
29.046535
22.062659
18.367767
16.516447
15.569925
14.707446
15.003681
14.818907
15.106797
14.915466
14.859438
15.099645
14.892817
14.763474
##ZVALUE=335
0.584722
0.695586
0.707507
0.563860
0.754595
0.663996
0.763535
0.683665
0.732541
0.661612
0.615716
0.714660
0.574589
0.615716
0.738502
0.653863
0.615716
0.769496
0.671744
0.876784
0.954866
0.997782
0.887513
0.760555
0.756979
0.848770
0.814795
0.909567
0.869632
0.897646
0.908971
0.890493
0.880957
0.947714
0.946522
1.043677
0.907779
0.907779
0.832677
1.007915
0.860691
1.068711
1.081824
1.146793
1.263618
1.176000
1.304746
1.493692
1.527667
3.152490
10.827780
44.773817
95.209479
210.269690
335.858464
529.837012
657.815933
768.475533
782.267451
701.810718
589.307547
408.771634
278.398991
145.900846
78.759789
29.063821
13.825893
8.648634
8.501410
8.829832
9.804964
12.592673
17.037988
26.809573
37.050843
52.591562
66.467524
79.118609
86.303949
87.030530
83.405972
72.381496
62.215924
49.129725
39.396882
29.176474
23.061633
18.630624
16.232729
14.933944
14.313459
14.127493
13.918877
13.691783
13.919473
13.746619
##ZVALUE=340
0.647902
0.676513
0.716448
0.582933
0.629425
0.641942
0.726581
0.860691
0.736713
0.725985
0.686646
0.765920
0.502467
0.666976
0.695586
0.805855
0.639558
0.581741
0.638962
0.720620
0.636578
0.724792
0.719428
0.745654
0.800490
0.803471
0.721812
0.733733
0.819564
0.857711
0.875592
0.694990
0.699759
0.835657
0.760555
0.801682
0.798702
0.685453
0.777841
0.813603
0.978708
0.996590
1.041889
0.984669
1.134872
1.068711
1.085997
1.116991
1.207590
1.259446
1.369715
2.005696
5.451441
27.126670
65.409541
164.446831
274.567604
446.714759
580.595732
719.212890
762.425661
722.250938
630.931854
465.734005
334.511995
182.485580
100.979805
39.944649
18.613935
9.400845
8.311868
8.491874
8.896589
10.337830
12.431741
18.503666
25.089979
37.751794
48.757792
63.733459
73.785782
82.098842
83.048940
77.866912
71.463585
58.626533
48.645735
36.203861
29.320717
21.933913
17.990470
15.433431
13.935566
13.434887
12.850761
12.808442
##ZVALUE=345
0.570416
0.629425
0.586510
0.723600
0.608563
0.716448
0.621676
0.608563
0.604987
0.598431
0.651479
0.629425
0.636578
0.668764
0.687838
0.794530
0.719428
0.751615
0.634789
0.762939
0.775456
0.759959
0.746846
0.642538
0.622869
0.704527
0.671744
0.578761
0.670552
0.764728
0.707507
0.825524
0.883937
0.741482
0.760555
0.724792
0.901818
0.793934
0.895858
0.823736
0.849962
0.945926
0.952482
0.965595
1.006722
1.083612
1.020432
1.145601
1.099706
1.061559
1.023412
1.116991
1.267791
1.465678
2.873540
15.047789
41.615963
109.101534
195.526481
357.666612
491.073728
646.749735
718.717575
730.617642
669.708848
515.595675
384.837985
229.817629
133.270621
54.326653
26.166439
11.585951
8.899570
8.216500
8.273721
8.877516
9.680986
12.455583
16.313791
24.567842
32.988787
46.865940
57.480931
68.213940
73.758960
76.770782
73.696971
66.199899
57.934523
46.534538
37.116408
26.696920
21.349788
16.677976
14.151931
13.071895
##ZVALUE=350
0.630617
0.615716
0.577569
0.642538
0.727773
0.681877
0.699759
0.640750
0.551939
0.726581
0.587702
0.586510
0.507832
0.691414
0.598431
0.671744
0.866652
0.714660
0.655651
0.735521
0.725985
0.671744
0.647902
0.595450
0.592470
0.692606
0.623465
0.829697
0.710487
0.714660
0.706911
0.795722
0.725985
0.790954
0.654459
0.858903
0.677705
0.862479
0.766516
0.828505
0.805855
0.764728
0.822544
0.936985
0.907779
1.032948
1.066923
0.910759
0.953674
0.886917
1.135468
0.992417
1.249909
1.246929
1.274943
1.375675
1.936555
7.431507
23.376942
74.475408
140.866637
277.729630
406.872630
566.262603
666.173697
719.460845
682.509542
567.305684
437.040925
265.768766
164.325833
77.433586
38.155913
13.443828
8.612871
7.867813
8.024573
8.028746
8.410811
9.542704
11.728406
16.192794
21.538734
31.148791
39.171576
51.576495
60.415864
67.559481
69.645643
68.254471
62.632561
52.558780
44.780970
34.314990
27.226806
20.371675
##ZVALUE=355
0.608563
0.561476
0.688434
0.596642
0.711679
0.707507
0.600815
0.488758
0.610948
0.601411
0.755787
0.637770
0.659823
0.694990
0.644922
0.615716
0.700951
0.621676
0.701547
0.698566
0.730753
0.732541
0.757575
0.781417
0.819564
0.719428
0.770688
0.672936
0.681877
0.660419
0.624657
0.846982
0.775456
0.784993
0.729561
0.905991
0.847578
0.867844
0.797510
0.875592
0.742674
0.818968
0.838637
0.934601
0.999570
0.987649
1.062751
0.843406
0.864863
0.995994
0.928640
1.193881
1.244545
1.113415
1.188517
1.286864
1.155734
1.372695
1.341701
3.894567
12.899637
48.487782
100.250840
209.908485
328.292847
503.761768
615.373850
693.590641
692.088604
593.629479
479.306579
310.996771
195.048451
89.078546
45.671463
17.918944
9.584427
7.745624
7.536411
7.477999
7.636547
8.214712
8.701682
10.524988
13.123751
18.856525
25.307536
35.608411
43.769479
53.701997
59.731603
63.533783
62.771440
56.784749
50.684810
40.899515
##ZVALUE=360
0.657439
0.703931
0.473857
0.633597
0.543594
0.559688
0.839829
0.744462
0.624657
0.694990
0.724792
0.463724
0.782609
0.636578
0.535846
0.531673
0.687838
0.770688
0.683665
0.807643
0.740886
0.574589
0.667572
0.699759
0.703931
0.624657
0.708699
0.784993
0.637770
0.652671
0.776649
0.665784
0.721812
0.652671
0.763535
0.846982
0.891685
0.767708
0.735521
0.816584
0.805855
0.838637
0.829697
0.807643
0.837445
0.957847
0.796914
0.847578
0.884533
0.897646
1.056790
0.912547
1.015663
1.237988
0.977516
1.060963
1.116991
1.166463
1.331568
1.340508
1.349449
1.992583
5.588531
25.550723
62.822700
153.700709
254.009962
411.647558
538.792014
658.005476
685.080886
638.229847
542.193651
379.889011
254.658461
125.986934
66.187978
26.211739
12.456775
7.512569
7.127523
7.061958
7.182956
7.189512
7.456541
7.989407
9.156466
11.592507
15.006661
21.573901
28.164983
38.552880
45.281649
53.359866
56.694746
57.012439
##ZVALUE=365
0.654459
0.560880
0.613928
0.674725
0.690818
0.727773
0.687838
0.523925
0.756979
0.744462
0.758767
0.788569
0.889897
0.599623
0.546575
0.489950
0.584722
0.742674
0.736713
0.784993
0.791550
0.807643
0.859499
0.730753
0.731945
0.714660
0.643730
0.625849
0.638962
0.703931
0.646710
0.635982
0.725985
0.541806
0.707507
0.615716
0.766516
0.642538
0.702739
0.972748
0.805855
0.774860
0.949502
0.894666
0.859499
0.925660
0.785589
0.839829
0.821948
0.904799
0.851750
0.806451
0.895858
0.977516
0.849962
0.943542
1.048446
0.996590
1.105666
1.066923
1.226664
1.385808
1.411438
1.577735
2.766848
14.059544
37.847757
100.344419
185.757875
342.061520
464.016795
596.366525
659.219027
646.433830
568.873882
419.181585
299.364924
166.389942
93.278885
35.812855
16.269684
7.572770
6.793737
6.507635
6.667972
6.473660
6.471872
6.664991
6.718636
8.111000
9.769797
13.642907
17.371774
24.957657
31.684637
40.208697
##ZVALUE=370
0.617504
0.611544
0.585914
0.593662
0.551939
0.694990
0.600815
0.650883
0.526905
0.655651
0.583529
0.596642
0.618696
0.745654
0.733733
0.671744
0.684857
0.596642
0.688434
0.691414
0.689626
0.709891
0.592470
0.808835
0.681877
0.685453
0.688434
0.671744
0.700951
0.666976
0.790954
0.662804
0.766516
0.854731
0.582933
0.686646
0.641942
0.654459
0.712872
0.633597
0.765920
0.891685
0.699759
0.759959
0.753999
0.789762
0.820756
0.682473
0.876784
0.846982
0.780821
0.923872
0.816584
0.788569
0.808835
0.803471
0.837445
1.014471
1.018643
1.166463
1.085997
0.958443
0.962615
1.203418
1.075864
1.383424
2.106428
5.752444
28.958917
70.133805
165.040493
264.242887
415.475965
533.430576
634.464622
653.457642
590.211749
489.969850
329.838991
217.040777
102.912784
53.738952
21.953583
10.782480
6.301999
5.772710
5.974770
5.982518
5.875826
6.072521
6.109476
6.404519
7.099509
8.330941
11.715889
15.424490
##ZVALUE=375
0.639558
0.664592
0.630617
0.631809
0.583529
0.589490
0.722408
0.491738
0.670552
0.621676
0.739694
0.532866
0.538826
0.820756
0.613928
0.618696
0.776649
0.713468
0.730753
0.576973
0.541806
0.690818
0.564456
0.512600
0.773668
0.688434
0.621676
0.718832
0.548959
0.793934
0.528693
0.542998
0.736713
0.827909
0.666976
0.721812
0.644922
0.695586
0.597835
0.648499
0.708699
0.574589
0.660419
0.828505
0.796914
0.782609
0.850558
0.645518
0.756979
0.822544
0.917912
0.787973
0.733733
0.708699
0.730753
0.652671
0.608563
0.774860
0.796914
0.908971
0.942945
0.845790
0.935793
1.080632
1.052618
1.091957
1.209974
1.166463
1.424551
3.672838
12.315512
43.537617
94.082952
210.018754
326.163769
488.058925
584.658980
645.546913
628.879666
522.888899
407.040715
250.319839
159.657001
80.039501
41.497946
14.651418
7.679462
5.650520
5.310774
5.510449
5.523562
5.492568
5.658865
5.624890
5.801916
6.419420
##ZVALUE=380
0.644922
0.550747
0.553727
0.583529
0.656843
0.559688
0.622869
0.614524
0.611544
0.552535
0.579953
0.562668
0.659823
0.503659
0.563860
0.498891
0.578761
0.680685
0.736713
0.579953
0.697970
0.739694
0.583529
0.742674
0.601411
0.566840
0.630617
0.674725
0.700951
0.735521
1.013875
0.767708
0.749826
0.703931
0.655651
0.616908
0.595450
0.587702
0.670552
0.732541
0.727773
0.717640
0.760555
0.622869
0.769496
0.766516
0.700951
0.862479
0.749826
0.759959
0.803471
0.922680
0.663996
0.646710
0.680685
0.818968
0.733733
0.809431
0.802875
0.756979
0.702739
0.874996
0.921488
1.046658
0.968575
0.946522
1.116991
1.078844
1.151562
1.237988
1.348853
2.245903
6.803870
31.300783
72.287917
168.906450
272.051692
425.502658
534.747839
631.678700
634.918809
553.975701
457.437634
320.678949
217.729807
108.507872
57.099462
21.124482
9.977818
5.662441
5.161762
5.088449
5.282760
5.160570
5.034804
5.337596
##ZVALUE=385
0.632405
0.500679
0.655651
0.541806
0.511408
0.491738
0.620484
0.499487
0.562668
0.481606
0.641942
0.492930
0.584722
0.689626
0.538826
0.596642
0.530481
0.700951
0.781417
0.541806
0.626445
0.521541
0.634789
0.707507
0.526905
0.624657
0.557899
0.614524
0.653863
0.633597
0.612736
0.626445
0.617504
0.673532
0.831485
0.745654
0.791550
0.638962
0.504851
0.690818
0.731945
0.677705
0.668764
0.704527
0.664592
0.664592
0.615716
0.735521
0.657439
0.751615
0.670552
0.877976
0.852942
0.721812
0.767708
0.647902
0.556707
0.798702
0.873804
0.761747
0.799894
0.800490
0.830889
0.768900
0.970960
1.008511
0.865459
1.083612
1.150966
1.093745
1.270771
1.302958
1.335740
1.381636
3.226399
17.097592
44.907928
113.943815
202.549696
361.622572
481.723547
598.932505
631.417036
601.872802
529.304743
388.524532
277.034640
153.033733
87.984800
37.230849
16.281605
6.438494
5.034804
4.721880
4.722476
4.692674
##ZVALUE=390
0.569820
0.477433
0.620484
0.550747
0.535846
0.619888
0.663996
0.578761
0.646710
0.523925
0.644922
0.441670
0.441670
0.665784
0.562668
0.498891
0.641942
0.668764
0.499487
0.563860
0.485778
0.671744
0.728965
0.572801
0.658631
0.463724
0.789762
0.697970
0.711679
0.682473
0.528693
0.606775
0.695586
0.667572
0.720620
0.673532
0.545979
0.727773
0.684857
0.569820
0.562668
0.743866
0.725985
0.739694
0.746846
0.659823
0.611544
0.633597
0.597835
0.591874
0.661612
0.625849
0.668764
0.744462
0.657439
0.791550
0.745654
0.705719
0.559688
0.762939
0.735521
0.912547
0.710487
0.856519
0.798702
0.710487
0.897646
0.979900
0.976920
0.943542
0.955462
1.206994
1.138449
1.233816
1.255870
1.279712
1.802444
8.938909
27.996898
86.071491
163.264871
305.987597
418.017507
541.824698
610.947013
627.451539
585.539937
463.368893
348.130465
214.800835
126.338601
53.613782
25.199652
8.645654
5.084872
4.424453
##ZVALUE=395
0.400543
0.579953
0.429749
0.439882
0.528693
0.391603
0.428557
0.432730
0.626445
0.479817
0.525713
0.496507
0.463724
0.390410
0.453591
0.607967
0.531673
0.495911
0.361800
0.520945
0.397563
0.456572
0.433922
0.580549
0.545979
0.633597
0.503659
0.582933
0.524521
0.631809
0.600815
0.552535
0.633597
0.427961
0.610948
0.604987
0.582933
0.630617
0.587702
0.566840
0.589490
0.579953
0.616908
0.545979
0.627637
0.544786
0.574589
0.525713
0.465512
0.638962
0.748634
0.614524
0.598431
0.630617
0.543594
0.679493
0.572801
0.632405
0.649691
0.704527
0.668764
0.717640
0.608563
0.736713
0.831485
0.705719
0.861883
0.787973
0.870824
0.977516
0.934601
1.086593
0.900626
0.894666
0.874996
0.927448
1.178980
1.090765
1.437664
5.004406
18.172860
63.372850
119.119883
227.280855
336.773992
491.249561
584.942698
641.587973
627.460480
532.739758
418.193936
260.968804
162.305832
72.606802
35.350919
12.660623
##ZVALUE=400
0.408888
0.380874
0.340939
0.427961
0.240803
0.339746
0.417829
0.343919
0.463724
0.426769
0.393987
0.426769
0.424981
0.352859
0.460744
0.550747
0.563860
0.428557
0.422597
0.354648
0.401735
0.737906
0.409484
0.388622
0.459552
0.215769
0.464916
0.407696
0.360608
0.443459
0.545979
0.511408
0.408888
0.467896
0.511408
0.465512
0.511408
0.521541
0.440478
0.523925
0.558496
0.585914
0.527501
0.453591
0.462532
0.562668
0.513792
0.641942
0.585914
0.548959
0.511408
0.531673
0.472665
0.446439
0.562668
0.492930
0.588894
0.512600
0.529885
0.463724
0.604987
0.698566
0.659823
0.619888
0.579953
0.705719
0.828505
0.672936
0.881553
0.862479
0.891685
0.902414
0.845790
0.940561
0.975728
0.885725
0.864863
0.930429
1.004934
1.226664
1.193881
2.140999
10.736585
30.062795
86.291432
158.108473
295.560956
410.488844
550.905466
613.163710
622.668862
567.674637
438.828468
324.249864
187.257528
113.635659
##END
