##TITLE=QP0065F2
##FORMAT=SPECTACLE-ASCII V-1.2
##DATA TYPE=ULTRAVIOLET SPECTRUM
##SECOND TYPE=ULTRAVIOLET SPECTRUM
##DATE=12/11/17
##TIME=15:17:33
##SPECTROMETER/DATA SYSTEM=SPECTACLE
##XUNITS=NM EM
##YUNITS=ENERGY
##YFACTOR=1
##FIRSTX=220
##LASTX=410
##NPOINTS=96
##3DDATA=Equidistant
##ZUNITS=NM EX
##FIRSTZ=210
##LASTZ=400
##ZPOINTS=39
##XYDATA=(Y..Y)
##ZVALUE=210
3.009439
3.024936
3.135800
2.788901
3.021955
2.718568
3.609657
3.695488
3.830791
2.741814
3.085732
3.607869
2.931952
3.036857
3.557801
3.279448
2.982616
4.381537
3.502965
3.599524
4.181862
4.841685
4.706979
4.402995
4.527569
5.013943
6.271601
5.352497
5.917549
6.376505
6.742477
5.299449
5.947948
5.855560
6.786585
6.816983
6.120801
6.203651
6.654859
7.489920
6.651878
6.111860
6.104708
6.807446
7.314682
7.730722
6.711483
7.778406
6.641746
6.743670
8.760691
7.363558
8.081794
7.719994
8.455515
7.956624
7.889867
8.237958
8.240938
8.121729
8.149743
7.522702
8.774996
8.366704
9.548664
8.884668
9.226799
10.580420
11.564493
12.471676
14.883876
17.633438
20.135641
23.211837
24.620891
28.341413
28.910637
31.263828
30.430555
32.526851
30.544996
28.596520
27.730465
23.785830
17.716885
14.266968
11.511445
10.731816
8.694530
9.055734
7.523894
8.280873
8.370876
7.788539
8.896589
8.855462
##ZVALUE=215
11.878610
10.548830
9.432435
6.592870
6.646514
5.657673
5.885959
5.403757
5.797744
5.067587
5.693436
5.650520
4.404783
4.374981
4.330873
2.832413
3.508925
3.777742
3.640652
3.645420
4.029870
4.438758
5.080700
5.037785
5.295873
5.139709
5.431771
5.806684
5.560517
6.770492
5.675554
6.477833
6.094575
6.897449
5.980730
7.477999
6.994605
6.539822
6.384850
6.434917
6.716847
7.244945
6.887913
7.834435
7.438660
7.686615
7.903576
7.451773
7.228851
8.237958
7.805824
8.425713
7.530451
8.111000
8.466840
7.186532
8.003712
8.419752
8.139610
8.733869
8.041859
8.425713
8.174777
9.626746
9.510517
7.306933
8.323789
9.814501
10.219812
11.865497
13.875961
17.098784
19.455552
21.511912
24.893880
27.282834
28.083920
29.826760
29.729605
27.239919
26.356578
22.660494
20.079613
16.630888
14.452934
12.096763
9.365678
8.136630
9.288788
8.265972
7.582903
7.616878
7.583499
7.309914
7.911921
7.564425
##ZVALUE=220
38.946867
36.922693
38.920641
37.512779
33.778548
23.557544
18.165708
14.991760
12.643933
11.514425
12.512803
12.935996
12.360811
11.720657
10.498762
7.954836
6.860495
4.975796
4.054904
4.674792
4.375577
4.155636
4.774928
4.422665
4.625916
5.093813
5.526543
5.763769
6.614923
6.694794
6.585717
7.363558
6.571412
7.416606
7.086992
7.584691
6.826520
7.862449
6.975532
7.140636
6.357431
7.057786
6.572604
6.370544
7.491708
6.369948
7.117987
6.881952
6.338954
6.816983
6.220937
7.186532
7.343888
7.627606
7.862449
7.968545
7.032752
8.428693
8.844733
8.032918
8.819699
7.860661
8.034706
8.106828
8.204579
9.373426
8.114576
8.524656
9.405613
10.950565
13.510585
13.507605
17.228723
18.461943
18.893480
21.040440
22.120476
23.698807
23.901463
23.186803
20.214915
19.228458
15.929937
14.845729
11.598468
11.767745
9.233952
7.998943
8.202791
7.665753
8.001924
8.525848
8.112788
7.186532
7.032752
7.054806
##ZVALUE=225
69.691539
73.013902
93.299747
113.180876
113.218427
106.749535
91.521740
68.293810
50.528646
35.497546
27.736425
24.753809
25.194883
27.646422
27.332902
25.814772
22.576451
18.639565
12.003779
10.373592
8.163452
6.767511
4.512668
5.390644
5.569458
5.351901
6.244779
6.148815
6.531477
7.211566
6.504655
7.807612
8.215904
8.828640
8.195639
9.014606
9.324551
8.563995
8.407831
8.487701
8.594990
8.604527
8.454919
8.101463
9.167790
8.171797
8.669496
9.271502
9.187460
8.000731
9.077787
9.312630
9.258986
8.567572
8.802414
9.812713
9.050965
9.364486
9.914637
10.405779
11.603832
10.081530
9.874701
10.481477
10.408759
11.422634
11.047721
12.608767
12.571812
14.166832
15.444756
19.157529
18.111467
22.590756
23.892522
24.538636
24.259686
24.322867
25.731921
24.585724
24.041533
22.033453
22.651553
18.070936
17.762780
15.429854
13.780594
13.128519
12.409687
12.032986
11.408925
12.027621
11.238456
10.113716
9.980798
10.711551
##ZVALUE=230
64.435601
69.004893
111.106634
186.038613
240.713954
297.066569
307.114720
309.660435
267.634988
224.993825
152.717829
104.932785
66.365600
52.031875
46.224594
49.863458
50.060749
48.900843
48.191547
37.549734
29.959679
20.151734
13.647676
10.886788
7.515550
8.056760
7.019639
7.526875
8.070469
8.652806
9.205937
8.539557
8.994937
9.760857
10.283589
10.224581
10.445714
10.368824
10.159612
9.556413
9.901524
11.048913
10.431409
10.413527
9.185672
9.716749
9.889603
11.392832
10.774732
10.308623
10.375977
10.801554
11.329651
12.446642
12.381673
12.331605
12.048483
12.255907
13.759732
12.996793
13.267994
13.480783
13.725758
13.813972
15.057921
13.633966
14.447570
14.397502
16.848445
18.156767
20.377636
21.838546
23.694634
28.369427
28.818846
29.795766
31.237602
29.416680
30.438900
27.023554
24.667978
23.986697
21.108985
19.334555
17.210841
16.265512
15.795827
17.015934
15.460849
13.282895
14.748573
12.431741
13.824701
13.108850
13.576746
13.835430
##ZVALUE=235
26.394725
30.224919
61.596632
148.527622
234.188437
364.665985
462.706685
562.916994
611.957908
559.076667
498.149991
381.288528
283.724666
189.890862
134.354830
104.324818
82.151890
79.810619
85.277557
86.924434
79.751611
70.073605
50.196648
41.058660
25.791526
18.861890
13.263822
11.657476
10.076761
9.664893
10.580420
11.336803
9.961724
10.285974
10.393858
11.773705
9.877682
11.497736
11.435747
12.634993
9.551644
11.019707
10.570884
10.799766
10.345578
9.247661
10.427833
10.718703
10.558963
11.541843
12.114644
12.776852
11.912584
11.720657
13.456941
12.765527
12.952685
15.954971
14.444590
15.911460
15.241504
16.306639
16.536713
15.703440
17.693639
16.985536
18.135905
16.795993
19.524693
22.307634
22.877455
26.006699
27.441978
30.715466
30.227900
32.853484
33.555627
31.600595
30.928850
29.741526
28.614998
26.495457
25.447607
22.016764
21.399856
20.514727
20.356774
18.052459
17.787814
18.417835
19.349456
19.342899
17.650723
18.000603
16.855597
17.506480
##ZVALUE=240
2.786517
2.882481
9.934902
46.064854
100.413561
217.564702
350.025892
567.759871
730.322599
860.324502
969.716907
954.380631
819.106698
679.017901
458.184481
311.437845
176.202655
122.534633
101.018548
104.891658
111.127496
119.638443
120.308995
104.485750
86.300969
68.763494
51.128864
35.416484
23.223758
15.879869
13.492703
11.789799
11.579990
11.176467
10.583997
11.842847
12.783408
9.988546
11.719465
11.382699
11.250973
11.315942
12.856722
10.906458
11.498928
11.276603
11.770725
12.527704
13.967752
13.458729
13.196468
12.866855
14.360547
15.172958
15.105605
16.022921
16.182661
15.951991
15.790462
18.399954
17.337799
17.801523
18.524528
18.751621
19.051433
18.848777
19.285679
20.541549
23.464561
25.919676
25.818944
28.035641
28.626919
33.394694
32.472610
33.013821
34.832954
35.828948
33.487678
31.813979
30.795932
29.892921
27.778745
27.119517
23.753643
24.944544
23.227930
21.873713
21.992922
21.107793
21.662712
19.852519
20.674467
21.031499
20.213723
19.723773
##ZVALUE=245
1.881719
2.233982
1.777411
1.914501
7.610917
22.186637
70.011616
137.204528
299.589634
470.824838
745.760798
929.424763
1016.013026
1016.013026
1016.013026
875.743628
696.092844
453.372002
299.023986
162.112713
117.596984
102.693439
114.690661
128.570795
132.419467
127.764940
114.587545
96.194744
74.614882
55.764914
40.797591
25.331974
19.514561
12.285709
11.766553
10.564923
10.041595
10.195971
10.337830
9.556413
10.698438
9.711981
9.115934
9.797812
10.110736
10.275841
9.753704
10.088682
10.174513
12.167692
12.363791
12.863874
12.965798
12.079477
11.133552
12.867451
12.696981
14.334917
14.329553
15.549660
15.498996
15.047789
16.161799
16.464591
16.438961
16.127825
18.146634
17.847419
18.630624
21.749735
22.543669
21.946430
24.647713
26.202798
29.019713
28.573871
29.517412
27.708411
28.115511
26.106834
26.146770
24.425983
24.680495
23.478866
23.946762
22.390485
21.341443
19.709468
20.940900
19.674897
21.084547
20.270944
20.360947
20.099878
19.506812
20.535588
##ZVALUE=250
1.418591
1.368523
1.832843
1.924634
2.189875
1.982450
3.006458
9.192824
36.521554
82.181692
207.408667
363.873839
574.375987
885.766745
1016.201973
1016.201973
1016.201973
1016.201973
908.201933
591.350794
380.968451
225.906968
121.099949
97.791553
106.301904
119.314790
134.795904
140.293837
138.794780
123.627782
108.706951
80.802441
63.906908
39.117932
27.460456
16.100407
12.117624
10.344982
10.102987
9.724498
9.159446
9.538531
9.332895
8.659959
9.107590
9.352565
9.250641
9.300709
9.344816
9.779930
10.060668
9.814501
10.413527
11.159778
10.833740
11.704564
11.263490
11.623502
11.556745
12.537837
11.773705
12.621880
13.142824
13.429523
13.014674
13.230443
14.799833
14.220476
15.602708
17.394423
18.452406
18.603802
19.452572
20.946860
22.388697
21.929741
21.552444
21.403432
20.796657
20.915866
19.889474
20.581484
20.956993
19.763708
19.466877
18.822551
18.406510
18.980503
18.785000
20.070672
19.732714
19.340515
18.899441
18.279552
18.609762
18.519759
##ZVALUE=255
1.534820
1.591444
1.383424
1.359582
1.754761
1.813769
1.958609
1.898408
2.139807
4.387498
21.963716
54.790974
110.531449
252.091885
402.275920
637.039542
802.881718
959.883928
1009.638906
939.176679
796.808004
619.815588
370.031595
229.792595
124.333501
94.298720
88.511705
102.126598
123.750567
138.500929
147.610903
141.606927
131.345987
105.959773
85.080862
56.805611
40.029883
22.206903
15.522838
9.956956
8.520484
8.046627
7.590652
7.395744
7.468462
7.210970
7.529855
7.207990
8.569956
8.272529
8.431673
8.788705
8.516908
7.936954
8.409619
8.785725
9.169579
9.478927
9.792447
9.723902
10.021925
10.333657
10.138750
10.143518
10.456443
10.628700
11.777878
11.099577
11.849999
12.991428
14.111996
15.144944
15.467405
16.653538
17.907619
17.501712
17.336607
18.231869
17.840862
17.254949
16.590953
17.079711
17.479658
16.812682
16.168952
16.776919
17.945766
16.726851
17.903447
16.963482
16.762614
17.293692
18.186569
16.919971
17.011762
16.485453
##ZVALUE=260
1.353621
1.340508
1.557469
1.615882
1.312494
1.471639
1.766682
1.643896
1.829863
2.002716
2.128482
3.048778
9.733438
41.019917
86.338520
209.493637
366.911888
629.183650
866.897702
1016.201973
1016.201973
1016.201973
1016.201973
896.318555
571.665764
377.205014
211.670995
131.768584
86.909533
82.567930
105.362535
125.513673
141.830444
152.356625
147.246718
132.043958
112.840533
82.563758
61.726570
37.075877
24.775863
14.967918
10.640621
8.023977
7.653832
7.656813
7.461905
7.632971
7.461905
8.511543
8.611679
7.931590
8.552670
8.181930
8.445978
8.458495
9.044409
9.268522
8.538961
9.364486
9.653568
10.225773
9.196997
9.786487
9.960532
10.248423
10.216832
10.939837
11.449456
12.222528
12.733936
14.366508
13.934970
15.863776
15.325546
16.308427
15.771985
16.492605
16.107559
15.166998
15.515685
15.793443
16.727448
15.790462
16.232729
15.747547
15.346408
15.533566
16.376972
15.986562
16.063452
15.732646
16.423464
16.109943
16.974807
16.596913
##ZVALUE=265
1.381636
1.494884
1.230836
1.249909
1.581907
1.377463
1.568794
1.653433
1.877546
1.647472
2.086759
2.177954
2.439618
2.517700
7.382631
40.455461
96.075535
213.761926
362.794399
684.278607
965.983868
1016.203761
1016.203761
1016.203761
1016.203761
1016.203761
933.327675
646.239519
340.657830
195.688009
114.871860
74.060559
80.461502
107.726455
129.223466
148.338675
153.894424
146.754980
131.502748
105.816722
84.536672
56.406856
39.552450
21.662712
14.970899
8.396506
7.596612
7.378459
7.942915
7.265806
8.042455
8.296967
8.344650
8.730888
8.898973
8.819699
8.948445
9.313822
9.102821
9.759665
9.622574
10.225773
10.132790
10.208488
10.077953
10.896921
10.153651
11.316538
11.386871
12.088418
12.470484
14.069676
14.432669
15.337467
15.101433
15.777946
15.531778
15.015602
14.696717
14.935732
15.362501
14.567971
14.984608
14.687777
14.861822
15.337467
14.606714
14.992952
15.409589
15.202761
15.526414
15.046597
15.417933
14.864802
14.393926
14.726520
##ZVALUE=270
1.340508
1.105666
1.057982
1.179576
1.573563
1.211762
1.321435
1.339912
1.837611
1.470447
1.471639
1.609921
1.787543
1.708865
2.025962
1.930594
2.678633
14.151931
44.068694
130.520463
244.318843
416.196585
710.386634
946.141481
1016.174555
1016.174555
1016.174555
1016.174555
1016.174555
825.828910
570.011735
291.475654
164.044499
81.261992
63.278675
82.560778
104.938745
131.284595
147.385597
152.000785
147.894621
132.449865
112.528801
80.581903
61.777830
36.002994
24.774671
14.929771
10.393858
7.810593
7.969737
7.758737
8.216500
8.715987
8.742809
8.912683
8.797646
9.592772
9.988546
9.766817
9.792447
10.472536
9.914637
9.905696
9.976625
10.181665
10.195971
10.942817
11.488795
11.762977
12.443662
12.845993
13.601780
14.153719
13.667941
13.869405
14.257431
14.307499
14.126897
14.008880
13.989806
13.347864
13.196468
13.549924
13.804436
13.755560
14.164448
14.334917
13.877749
13.323426
13.626814
13.964772
13.509989
13.816953
14.139414
13.869405
##ZVALUE=275
1.084805
0.960827
1.037717
1.295805
1.141429
1.092553
1.192689
1.164675
1.079440
1.135468
1.375675
1.261830
1.340508
1.599789
1.653433
1.596808
1.577735
1.869798
2.092719
5.951524
23.751855
69.059730
183.817744
317.540765
545.128584
709.396601
898.831487
1012.244821
1016.201973
1016.201973
1010.416746
825.979710
617.216825
348.239541
206.651688
94.248652
58.232546
57.804585
77.964664
104.081631
124.778748
144.204497
149.494410
144.950747
131.928921
104.067922
82.383752
57.188869
40.918589
24.795532
16.695857
11.006594
9.594560
8.493662
8.509755
8.769631
9.445548
9.228587
9.799600
10.077953
10.501742
10.839701
10.228753
10.427833
10.941625
10.236502
10.634661
11.293888
11.529922
11.870861
11.856556
12.379885
12.885928
13.297796
13.041496
13.712645
13.696551
12.919903
13.288856
13.196468
12.653470
12.662411
12.586713
12.675524
12.657642
12.587905
12.639761
12.715459
12.587905
13.011694
12.318492
13.094544
12.939572
12.681484
12.962818
12.887716
##ZVALUE=280
1.058578
1.076460
1.010895
0.968575
1.127720
0.897646
1.164675
1.097918
1.032948
1.048446
1.074672
0.999570
1.056790
1.268983
1.356602
1.176596
1.359582
1.763701
1.515746
1.730919
1.907945
2.407432
12.582541
42.127967
125.345588
218.560696
386.149883
543.500781
743.019581
859.615803
933.508873
925.719738
849.850774
682.839751
523.085594
320.580006
202.049613
94.033480
51.146746
39.801002
52.453876
77.798963
99.840760
126.994848
140.174627
146.917701
141.234994
125.813484
108.327866
80.612898
59.907436
38.154721
26.267767
17.273426
12.493730
10.106564
10.234714
9.877682
10.361671
10.598898
11.083484
10.674000
10.643601
10.689497
11.707544
11.252761
11.353493
11.097789
11.586547
11.736751
12.638569
12.211800
12.402534
12.972951
13.194680
12.439489
12.261868
12.580752
12.599826
12.921691
12.534857
11.797547
12.707710
12.676716
12.282729
12.289882
12.447834
12.103915
12.115836
12.052655
12.015700
12.660623
11.590719
11.824965
12.274981
12.162924
##ZVALUE=285
0.826716
1.005530
0.951886
0.791550
0.948906
1.023412
0.823736
0.977516
0.932813
1.141429
0.966787
1.239777
1.065731
1.141429
1.269579
1.133680
1.180768
1.156926
1.247525
1.383424
1.457930
1.424551
1.622438
1.877546
5.591512
20.907521
68.752766
136.424899
274.818540
410.566926
559.955835
741.806030
843.725801
890.448689
842.117667
702.148676
565.705895
373.954773
246.914625
123.922825
68.193674
34.269691
33.746958
49.847960
69.783926
98.246932
118.634701
135.127902
142.208934
140.072703
129.423738
105.841756
86.269975
60.936809
43.522716
26.922822
19.058585
14.487505
12.596846
11.911988
12.604594
12.581944
12.260675
12.561679
12.132525
12.519956
12.934804
13.198853
12.836456
13.822913
13.210773
13.235807
13.406873
13.747811
13.337731
12.948513
13.250709
13.407469
13.271570
13.018847
12.760758
13.217926
12.850761
12.411475
12.789965
12.486577
12.340546
12.381673
12.200475
12.263656
12.188554
11.757612
11.696815
11.691451
11.859536
11.555552
##ZVALUE=290
0.888705
0.839829
0.881553
1.007915
0.956655
1.033545
0.844598
0.857711
0.960827
1.133680
0.980496
0.881553
1.033545
0.918508
1.009703
1.226664
1.166463
1.159906
1.168847
1.169443
1.271963
1.367927
1.295805
1.536608
1.683831
1.818538
2.169609
10.565519
32.826662
97.381473
182.223916
350.849032
498.661995
700.313449
817.500949
891.779661
874.820948
754.386783
627.718568
433.213711
295.152664
154.752731
84.875822
36.322474
24.747849
32.525659
46.092868
69.219470
90.345740
116.939545
132.520795
142.205954
140.364766
126.857758
110.148787
83.014965
64.733624
43.581724
32.201409
21.803975
17.843843
15.517473
14.003515
13.913512
13.842583
14.464855
13.727546
14.308691
14.258623
14.799833
14.676452
14.755726
14.542937
14.817715
14.541745
14.731884
13.822913
14.377832
13.933778
13.609529
13.401508
12.968779
13.504624
13.838410
13.342500
12.686849
13.051629
12.952685
13.099909
12.970567
12.964606
12.044907
12.000799
12.152791
11.926889
11.789799
##ZVALUE=295
0.845790
0.821948
0.781417
0.769496
0.838637
0.760555
0.960827
0.859499
1.003742
0.897646
0.969768
0.987649
0.887513
0.979900
0.942945
1.013875
1.226664
1.009703
1.009703
1.048446
1.085997
1.151562
1.231432
1.443624
1.463890
1.348853
1.687407
1.781583
2.025962
3.464818
12.809634
56.137443
126.722455
296.286941
480.459929
753.003955
926.136971
1016.203761
1016.203761
947.518945
785.693526
542.191863
375.609994
200.203657
111.207962
44.549704
24.678707
21.529794
29.068589
45.772791
63.050985
90.447664
108.819604
128.370523
136.873722
135.151744
124.163628
106.316805
87.054968
63.160658
47.734976
32.977462
25.287867
19.115806
16.603470
15.383959
15.462637
15.307665
15.415549
15.293956
14.911890
15.933514
15.414953
15.600920
15.211701
15.418530
14.701486
14.962554
15.054941
14.311671
13.980865
14.082789
13.825893
13.713837
13.966560
13.993979
13.243556
13.147593
12.933612
12.903810
12.810826
12.595654
12.459755
12.089610
11.878610
12.091994
##ZVALUE=300
0.987649
0.836849
0.873804
0.961423
0.832677
0.951886
0.769496
0.747442
0.931621
0.870824
0.924468
0.890493
0.993609
0.922680
0.781417
0.968575
1.045465
1.075864
1.040697
1.198649
1.160502
1.050830
1.361966
1.377463
1.353621
1.538992
1.528859
1.632571
1.450777
1.646876
2.022982
2.508759
8.786917
29.974580
98.846555
191.374421
409.202576
640.892982
961.140990
1016.201973
1016.201973
1016.201973
969.258547
754.086971
466.695428
294.758677
146.124959
80.182552
33.516884
19.623637
21.573901
28.747916
44.858456
60.013533
85.905790
103.955865
123.537779
133.102536
131.303668
122.281909
105.132461
87.992549
65.059662
49.991608
33.514500
26.829839
19.991994
17.732978
16.485453
16.169548
15.985966
15.944839
15.574694
15.928745
15.764832
16.094446
15.268922
14.911890
15.245676
14.695525
14.961958
14.786720
14.381409
14.379621
14.239550
13.708472
13.809800
13.514757
13.329983
12.999773
12.719631
12.571812
12.445450
12.102723
12.232661
12.266636
##ZVALUE=305
0.865459
0.858903
1.004934
0.964999
0.861883
0.888705
0.702739
0.657439
0.793934
0.795722
0.992417
0.853539
0.878572
1.011491
0.964999
1.023412
0.973940
0.948906
0.887513
1.055598
0.967979
1.079440
1.173615
1.124740
1.060963
1.207590
1.439452
1.380444
1.374483
1.485944
1.674891
1.731515
1.861453
1.975894
3.805757
19.208789
54.983497
158.393979
290.655494
557.330847
799.228549
1016.201973
1016.201973
1016.201973
1016.201973
837.142467
618.671775
372.487903
221.390724
97.636580
49.862862
22.656918
17.336607
21.333694
29.183626
45.473576
60.155988
83.438754
101.731420
120.195746
127.342939
124.749541
118.805766
99.759698
84.434748
62.279701
46.598911
32.387972
24.489760
19.230843
16.629696
15.999675
15.663505
15.484691
15.134811
15.353560
15.364885
14.993548
14.705658
14.544725
14.642477
14.403462
14.191866
13.933778
14.423728
14.361739
13.739467
13.452768
13.324618
12.922883
12.517571
12.760758
12.499690
11.973977
11.953712
12.198687
##ZVALUE=310
0.834465
0.836849
0.927448
0.903606
0.705719
0.974536
0.890493
0.908971
0.828505
0.872612
0.905991
0.975728
0.950694
0.875592
0.914931
0.961423
0.803471
0.820756
0.930429
0.931621
1.030564
1.176596
1.185536
1.085997
1.273751
1.336932
1.191497
1.276731
1.333952
1.310706
1.511574
1.564622
1.497865
1.484752
1.853704
1.869798
2.259612
8.039474
25.819540
89.733601
185.685754
390.815735
599.193573
880.523920
1016.261578
1016.261578
1016.261578
897.583961
717.560649
463.121533
301.133990
149.113536
81.508756
32.990575
18.220544
15.785694
19.486547
27.382970
37.987828
56.366920
72.364807
94.064474
107.796788
118.455887
119.183660
109.905005
98.797679
80.635548
63.025951
43.462515
33.282638
23.474693
19.007921
15.837550
14.865994
14.587641
14.357567
13.877749
13.922453
14.066696
13.657808
13.644695
13.577938
13.987422
14.111996
13.644695
13.265610
13.472438
13.178587
13.195872
13.189912
12.381673
12.856722
12.298822
12.454987
11.904836
##ZVALUE=315
0.734925
0.756979
0.679493
0.813603
0.738502
0.845790
0.737906
0.833869
0.798702
0.738502
0.829697
0.731945
0.812411
0.969768
0.804663
0.877976
0.835657
0.981688
0.854731
0.938773
0.812411
0.938773
0.921488
1.091957
1.088977
1.201630
1.162887
1.075864
1.124740
1.029968
1.065731
1.064539
1.167655
1.176596
1.410842
1.607537
1.661777
1.639724
1.754761
3.736615
12.604594
55.202842
127.979517
301.475525
487.304926
743.700862
886.954665
971.132517
965.068936
839.909911
702.702999
496.078730
347.662568
187.653899
105.718970
42.517781
21.421909
14.016628
13.945699
18.271804
23.797750
36.739707
48.446655
68.477988
83.207488
101.836920
109.468699
111.530423
104.410648
90.371966
76.293945
56.839585
42.793751
29.902458
22.720695
17.205477
15.556812
13.245940
13.303757
13.376474
13.343692
13.356805
13.204813
13.252497
13.250709
13.250709
13.209581
12.897849
12.899637
12.764931
12.938976
12.520552
12.280941
11.807680
12.095571
11.575818
##ZVALUE=320
0.689626
0.665784
0.817776
0.773668
0.738502
0.647902
0.821948
0.771880
0.632405
0.775456
0.715852
0.795722
1.044869
0.787973
0.905991
0.811815
0.962615
0.673532
0.828505
0.937581
0.824928
0.921488
0.964999
0.871420
1.002550
0.974536
0.953674
0.887513
0.938773
1.099706
1.042485
0.974536
1.107454
1.128912
1.306534
1.324415
1.448989
1.383424
1.590848
1.509786
1.648664
2.015829
5.706549
29.030442
78.027844
219.777822
369.838476
607.819557
789.438486
971.564651
1014.485955
974.713564
885.016918
729.967952
597.859621
404.652953
275.077820
138.654709
66.112876
19.259453
11.396408
12.249947
14.776587
21.392703
29.717684
45.393705
60.233474
78.401566
93.321800
102.671981
105.288625
98.784566
88.704824
70.336461
54.936409
38.694739
29.204488
20.582676
16.814470
13.686419
12.854934
12.672544
12.756586
12.590885
12.837648
12.461543
12.350678
12.605786
12.398958
12.445450
12.574792
12.108684
12.133718
11.768937
11.902452
11.501908
##ZVALUE=325
0.820756
0.717640
0.769496
0.649691
0.580549
0.787973
0.810623
0.685453
0.651479
0.773668
0.791550
0.714660
0.933409
0.903606
0.798702
0.813603
0.762939
0.665784
0.921488
0.874996
0.860691
0.897646
1.011491
0.838637
0.874996
0.770688
1.119971
0.900626
1.079440
1.027584
1.013875
0.998974
1.159906
1.072884
1.114607
1.148582
1.270771
1.311898
1.366735
1.448989
1.380444
1.692772
1.720786
2.071857
3.313422
18.660426
49.521923
144.544840
280.864835
545.580387
751.129985
981.076956
1016.202569
1016.202569
918.091536
712.085962
557.873845
370.633006
246.925950
124.777555
65.815449
22.742748
11.177659
9.461641
10.207891
13.712645
18.423796
28.632879
41.293502
59.625506
73.405504
87.467432
95.093846
97.477436
92.515945
78.582764
65.845847
49.501657
37.408471
25.838614
19.887686
15.155673
13.377666
12.564659
11.984706
12.220740
12.247562
11.985898
12.113452
11.979938
12.177825
11.760592
11.466742
11.882782
11.547804
11.159778
##ZVALUE=330
0.575781
0.753999
0.731945
0.701547
0.773668
0.703931
0.735521
0.626445
0.692606
0.864863
0.759959
0.769496
0.801682
0.757575
0.889897
0.793934
0.636578
0.748634
0.916719
0.793934
0.788569
0.821948
0.886917
0.971556
1.034737
0.910759
0.908971
0.967979
0.795722
0.916719
0.943542
1.000762
0.928640
1.026988
1.111627
1.091957
1.200438
1.048446
1.111627
1.150966
1.255870
1.274943
1.444817
1.337528
1.414418
1.838803
2.078414
7.030964
22.368431
79.934597
168.497562
380.639434
591.802001
879.105926
1016.210914
1016.210914
996.588469
782.876611
592.341423
360.297561
229.050517
108.378530
56.688786
22.457838
11.625886
8.360744
8.401871
9.508729
11.675954
18.232465
25.940537
39.591789
51.813722
69.924593
80.595613
89.942813
90.699792
85.820556
76.386929
60.428977
47.769547
33.696890
25.990605
19.001961
15.743971
13.202429
12.415648
11.802912
11.472702
11.902452
11.696815
11.653900
11.447668
11.207461
11.199713
11.001825
##ZVALUE=335
0.780821
0.752807
0.791550
0.853539
0.756979
0.840425
0.912547
0.865459
0.662804
0.868440
0.937581
0.699759
0.840425
0.901818
0.859499
0.874996
0.768900
0.809431
0.901818
1.039505
0.994802
0.886917
0.777841
0.962615
1.018643
0.961423
0.855923
1.009703
1.085997
1.029968
0.951886
1.025796
1.044869
0.987649
1.017451
1.134872
1.093745
1.162887
1.148582
1.043677
1.129508
1.250505
1.176596
1.383424
1.222491
1.395941
1.466870
1.577735
1.840591
3.041625
14.176965
39.429665
118.393898
232.801437
483.613610
719.978809
999.004841
1016.330719
1016.330719
972.347856
698.806643
497.842431
281.799436
163.794756
70.212483
34.265518
14.022589
8.878708
8.322597
8.416772
10.251999
12.502670
17.986894
25.249720
37.830472
50.089955
66.312551
76.144934
84.976554
85.809827
80.597997
71.751475
59.172511
48.424602
34.984946
27.276874
19.648671
16.176701
12.975931
12.034774
11.472702
11.141896
11.379719
11.119843
10.719895
10.682940
##ZVALUE=340
0.571609
0.684857
0.670552
0.683665
0.658631
0.694990
0.693798
0.691414
0.584722
0.665784
0.705719
0.679493
0.729561
0.777841
0.892878
0.743866
0.884533
0.737906
0.276566
0.703931
0.801682
0.619888
0.828505
0.817776
0.739694
0.814795
0.914931
0.766516
0.819564
0.747442
0.779629
0.771880
0.944734
0.913739
0.886917
0.980496
0.838637
0.801682
0.976920
1.022816
0.946522
0.973940
0.935793
1.134872
1.023412
1.155734
1.228452
1.484752
1.448989
1.569986
1.554489
2.343655
5.614758
26.237965
66.393018
178.559422
323.126912
569.506884
762.912035
965.001583
1016.201973
930.619836
773.462653
540.037751
364.244580
184.851885
100.150704
39.125681
18.733740
9.357929
8.372664
8.079410
8.581877
9.975433
12.161732
17.795563
24.602413
36.020875
47.251582
62.609911
71.889758
80.087781
80.610514
76.417923
68.736672
55.831671
46.688914
34.844875
27.002692
19.375682
15.540719
12.317896
11.115670
10.697842
10.402799
10.450482
##ZVALUE=345
0.669956
0.646710
0.556707
0.626445
0.652671
0.620484
0.696778
0.764728
0.653863
0.748634
0.595450
0.475645
0.626445
0.682473
0.728965
0.709891
0.586510
0.657439
0.591874
0.605583
0.812411
0.761747
0.840425
0.853539
0.696778
0.753999
0.741482
0.681877
0.768900
0.886917
0.665784
0.761747
0.712872
0.931621
0.941753
0.733733
0.734925
0.912547
0.747442
0.903606
0.873804
0.795722
0.949502
0.943542
0.904799
1.083612
0.976920
0.939965
1.105666
1.081824
1.288652
1.372695
1.337528
1.461506
3.286004
11.303425
46.172738
96.941590
211.959481
336.495638
529.335737
660.600662
765.669942
773.723722
679.853559
557.668805
378.747582
248.262882
116.283894
58.831573
21.885633
11.498928
8.433461
7.795691
7.938743
8.302927
8.901954
10.948777
16.110539
22.276640
34.137964
43.440461
55.619478
65.493584
73.049664
74.421763
71.560740
65.640807
53.598881
44.449568
33.246875
26.020408
18.571615
14.898777
12.309551
10.778904
##ZVALUE=350
0.599623
0.753999
0.609756
0.747442
0.765920
0.758767
0.638962
0.681877
0.721812
0.735521
0.610948
0.599623
0.597835
0.588894
0.816584
0.622869
0.652671
0.503659
0.605583
0.679493
0.796914
0.825524
0.768900
0.670552
0.827909
0.792742
0.800490
0.827909
0.685453
0.784993
0.572801
0.621676
0.893474
0.724792
0.800490
0.594854
0.740886
0.735521
0.782609
0.832677
0.866652
0.854731
0.881553
0.800490
0.823736
0.782609
0.912547
0.842810
0.937581
1.029968
1.087785
1.243949
1.139641
1.263618
1.387596
1.422763
1.716614
7.107854
21.929741
71.628690
139.619708
285.992622
421.606898
600.398779
709.016919
761.899948
720.895529
591.088533
450.664759
268.638730
166.002512
77.929497
37.927628
13.600588
8.463860
7.447600
7.341504
7.417798
7.870793
9.057522
10.580420
15.425682
20.361543
30.069947
38.616657
51.315427
58.671832
66.336989
69.691539
66.536665
61.412454
51.164627
42.453408
32.280684
25.180578
18.366575
##ZVALUE=355
0.683665
0.551939
0.580549
0.596642
0.486970
0.615716
0.647902
0.528693
0.720620
0.630617
0.675917
0.749826
0.702739
0.769496
0.695586
0.673532
0.570416
0.669956
0.658631
0.636578
0.656843
0.759959
0.796914
0.686646
0.776649
0.934601
0.838637
0.674725
0.642538
0.613928
0.853539
0.791550
0.807643
0.953674
0.932813
0.694990
0.802875
0.810623
0.711679
0.852942
0.847578
0.839829
0.934601
0.811815
0.739694
0.937581
0.829697
0.980496
0.948906
1.187921
1.057982
1.123548
1.093745
1.253486
1.252890
1.223683
1.163483
1.307726
1.488924
3.570914
12.194514
47.125816
98.205805
211.491585
342.885852
535.895824
658.052564
741.759539
737.607479
625.000596
502.306819
330.757499
210.417509
95.193982
47.179461
16.961694
9.290576
7.250905
7.225871
6.912947
7.178783
7.358789
8.223653
9.996891
12.654662
18.392801
24.153590
34.363866
43.183565
53.161979
58.329701
61.985850
61.315894
55.649877
49.205422
39.690733
##ZVALUE=360
0.646710
0.699759
0.688434
0.737906
0.706911
0.903606
0.834465
0.716448
0.812411
0.830889
0.807643
0.874996
0.718832
0.650883
0.810623
0.484586
0.825524
0.715852
0.920892
0.697970
0.812411
0.520945
0.816584
0.838637
0.688434
0.819564
0.930429
0.784993
0.736713
0.694990
0.772476
0.835657
1.016855
0.991821
0.916719
0.914931
0.898838
0.743866
0.980496
0.819564
0.924468
0.921488
0.951886
0.943542
0.855923
0.982881
0.882745
0.942945
0.905991
0.858903
0.919700
0.997782
1.113415
1.198649
1.007915
1.076460
1.164675
1.226664
1.453757
1.409650
1.396537
1.783967
6.628633
19.880533
66.264868
130.896568
268.286467
404.029489
595.908761
696.592927
734.728575
682.481527
550.060868
414.468646
245.436430
148.601532
64.497590
30.364990
11.239648
7.356405
6.971955
6.531477
6.651878
6.736517
7.223487
7.440448
8.709431
10.782480
15.447736
20.664930
28.797984
36.439896
45.387745
51.807761
55.761933
56.146979
##ZVALUE=365
0.665784
0.671744
0.598431
0.639558
0.661612
0.810623
0.752807
0.681877
0.578761
0.653863
0.590682
0.547767
0.604987
0.547767
0.625849
0.673532
0.700951
0.726581
0.575781
0.695586
0.610948
0.727773
0.686646
0.734925
0.606775
0.688434
0.757575
0.659823
0.815988
0.655651
0.766516
0.693798
0.697970
0.753999
0.685453
0.702739
0.742674
0.853539
0.771880
0.707507
0.800490
0.798702
0.836849
0.938773
0.832677
0.882745
0.954866
0.855923
0.823736
0.696778
0.821948
1.015663
0.937581
1.018643
1.072884
1.023412
1.099706
1.161695
1.212955
1.275539
1.200438
1.331568
1.444817
1.666546
2.782941
12.680888
35.753846
100.653768
184.703469
338.996649
477.511883
632.383823
705.654025
695.559978
614.146590
446.956754
318.044424
176.630616
98.425746
37.136674
17.014742
7.526875
6.542802
6.293654
6.259680
6.143451
6.046891
6.234646
6.462932
7.473826
9.174943
13.250709
17.188787
24.226904
30.801892
39.084554
##ZVALUE=370
0.703931
0.686646
0.620484
0.612736
0.472665
0.679493
0.627637
0.583529
0.765920
0.565648
0.658631
0.668764
0.600815
0.624657
0.550747
0.659823
0.576973
0.657439
0.706911
0.686646
0.646710
0.708699
0.699759
0.613928
0.749826
0.677705
0.638962
0.735521
0.739694
0.601411
0.684857
0.694990
0.771880
0.793934
0.731945
0.737906
0.824928
0.722408
0.760555
0.692606
0.778437
0.831485
0.827909
0.850558
0.753999
0.869632
0.779629
0.888705
0.843406
0.814795
0.947714
0.850558
0.762939
0.806451
0.903606
0.989437
0.990629
1.012683
0.990629
0.946522
1.119971
1.152754
1.118779
1.267791
1.395941
1.477599
2.054572
7.009506
21.886826
71.283579
133.554935
258.873701
385.072827
559.271574
654.384494
694.807768
648.526549
518.486500
387.111902
220.375657
125.985742
50.483942
24.578571
10.215640
6.559491
5.834699
5.823970
5.626678
5.653501
5.460978
5.785823
5.977750
6.710887
8.299947
10.806918
15.877485
##ZVALUE=375
0.515580
0.692606
0.596642
0.451803
0.615716
0.588894
0.610948
0.651479
0.633597
0.534654
0.531673
0.708699
0.674725
0.646710
0.695586
0.752807
0.642538
0.626445
0.652671
0.722408
0.651479
0.636578
0.749826
0.713468
0.729561
0.712872
0.770688
0.735521
0.650883
0.546575
0.594854
0.725985
0.798702
0.739694
0.713468
0.669956
0.716448
0.566840
0.686646
0.618696
0.724792
0.718832
0.850558
0.656843
0.965595
0.777841
0.676513
0.852942
0.799894
0.716448
0.702739
0.867844
0.724792
0.836849
0.972748
0.905991
0.926852
0.937581
0.903606
0.901818
1.008511
0.957847
0.946522
1.061559
1.036525
1.256466
1.183748
1.425743
1.496673
3.766418
12.007952
42.556524
90.821981
205.797553
330.649018
517.215729
642.644763
730.070472
724.166632
618.651509
487.932563
308.260918
197.172761
96.361637
49.752593
17.290711
8.092523
5.486608
5.588531
5.297661
5.255938
5.492568
5.426407
5.375743
5.559921
6.263852
##ZVALUE=380
0.564456
0.611544
0.555515
0.611544
0.631809
0.524521
0.567436
0.545979
0.585914
0.708699
0.708699
0.681877
0.689626
0.490546
0.767708
0.606775
0.524521
0.671744
0.573993
0.733733
0.579953
0.819564
0.606775
0.764728
0.755787
0.634789
0.572801
0.727773
0.716448
0.739694
0.542998
0.627637
0.662804
0.711679
0.704527
0.772476
0.665784
0.729561
0.666976
0.701547
0.620484
0.749826
0.764728
0.719428
0.596642
0.744462
0.791550
0.745654
0.624657
0.780821
0.935793
0.708699
0.742674
0.785589
0.731945
0.778437
0.873804
0.870824
0.850558
0.806451
0.773668
0.923872
0.825524
1.058578
0.967979
0.961423
1.253486
1.197457
1.267791
1.400709
1.494884
2.245903
6.383657
29.327869
68.740845
169.990659
295.046568
508.433580
693.258643
878.096819
920.112729
826.277733
692.452788
498.102903
347.902775
182.967782
99.205971
37.179589
14.853477
6.240606
5.291700
5.008578
5.088449
4.949570
4.960895
5.041957
##ZVALUE=385
0.581741
0.574589
0.567436
0.505447
0.638962
0.611544
0.669956
0.660419
0.595450
0.595450
0.679493
0.591874
0.638962
0.700951
0.609756
0.574589
0.676513
0.599623
0.610948
0.639558
0.656843
0.660419
0.660419
0.703931
0.704527
0.686646
0.530481
0.598431
0.601411
0.654459
0.793934
0.768900
0.702739
0.580549
0.732541
0.787973
0.673532
0.733733
0.626445
0.768900
0.622869
0.640750
0.544786
0.590682
0.688434
0.716448
0.715852
0.735521
0.670552
0.729561
0.684857
0.771880
0.763535
0.713468
0.667572
0.753999
0.694990
0.848770
0.823736
0.983477
0.897646
0.920892
0.818968
0.949502
0.932813
1.051426
1.097918
1.090765
1.110435
1.301765
1.257658
1.318455
1.482964
1.816750
3.290772
16.778708
42.931437
112.331510
210.728645
409.708619
595.606565
825.895667
928.626657
938.373804
851.129889
649.612546
480.015874
277.509689
166.193843
72.200894
29.818416
7.897615
5.061626
4.793406
4.748702
4.830956
##ZVALUE=390
0.545979
0.482798
0.528693
0.552535
0.515580
0.557899
0.693798
0.742674
0.635982
0.749826
0.807643
0.727773
0.771880
0.652671
0.668764
0.558496
0.577569
0.500679
0.673532
0.653863
0.742674
0.757575
0.612736
0.694990
0.487566
0.551939
0.604987
0.677705
0.652671
0.580549
0.655651
0.678897
0.644922
0.777841
0.596642
0.611544
0.766516
0.758767
0.510812
0.689626
0.630617
0.621676
0.759959
0.790954
0.709891
0.702739
0.700951
0.701547
0.660419
0.867844
0.821948
0.764728
0.761747
0.839829
0.761747
0.697970
0.777841
0.802875
0.725985
0.747442
0.756979
0.744462
0.928640
0.898838
0.888705
0.921488
0.984669
0.987649
1.064539
1.078844
1.213551
1.290441
1.434684
1.527667
1.477599
1.559854
2.221465
8.994937
26.692748
82.883835
163.888931
335.426927
491.814613
701.489449
851.253867
948.503613
921.821594
765.869021
602.337718
380.932689
229.163766
98.079443
45.778751
12.515783
5.701780
4.664660
##ZVALUE=395
0.678897
0.429749
0.537634
0.430942
0.561476
0.433922
0.501871
0.684857
0.595450
0.560880
0.472665
0.581741
0.587702
0.617504
0.522733
0.712872
0.711679
0.631809
0.645518
0.620484
0.566840
0.690818
0.517964
0.602603
0.587702
0.668764
0.610948
0.607967
0.578761
0.609756
0.586510
0.760555
0.701547
0.761747
0.674725
0.710487
0.762939
0.696778
0.775456
0.833869
0.676513
0.584722
0.711679
0.672936
0.618696
0.791550
0.772476
0.770688
0.721812
0.695586
0.783801
0.590682
0.711679
0.913739
0.850558
0.891685
0.778437
0.748634
0.759959
0.669956
0.802875
0.779629
0.807643
0.858903
0.930429
0.802875
0.902414
0.941753
1.026988
1.141429
1.237988
1.261830
1.245737
1.134872
1.057982
1.271963
1.372695
1.639724
1.734495
5.259514
17.995834
60.006976
115.442872
227.429867
355.716944
569.835901
730.213523
883.110762
915.526748
835.880637
688.448548
450.239778
290.680528
131.476521
64.704418
21.639466
##ZVALUE=400
0.581741
0.704527
0.732541
0.611544
0.744462
0.620484
0.704527
0.598431
0.703931
0.659823
0.535846
0.605583
0.637770
0.619888
0.629425
0.675917
0.726581
0.624657
0.745654
0.664592
0.534654
0.654459
0.664592
0.860691
0.658631
0.647902
0.695586
0.710487
0.686646
0.668764
0.684857
0.633597
0.676513
0.678897
0.695586
0.632405
0.696778
0.762939
0.844598
0.666976
0.714660
0.777841
0.628829
0.619888
0.558496
0.525713
0.676513
0.772476
0.631809
0.830889
0.706911
0.722408
0.786781
0.828505
0.834465
0.823736
0.900626
0.605583
0.851750
0.681877
0.898838
0.811815
0.863671
0.844598
0.941753
0.953674
0.792742
1.012683
1.003742
1.242757
1.052618
1.163483
1.089573
1.199841
1.223683
1.199841
1.284480
1.229644
1.312494
1.385808
1.480579
3.082752
9.510517
33.847690
72.521567
162.931681
265.578628
433.930755
560.596585
697.276592
748.226643
707.631707
610.052943
427.821875
293.271542
156.459808
##END
