##TITLE=QP0035F1
##FORMAT=SPECTACLE-ASCII V-1.2
##DATA TYPE=ULTRAVIOLET SPECTRUM
##SECOND TYPE=ULTRAVIOLET SPECTRUM
##DATE=12/11/17
##TIME=16:04:15
##SPECTROMETER/DATA SYSTEM=SPECTACLE
##XUNITS=NM EM
##YUNITS=ENERGY
##YFACTOR=1
##FIRSTX=220
##LASTX=410
##NPOINTS=96
##3DDATA=Equidistant
##ZUNITS=NM EX
##FIRSTZ=210
##LASTZ=400
##ZPOINTS=39
##XYDATA=(Y..Y)
##ZVALUE=210
2.680421
2.710819
2.528429
3.136992
3.331900
2.729893
2.729893
3.419518
2.962947
2.825856
2.431870
2.939701
2.949834
2.543926
2.758503
2.414584
3.603697
3.488660
3.086925
4.427433
3.862977
4.024506
4.160404
3.816485
4.148483
4.764795
4.392862
4.171729
4.972816
4.602671
4.788637
4.977584
5.537868
5.329847
5.016923
5.070567
5.172491
5.245805
5.736947
5.773902
6.131530
5.433559
5.894899
5.276799
5.803704
5.706549
5.497932
5.947948
5.865693
6.955862
6.306767
5.933642
5.981922
6.724000
6.981492
6.631613
7.326603
7.153749
6.296635
7.036924
6.651878
6.291866
7.068515
8.650422
7.417798
7.994771
7.371902
9.112954
9.869933
10.250807
12.820959
15.266538
16.762614
20.404458
20.128489
22.229552
24.942756
23.994446
24.459958
23.869872
21.929741
20.999908
18.973947
14.406443
13.422966
11.237860
8.767843
8.168817
7.784963
7.395744
7.465482
7.211566
7.998943
7.628798
7.577538
7.959604
##ZVALUE=215
7.941723
7.577538
6.065965
5.434752
6.168485
5.218983
5.097985
5.276799
6.179810
6.682873
5.637407
5.059838
3.928542
4.388690
3.598928
3.018975
3.273487
3.779531
3.539920
3.206730
3.990531
4.141927
3.620982
4.521608
4.485846
4.428625
5.831718
5.904436
5.126595
5.361438
5.840659
5.377531
6.023645
6.638765
6.552935
6.209612
5.623698
6.740689
6.002784
7.199645
5.780458
6.901622
5.961657
5.489588
6.374717
7.280707
6.585717
6.627440
6.683469
5.571842
7.719994
6.800890
7.389784
6.853938
7.001758
7.101893
7.216930
7.195473
6.352663
6.346703
6.627440
7.518530
6.741881
7.126927
7.802844
7.289648
7.754564
8.312464
10.717511
12.080669
11.669993
15.812516
18.461943
19.163489
20.223856
22.691488
23.795962
25.562644
26.726723
24.100542
22.832751
22.145510
18.181801
16.028881
15.356541
11.967421
11.015534
9.260774
8.299947
7.918477
7.091761
7.144809
7.301569
7.263422
7.195473
7.568598
##ZVALUE=220
26.264787
27.965903
29.369593
27.332902
26.552677
21.989942
16.257763
12.106895
11.211634
11.629462
11.681914
12.567639
11.033416
10.445714
9.963512
7.440448
6.328821
5.589724
4.731417
4.161596
4.328489
3.919601
4.422665
4.242659
4.690886
5.394816
5.732775
5.142689
5.444884
5.863905
5.915761
7.328987
6.540418
6.366968
6.924868
6.817579
7.021427
6.457567
6.957650
7.572770
6.855726
6.087422
6.815791
6.567836
6.184578
7.680655
7.497668
7.697940
7.495880
6.815791
7.916689
5.989671
6.257892
8.340478
7.343888
6.429553
7.595420
7.771850
7.321835
7.326603
8.489490
6.937981
8.018613
8.556843
8.344650
8.423924
8.892417
10.038614
10.485649
11.139512
12.621880
14.442801
16.596913
18.433928
18.361807
19.270778
20.646453
20.698905
18.999577
19.293427
17.754436
17.768741
15.877485
15.124679
13.794899
10.258555
9.147525
8.470416
8.075833
7.366538
7.334948
7.423759
7.843971
7.261634
7.350445
7.599592
##ZVALUE=225
51.368475
52.620769
68.786740
78.072548
83.589554
85.113645
77.689886
56.796670
42.918921
30.016899
24.542809
24.286509
25.505424
25.953650
26.716590
25.496483
21.139979
17.042756
13.611913
9.351969
6.877780
5.713701
4.823804
4.889965
5.264878
5.374551
5.221963
6.229877
6.929636
6.951690
6.513596
7.306933
7.294416
8.702874
7.851720
7.491708
8.133650
8.018613
7.904768
8.208752
7.722974
6.685853
7.653832
6.943941
7.842779
7.887483
7.536411
7.706881
7.463694
8.070469
8.625984
8.709431
8.502603
8.340478
9.986758
7.349849
9.410977
8.802414
8.421540
9.224415
10.478497
9.314418
9.129643
8.483529
8.310676
8.826852
9.003878
9.991527
10.425448
12.598634
12.138486
13.877749
14.783740
15.065670
16.501546
17.816424
16.570687
17.629862
19.693971
16.403794
17.031431
15.278459
13.267994
12.968779
11.900663
10.066628
10.502934
9.048581
8.701682
9.489655
9.858608
8.027554
7.953644
8.574724
7.813573
8.876920
##ZVALUE=230
48.637986
53.607821
81.937909
123.020411
159.814954
185.649991
209.629536
195.980668
181.321502
150.509477
101.413727
73.866844
51.501989
44.043660
44.680834
48.479438
50.934553
46.408772
45.691729
35.423636
28.862953
17.770529
13.274550
8.907914
7.389784
6.767511
7.279515
6.696582
8.008480
7.052422
8.861423
8.651614
8.246899
9.821653
8.747578
8.890629
8.463860
8.880496
8.581877
9.345412
8.748770
8.417964
8.797646
9.216666
9.417534
9.256601
8.542538
8.268952
9.571910
9.386539
9.369850
9.650588
9.613633
10.698438
10.176897
10.313988
10.576844
10.881424
10.459423
10.741949
10.775924
11.038780
11.868477
11.726618
13.085604
11.396408
13.412833
11.501908
14.859438
15.695691
17.829537
18.698573
20.060539
20.273924
22.354722
23.015738
20.999908
21.429658
20.654798
20.551682
20.773411
17.271638
18.669963
16.268492
16.021729
14.088750
12.930632
14.850497
11.483431
12.605786
12.103915
12.655854
11.912584
12.960434
11.813641
11.218786
##ZVALUE=235
19.095540
21.426678
43.925643
99.596977
152.344704
237.767696
295.672417
369.178653
397.711992
384.292006
329.589844
264.578462
170.578957
120.059848
88.409781
74.895620
71.100593
75.347424
81.805587
81.622601
77.616572
67.646503
51.884651
36.426783
25.590658
17.013550
12.005568
9.484887
9.863973
9.308457
8.594990
8.813739
9.274483
7.799864
9.787679
9.031892
9.481907
9.289980
9.617805
9.151697
8.448958
9.589791
9.933710
9.429455
10.630488
10.857582
10.756850
11.273623
10.958910
10.744929
11.247993
10.805726
10.711551
11.690855
11.622906
12.428761
12.566447
13.317466
13.480783
13.089776
12.354851
13.635755
14.383793
14.766455
14.787912
14.953613
16.065836
15.835762
16.690493
19.065738
19.379854
23.478866
23.714900
26.106834
26.176572
28.955936
26.395917
24.721622
26.896596
26.556849
24.606586
22.497773
22.003651
19.284487
20.693541
18.902421
18.699765
17.434955
18.294454
18.725991
17.222762
16.951561
17.326474
15.723705
14.549494
15.577674
##ZVALUE=240
3.011823
3.114939
9.929538
25.972724
66.865683
118.685961
231.077671
329.830647
476.975441
558.789968
607.937574
595.725775
544.551015
430.760980
316.980481
201.280713
143.858790
106.081963
91.259480
100.593567
110.149980
120.597482
111.345649
106.913447
84.611773
71.882606
48.175454
34.943819
22.812486
17.638803
13.778806
12.272596
11.108518
9.785891
9.882450
11.811852
11.338592
10.879636
12.228489
10.711551
10.538697
11.001825
11.479855
11.492968
12.123585
13.321638
13.187528
11.740923
12.841821
12.923479
12.560487
14.249682
14.017820
14.708638
15.071630
15.200973
15.943646
14.917850
15.099645
15.995502
16.595721
16.129613
16.894937
17.391443
16.338825
18.263459
18.871427
19.493699
20.049810
22.160411
21.338463
25.804639
26.516914
28.558969
30.000806
31.699538
31.476617
29.801726
30.033588
28.941631
26.964545
28.394461
24.068952
25.009513
23.692846
22.819638
21.773577
21.672845
20.560622
20.608902
20.177960
19.228458
20.664930
19.861460
19.072890
19.008517
##ZVALUE=245
2.380610
2.133846
2.156496
2.420545
6.885529
30.209422
67.384839
166.297555
276.792645
417.599678
605.729818
742.366910
797.964931
800.935626
709.138513
596.955419
429.357886
312.489867
257.001519
131.506920
100.025535
101.824999
117.156506
129.078627
133.177638
128.228664
116.487741
98.812580
81.941485
56.995749
43.031573
25.872588
20.980835
14.274716
12.433529
11.992455
11.462569
11.120439
10.736585
11.156797
11.694431
10.839701
12.096763
11.464953
12.814999
12.342930
13.154745
14.346838
12.713671
13.710856
13.850927
13.857484
15.157461
15.089512
13.980865
15.428662
14.767647
14.605522
15.416741
15.267730
16.027689
15.907884
15.193820
15.427470
17.283559
16.823411
17.477870
17.983913
18.216968
21.311641
22.316575
25.451779
26.315451
26.522875
28.439760
30.922890
28.700829
28.819442
27.938485
27.882457
26.930571
27.730465
25.678873
22.885799
23.133755
21.887422
20.190477
22.039413
20.594597
21.093488
21.127462
20.930767
21.314621
22.066832
19.156933
19.079447
##ZVALUE=250
1.745820
1.823902
1.802444
1.850724
2.201796
1.879930
3.326535
11.366606
51.677823
109.195709
263.726711
429.999828
610.597730
841.873884
980.504751
1016.201973
1011.954546
863.734484
699.938536
456.863642
304.563642
196.318626
121.351480
101.457834
110.653639
122.224689
141.892433
143.940449
140.755773
125.966668
111.735463
81.867576
62.802434
38.296580
27.151704
17.277598
14.365911
11.982918
11.887550
10.755658
12.096763
11.477470
11.676550
11.972785
13.813972
13.377666
14.028549
13.851523
14.690757
13.633966
15.145540
14.055967
14.837980
14.962554
14.935732
13.998747
14.270544
15.092492
14.697909
14.849901
14.453530
15.212893
15.550852
16.022921
15.353560
15.777946
16.376972
15.904903
17.636418
18.866658
19.634962
21.610856
23.442507
25.198460
25.223494
25.101900
26.186705
25.166869
26.007891
23.858547
24.392605
23.079515
20.840764
22.321939
21.308661
21.669865
20.412803
20.719767
19.288659
19.516945
20.577908
20.161867
18.715858
19.550920
19.941926
18.379688
##ZVALUE=255
1.684427
1.545548
1.768470
1.860857
1.882911
2.135634
1.975894
2.300739
2.732873
6.270409
39.467812
98.372698
213.615894
448.061824
674.011707
983.662009
1016.162634
1016.162634
1016.162634
1016.162634
989.972949
800.855756
528.348684
349.665880
203.078985
141.528845
109.213591
107.614994
131.733418
144.375563
151.709914
147.298574
136.907697
107.785463
87.265968
59.375763
42.817593
24.390817
18.790960
12.948513
11.101961
12.051463
11.647940
12.317896
12.292862
12.480617
13.340712
13.422966
13.356805
12.873411
13.524890
13.756752
13.185740
14.041662
14.366508
13.347864
13.812780
13.015866
14.262795
13.819933
13.127923
13.842583
13.277531
13.738871
13.555884
14.188886
14.013648
14.665723
14.555454
16.812682
17.945766
19.921660
20.712614
20.362735
22.393465
22.339821
22.138953
22.613406
22.878647
21.943450
21.349788
20.203590
18.817782
18.876791
18.914938
18.005967
18.179417
17.677546
17.710924
17.673969
17.196536
17.870665
17.705560
18.666983
18.013716
17.293692
##ZVALUE=260
1.542568
1.683831
1.582503
1.483560
1.666546
1.894832
1.846552
2.180934
2.118945
2.257824
2.797842
3.042817
16.854405
51.465631
143.637657
276.598930
547.723770
755.789876
932.680964
1016.201973
1016.201973
1016.201973
987.121463
736.218691
523.672700
297.612548
190.954804
108.228922
82.913637
86.367726
104.962587
133.113861
145.754814
156.056881
151.531696
133.967996
112.137794
83.350539
62.874556
40.939450
26.247501
17.635822
14.143586
11.387467
11.011958
11.247993
10.846853
11.034608
11.423826
11.134744
11.388659
11.011958
11.539459
10.961890
11.387467
11.012554
10.701418
10.895729
10.288954
10.701418
11.043549
10.485649
10.288954
10.355711
10.181665
10.412931
10.614991
11.826754
11.494756
12.047887
13.120770
13.807416
14.450550
15.051961
15.565753
16.236901
16.130805
16.155839
15.802979
15.753508
15.850663
16.217828
14.568567
15.661716
14.471412
15.361905
15.292764
15.604496
15.204549
15.268922
16.134977
15.250444
14.798641
14.722943
15.573502
15.866756
##ZVALUE=265
1.481771
1.809597
1.581907
1.392961
1.661777
1.454949
1.536608
1.883507
1.713634
1.752973
1.903772
2.084970
2.226830
2.411604
5.313754
25.327802
65.572858
160.195827
283.384919
508.625507
682.879686
824.849010
976.259708
991.138816
883.945823
746.738911
541.270971
378.148556
210.254788
133.598447
77.426434
69.327950
80.330968
111.131668
133.520961
150.600672
158.494711
148.203969
134.948492
107.301474
87.096691
58.387518
40.107965
23.458600
16.448498
11.603832
9.773970
10.029674
9.801984
9.633899
9.814501
9.544492
10.227561
9.575486
9.892583
9.534955
9.575486
8.858442
8.884668
9.029508
9.258986
9.059906
9.477735
9.302497
9.347796
9.284616
9.324551
9.366870
9.414554
10.613799
11.019707
11.360645
11.502504
11.999607
12.274981
12.894869
12.509823
13.437867
13.261437
12.711883
12.455583
12.647510
13.094544
12.683868
12.582541
12.737513
13.237596
13.902783
13.583899
13.046861
14.376640
13.461709
13.223886
13.226867
14.090538
13.549924
##ZVALUE=270
1.196861
1.334548
1.209974
1.156926
1.372695
1.348853
1.441836
1.469851
1.333952
1.611710
1.264811
1.468658
1.550913
1.979470
1.937747
1.890659
2.778769
8.057952
35.007596
80.180764
159.684420
331.828594
491.967797
713.777542
860.135555
950.847864
935.154557
818.669796
674.936771
465.019941
316.826701
164.326429
96.925497
60.971975
61.499476
83.074570
105.437636
133.985877
146.289468
156.614780
149.749517
132.920742
112.408996
83.745718
61.429739
38.120747
25.214553
15.361905
11.906624
9.462833
8.387566
8.701682
8.451939
8.638501
8.231997
8.496642
8.655787
8.410811
8.357763
7.327795
7.437468
7.813573
7.874966
7.877946
8.020997
8.308887
7.856488
9.190440
8.791685
8.984804
9.368658
10.199547
10.438561
10.605454
10.999441
11.473894
11.189580
11.900663
11.574626
11.647940
11.099577
11.716485
11.483431
11.751652
11.438727
12.565851
11.928678
11.905432
11.525750
12.304783
12.662411
13.031960
12.295842
12.097955
12.663603
12.656450
##ZVALUE=275
1.181960
1.194477
1.117587
1.163483
1.337528
1.222491
1.205802
1.317859
1.218915
1.322627
1.557469
1.460910
1.304746
1.592636
1.471639
1.622438
1.708865
1.795888
2.224445
5.115867
17.838478
62.684417
133.185983
267.340541
515.792966
711.106658
938.417912
1016.201973
1016.201973
1016.201377
864.681005
674.336553
419.186950
258.698463
122.113824
69.731474
48.172474
57.816505
82.826614
102.713704
130.437613
145.448446
153.567791
151.122808
133.046508
113.143921
83.949566
63.429475
39.641857
27.037859
16.330481
12.925863
9.321570
8.603930
8.319616
8.164644
8.475780
8.637905
7.914901
8.166432
8.433461
8.334517
8.582473
8.547902
7.936954
8.868575
8.409619
8.862615
9.672642
9.713769
10.333657
10.899901
11.172891
11.714697
12.720823
12.681484
12.672544
12.434721
12.142658
12.754798
11.847615
12.139678
11.518598
11.831522
12.282729
11.661649
12.138486
12.015700
11.836886
11.567473
11.080503
12.027621
11.845827
11.842847
12.025833
11.657476
##ZVALUE=280
1.114607
1.269579
1.248717
1.264811
1.117587
1.548529
1.351833
1.428723
1.137853
1.536608
1.286864
1.411438
1.515746
1.668930
1.679659
1.676679
1.642704
1.599789
1.900792
2.154708
2.538562
3.149509
10.246634
49.731731
137.393475
381.751657
646.870732
1010.859013
1016.201973
1016.201973
1016.201973
1016.201973
1016.201973
838.965774
505.087972
319.197774
154.550672
82.213879
42.022467
40.110946
53.657889
79.499483
102.580786
128.130913
144.961476
151.769519
146.156549
129.561424
109.495521
89.296699
60.307980
42.357445
25.169849
18.003583
11.310577
9.267926
8.085966
8.010864
7.937551
7.729530
8.140802
8.067489
8.082986
8.126497
8.490682
8.521676
8.710623
8.627772
9.166598
9.494424
10.664463
10.806918
11.604428
12.324452
11.901855
11.789799
12.228489
12.880564
12.268424
12.672544
12.106895
11.703968
11.558533
11.154413
11.510849
11.374950
10.738969
11.577606
11.073947
11.086464
11.406541
10.782480
11.289716
10.896921
11.419654
11.102557
##ZVALUE=285
1.155734
1.273751
1.310706
1.369715
1.354814
1.303554
1.176596
1.257658
1.379848
1.429915
1.370907
1.471639
1.479983
1.695752
1.490712
1.648664
1.705885
1.701713
2.143979
1.675487
1.982450
1.947880
2.472997
2.605915
6.147623
20.248890
78.290701
190.427899
464.012623
725.370646
982.064009
1016.367674
1016.367674
1016.367674
1016.367674
895.408988
658.935905
386.976600
231.863856
107.327700
58.268905
33.070445
35.136938
54.039955
73.531866
102.363825
121.696591
140.050650
147.378445
141.459703
132.269859
107.815862
89.000463
58.988929
42.202473
25.172830
17.012954
11.391640
8.742809
8.088946
7.643700
7.780790
8.084774
7.954836
8.127689
8.357763
8.713603
8.401871
8.901954
9.498596
9.575486
10.101795
10.782480
10.817647
10.987520
11.348724
12.116432
11.236668
11.492968
11.431575
11.544824
11.051893
11.038780
10.377765
11.054873
10.706782
11.230707
10.728836
10.666847
10.740757
10.931492
10.639429
11.012554
11.114478
10.430813
10.881424
##ZVALUE=290
1.046658
0.882745
1.027584
0.959635
1.055598
1.002550
1.018643
1.019835
0.948906
1.017451
1.137853
1.069903
1.056790
0.942945
1.023412
1.244545
1.259446
1.164675
1.448989
1.193881
1.279712
1.301765
1.651645
1.669526
1.707673
1.710653
2.635717
7.569790
35.206676
80.340505
152.917504
309.332609
474.946499
707.346797
857.901573
972.009897
966.341496
832.828879
679.253936
454.296470
299.054980
148.988962
78.421831
33.429861
24.999976
34.259558
47.670603
71.785450
91.244578
117.722750
133.546591
142.138600
139.078498
125.005841
107.992887
79.136491
59.036613
38.313866
26.301742
15.067458
11.151433
8.026958
7.464886
6.525517
6.909966
7.377863
7.329583
7.626414
8.169413
8.306503
8.457899
9.011626
9.176731
9.684563
9.488463
9.443760
9.689927
9.995699
9.958744
10.296702
10.227561
9.987950
10.184646
10.156631
10.108948
10.178685
10.378957
10.090470
10.078549
10.373592
10.161996
9.996891
10.236502
9.880662
9.813905
9.708405
##ZVALUE=295
0.862479
0.900626
0.987649
0.914931
0.966787
1.024604
0.882745
0.937581
1.012683
0.941753
0.951886
1.018643
1.029968
0.951886
0.884533
1.057982
1.073480
0.978708
1.191497
1.259446
1.140833
1.274943
1.274943
1.305938
1.483560
1.657605
1.770854
1.841784
2.012849
3.528595
12.653470
51.944852
113.617778
255.178809
409.195423
629.061460
782.135725
915.530920
951.972008
874.772668
749.614835
540.900826
376.521945
203.170776
112.629533
43.377876
24.265647
20.236969
28.387904
46.095848
63.414574
89.695454
106.411576
126.397610
134.373903
131.275654
121.179819
98.504424
79.506636
56.299567
39.392710
24.614930
16.268492
10.347962
8.235574
7.185936
6.842613
7.268786
7.313490
7.833838
8.038878
8.279681
8.537769
9.029508
9.182692
9.740591
9.380579
9.640455
9.704828
9.810925
10.136962
10.004640
9.814501
10.429621
9.909868
10.045767
9.847879
9.708405
10.136962
10.150671
9.907484
9.907484
10.313988
9.995699
10.214448
9.643435
##ZVALUE=300
0.987649
0.917912
0.799894
0.864863
0.866652
0.913739
1.005530
0.803471
1.015663
0.861883
0.921488
0.908971
1.126528
1.070499
1.138449
1.133680
1.279712
1.101494
1.183748
1.082420
1.176596
1.258850
1.045465
1.176000
1.118779
1.316667
1.270771
1.367927
1.732707
1.669526
1.833439
2.204776
7.827878
25.335550
85.193515
167.436004
338.775516
508.648753
736.946464
866.874456
971.314907
960.997939
848.775506
707.342029
481.912494
324.688554
167.840719
89.905858
32.333732
17.676950
17.206669
25.293827
40.493608
56.814551
81.239939
99.556446
119.350553
126.801729
126.199722
118.299723
98.256469
80.973506
57.497621
40.791631
24.936795
16.626716
11.361837
9.006858
7.872581
7.274747
8.010864
8.407831
8.684993
8.728504
8.706450
8.836985
9.268522
9.487867
9.440780
9.841919
9.997487
9.862781
10.057688
10.006428
10.133982
10.034442
10.161996
10.212660
9.921789
9.930730
9.887815
9.755492
9.862781
9.498596
9.625554
9.795427
##ZVALUE=305
0.798702
0.912547
0.896454
0.746846
0.775456
1.007915
1.014471
0.814795
0.878572
1.075864
1.054406
0.922680
0.930429
0.991821
0.876784
1.026988
0.872612
1.001954
1.022816
0.950694
1.128912
1.045465
1.125932
1.140833
1.150966
1.234412
1.269579
1.326799
1.524687
1.544952
1.515746
1.789927
1.846552
1.845956
3.960729
13.872981
56.936741
124.212503
272.006989
422.189832
642.322898
804.300904
951.654911
984.667540
913.972855
784.905553
576.830506
415.638685
225.221515
129.139423
53.100586
23.893714
12.713671
16.153455
25.352836
36.806464
58.284998
76.909661
97.458959
110.601783
121.179819
120.622516
109.749436
96.283555
73.796511
56.931973
37.656426
26.486516
16.068816
12.002587
9.067655
8.590817
8.657575
8.888841
8.569956
8.923411
9.062886
9.335876
9.524822
9.881854
9.984970
9.815693
10.008812
9.923577
10.171533
10.489821
9.951591
10.243654
10.138750
10.303855
10.431409
10.457635
10.135770
10.106564
9.590983
9.727478
##ZVALUE=310
0.877976
0.840425
0.811815
0.886917
0.873804
0.713468
0.983477
1.182556
0.707507
0.852942
0.872612
0.810623
0.817776
0.960827
0.940561
1.046658
1.035929
0.926852
0.926852
0.996590
1.053810
1.120567
1.013875
1.221895
1.052618
1.072884
1.325607
1.295805
1.268983
1.409650
1.211762
1.382828
1.587868
1.691580
1.628995
1.890659
2.074838
7.483959
25.299788
86.006522
167.494416
342.357755
509.371758
737.245679
877.474546
981.587768
973.182917
866.256952
737.524033
521.859527
360.924602
188.404918
101.491809
35.899878
15.114546
11.145473
13.860464
21.641850
31.812787
50.901771
68.160892
89.008808
103.226900
112.495422
115.122795
106.361508
93.775988
74.735880
58.168769
37.684441
26.888847
17.933846
13.910532
10.844469
9.543896
9.415746
9.395480
9.483695
9.535551
9.617805
9.718537
10.115504
10.236502
10.072589
10.825992
10.748506
10.449886
10.784864
10.314584
10.360479
10.354519
10.068417
10.198951
9.923577
9.983778
9.680986
##ZVALUE=315
0.902414
0.682473
0.749826
0.850558
0.679493
0.792742
0.713468
0.855923
0.773668
0.905991
0.837445
0.879765
0.792742
0.935793
0.762939
0.694990
0.868440
0.952482
0.862479
1.001954
0.999570
1.007915
0.943542
0.931621
0.791550
1.188517
1.075864
0.978708
1.076460
1.010895
1.221895
1.296997
1.243949
1.395941
1.473427
1.577735
1.728535
1.716614
1.933575
3.848672
13.489723
53.635836
117.846727
262.112617
408.953428
634.734035
778.421760
923.339725
972.604752
937.633514
846.366882
652.588606
487.204790
274.019837
154.633522
55.044889
21.070838
9.731650
10.412931
13.740659
19.649863
32.259822
45.174956
63.669682
80.674887
99.065900
107.205510
107.735991
103.048682
87.502003
72.416663
53.445697
40.202737
25.727749
18.796921
13.374686
11.606812
10.367632
9.803772
9.934902
9.932518
9.995699
10.016561
10.342598
10.224581
10.584593
10.228753
10.411739
10.201931
10.476708
10.684729
10.577440
10.381937
9.851456
9.824634
10.032654
##ZVALUE=320
0.849962
0.649691
0.874996
0.936985
0.736713
0.795722
0.885725
0.884533
0.930429
0.856519
0.876784
0.761747
0.920892
0.696778
0.783801
0.768900
0.912547
0.854731
0.887513
0.867844
0.896454
0.838637
0.807643
0.855923
0.907779
0.926852
0.989437
1.052618
1.115799
1.110435
1.269579
1.035929
1.226664
1.341701
1.286864
1.339912
1.349449
1.515746
1.532435
1.462698
1.736879
2.293587
5.941987
30.159950
75.177550
188.325644
307.856798
497.479439
652.518868
837.678909
927.428007
950.750709
887.491703
725.579858
560.621619
335.753560
201.609731
87.397695
36.813617
11.959672
8.662939
9.837747
12.175441
19.007921
27.320981
43.605566
58.509707
76.931715
90.960860
102.602839
103.767514
97.546577
86.796880
69.262981
53.515434
36.793947
27.405620
18.706918
14.472604
11.554956
10.451674
10.415912
10.335445
10.485649
10.468960
10.096431
10.367632
10.589957
10.636449
9.968877
10.268688
10.179877
10.439754
10.123849
10.319948
10.042787
##ZVALUE=325
0.763535
0.822544
0.890493
0.572801
0.738502
0.790954
0.792742
0.765920
0.787973
0.744462
0.776649
0.824928
0.935793
0.849962
0.921488
0.855923
0.798702
0.841618
0.813603
0.968575
0.897646
0.930429
0.821948
0.785589
0.909567
0.938773
0.980496
0.934601
0.892878
0.977516
1.031756
1.184940
0.963807
1.183748
1.216531
1.332760
1.352429
1.231432
1.166463
1.288652
1.274943
1.488924
1.706481
1.868606
3.291965
19.870996
51.731467
134.388804
237.811804
433.989763
599.008799
794.896483
905.188918
952.124596
900.753736
736.078024
569.541454
360.229611
219.821930
96.078515
45.959949
15.349984
9.086728
8.427501
9.101629
12.502670
17.335415
28.540492
40.542483
58.804750
73.032975
89.513659
95.523000
97.903609
93.097687
78.961849
65.457821
48.242807
36.447644
24.500489
18.397570
13.635755
11.952519
10.899901
10.450482
10.650754
10.154843
10.353923
10.522604
10.345578
10.281801
9.876490
10.105968
9.970665
9.953976
9.630919
##ZVALUE=330
0.771880
0.865459
0.768900
0.629425
0.714660
0.800490
0.595450
0.875592
0.729561
0.909567
0.861883
0.779629
0.851750
0.964999
0.888705
0.718832
0.766516
0.717640
0.836849
0.735521
0.749826
0.960827
0.637770
0.942945
0.867844
0.897646
0.847578
0.809431
0.918508
0.829697
1.021624
0.828505
0.916719
1.062751
1.129508
1.055598
0.945926
1.290441
1.106858
1.192689
1.200438
1.397729
1.351833
1.538992
1.472831
1.806617
2.166629
8.769631
28.047562
92.064738
175.164938
344.333649
509.096980
729.062557
852.496624
927.757621
895.859599
771.948695
629.823804
422.284007
281.980634
136.164427
68.883896
24.956465
11.681914
8.420944
8.205771
9.645820
11.822581
18.381476
25.703907
39.500594
52.329898
71.728826
82.448721
91.799498
92.149973
86.962581
77.074766
60.983896
47.259927
33.213496
25.125742
18.408895
14.653802
12.075901
11.319518
10.235906
10.086894
10.071993
9.956956
9.827614
9.769797
10.069609
9.385943
9.605885
##ZVALUE=335
0.727773
0.688434
0.698566
0.557899
0.744462
0.740886
0.646710
0.824928
0.898838
0.690818
0.658631
0.650883
0.670552
0.776649
0.819564
0.781417
0.940561
0.840425
0.752807
0.806451
0.643730
0.727773
0.789762
0.967979
1.078844
0.847578
0.849962
0.913739
0.738502
0.886917
0.868440
1.022816
0.872612
0.888705
0.924468
0.879765
0.854731
0.973940
0.995994
0.999570
1.164675
1.151562
1.279712
1.239777
1.140833
1.319647
1.404881
1.621842
1.935959
3.323555
19.083619
53.734779
143.926740
251.128674
454.338789
619.231462
808.115005
889.734626
897.051692
827.120543
658.128858
506.149530
309.907794
192.533731
82.641840
40.143728
14.631748
8.836985
8.039474
8.546710
9.797812
11.718869
17.638803
25.117993
38.621426
50.382614
66.182613
77.354908
85.547566
86.614490
80.226660
72.608590
58.871508
47.668815
34.090877
26.154518
18.401742
14.625788
11.592507
10.492802
10.019541
9.458661
9.494424
9.484887
9.116530
9.504557
##ZVALUE=340
0.697970
0.654459
0.722408
0.633597
0.788569
0.813603
0.827909
0.740886
0.741482
0.726581
0.696778
0.736713
0.679493
0.578761
0.775456
0.819564
0.762939
0.813603
0.763535
0.747442
0.873804
0.782609
0.875592
0.774860
0.687838
0.864863
0.741482
0.713468
0.820756
0.909567
0.734925
0.846982
0.855923
0.913739
0.955462
0.978708
0.967979
0.961423
1.019835
1.180768
1.148582
1.095533
1.060963
1.076460
0.983477
1.191497
1.026988
1.153946
1.378655
1.468658
1.681447
2.055764
6.813407
35.183430
88.886619
221.644640
363.436937
569.058657
720.419884
850.563645
881.358981
810.275674
701.784492
516.786575
367.643833
202.706456
114.168525
44.895411
20.304918
9.438992
8.261800
8.298755
8.247495
9.563565
11.653900
17.619729
24.018884
36.772490
47.643781
64.077973
73.143840
79.698563
81.462860
75.698495
68.895817
56.047440
45.756698
33.681989
25.814772
18.333793
14.397502
11.230707
10.133982
9.565949
9.097457
8.988976
##ZVALUE=345
0.818968
0.681877
0.483990
0.751615
0.774860
0.723600
0.769496
0.715852
0.838637
0.700951
0.744462
0.645518
0.695586
0.772476
0.762939
0.812411
0.777841
0.790954
0.764728
0.832677
0.782609
0.814795
0.817776
0.704527
0.685453
0.677705
0.783801
0.897646
0.958443
0.785589
0.753999
0.884533
0.928640
0.725985
0.891685
0.887513
0.836849
0.900626
0.826716
0.934601
0.891685
1.000762
0.997782
1.048446
0.893474
1.051426
1.115799
1.051426
1.229644
1.342893
1.311898
1.320839
1.522899
1.704693
3.158450
18.103719
50.956607
136.371851
240.026712
425.664783
577.068925
751.811862
828.968883
833.423734
761.466622
584.692955
438.170433
263.185501
153.625607
64.565539
29.877424
11.777878
8.204579
8.130670
8.038878
8.053780
8.662939
10.990500
15.000701
22.995472
31.644702
46.754479
56.008697
66.616535
72.908998
74.717999
73.268414
64.047575
55.940747
43.740869
34.210682
23.759604
17.830729
13.230443
11.178851
9.257793
##ZVALUE=350
0.606775
0.675917
0.785589
0.756979
0.748634
0.652671
0.675917
0.794530
0.551939
0.746846
0.677705
0.670552
0.626445
0.768900
0.637770
0.817776
0.736713
0.722408
0.707507
0.744462
0.773668
0.769496
0.826716
0.764728
0.705719
0.754595
0.702739
0.857711
0.882745
0.682473
0.818968
0.707507
0.777841
0.755787
0.830889
0.796914
0.874996
0.862479
0.952482
1.005530
0.800490
0.853539
0.906587
0.980496
0.974536
1.056790
0.929832
1.090765
1.144409
1.137853
1.182556
1.216531
1.267791
1.320839
1.338720
1.537800
1.889467
8.649826
28.040409
87.136626
165.216923
322.553515
468.803644
655.610561
765.130520
826.184750
779.143572
635.739565
491.765738
306.439996
188.964009
88.277459
43.744445
13.804436
8.590817
7.506609
7.095933
7.097721
7.423759
8.156896
10.294914
14.471412
20.011663
30.062795
37.707686
50.537586
59.223771
66.927671
68.902969
66.784620
60.840845
49.857497
42.213798
32.224655
24.576783
17.197728
##ZVALUE=355
0.842810
0.680685
0.595450
0.680685
0.691414
0.656843
0.648499
0.666976
0.811815
0.786781
0.768900
0.696778
0.825524
0.710487
0.840425
0.749826
0.733733
0.788569
0.589490
0.850558
0.717640
0.763535
0.702739
0.595450
0.751615
0.750422
0.869632
0.923872
0.999570
0.855923
0.757575
0.845790
0.990629
0.690818
0.917912
0.886917
0.804663
1.009703
0.755787
0.908971
0.854731
0.894666
0.924468
0.887513
0.992417
1.143813
0.949502
1.105666
0.954866
1.073480
1.162887
1.189709
1.181960
1.210570
1.218915
1.161695
1.300573
1.533628
1.705885
4.295707
14.468431
54.802895
114.074945
239.012837
377.867818
594.094992
721.727610
814.518929
810.501575
695.576668
569.478869
386.815667
252.594948
121.755600
61.826706
20.371675
9.825826
6.914735
6.823540
7.191896
7.019639
7.134676
7.730722
9.323955
12.352467
18.416643
24.660826
35.100579
42.601824
52.711964
59.564710
62.485933
61.915517
56.541562
46.870708
39.644837
##ZVALUE=360
0.624657
0.663996
0.691414
0.803471
0.833869
0.669956
0.674725
0.707507
0.822544
0.753999
0.684857
0.630617
0.519753
0.644922
0.725985
0.735521
0.796914
0.675917
0.650883
0.680685
0.799894
0.663996
0.789762
0.743866
0.779629
0.644922
0.841618
0.813603
0.839829
0.722408
0.860691
0.692606
0.760555
0.882745
0.741482
0.874996
0.837445
0.874996
0.883937
0.690818
0.958443
1.046658
1.115799
0.846982
0.941753
0.894666
1.050830
0.802875
0.921488
0.980496
0.994802
1.150966
1.057982
1.123548
1.200438
1.399517
1.288652
1.280904
1.419783
1.438856
1.633763
2.420545
6.300807
28.073788
69.008470
177.946687
294.840932
485.591888
636.919737
778.720975
809.564590
753.965974
639.981031
437.365770
292.370915
144.743919
76.928735
29.167533
12.985468
7.075667
6.588697
6.661415
6.474853
6.424785
6.792545
7.091761
7.810593
10.333657
13.762712
20.487905
27.620792
37.855506
45.186877
52.714944
56.456923
56.266785
##ZVALUE=365
0.647902
0.627637
0.684857
0.778437
0.774860
0.658631
0.729561
0.765920
0.863671
0.900626
0.698566
0.662804
0.608563
0.773668
0.691414
0.740886
0.718832
0.797510
0.766516
0.783801
0.772476
0.686646
0.763535
0.632405
0.858903
0.844598
0.769496
0.779629
0.648499
0.698566
0.709891
0.864863
0.767708
0.982881
0.797510
0.789762
0.880957
0.919700
0.835657
0.853539
0.908971
0.845790
0.878572
0.903606
0.759959
0.765920
0.854731
0.854731
0.850558
0.861883
0.961423
0.960827
1.057982
1.041889
1.045465
1.214743
1.200438
1.164675
1.379848
1.403689
1.466870
1.641512
1.626611
1.814961
2.985597
15.727878
45.183897
127.277970
229.645967
419.412851
581.666827
756.360888
838.790536
821.706653
720.204711
530.076623
375.340581
201.193690
108.096600
40.351748
17.105937
7.552505
6.238818
6.194711
5.920529
5.953908
5.933642
6.006956
6.073713
7.085800
8.965731
12.797713
17.220974
24.536848
31.312704
40.099621
##ZVALUE=370
0.726581
0.839829
0.621676
0.661612
0.733733
0.642538
0.657439
0.600815
0.775456
0.636578
0.525713
0.739694
0.758767
0.659823
0.826716
0.773668
0.684857
0.778437
0.850558
0.810623
0.684857
0.828505
0.660419
0.685453
0.829697
0.824928
0.631809
0.851750
0.761747
0.694990
0.834465
0.869632
0.775456
0.803471
0.677705
0.906587
0.687838
0.833869
0.789762
0.953674
0.782609
0.736713
0.816584
0.927448
0.913739
0.725985
0.870824
0.953674
0.931621
0.930429
0.982881
0.983477
1.091957
0.998974
1.020432
0.937581
0.901818
1.082420
1.086593
1.097918
1.066923
1.173615
1.137853
1.245737
1.362562
1.582503
2.184510
8.369684
27.028918
91.784596
174.568892
340.340734
498.069525
697.070956
795.775652
813.782811
740.133524
571.542978
416.474938
225.244761
123.061538
47.795773
22.775531
9.739995
6.576777
5.721450
5.563498
5.517602
5.302429
5.239844
5.691648
5.640984
6.078482
7.599592
10.262728
15.017986
##ZVALUE=375
0.701547
0.658631
0.683665
0.541806
0.706911
0.630617
0.608563
0.507832
0.594854
0.707507
0.760555
0.678897
0.630617
0.648499
0.673532
0.575781
0.631809
0.675917
0.654459
0.643730
0.788569
0.663996
0.675917
0.756979
0.713468
0.756979
0.771880
0.722408
0.822544
0.715852
0.857711
0.693798
0.645518
0.692606
0.787973
0.853539
0.756979
0.914931
0.824928
0.791550
0.816584
0.752807
0.898838
0.894666
0.734925
0.856519
0.869632
0.799894
0.789762
0.829697
0.883937
0.831485
1.005530
0.787973
0.893474
1.006722
1.025796
1.030564
1.001954
0.949502
1.048446
1.001954
1.032948
0.947714
1.185536
1.215935
1.306534
1.523495
1.904964
4.456639
14.521480
54.351687
119.019747
268.575549
422.877669
635.441542
757.934451
825.651884
791.487694
634.624958
480.897427
284.386873
176.560879
86.677670
43.378472
15.196800
7.367730
5.571842
5.457997
5.135536
4.973412
4.939437
5.133748
5.036592
5.144477
5.776882
##ZVALUE=380
0.689626
0.615716
0.766516
0.616908
0.661612
0.786781
0.708699
0.651479
0.542998
0.643730
0.636578
0.728965
0.752807
0.702739
0.638962
0.706911
0.750422
0.861883
0.534654
0.686646
0.486970
0.685453
0.658631
0.735521
0.645518
0.848770
0.817776
0.824928
0.738502
0.739694
0.804663
0.774860
0.818968
0.832677
0.909567
0.702739
0.694990
0.840425
0.763535
0.774860
0.783801
0.828505
0.572801
0.785589
0.698566
0.675917
0.882745
0.717640
0.768900
0.829697
0.925660
0.876784
0.792742
0.739694
0.865459
0.912547
0.727773
0.977516
0.950694
0.908971
0.979900
0.934601
1.041889
1.084805
0.972748
1.037717
1.239777
1.303554
1.439452
1.642704
1.743436
2.574921
8.140802
38.273931
90.744495
222.280622
366.101861
577.780008
736.662745
861.814618
854.066610
718.574524
580.734015
393.768549
257.706642
123.586655
63.280463
22.933483
10.466576
5.552769
4.878640
4.833937
4.869699
4.704595
4.893541
4.574656
##ZVALUE=385
0.809431
0.607967
0.666976
0.721812
0.756979
0.510812
0.608563
0.674725
0.643730
0.699759
0.761747
0.642538
0.742674
0.743866
0.628829
0.641942
0.697970
0.677705
0.752807
0.630617
0.705719
0.735521
0.647902
0.880957
0.628829
0.691414
0.679493
0.610948
0.730753
0.730753
0.761747
0.843406
0.748634
0.711679
0.632405
0.786781
0.728965
0.798702
0.776649
0.776649
0.728965
0.665784
0.755787
0.828505
0.774860
0.858903
0.850558
0.740886
0.819564
0.818968
0.800490
0.862479
0.836849
0.880957
0.896454
0.860691
0.878572
0.944734
0.851750
1.007915
0.994802
0.860691
0.908971
0.907779
0.917912
1.059771
0.974536
1.304746
1.256466
1.349449
1.452565
1.625419
1.561642
1.888871
4.385710
23.952723
62.487721
158.715844
280.605555
488.794446
646.981597
794.031024
827.254653
778.328776
675.151944
485.914946
334.980488
177.993774
100.855827
40.611625
17.092824
6.298423
4.787445
4.552603
4.393458
4.401803
##ZVALUE=390
0.626445
0.577569
0.607967
0.668764
0.770688
0.431538
0.574589
0.545979
0.504851
0.549555
0.615716
0.531673
0.622869
0.716448
0.696778
0.756979
0.585914
0.508428
0.571609
0.567436
0.723600
0.597835
0.623465
0.872612
0.622869
0.660419
0.626445
0.597835
0.715852
0.739694
0.695586
0.655651
0.517964
0.839829
0.670552
0.831485
0.674725
0.725985
0.887513
0.835657
0.816584
0.683665
0.717640
0.815988
0.816584
0.810623
0.787973
0.782609
0.903606
0.911951
0.733733
0.756979
0.851750
0.624657
0.769496
0.751615
0.807643
0.857711
0.830889
0.711679
0.931621
0.886917
0.908971
0.935793
0.762939
0.883937
1.048446
1.187921
1.126528
1.253486
1.371503
1.311898
1.302958
1.361966
1.421571
1.426935
2.465844
12.149811
37.092566
112.943649
212.446451
398.304462
540.109873
701.707006
784.978867
796.933770
722.280741
558.813810
417.397618
246.825814
141.088963
56.426525
25.541782
8.274913
4.975796
4.520416
##ZVALUE=395
0.666976
0.632405
0.756979
0.744462
0.514984
0.511408
0.500679
0.717640
0.480413
0.640750
0.687838
0.606775
0.636578
0.749826
0.591874
0.725985
0.729561
0.591874
0.710487
0.703931
0.711679
0.627637
0.632405
0.528693
0.624657
0.701547
0.665784
0.682473
0.753999
0.657439
0.675917
0.794530
0.691414
0.624657
0.592470
0.596642
0.640750
0.800490
0.715852
0.685453
0.675917
0.707507
0.754595
0.863671
0.794530
0.543594
0.726581
0.877976
1.002550
0.856519
0.765920
0.689626
0.804663
0.849962
0.692606
0.711679
0.772476
0.745654
0.886917
0.788569
0.672936
0.755787
0.952482
0.783801
0.946522
0.950694
1.116991
0.980496
1.052618
1.233816
1.360774
1.344681
1.363754
1.295805
1.166463
1.228452
1.544952
1.413822
1.716614
6.950498
24.447441
82.779527
160.037875
311.278701
461.127758
671.138763
802.490711
887.902975
864.048600
723.581910
561.631918
337.260962
198.639631
81.569552
37.768483
13.055801
##ZVALUE=400
0.652671
0.663996
0.700951
0.705719
0.633597
0.672936
0.658631
0.693798
0.548959
0.528693
0.607967
0.636578
0.693798
0.765920
0.740886
0.779629
0.689626
0.641942
0.765920
0.607967
0.614524
0.709891
0.541806
0.607967
0.709891
0.655651
0.593662
0.850558
0.680685
0.745654
0.996590
0.670552
0.611544
0.704527
0.578761
0.561476
0.787973
0.675917
0.754595
0.733733
0.862479
0.752807
0.757575
0.749826
0.646710
0.587702
0.796914
0.720620
0.781417
0.748634
0.906587
0.877976
0.853539
0.592470
0.733733
0.749826
0.873804
0.714660
0.848770
0.907779
0.698566
0.902414
0.929832
0.927448
0.920892
1.021624
1.037717
0.946522
0.969768
1.109838
1.349449
1.066923
1.228452
1.252890
1.267791
1.208782
1.285672
1.204610
1.341701
1.625419
1.392961
3.985763
12.768507
45.418739
99.820495
234.994888
381.794572
600.862503
747.187734
854.409933
848.649740
730.879903
588.172674
374.453664
239.788890
115.595460
##END
