##TITLE=QP0030F2
##FORMAT=SPECTACLE-ASCII V-1.2
##DATA TYPE=ULTRAVIOLET SPECTRUM
##SECOND TYPE=ULTRAVIOLET SPECTRUM
##DATE=12/11/17
##TIME=15:47:25
##SPECTROMETER/DATA SYSTEM=SPECTACLE
##XUNITS=NM EM
##YUNITS=ENERGY
##YFACTOR=1
##FIRSTX=220
##LASTX=410
##NPOINTS=96
##3DDATA=Equidistant
##ZUNITS=NM EX
##FIRSTZ=210
##LASTZ=400
##ZPOINTS=39
##XYDATA=(Y..Y)
##ZVALUE=210
3.015995
2.080798
2.732873
2.800822
2.429485
3.089905
2.568960
3.230572
2.978444
2.654791
2.293587
2.545714
2.700686
2.568960
3.009439
2.802610
2.816916
2.641678
3.492832
3.517866
3.722906
3.658533
3.687739
4.608631
4.455447
4.609823
4.195571
4.644990
5.258918
5.286932
4.619956
5.278587
4.875660
4.602671
5.312562
6.291866
5.218983
5.649924
5.032420
5.242825
5.003810
5.954504
5.668998
5.129576
5.395412
5.811453
5.740523
5.890727
5.187988
5.925894
6.041527
5.653501
5.211830
5.840659
6.034970
5.507469
6.052852
5.228519
6.579757
6.458759
5.901456
6.207824
6.435513
6.942749
5.697608
6.749630
7.005930
7.754564
8.629560
9.210706
12.549758
13.144612
16.862750
17.793775
16.805530
19.509792
19.705892
21.035671
18.886924
17.399788
17.511845
15.215874
12.675524
12.046695
9.400845
8.471608
8.070469
7.535815
7.022619
7.292628
6.976724
6.099939
5.736947
7.457733
6.991625
6.992817
##ZVALUE=215
7.300973
6.966591
5.695820
5.754828
5.256534
4.496574
5.280972
4.694462
4.802942
5.633831
5.772710
4.157424
3.947616
3.488660
4.037619
3.221631
3.276467
3.346801
3.086925
3.389716
4.025698
3.434420
3.698468
3.972650
3.811717
4.481673
4.348755
4.846454
5.178452
5.087852
5.012751
5.169511
5.236864
5.263686
5.513430
5.027652
5.448461
5.422831
5.923510
5.404949
5.177855
5.249977
5.267859
5.860925
5.602837
5.294681
5.534887
6.005764
6.344914
6.569624
6.228685
6.805658
6.117821
6.033778
6.372929
6.663799
5.760789
5.583763
6.120801
5.711913
5.815625
4.942417
5.479455
5.766749
6.899834
6.722808
7.433891
6.867647
7.686615
9.076595
9.823442
10.541677
12.197495
14.829636
15.163422
16.255975
16.059875
16.329885
16.160607
15.237927
13.801455
12.295842
10.653734
10.380745
9.357929
8.667707
8.341670
7.082820
6.332994
7.487535
6.573796
5.974770
6.466508
5.805492
7.355809
6.479621
##ZVALUE=220
23.719668
23.226738
25.605559
24.127960
21.854639
18.530488
14.172792
12.202859
11.532903
10.266900
12.818575
12.964606
11.483431
10.613799
9.000897
7.443428
6.058812
4.955530
3.337860
3.652573
3.362894
3.659725
3.781915
3.644824
3.742576
3.967881
5.306602
5.453825
5.550981
4.960895
5.061626
5.337000
6.003976
6.510615
6.878972
6.552935
7.423759
7.570982
6.582737
6.703734
7.460713
6.328821
7.053614
6.328821
7.059574
5.814433
5.806684
6.841421
6.891489
6.545782
6.454587
7.042885
6.614923
6.827712
6.642938
6.921887
7.971525
6.547570
6.788969
6.650686
7.311702
7.531643
7.434487
6.929636
7.674694
7.767677
8.196831
8.744597
7.605553
9.782910
11.892915
12.426972
13.028979
15.992522
17.276406
16.289949
17.441511
17.998815
17.481446
15.773773
14.798641
13.842583
12.904406
10.996461
10.811687
10.748506
9.348989
10.153651
9.059906
7.324815
7.501841
8.349419
8.240938
7.532835
7.690787
7.698536
##ZVALUE=225
43.923855
47.478676
60.509443
69.616437
73.447824
72.614551
63.674450
50.350428
39.157867
31.692982
23.873448
23.730993
24.464726
26.248693
27.499795
25.027990
20.569563
17.075539
14.282465
8.936524
6.275773
5.666614
4.616976
4.286766
4.652739
4.662871
5.382895
6.239414
5.506873
6.583929
6.911755
8.111000
7.715821
8.334517
9.015799
8.061528
7.556677
9.461641
7.665753
8.666515
7.557869
8.684993
8.236766
8.834600
8.075833
7.629991
7.836819
7.969737
7.964969
8.629560
8.262992
7.688999
8.731484
7.494688
8.169413
8.420944
8.806586
8.583665
7.991791
7.984638
9.223819
8.990765
9.326935
8.869767
10.539889
9.898543
10.137558
10.577440
11.993647
12.752414
12.815595
15.429854
16.006827
18.225908
16.702414
18.632412
19.919872
18.241405
16.941428
18.145442
17.360449
16.082525
15.402436
14.387965
14.433861
13.788939
11.882782
12.371540
12.252927
12.270808
12.702942
12.419820
10.942817
11.363626
11.595488
10.944605
##ZVALUE=230
37.477612
43.567419
69.708824
107.093453
139.639974
163.426995
171.548724
170.948505
154.121518
130.252838
87.567568
66.856742
49.464703
43.281913
44.418573
52.221417
50.635934
47.367811
45.216680
36.370754
27.961731
19.451976
12.940764
8.540750
6.146431
6.248951
5.881786
6.575584
7.158518
7.317662
8.914471
8.355975
8.043647
8.614659
8.952618
9.051561
9.678602
10.868907
10.684729
10.083914
9.141564
11.670589
9.555817
10.100603
8.988976
9.472966
9.151697
9.269714
8.746982
9.259582
9.038448
10.037422
9.567738
10.268688
10.694861
9.241700
9.583831
11.998415
9.940863
10.413527
10.494590
11.369586
12.767911
12.629628
12.976527
12.829900
12.591481
13.818741
14.938712
17.090440
18.305779
19.579530
20.575523
21.865964
22.445917
24.230480
22.661686
22.752881
23.857951
23.142695
21.714568
21.742582
21.096468
20.474792
19.523501
18.014908
18.032789
18.451810
18.672943
19.078851
19.133687
16.852617
17.478466
17.952919
16.998649
17.815828
##ZVALUE=235
13.308525
15.186667
37.653446
71.399808
128.437877
182.612538
257.464647
302.423835
334.281921
332.832932
292.247534
238.811970
183.683634
123.468637
94.416738
73.924661
74.890852
79.084635
81.578493
82.282424
73.938966
65.443516
50.866604
38.454533
24.578571
17.369986
11.214614
9.121895
7.651448
8.140802
8.025765
8.037686
8.618832
9.023547
9.724498
9.608865
9.889603
10.331869
10.810494
10.174513
11.125803
11.035800
11.473894
10.737777
10.625720
9.524822
10.410547
10.432601
10.405779
10.782480
10.442734
11.370778
12.220740
11.035800
10.946989
12.949705
13.463497
12.543797
12.626648
13.799667
14.033914
13.753772
14.079809
17.407537
17.465949
16.572475
15.865564
17.917752
18.250942
22.889972
21.879673
24.794936
25.970936
29.630661
31.213760
29.506683
31.657815
29.197931
29.556751
29.357672
29.816628
28.797984
28.592944
29.939413
27.213693
27.931929
25.333762
26.706457
26.413798
25.663972
24.571419
26.945472
27.762651
26.655793
26.450753
25.884509
##ZVALUE=240
1.949668
2.432466
5.832911
19.236803
41.952729
95.773935
156.029463
259.694457
352.748632
440.882444
506.756902
514.227748
461.152792
386.676788
281.043649
202.969909
128.736496
102.279782
94.964504
94.921589
108.997822
115.863681
115.419626
98.587871
81.292987
61.949492
47.390461
31.074882
21.126866
13.492703
10.741949
9.316802
8.950830
9.660721
8.929968
9.342432
9.684563
9.583831
10.528564
11.058450
10.093451
11.530519
10.215640
10.788441
11.550784
10.687709
10.610819
11.165738
11.852980
10.491610
11.627674
10.756850
12.145638
11.819601
12.244582
11.506677
12.823939
12.943745
13.817549
14.493465
14.185905
14.396906
16.116500
15.424490
17.430782
18.079877
19.288659
19.857883
20.822883
23.419857
25.938749
27.665496
29.523969
30.115843
30.412674
34.792423
36.509633
35.940409
33.411980
34.073591
33.451915
33.829808
36.500692
35.060644
32.111406
34.317970
33.623576
33.509731
34.744740
35.325885
32.956600
33.351779
32.793880
33.472776
32.911897
31.345487
##ZVALUE=245
1.987815
1.894832
2.156496
2.061725
4.831553
13.191700
40.161610
83.745718
177.581906
273.048878
409.424901
499.128699
575.249791
615.592599
580.923557
496.373773
395.221710
270.620584
188.154578
119.412541
99.323988
97.813606
116.474628
129.516721
131.464005
128.357410
111.711621
98.160505
73.331594
55.369735
37.629604
24.056435
15.936494
12.049675
10.050535
9.767413
9.521842
10.122657
9.607673
9.210706
10.029674
9.863973
9.300709
10.605454
11.260509
9.862781
9.779930
10.940433
10.550618
12.078881
10.762811
10.675788
11.569858
11.400580
10.883808
11.464953
11.393428
12.658834
12.357831
12.165904
13.120770
13.746619
14.252663
13.997555
16.189814
16.346574
18.203855
18.535852
20.454526
22.752881
23.463964
24.836659
26.836991
28.981566
29.643774
29.825568
31.638741
32.384992
32.396913
33.996701
32.186508
33.828616
32.895803
33.896565
33.628941
34.220815
33.231974
33.247471
34.208894
34.340620
34.129620
32.609701
32.004714
32.855868
33.277869
33.282638
##ZVALUE=250
1.620650
1.640916
1.933575
1.637936
1.828671
2.077818
2.488494
9.922981
28.322935
62.636733
147.032738
246.783495
399.428010
503.001809
620.346665
675.110817
665.220022
606.555939
551.880002
373.062491
252.769589
147.065520
104.122758
93.324780
105.139613
122.533441
134.807825
143.321753
137.223601
121.300817
105.199814
76.334476
58.569908
36.341548
26.173592
15.348792
12.179613
10.012984
9.560585
9.310842
10.105968
8.500814
11.411905
10.147691
9.937882
9.629726
10.639429
10.254979
10.482669
11.030436
10.101795
10.776520
10.706782
10.255575
10.848641
11.589527
11.443496
10.014772
11.478662
11.292696
11.795759
12.321472
13.093948
13.670921
14.529824
15.171766
14.786720
16.674995
18.419623
19.129515
19.892454
21.158457
21.728873
24.143457
26.704669
27.139783
28.185844
28.142929
27.151704
29.319525
30.272603
30.917525
30.636787
31.469464
30.454993
32.073855
32.219887
30.520558
30.997992
31.421781
31.916499
31.171441
32.073855
32.110810
31.388998
32.124519
##ZVALUE=255
1.742840
1.613498
1.464486
1.671910
1.730919
1.688600
1.742840
1.924634
1.855493
4.964471
17.047524
56.299567
113.623738
235.891938
345.586538
515.615940
625.016689
720.289946
749.766827
683.261752
592.111945
478.725433
301.981568
191.148520
112.369657
87.751746
88.044405
101.287961
125.466585
140.183568
148.361921
146.461725
130.059719
103.448629
84.778666
58.236718
39.228797
23.057461
17.104745
11.960864
10.587573
10.554790
10.792613
9.611845
9.469986
9.972453
10.485649
10.278821
9.776950
9.068847
9.874701
9.884834
10.305643
10.483861
10.551810
9.468794
9.941459
10.661483
10.129809
10.284781
10.756850
10.634661
11.453629
11.750460
12.065768
12.870431
13.773441
13.681650
15.093684
15.565753
17.589927
18.963814
20.103455
20.279884
21.522641
24.287701
23.203492
24.514794
25.174618
26.212931
26.109815
26.281476
26.945472
27.111769
28.313994
26.985407
28.379560
29.766560
29.231906
29.721856
29.656887
29.571652
30.445457
28.381944
28.771758
29.525757
##ZVALUE=260
1.463890
1.414418
1.222491
1.636744
1.628995
1.453757
1.643896
1.925826
1.784563
1.982450
2.033710
2.557635
7.700920
33.280849
75.046420
179.603696
289.590955
469.306707
606.865883
794.590712
881.596804
889.138579
802.666545
679.265857
465.052724
321.637988
189.215541
122.327805
79.776645
81.478953
107.183456
124.875903
143.822432
155.416727
148.148537
133.478642
113.899708
82.942843
61.851740
40.959716
27.879477
16.187429
12.511611
10.170937
9.456873
9.749532
9.668469
9.626746
9.698868
10.006428
9.967685
9.881854
9.630919
9.397864
9.023547
9.400845
9.174943
10.378957
9.715557
10.244846
10.891557
10.878444
10.574460
10.858774
10.826588
11.689663
12.483597
13.461709
13.331771
15.355945
16.486645
17.370582
18.928647
19.372702
21.283627
21.625757
22.504926
22.810698
23.348927
23.515821
24.002790
25.467873
25.235415
26.412606
26.511550
26.694536
26.011467
27.085543
26.801825
27.738810
27.208924
27.564764
27.796626
27.773976
27.403831
27.791858
##ZVALUE=265
1.173615
1.270771
1.104474
1.368523
1.626611
1.241565
1.492500
1.478791
1.662970
1.320839
1.416802
1.808405
1.880527
2.153516
5.002618
17.779469
61.222911
122.285485
216.141939
416.909456
595.733523
816.568732
930.296779
978.768468
912.329555
736.922622
583.876967
361.356735
227.387547
119.959712
79.514980
69.713593
82.520843
113.937855
132.788420
152.530670
154.874921
149.444938
134.595633
109.052658
86.565614
57.894588
41.745901
25.874972
17.609000
11.727810
10.810494
9.702444
10.027885
9.390712
10.235906
9.987950
8.601546
9.713769
9.562969
9.211898
9.494424
9.833574
9.523630
9.973645
9.854436
9.981990
10.791421
10.338426
10.725856
12.096763
12.241602
13.073683
13.375878
14.967918
15.294552
15.878677
16.692877
17.911792
19.029975
19.424558
20.045638
21.457672
21.633506
22.420883
22.264719
22.460818
23.270845
23.537874
23.708940
24.721622
25.501847
24.300814
24.223924
24.700761
25.594831
26.585460
26.106834
26.783943
26.849508
27.436614
##ZVALUE=270
1.304746
1.185536
0.999570
1.245737
1.355410
1.276731
1.405478
1.287460
1.377463
1.358986
1.527667
1.599789
1.666546
1.700521
2.018809
1.818538
2.402663
10.446906
28.990507
93.683004
181.982517
304.308534
530.703664
713.021755
904.160738
959.917903
935.910940
843.917727
641.736984
484.874845
289.966464
175.943971
100.090504
60.401559
61.295629
86.326599
107.517838
135.915875
150.563717
158.531666
153.331757
138.913989
115.059614
83.800554
62.886477
39.145947
27.804971
16.589761
12.941957
10.472536
8.988976
9.403825
9.711981
10.093451
9.798408
10.085702
9.307861
9.176731
10.376573
9.902716
10.174513
10.582805
10.901690
10.847449
11.619925
11.509657
12.039542
13.114810
13.637543
15.453696
15.080571
15.739799
17.800927
17.386675
18.459558
19.514561
20.023584
20.935535
20.797849
21.259785
20.727515
22.813678
22.595525
22.817850
22.156835
23.158789
23.931861
22.947788
24.452806
23.503900
24.959445
23.802519
23.973584
25.177598
24.759769
25.972724
##ZVALUE=275
1.293421
0.977516
1.185536
0.989437
1.050830
1.274943
1.277924
1.191497
1.275539
1.330972
1.398921
1.424551
1.511574
1.433492
1.820922
1.514554
1.589656
1.923442
1.900792
4.897714
18.825531
50.421953
147.281885
278.430581
503.237844
673.889518
875.910521
986.191034
1016.201973
966.081619
850.432515
625.791550
443.169475
234.936476
133.858919
65.244436
50.446987
60.837865
80.455542
112.243891
129.950643
151.546001
154.639482
151.619911
136.977434
108.857751
88.286996
60.919523
44.321418
27.250648
18.832684
12.944937
11.773705
10.038614
9.684563
9.281635
10.218620
10.851622
10.215640
10.603666
10.645986
10.923743
10.707974
11.895895
11.669993
13.112426
13.518929
13.406873
14.208555
15.906692
16.061664
17.424822
17.582774
17.867684
19.097924
19.945502
19.790530
20.219684
21.012425
21.418929
22.133589
21.999478
21.886826
22.602677
22.340417
22.650957
23.899674
24.413466
23.358464
24.067760
24.633408
23.226738
23.157597
24.449825
23.933649
24.250746
##ZVALUE=280
1.036525
1.216531
1.112819
1.160502
1.262426
1.038909
1.163483
1.112819
1.116991
1.224875
1.215935
1.220703
1.249909
1.335740
1.406670
1.304746
1.697540
1.460910
1.635551
1.824498
2.086759
2.748966
16.247630
55.994987
171.151757
311.591625
485.003591
764.983892
935.888886
1016.201973
1016.201973
1016.201973
948.184729
705.893636
522.520542
296.197534
171.975493
77.087879
47.783852
42.449832
55.472851
84.389448
105.044842
131.406784
145.109892
153.935552
149.916410
130.943656
112.232566
83.217621
61.731935
40.670633
28.263927
17.820597
13.514757
11.207461
10.287762
10.237694
10.417700
10.567904
11.002421
11.564493
11.700988
11.625886
12.327433
12.907982
13.181567
14.540553
14.907718
15.350580
15.843511
16.909838
17.658472
18.626451
19.490719
19.907951
19.968748
20.834804
20.855665
20.694733
21.498799
21.637678
21.617413
21.832585
22.293925
22.818446
22.776723
23.275614
23.393631
23.036599
23.410916
23.061633
23.623705
23.429990
23.148656
23.312569
##ZVALUE=285
1.084805
1.124740
0.957847
1.118779
1.071692
1.157522
0.975728
0.984669
1.120567
1.135468
1.178980
1.283884
1.327991
1.438856
1.407862
1.152754
1.484752
1.214743
1.522899
1.555681
1.851916
1.777411
1.927614
2.064705
6.601810
26.327968
112.235546
229.547620
457.674861
674.997568
891.978741
1016.201973
1016.201973
1016.201973
1016.201973
835.703015
639.531016
393.136740
241.242647
111.813545
59.615970
34.021735
35.916567
54.284930
74.291825
103.316903
122.132897
141.529441
147.095919
144.274831
131.758451
109.455585
87.225437
61.194897
44.106841
27.580857
18.787980
13.046861
11.919737
10.908842
10.795593
11.639595
11.588931
12.587905
12.803674
12.881756
13.534427
14.186502
15.002489
16.536713
16.473532
17.373562
18.083453
18.627644
19.519925
19.981861
20.062923
21.141768
21.208525
21.507740
22.180676
21.822453
22.708774
22.188425
22.549629
22.860765
23.445487
22.543669
22.511482
22.995472
23.057461
23.298860
22.931695
22.287965
22.775531
23.575425
##ZVALUE=290
1.064539
0.929832
1.052618
0.928640
1.073480
1.138449
1.134872
1.097918
1.166463
1.347661
1.231432
1.208782
1.216531
1.337528
1.246929
1.340508
1.496673
1.227856
1.258850
1.359582
1.570582
1.419783
1.774430
1.821518
2.079606
2.323985
3.215671
9.192824
52.269697
133.152604
258.594751
530.949831
786.877871
1016.209722
1016.209722
1016.209722
1016.209722
988.885760
784.868002
507.532954
327.928662
160.505772
84.518790
35.207868
26.354790
35.696626
48.811436
72.275996
92.357993
119.256973
133.756995
143.163800
140.852928
128.087997
109.395981
81.740618
62.620640
41.300654
29.916763
19.697547
15.215874
12.642741
12.439489
12.036562
12.386441
13.219714
13.532639
14.661551
15.257597
16.107559
16.611814
17.276406
17.838478
19.601583
20.126700
19.950867
20.299554
20.768642
20.856857
22.275448
21.559000
21.851659
22.340417
22.420883
23.281574
23.226738
23.360848
22.807717
23.400784
23.722649
22.830963
22.601485
22.786856
22.907853
23.416877
22.260547
##ZVALUE=295
1.099706
1.071692
0.881553
0.951886
1.045465
1.027584
1.043677
0.858903
0.993609
1.059771
1.022816
1.053810
1.128912
1.136661
1.247525
1.205802
1.143813
1.160502
1.209974
1.230836
1.472831
1.434684
1.425743
1.483560
1.679659
1.777411
1.838803
2.295971
2.321601
4.123449
14.258623
62.401891
147.710443
365.335941
595.486760
941.295624
1016.201973
1016.201973
1016.201973
1016.201973
931.888819
639.835596
431.878567
237.371922
135.241747
49.799681
25.839806
21.682978
29.200912
46.516657
64.462423
90.987682
108.431578
130.639672
136.723518
132.783651
124.043822
102.797747
83.341599
59.650540
43.715835
28.773546
21.457672
15.808940
14.094710
13.722777
13.283491
13.411641
14.346838
15.641451
16.424656
18.030405
18.232465
18.815994
19.614697
20.359755
20.372868
20.672679
21.713972
21.252632
21.807551
22.441745
23.124814
22.989511
23.130774
23.990870
23.568869
23.707747
23.330450
23.608804
22.992492
23.923516
23.661852
22.843480
23.301840
22.798777
##ZVALUE=300
0.930429
1.004934
0.946522
0.909567
0.771880
0.745654
0.878572
1.045465
0.911951
1.058578
0.757575
1.099706
1.025796
1.079440
1.100898
0.996590
1.006722
1.025796
0.960827
1.268983
1.272559
1.187921
1.190901
1.293421
1.312494
1.369715
1.513958
1.594424
1.669526
1.781583
2.072453
2.279878
8.451939
28.856397
90.246797
175.521970
364.713669
564.819574
834.428668
993.271470
1016.202569
1016.202569
898.378491
711.419582
458.986759
293.736458
149.865746
81.965923
32.525659
17.744899
18.789768
25.855899
41.901469
58.058500
81.974864
101.538897
123.165846
129.852891
129.634738
120.554566
101.292729
83.943605
61.605573
45.962930
30.561686
22.975802
17.266870
15.800595
14.956594
15.535951
16.688704
16.437769
18.004775
18.734932
19.691586
19.968748
20.329952
21.050572
21.511912
21.820664
22.526979
22.980571
23.114681
23.999810
24.070740
24.320483
23.941994
23.765564
24.372935
24.322867
23.573637
23.910999
23.689866
23.004413
23.160577
23.382902
##ZVALUE=305
0.853539
0.839829
0.947714
0.894666
0.752807
0.726581
0.887513
0.981688
0.937581
1.256466
0.863671
0.964999
0.847578
1.022816
0.886917
1.025796
0.915527
0.872612
0.979900
1.126528
1.170635
1.133680
1.139641
1.139641
1.244545
1.173615
1.232624
1.343489
1.452565
1.344681
1.591444
1.790524
1.807809
2.208948
3.562570
19.651651
52.199960
143.253803
262.494683
494.160652
703.063607
970.003009
1016.202569
1016.202569
1016.202569
793.879032
600.659847
378.517509
238.728523
113.442540
59.464574
22.257566
14.110804
17.623901
24.762750
41.306615
57.085752
79.047680
98.247528
115.267634
125.725865
123.739839
115.730762
99.386573
82.072616
59.018731
45.323968
31.565428
24.294853
19.242764
17.580986
17.558932
18.362999
19.411445
19.877553
20.105839
21.162629
21.457672
21.926761
22.603869
23.383498
23.654699
24.586916
24.816990
24.456978
24.865866
24.852753
24.719834
25.226474
24.960637
24.936795
24.735928
24.599433
24.306774
24.227500
23.654699
##ZVALUE=310
0.843406
0.828505
0.821948
0.789762
1.013875
0.831485
0.686646
0.813603
0.870824
0.960827
0.848770
0.973940
0.823736
0.850558
0.972748
0.832677
0.886917
1.028776
0.946522
1.046658
1.025796
1.066923
1.205802
1.195669
1.166463
1.133680
1.227856
1.232624
1.101494
1.298785
1.468658
1.390576
1.561642
1.504421
1.789927
2.005696
2.247691
8.228421
26.633739
85.258484
168.098807
372.439623
590.602756
910.650492
1016.201973
1016.201973
1016.201973
1002.790928
798.558593
499.073863
318.889618
159.364939
85.940957
32.996535
16.274452
12.650490
15.779734
23.846626
33.707619
52.630901
70.463419
93.065500
106.955767
117.638707
118.951797
110.795498
99.081993
79.269409
64.043999
45.724511
35.461783
26.601553
23.095608
20.605922
19.718409
21.140575
21.308661
21.505952
22.533536
23.228526
23.758411
23.684502
24.839640
24.823546
25.266409
25.626421
25.542974
25.906563
25.221705
25.875568
25.788546
24.967790
24.370551
24.992824
25.172830
24.549961
##ZVALUE=315
0.870824
0.774860
0.827909
0.717640
0.801682
0.674725
0.826716
0.733733
0.905991
0.968575
0.901818
0.878572
0.883937
0.958443
0.934601
0.834465
1.021624
0.949502
0.808835
0.879765
0.905991
0.965595
1.116991
0.928640
1.082420
1.059771
1.070499
1.046658
1.109838
1.104474
1.211762
1.351833
1.508594
1.386404
1.495481
1.393557
1.676679
1.788735
1.891851
3.930926
14.264584
57.654977
121.389627
271.486640
442.657471
723.760724
903.590918
1016.207933
1016.207933
1009.631753
868.366957
608.078837
419.951677
216.676593
114.455819
41.985512
18.857718
11.179447
11.912584
15.904903
21.921992
34.557581
48.701763
69.013834
85.736513
104.693770
112.426877
114.893913
109.070539
93.515515
79.755783
61.869621
48.838854
35.267472
28.846860
24.230480
22.818446
22.641420
22.487640
22.972822
23.961663
24.141669
24.518967
24.911761
25.074482
25.515556
25.664568
25.875568
25.834441
26.352406
26.304722
25.724769
25.646687
25.675893
24.784803
24.782419
##ZVALUE=320
0.725985
0.751615
0.751615
0.809431
0.921488
0.882745
0.958443
0.709891
0.910759
1.010895
0.811815
0.877976
0.767708
0.845790
0.947714
0.827909
0.883937
0.885725
1.051426
0.839829
0.872612
0.946522
0.923872
0.878572
1.084805
1.117587
1.025796
1.070499
1.025796
1.140833
1.173615
1.026988
1.186728
1.347661
1.314878
1.418591
1.505613
1.478791
1.697540
1.823902
1.951456
2.669692
9.663701
48.819780
112.117529
250.890851
396.676660
637.111664
821.448565
1008.958817
1016.201973
1016.201973
998.641849
764.871836
554.806590
299.626589
164.545774
69.022775
31.773448
12.961626
10.274649
11.925697
14.511943
21.425486
31.153560
47.826767
63.442588
82.335472
96.984506
108.471513
110.385418
105.749965
96.841455
77.841878
64.148903
47.458410
38.001537
30.054450
26.092529
24.296641
24.237633
24.350882
24.536848
25.269985
25.616884
25.918484
26.319623
25.812984
26.111603
25.859475
25.866628
25.540590
25.653839
25.030971
25.279522
25.134683
##ZVALUE=325
0.813603
0.843406
0.702739
0.703931
0.677705
0.744462
0.804663
0.647902
0.845790
0.876784
0.619888
0.821948
0.952482
0.779629
0.856519
0.989437
0.917912
0.897646
0.898838
0.842810
0.866652
0.866652
0.980496
0.923872
0.876784
1.041889
0.920892
0.935793
0.917912
1.074672
0.941753
1.136661
1.136661
1.201630
1.250505
1.233816
1.440644
1.435876
1.301765
1.600981
1.610518
1.439452
1.533628
2.180934
3.886819
23.813844
59.952736
149.958730
265.358686
485.318899
677.858591
926.432610
1016.208529
1016.208529
1016.208529
861.594677
654.135942
392.937660
231.702924
96.684694
45.580864
17.179847
11.195540
10.790825
11.977553
16.028881
21.447539
32.389760
45.176744
65.185428
80.890656
96.591711
103.595853
108.152628
101.682544
88.659525
76.807737
59.984922
48.829913
37.016869
31.618476
27.257800
25.356412
25.287867
25.457740
25.029778
25.518537
25.660992
25.656819
25.564432
25.223494
25.116801
25.516748
25.089979
24.891496
24.822950
##ZVALUE=330
0.805855
0.788569
0.724792
0.835657
0.843406
0.712872
0.739694
0.871420
0.742674
0.807643
0.792742
0.783801
0.784993
0.694990
0.798702
0.776649
0.875592
0.655651
0.633597
0.859499
0.900626
0.958443
0.982881
0.870824
0.946522
0.959635
0.992417
0.939965
1.138449
1.053810
0.944734
1.055598
1.161695
0.899434
1.165867
0.961423
1.186728
1.170635
1.296997
1.288652
1.328588
1.350641
1.408458
1.548529
1.914501
1.785755
2.380610
11.470914
36.158562
111.644864
206.988454
390.492678
563.027859
810.928941
985.894799
1016.201973
1016.201973
969.035625
788.937807
512.650013
323.192477
142.278671
69.030523
26.637912
13.566613
10.987520
11.538863
13.009906
15.514493
22.986531
31.029582
45.438409
58.670640
78.822970
89.854598
100.173950
101.520419
95.966458
87.302923
70.903897
59.452653
45.779943
37.955642
31.968951
28.364658
26.205778
25.836825
25.169849
24.979711
24.452806
24.565458
24.897456
24.498701
24.593472
24.860501
24.345517
##ZVALUE=335
0.784993
0.937581
0.822544
0.776649
0.863671
0.737906
0.951886
0.817776
0.815988
0.790954
0.732541
0.817776
1.068711
0.933409
0.936985
0.788569
0.894666
0.785589
0.880957
0.853539
0.886917
0.849962
0.902414
0.940561
1.024604
0.957847
0.824928
1.080632
0.994802
0.854731
0.880957
0.980496
0.995994
0.973940
0.983477
1.061559
1.089573
1.109838
1.082420
1.232624
1.389980
1.165867
1.237988
1.376867
1.437664
1.481771
1.576543
1.703501
1.896620
4.727840
17.253757
68.045855
141.974688
305.216908
477.485657
734.608769
908.962488
1016.232967
1016.232967
982.239842
829.558969
571.473837
388.045907
198.536515
103.711486
36.617517
17.819405
11.492968
11.568666
12.202859
13.499856
17.382503
22.100806
32.841563
43.304563
60.426593
73.479414
87.851882
95.450878
96.356869
92.501640
82.150698
71.576834
57.309866
48.311949
38.102865
32.750964
28.061867
26.029944
24.263859
24.421811
24.044514
23.388863
23.394823
23.639798
23.404956
##ZVALUE=340
0.586510
0.749826
0.673532
0.724792
0.895858
0.731945
0.770688
0.857711
0.621676
0.800490
0.816584
0.794530
0.750422
0.710487
0.755787
0.648499
0.751615
0.774860
0.810623
0.826716
0.675917
0.896454
0.825524
0.911951
0.904799
0.912547
1.005530
0.878572
0.935793
0.964999
0.794530
0.826716
0.991821
0.992417
0.925660
1.052618
0.968575
1.093745
1.019835
1.170635
1.000762
1.105666
1.166463
1.168847
1.216531
1.105666
1.273751
1.527667
1.453757
1.648664
1.852512
2.692938
7.923841
43.517947
109.649897
274.587870
450.759530
711.728930
897.349715
1016.201973
1016.201973
982.409716
838.806033
607.208014
422.622561
226.221681
123.693943
47.259927
22.024512
12.377501
11.336803
12.044907
12.851954
14.913678
17.626882
23.846626
31.707883
44.545531
56.450963
72.275996
82.271695
90.060830
91.531873
86.456537
80.231428
67.606568
57.813525
46.104789
38.271546
30.491948
27.325749
24.229884
23.131967
22.231936
22.359490
22.474527
##ZVALUE=345
0.696778
0.649691
0.694990
0.728965
0.703931
0.763535
0.698566
0.797510
0.742674
0.799894
0.690818
0.584722
0.772476
0.660419
0.787973
0.703931
0.861883
0.929832
0.875592
0.769496
0.852942
0.911951
0.848770
0.811815
0.696778
0.830889
0.866652
0.918508
0.947714
0.817776
0.882745
0.877976
0.990629
0.911951
0.819564
0.807643
1.028776
0.978708
1.048446
0.846982
0.975728
1.106858
1.177788
1.132488
1.059771
1.200438
1.232624
1.276731
1.377463
1.247525
1.439452
1.674891
1.916885
1.974702
3.781915
22.498965
67.798495
184.386969
329.857469
574.426651
762.690902
954.547524
1016.201973
993.295908
874.463916
647.290945
475.161672
279.164910
157.190561
63.501000
31.049848
14.430881
11.785626
12.306571
12.390614
12.974739
14.230609
17.247796
21.659732
31.316876
40.304661
55.121779
65.850616
76.886415
83.096623
85.650682
82.960725
75.613856
67.406893
55.329800
45.926571
35.090446
29.575825
24.726987
23.227930
22.102594
##ZVALUE=350
0.678897
0.590682
0.641942
0.705719
0.659823
0.756979
0.756979
0.732541
0.745654
0.665784
0.593662
0.755787
0.713468
0.779629
0.542998
0.666976
0.737906
0.674725
0.735521
0.812411
0.846982
0.787973
0.829697
0.836849
0.786781
0.749826
0.704527
0.880957
0.950694
0.710487
0.722408
0.896454
0.869632
0.929832
0.859499
0.760555
0.972748
0.814795
0.913739
1.025796
0.904799
1.003742
1.185536
0.795722
0.988841
1.068711
1.045465
1.235604
1.072884
1.101494
1.243949
1.341701
1.394749
1.446605
1.755953
1.809597
2.360940
9.417534
31.889677
110.039711
213.591456
418.574810
605.108738
829.532743
944.957733
986.884832
914.191008
722.642541
548.283458
331.172943
201.666951
91.352463
45.557618
17.103553
11.407733
11.295676
11.406541
11.990666
12.479424
14.487505
16.506910
21.718740
27.818680
37.666559
47.299862
59.177876
67.909956
76.407790
77.783465
76.550841
70.910454
61.107874
52.473545
42.409897
35.436749
28.386712
##ZVALUE=355
0.740886
0.687838
0.889897
0.755787
0.820756
0.756979
0.787973
0.804663
0.672936
0.656843
0.796914
0.755787
0.703931
0.731945
0.777841
0.701547
0.852942
0.778437
0.894666
0.840425
0.691414
0.687838
0.750422
0.807643
0.787973
0.826716
0.750422
0.805855
0.836849
0.888705
0.753999
0.863671
0.901818
0.711679
0.871420
0.751615
0.886917
0.827909
0.995994
1.048446
0.971556
0.994802
1.066923
1.007915
1.076460
1.078844
1.065731
1.152754
1.276731
1.180768
1.348853
1.273751
1.328588
1.341701
1.507998
1.413822
1.671910
1.776814
1.970530
5.096793
16.529560
69.551468
149.750710
322.878957
517.307520
798.197985
957.682729
1016.201973
1016.201973
850.813985
663.459897
408.047438
248.781443
109.675527
55.477619
22.197962
13.016462
10.710955
10.925531
11.032820
11.976957
12.607574
13.669729
15.827417
18.826723
24.914742
32.147765
42.665601
51.033497
61.198473
67.991614
71.181655
70.755482
64.202547
57.816505
48.354864
##ZVALUE=360
0.836849
0.681877
0.847578
0.903606
0.942945
0.852942
0.883937
0.748634
0.759959
0.744462
0.747442
0.855923
0.773668
0.934601
0.852942
0.930429
0.775456
0.782609
0.778437
0.789762
0.876784
0.887513
0.834465
0.927448
0.946522
0.925660
0.975728
0.988841
1.077652
0.849962
1.267791
0.927448
0.950694
0.974536
0.922680
1.039505
1.001954
1.102686
0.966787
1.093745
0.982881
1.050830
1.030564
1.250505
1.067519
1.156926
1.081824
1.107454
1.124740
1.225471
1.172423
1.234412
1.413822
1.429915
1.507998
1.378655
1.613498
1.618862
1.809597
1.993775
2.001524
2.902746
7.479787
32.279491
84.831715
241.429806
424.399972
718.220472
954.589844
1016.277671
1016.277671
1016.277671
854.128003
546.723008
349.245667
166.586637
86.583495
33.247471
15.947819
10.549426
10.187626
10.684729
10.609627
11.439919
11.658669
12.499690
13.761520
16.982555
20.449758
27.242899
34.323931
44.914484
52.514672
60.279965
63.460469
63.400865
##ZVALUE=365
0.676513
0.732541
0.770688
0.899434
0.779629
0.735521
0.742674
0.845790
0.622869
0.650883
0.761747
0.840425
0.714660
0.852942
0.694990
0.866652
0.891685
0.906587
0.834465
0.781417
1.024604
0.765920
0.797510
0.743866
0.884533
0.935793
0.945926
0.896454
0.864863
0.827909
0.947714
0.848770
0.703931
0.892878
0.949502
0.918508
0.898838
0.895858
0.965595
0.979900
0.989437
1.023412
1.082420
0.984669
0.990629
1.064539
0.993609
1.053810
1.179576
1.119971
1.047850
1.307726
1.313686
1.253486
1.480579
1.423955
1.469851
1.307726
1.518726
1.577735
1.731515
1.812577
2.064705
2.373457
3.886819
17.251968
48.802495
163.849592
338.616967
673.400760
974.654555
1016.201973
1016.201973
1016.201973
999.506712
669.034719
439.137816
222.791433
120.398402
46.591759
21.468997
10.672808
9.638667
9.702444
9.565949
10.215640
10.294914
10.513663
11.184812
12.067556
14.279485
18.340945
22.545457
30.088425
36.857724
46.239495
##ZVALUE=370
0.868440
0.762939
0.759959
0.895858
0.713468
0.820756
0.760555
0.929832
0.894666
0.784993
0.876784
0.777841
0.706911
0.724792
0.793934
0.849962
0.910759
0.776649
0.810623
0.815988
0.755787
0.837445
0.882745
0.976920
0.738502
0.856519
0.864863
0.868440
0.894666
0.920892
0.786781
0.842810
0.719428
0.793934
0.905991
0.963807
0.934601
0.940561
0.823736
0.904799
0.832677
0.898838
1.058578
0.819564
0.969768
0.877976
0.896454
0.985861
1.096725
0.959635
0.993609
1.089573
1.052618
1.018643
1.143813
1.102686
1.253486
1.133680
1.195669
1.177788
1.487732
1.513958
1.468658
1.610518
1.752973
1.879930
2.458692
8.920431
27.957559
97.657442
205.324888
439.120531
681.004524
989.564657
1016.237736
1016.237736
972.153544
708.443522
490.738750
250.312686
135.477781
53.267479
25.947690
12.292862
9.056926
8.744597
8.718967
8.796453
9.137988
9.102821
9.207726
9.993911
10.682940
12.856722
15.504956
20.512938
##ZVALUE=375
0.685453
0.580549
0.753999
0.800490
0.735521
0.596642
0.609756
0.759959
0.734925
0.696778
0.638962
0.740886
0.753999
0.687838
0.739694
0.759959
0.795722
0.651479
0.652671
0.717640
0.833869
0.768900
0.681877
0.751615
0.906587
0.752807
0.737906
0.746846
0.699759
0.995994
0.738502
0.883937
0.721812
0.906587
0.778437
0.668764
0.958443
0.878572
0.818968
0.823736
0.804663
0.747442
0.810623
0.823736
0.871420
0.817776
1.126528
0.783801
0.829697
0.853539
0.798702
0.991821
0.964999
0.847578
1.015663
0.998974
1.016855
0.849962
1.031756
1.081824
1.144409
1.098514
1.310706
1.239777
1.253486
1.330972
1.602769
1.578927
1.860857
4.725456
15.283823
56.027770
120.973587
292.018652
472.939610
739.032626
903.083682
1000.464559
961.355567
776.312947
579.059720
332.892537
199.689865
89.522004
45.855641
16.839504
9.661913
8.213520
7.682443
7.795691
8.147955
8.109808
8.483529
8.747578
8.947849
9.670854
##ZVALUE=380
0.633597
0.754595
0.828505
0.731945
0.771880
0.786781
0.689626
0.679493
0.750422
0.646710
0.728965
0.511408
0.563860
0.556707
0.582933
0.665784
0.643730
0.706911
0.736713
0.757575
0.633597
0.676513
0.772476
0.826716
0.595450
0.752807
0.630617
0.659823
0.738502
0.654459
0.697970
0.927448
0.792742
0.636578
0.756979
0.688434
0.646710
0.711679
0.774860
0.657439
0.942945
0.847578
0.783801
0.822544
0.800490
0.793934
0.801682
0.939965
0.828505
0.679493
0.838637
0.830889
0.949502
0.995994
0.884533
0.958443
0.999570
1.083612
0.933409
0.809431
0.921488
0.995994
1.023412
1.201630
1.169443
1.187921
1.205802
1.233816
1.382828
1.625419
1.771450
2.994537
9.560585
41.688681
93.324780
211.800933
355.755687
599.922538
770.678520
934.385657
956.296921
843.678713
698.899031
484.305620
319.806933
149.800777
74.728727
26.551485
12.697577
7.596612
7.266998
7.106662
7.188916
7.553697
7.602572
7.681847
##ZVALUE=385
0.661612
0.627637
0.736713
0.703931
0.553727
0.644922
0.529885
0.695586
0.734925
0.480413
0.600815
0.656843
0.687838
0.659823
0.581741
0.629425
0.809431
0.694990
0.662804
0.681877
0.667572
0.596642
0.704527
0.559688
0.551939
0.624657
0.761747
0.711679
0.638962
0.583529
0.627637
0.606775
0.666976
0.826716
0.788569
0.656843
0.785589
0.715852
0.717640
0.784993
0.722408
0.708699
0.779629
0.858903
0.749826
0.866652
0.563860
0.656843
0.768900
0.875592
0.751615
0.808835
0.773668
0.739694
0.767708
1.026988
0.874996
0.821948
0.701547
0.913739
0.885725
0.825524
1.051426
1.007915
0.979900
0.986457
0.972748
1.114607
1.318455
1.375675
1.530647
1.610518
1.780987
2.022982
6.736517
21.250844
71.004629
144.020915
301.894546
459.208488
684.686899
824.735761
924.837589
930.860639
811.662674
656.254888
420.866609
266.057849
119.228959
58.521628
20.094514
9.307861
6.770492
6.724596
6.658435
6.741881
##ZVALUE=390
0.696778
0.674725
0.749826
0.552535
0.695586
0.611544
0.509620
0.762939
0.564456
0.561476
0.669956
0.737906
0.713468
0.692606
0.592470
0.805855
0.559688
0.613928
0.546575
0.699759
0.683665
0.610948
0.626445
0.552535
0.657439
0.741482
0.623465
0.711679
0.676513
0.677705
0.690818
0.719428
0.725985
0.609756
0.751615
0.769496
0.806451
0.675917
0.685453
0.707507
0.588894
0.747442
0.674725
0.704527
0.688434
0.677705
0.842810
0.791550
0.793934
0.779629
0.918508
0.897646
0.805855
0.851750
0.811815
0.791550
0.655651
0.902414
0.801682
0.879765
0.919700
0.911951
0.994802
0.956655
0.953674
0.978708
1.141429
1.173615
1.266599
1.420975
1.285672
1.368523
1.528859
1.432896
1.606941
1.683831
2.482533
11.791587
35.727620
107.728839
202.600956
382.063985
533.688664
728.776455
856.765509
949.071646
911.127925
759.473443
584.284663
352.528691
202.027559
78.035593
34.157634
10.596514
6.674528
6.235838
##ZVALUE=395
0.640750
0.711679
0.601411
0.615716
0.499487
0.601411
0.491738
0.733733
0.618696
0.576973
0.539422
0.498891
0.571609
0.787973
0.606775
0.683665
0.743866
0.713468
0.635982
0.816584
0.634789
0.796914
0.638962
0.849962
0.634789
0.661612
0.487566
0.738502
0.840425
0.791550
0.788569
0.511408
0.637770
0.734925
0.689626
0.706911
0.744462
0.675917
0.834465
0.647902
0.796914
0.722408
0.694990
0.682473
0.672936
0.753999
0.635982
0.861883
0.680685
0.811815
0.720620
0.761747
0.793934
0.847578
0.927448
0.795722
0.909567
0.858903
0.764728
0.914931
0.988841
0.956655
1.007915
0.875592
0.971556
1.013875
0.938773
0.968575
1.096725
1.187921
1.137853
1.349449
1.323819
1.223683
1.419783
1.357794
1.467466
1.460910
1.939535
6.576777
23.181438
78.303814
146.953464
276.068449
406.085849
594.841838
722.119808
818.887949
821.662545
729.944706
591.909885
378.081799
237.234831
105.757713
49.985647
16.889572
##ZVALUE=400
0.596642
0.606775
0.580549
0.663996
0.580549
0.720620
0.673532
0.662804
0.493526
0.671744
0.746846
0.696778
0.716448
0.554919
0.621676
0.562668
0.465512
0.613928
0.653863
0.624657
0.633597
0.617504
0.560880
0.842810
0.750422
0.829697
0.773668
0.843406
0.678897
0.577569
0.576973
0.639558
0.652671
0.798702
0.668764
0.632405
0.711679
0.736713
0.740886
0.658631
0.778437
0.593662
0.813603
0.794530
0.835657
0.733733
0.607967
0.740886
0.742674
0.884533
0.599623
0.909567
0.671744
0.818968
0.661612
0.785589
0.736713
0.864863
0.753999
0.809431
0.649691
0.807643
0.943542
0.800490
0.833869
0.911951
0.983477
1.097918
1.142621
1.201630
1.208782
1.144409
1.142621
1.266599
1.225471
1.211762
1.254678
1.140833
1.325607
1.433492
1.620650
3.759861
13.225675
51.588416
109.241605
229.685903
361.002684
544.116497
669.817924
784.973502
814.693570
746.885538
641.796589
463.916659
318.636894
173.533559
##END
