##TITLE=QP0060F2
##FORMAT=SPECTACLE-ASCII V-1.2
##DATA TYPE=ULTRAVIOLET SPECTRUM
##SECOND TYPE=ULTRAVIOLET SPECTRUM
##DATE=12/11/17
##TIME=14:59:43
##SPECTROMETER/DATA SYSTEM=SPECTACLE
##XUNITS=NM EM
##YUNITS=ENERGY
##YFACTOR=1
##FIRSTX=220
##LASTX=410
##NPOINTS=96
##3DDATA=Equidistant
##ZUNITS=NM EX
##FIRSTZ=210
##LASTZ=400
##ZPOINTS=39
##XYDATA=(Y..Y)
##ZVALUE=210
1.962781
1.825690
2.165437
2.542734
2.854466
3.069639
2.358556
2.705455
2.729893
2.819896
2.373457
2.422929
2.142787
2.018809
2.506971
2.822876
2.964735
2.723932
2.833605
2.667904
3.080964
3.343821
4.084706
3.971457
4.010797
4.092455
3.695488
4.132986
3.725886
4.372597
4.189610
5.982518
4.162788
4.679561
4.870892
5.232692
4.754663
5.428791
4.871488
5.340576
5.022883
5.077720
4.989505
4.467964
4.746914
4.203916
4.481673
4.511476
4.798770
5.171895
5.011559
4.942417
5.704761
5.256534
6.116629
5.727410
5.279779
5.787611
5.656481
5.820990
5.994439
6.196499
5.838871
5.929470
5.888939
6.442666
5.958676
6.923676
8.578897
9.429455
10.722876
13.372898
16.642809
17.534494
18.644929
21.539927
22.314787
22.115707
21.361709
21.008849
19.420981
17.361641
16.949773
14.463663
10.669827
9.978414
8.513927
7.411838
6.638765
6.725788
6.553531
5.818605
6.238818
6.628633
7.060766
7.727742
##ZVALUE=215
8.565784
7.053614
6.967783
5.800724
5.425811
4.409552
4.906654
5.263686
5.414486
6.186962
6.050467
5.365610
4.851818
3.336668
2.941489
2.762675
3.146529
2.672672
3.246665
2.735853
3.610849
2.961755
3.776550
3.745556
3.778934
3.856421
4.833937
4.521608
4.471540
4.180670
4.723668
4.671812
4.657507
5.188584
5.605817
5.381703
5.273819
5.223751
5.722642
4.894733
5.613565
6.134510
6.026626
6.593466
5.815625
6.283522
5.430579
6.570816
6.585717
6.890893
6.796718
6.142855
6.840825
7.096529
6.873608
7.615685
7.979870
6.850958
7.048845
6.713867
7.643700
9.341836
7.694960
7.857680
8.256435
8.614659
8.046627
8.482933
9.650588
10.850430
12.045503
13.659000
16.075969
17.739534
20.669699
21.493435
20.911694
21.135807
19.042492
19.808412
16.933680
15.492439
15.856624
13.824701
13.259649
12.747645
9.861588
10.773540
9.366870
9.335876
8.778572
8.291602
8.013844
8.512735
8.292794
8.320808
##ZVALUE=220
29.856563
29.502511
30.798912
31.110644
29.737949
25.183558
23.065805
17.151833
13.860464
12.085438
13.804436
12.815595
14.039874
12.732744
9.715557
7.524490
5.941987
4.572868
3.990531
4.545450
3.849864
4.511476
4.470944
4.435778
5.108714
5.045533
5.053878
5.128980
5.833507
5.264878
5.780458
6.136894
6.522536
6.833673
6.785989
6.386638
6.358624
6.839633
6.662607
7.294416
7.355809
6.482601
6.790757
7.103682
6.744862
7.351637
6.740689
7.401705
8.074641
8.238554
7.844567
7.693768
6.738901
8.531809
7.435679
9.160638
8.273721
8.992553
8.135438
7.901788
8.765459
7.994771
8.649826
9.059906
9.139776
8.922815
9.380579
10.292530
10.305643
12.184978
13.086796
16.423464
18.679500
21.653771
20.639896
25.607944
26.042461
24.064779
24.091601
21.448731
22.220612
18.293858
18.088818
15.806556
14.921427
13.559461
12.406707
10.858774
10.094643
9.348989
9.261966
8.571744
10.430813
8.951426
8.894801
9.597540
##ZVALUE=225
51.673651
55.074692
67.503452
88.053942
89.816451
97.532868
91.395974
71.824789
59.240460
42.836666
31.278729
24.842620
22.761822
27.570724
27.471781
24.541616
20.719767
17.146468
13.575554
10.373592
6.574988
4.578829
4.294515
5.506873
4.551411
4.882812
5.640984
5.436540
6.215572
5.740523
6.005764
7.202625
7.518530
7.013679
7.375479
7.370710
6.929636
7.271767
7.555485
8.111596
8.013844
7.104874
7.880926
7.004738
7.892847
7.257462
7.528663
7.446408
6.877780
7.698536
7.286668
7.131696
7.745624
7.910728
8.152723
6.879568
7.638931
7.136464
7.164478
7.585883
8.096695
8.040667
7.807612
8.734465
9.643435
8.465648
8.957982
9.633899
10.457635
11.137724
12.720823
12.482405
14.168620
14.684796
17.446876
16.613603
15.299916
15.834570
15.790462
15.156865
12.848973
12.595654
12.314916
12.137890
12.158751
11.059642
11.465549
11.026859
10.986924
9.958744
10.629892
10.409951
9.287000
8.978844
10.865927
10.272861
##ZVALUE=230
44.590831
46.730638
70.870519
114.157796
143.070817
170.835853
177.704692
170.524716
156.911612
132.853985
87.425709
68.050623
46.757460
43.582916
44.694543
46.677589
51.688552
49.542785
42.450428
36.980510
27.766824
18.227696
11.757612
8.458495
5.970597
4.988909
5.682707
5.613565
5.664825
5.983710
5.824566
7.325411
7.278919
6.162524
7.401705
7.020831
7.246733
6.924868
6.927848
6.659627
7.354617
6.572604
7.092953
7.604957
6.980896
6.783605
6.678700
6.997585
6.509423
7.507801
7.342696
6.632805
7.023811
7.324815
8.025765
7.435679
8.093715
8.807778
8.071661
8.512735
7.960796
9.603500
9.441972
9.158850
10.396838
10.418892
11.181831
11.327863
12.554526
12.152791
13.615489
15.239716
16.005635
17.337799
16.650558
17.771721
18.256903
17.634630
18.403530
18.707514
16.106963
17.249584
18.846989
17.002821
17.436743
15.735626
14.717579
14.476776
15.577674
14.831424
14.765859
14.167428
15.807748
15.636683
17.268658
15.126467
##ZVALUE=235
16.440749
19.094944
43.417811
74.753761
135.690570
186.782479
257.762671
309.564471
326.491594
318.602920
269.114971
212.589502
165.180564
107.287765
81.164837
68.019629
68.229437
79.614520
79.761744
77.641606
74.966550
68.998933
53.944588
38.851500
22.164583
16.255975
11.346936
8.896589
6.618500
6.236434
7.232428
8.144975
7.256866
7.466674
6.846786
7.436872
7.737875
8.069873
8.157492
7.437468
7.280707
6.648898
7.845759
7.942915
6.552935
7.347465
7.793903
7.403493
7.955432
7.937551
7.681847
8.040667
7.081628
8.785725
7.699728
9.398460
9.299517
9.255409
9.907484
10.873675
10.548830
10.617971
11.895895
12.078881
12.144446
13.412833
14.006495
16.253591
16.181469
16.582608
17.688870
20.284653
22.391677
23.495555
23.368001
23.462772
26.370883
26.615858
26.696920
25.941730
26.186705
24.585724
24.469495
23.669600
25.205612
23.775697
23.746490
23.644567
23.800731
23.067594
22.898912
24.850965
23.088455
23.167729
22.769570
23.937821
##ZVALUE=240
2.114773
2.610683
9.364486
22.375584
56.769848
98.104477
191.710591
281.002522
401.548743
470.017791
529.698730
505.916476
466.934443
360.389948
277.409554
168.713927
126.774907
97.134709
87.764859
98.302960
106.169581
111.876726
108.877420
100.630522
81.287622
66.105723
44.070482
34.107566
20.946860
14.705658
10.334849
8.868575
8.597970
9.052753
8.813739
8.985996
8.703470
9.114742
8.609891
7.373691
8.034706
7.102489
8.354783
7.491708
8.183718
7.768869
7.909536
8.115768
7.419586
8.258820
8.054972
8.403659
7.690787
8.725524
9.342432
8.231997
10.701418
10.084510
10.288954
11.232495
10.575652
12.095571
12.031794
13.951659
13.218522
13.992786
15.080571
17.119646
17.909408
18.898845
21.792650
23.644567
26.797652
26.822686
29.300451
29.703975
28.929710
31.293631
29.280782
31.431913
32.304525
30.657649
30.435920
27.628541
29.964447
29.901862
31.581521
29.802918
30.594468
28.419495
28.054714
30.054450
27.613640
28.187633
27.807951
27.639866
##ZVALUE=245
1.590848
1.653433
1.480579
1.983643
4.676580
22.874475
45.907497
114.709735
198.699832
307.290554
479.052663
603.691936
701.355934
703.302622
634.410977
543.477535
384.848714
287.110806
195.514560
123.803616
97.813606
95.678568
108.221769
125.398636
128.742456
123.153925
113.252997
95.711946
77.044964
53.845644
38.382411
25.609732
16.081929
11.882782
11.169910
10.181665
8.710623
9.860992
9.061694
9.701848
7.762909
9.266734
8.496642
7.919669
8.712411
8.591413
8.742809
7.936954
8.047819
7.945895
8.596778
8.927584
8.020997
8.359551
9.380579
8.677840
8.023977
8.492470
9.165406
9.979606
9.992719
9.785891
10.917783
11.784434
11.995435
13.520718
15.054941
16.685724
15.651584
19.508600
19.093752
21.513700
23.866892
25.644898
25.563836
28.476715
28.500557
28.770566
29.320717
29.205680
28.499961
30.885935
29.051900
28.997660
28.621554
31.032562
27.697682
30.583739
31.907558
29.823780
28.578639
28.757453
28.446913
28.696656
29.621720
28.351545
##ZVALUE=250
1.670718
1.364946
1.357794
1.732707
1.766682
1.798868
3.296733
13.468862
51.151514
103.924870
223.772526
350.395441
483.068824
638.487935
728.939772
766.545534
726.778507
618.722439
505.110621
336.948633
225.233436
150.562525
97.895861
88.715553
100.835562
119.495988
134.711862
137.873888
135.422945
119.506717
107.073784
82.840919
61.194897
37.948489
25.264621
15.987754
11.434555
10.288954
9.099841
7.958412
7.938743
8.530617
7.673502
7.816553
7.743835
7.675886
6.824732
7.487535
6.906986
7.720590
7.284880
7.236600
7.652640
7.540584
7.085800
7.652640
6.842613
8.376837
8.749962
8.849502
9.056926
8.925796
9.230971
10.545850
10.432601
12.039542
11.402965
14.192462
14.516711
15.645623
16.595721
19.039512
20.437837
22.082925
23.090839
23.382902
25.907755
25.499463
25.847554
25.833845
26.884675
26.230812
26.329756
25.989413
27.559996
26.731491
25.964975
28.150678
27.612448
27.954578
27.603507
26.177764
26.932955
28.273463
28.193593
27.355552
##ZVALUE=255
1.399517
1.493692
1.526475
1.735687
1.506805
1.544952
1.759529
2.008677
1.895428
6.201863
34.524798
81.009865
155.080557
311.477780
462.518930
657.781959
772.537589
854.640007
858.647823
758.684874
629.395843
478.859544
292.469859
184.207559
105.558634
84.240437
86.612701
99.937916
123.461485
137.898922
143.804550
142.973661
128.493905
103.585720
82.476735
55.073500
38.747787
22.858977
16.321540
9.982586
7.922649
7.934570
7.297993
7.347465
7.713437
7.051826
7.154942
6.702542
6.705523
6.793737
7.067919
6.809831
7.101893
6.658435
7.000566
6.578565
6.595850
6.681681
7.441640
6.511807
7.684827
8.606911
8.093715
8.612871
9.522438
10.352731
9.728670
11.879802
12.748837
13.573766
14.889836
15.131831
16.626716
18.408895
19.366741
20.241737
20.985603
21.620989
23.030639
22.955537
23.656487
22.799969
23.107529
23.301840
23.981929
24.923682
24.947524
24.793744
25.113821
25.154948
24.988651
24.856925
25.174618
24.659634
25.788546
25.806427
##ZVALUE=260
1.201630
1.112819
1.456738
1.295805
1.469851
1.451969
1.294613
1.308918
1.388788
1.588464
1.830459
2.779961
10.844469
42.338967
93.467832
207.828879
318.482518
478.273630
601.810813
732.465982
775.360465
764.063597
649.220943
525.709987
346.670747
237.401724
143.329501
97.267628
72.507858
78.736544
95.746517
123.171806
138.747692
146.065950
143.239498
127.724409
107.827783
79.624653
59.064627
36.455989
24.972558
14.127493
9.909868
7.235408
6.476641
6.525517
6.439686
6.189942
6.358624
6.049871
6.358624
6.455779
6.674528
5.860925
6.498694
6.141663
6.241798
6.392598
6.614923
6.919503
7.290840
7.002950
7.343888
7.738471
7.954836
8.752942
9.316802
10.370612
11.002421
11.698604
12.506843
13.799667
14.948845
15.840530
16.149879
17.070770
17.977953
18.301606
19.029975
20.454526
20.235777
20.914674
21.371841
20.686984
22.123456
21.670461
22.216439
21.831989
22.786856
23.442507
23.318529
22.992492
23.558736
23.575425
24.461746
24.348497
##ZVALUE=265
1.075864
1.070499
0.967979
1.238585
1.262426
1.141429
1.124740
1.158714
1.181960
1.319647
1.518726
1.516938
1.985431
2.187490
7.091761
38.159490
78.997612
163.697004
263.694525
437.918901
562.736988
678.174496
778.731704
789.978504
701.888800
599.498749
439.967513
315.896869
178.997517
112.021565
75.735450
63.842535
76.675415
104.149580
125.907660
144.975781
147.484541
143.703818
129.532814
103.939772
81.120729
54.271817
37.886500
20.191669
13.688803
8.692741
7.018447
5.803704
6.333590
6.491542
5.835891
6.035566
6.425977
6.582737
6.361604
6.540418
6.436706
6.572604
6.754994
6.846786
7.162690
7.082820
6.941557
8.108616
7.789731
8.741617
9.077787
9.660721
9.997487
10.928512
11.888742
12.361407
13.592839
14.225841
14.718771
15.750527
15.887618
16.436577
17.838478
17.577410
19.222498
19.536614
19.968748
20.287633
19.884706
20.837784
20.614862
21.311641
21.872520
21.231771
21.808743
23.311973
22.476912
22.275448
23.958683
22.474527
##ZVALUE=270
1.114607
0.985861
0.973940
1.122952
1.151562
1.084805
1.158714
1.004934
1.338720
1.258850
1.377463
1.130700
1.471639
1.310706
1.803637
1.506805
2.528429
8.741617
27.234554
83.156824
158.686638
312.917829
447.571874
628.778934
737.934709
800.848007
784.823895
678.555965
563.488007
393.331647
270.325541
143.122673
85.639954
55.989623
56.371689
78.103542
99.174976
127.544999
141.295791
150.064826
144.568682
127.859712
109.019876
79.849958
58.569908
36.790967
23.787618
14.239550
9.195805
7.512569
6.287694
6.432533
6.210804
6.079674
6.226897
6.401539
6.652474
6.521940
7.064939
7.016659
7.063746
7.617474
8.295774
8.114576
8.074641
9.048581
9.392500
9.942651
10.553598
11.805892
12.402534
12.482405
12.949705
14.354587
14.586449
16.004443
16.498566
15.704632
16.476512
17.547607
17.365813
19.032955
19.192696
18.099546
19.265413
19.548535
20.473599
20.323992
20.528436
20.692945
20.206571
20.510554
20.595789
21.089911
21.045804
22.150874
##ZVALUE=275
0.825524
0.886917
0.915527
0.984669
0.907779
0.939965
1.016855
1.035929
0.993609
1.151562
1.130700
1.339912
1.310706
1.035929
1.225471
1.320839
1.412630
1.597404
1.767874
4.613400
18.164515
49.492717
131.547451
232.023597
410.136580
546.460748
704.107881
792.101026
826.873779
778.321624
683.580637
503.842831
357.764959
192.746520
112.900734
56.608915
43.541789
55.494905
73.762536
100.388527
121.944547
140.034556
146.412849
142.924786
128.920674
102.911592
81.871748
57.487488
39.781928
23.595691
15.520453
10.167956
7.856488
6.897449
6.342530
6.990433
7.240772
7.316470
7.169843
7.579923
7.984638
8.141994
8.141994
8.436441
9.192824
8.880496
9.250641
10.062456
10.782480
11.317730
11.873841
13.345480
13.608932
13.607740
14.467835
15.375614
16.226768
15.966892
16.189814
17.040968
17.024875
17.984509
18.075705
18.027425
19.171834
19.048452
19.873977
19.497871
20.226836
19.534826
19.926429
19.626617
21.114945
20.244718
20.610690
19.955635
##ZVALUE=280
1.051426
0.901818
0.916719
0.910759
1.025796
0.880957
0.945926
0.956655
1.101494
0.968575
0.844598
0.908971
1.200438
1.070499
1.370907
1.212955
1.340508
1.294613
1.479983
1.554489
1.513958
2.220869
10.418892
35.441518
104.086995
181.993842
327.338576
462.432504
646.085739
756.274462
811.222792
815.685987
737.611651
563.422441
422.831774
241.462588
147.592425
69.140792
41.741729
39.019585
50.449967
75.943470
96.375942
123.214722
138.281584
142.670870
138.406754
122.166872
106.048584
77.485442
56.816936
35.977960
24.703741
14.747977
10.165572
7.641912
7.305741
7.073879
7.347465
8.044839
7.524490
8.529425
8.632541
8.755922
9.592772
10.012984
10.462999
10.742545
11.120439
11.843443
12.335777
12.682676
13.207793
14.459491
14.946461
15.631914
16.044974
16.629696
17.045736
16.357899
17.073750
17.629862
17.859936
18.703938
18.494725
18.677711
18.951893
19.692779
19.274950
19.625425
19.055605
19.451976
19.266605
19.567609
19.090772
19.678473
##ZVALUE=285
0.932813
0.812411
0.853539
0.937581
0.834465
0.782609
0.912547
0.895858
0.843406
0.820756
0.889897
0.801682
0.994802
1.097918
0.960827
1.233816
1.083612
1.379848
1.217723
1.339912
1.314878
1.349449
1.602769
1.826882
4.439950
16.990900
56.544542
115.968585
244.169831
368.863940
546.597838
681.882501
789.901018
838.165879
792.027712
649.217963
508.119464
325.466990
204.009414
97.513795
52.874684
30.490756
32.775998
50.021410
67.517757
96.974969
113.954544
131.922960
140.501857
135.082603
126.179457
103.446841
83.776712
57.802796
40.693879
23.837686
16.756654
10.836720
8.485913
8.257627
7.871985
8.203983
8.936524
9.367466
9.675622
9.708405
10.732412
11.012554
11.665821
11.842847
12.592673
13.729930
13.716817
14.910698
15.028715
15.992522
16.523600
16.798973
17.052889
17.244816
17.853975
18.369555
18.434525
18.088818
18.708706
19.481778
19.177794
19.840598
19.503832
19.041896
19.690990
19.081831
19.292831
19.568801
19.214749
19.088984
##ZVALUE=290
0.764728
0.725985
0.800490
0.726581
0.925660
0.807643
0.846982
0.935793
0.775456
0.958443
0.843406
0.995994
1.038909
1.038909
1.017451
1.137853
1.063943
1.287460
1.082420
1.098514
1.062751
1.166463
1.178980
1.368523
1.499653
1.599789
2.255440
6.824732
32.269955
73.537827
141.731501
285.881758
429.835916
624.246597
748.506784
834.955573
824.195743
711.737871
584.889650
396.970510
264.421701
133.261681
72.510839
31.516552
22.984743
31.546950
44.992566
66.267848
86.055994
111.485720
125.366449
133.648515
131.226778
119.490623
103.846788
76.844692
57.404637
37.705898
26.577711
17.029643
12.472868
9.661913
9.095669
9.493828
9.553432
10.156631
10.329485
11.355877
11.748672
12.294650
12.823939
13.852715
14.326572
15.176535
15.422702
16.118884
17.012954
17.216802
17.289519
17.574430
17.901659
18.395782
18.641949
19.191504
18.772483
19.489527
18.491745
20.078421
18.678904
19.138455
19.666553
18.534660
18.974543
19.295812
19.043684
19.326806
##ZVALUE=295
0.744462
0.738502
0.728965
0.871420
0.845790
0.685453
0.865459
0.863671
0.906587
0.970960
0.950694
0.827909
0.906587
0.806451
0.829697
0.826716
0.989437
0.966787
0.964999
0.950694
1.060963
1.130700
1.091957
1.315475
1.408458
1.312494
1.661777
1.598597
1.626611
2.995729
10.221601
44.396520
98.129511
225.047469
353.330970
547.954440
680.534840
804.688931
832.707882
767.236948
656.935573
472.271442
329.726934
177.591443
99.709630
37.928820
21.798611
19.019842
27.127862
43.713450
60.435534
84.571838
102.400780
119.932890
129.785538
126.279593
116.184950
95.275640
77.488422
55.047870
40.148497
26.107430
18.782616
13.659596
11.297464
10.779500
10.914803
11.535883
12.137890
13.002753
13.492703
14.094710
14.418960
15.371442
15.792847
16.617775
16.731620
17.161965
17.761588
18.466711
18.357635
19.350648
18.589497
19.190907
19.838810
19.740462
19.632578
19.407868
19.610524
19.685626
19.776821
19.541979
19.595623
19.148588
19.620657
19.037724
##ZVALUE=300
0.750422
0.758767
0.701547
0.823736
0.721812
0.774860
0.712872
0.916719
0.928640
0.800490
0.847578
0.673532
0.816584
0.837445
0.810623
0.825524
0.788569
0.884533
0.913739
1.009703
1.037717
1.141429
0.907779
1.068711
1.074672
1.231432
1.312494
1.337528
1.323819
1.365542
1.463890
1.933575
4.370809
26.575923
66.717863
160.411596
269.207954
453.264713
593.303442
751.200914
814.555883
797.953010
719.185472
544.893742
403.958559
230.705738
138.063431
61.475635
30.320883
15.187860
16.235709
24.853945
36.513805
56.508780
74.618459
99.677444
113.190413
123.874545
124.213696
112.583637
97.891688
75.406432
59.467554
41.191578
29.214621
19.174814
15.503764
13.751984
12.531877
13.367534
13.442636
14.474988
15.307665
15.434623
15.920997
16.793609
17.285943
17.556548
18.340945
18.579960
18.837452
19.369721
19.693971
19.844770
20.529628
20.394921
20.649433
20.647645
20.118952
20.140409
20.054579
20.027757
19.622445
19.652843
19.467473
19.243956
##ZVALUE=305
0.767708
0.664592
0.715852
0.795722
0.644922
0.726581
0.778437
0.764728
0.681877
0.709891
0.740886
0.785589
0.724792
0.744462
0.814795
0.692606
0.750422
0.891685
0.874996
0.833869
0.839829
0.919700
0.956655
0.994802
1.021624
1.049638
0.952482
1.176000
1.134872
1.094937
1.151562
1.400709
1.365542
1.679659
3.316998
12.622476
50.475597
106.782913
232.894421
355.708003
540.233850
675.673485
790.194869
817.930698
747.670531
636.169910
456.928611
326.283574
177.423954
95.772743
38.347840
18.285513
12.416840
14.725924
23.848414
35.799742
55.870414
72.751641
93.012452
107.035637
117.973685
117.627978
108.361840
96.618533
73.208809
58.470964
40.566921
30.592680
20.311475
17.019510
14.939904
14.592409
15.287995
16.098619
15.982985
17.230511
17.847419
18.582940
19.159913
18.962622
19.970536
20.229816
20.430684
20.975471
20.583868
21.317601
21.222830
21.050572
21.100640
20.636916
20.857453
20.497441
20.511746
20.216703
20.214915
21.038651
##ZVALUE=310
0.630617
0.610948
0.683665
0.650883
0.740886
0.783801
0.630617
0.765920
0.801682
0.871420
0.675917
0.657439
0.747442
0.841618
0.773668
0.831485
0.889897
0.862479
0.814795
0.928640
0.769496
0.908971
1.043677
0.973940
1.060963
0.973940
0.945926
0.942945
1.145601
1.015663
1.075864
1.027584
1.387596
1.297593
1.368523
1.518726
1.677871
6.201863
21.568537
70.747733
138.074756
281.483531
420.123935
606.150627
724.158883
806.788802
798.695683
696.097016
577.154756
390.571952
262.186527
132.080913
72.256923
27.901530
14.044642
11.069775
13.613701
21.926761
31.711459
49.721599
65.584779
87.058544
100.315809
111.385584
113.117695
105.865598
94.193816
74.941516
59.628487
42.088628
32.226443
24.256706
20.284653
17.509460
16.962886
17.665625
17.459989
18.731952
18.908978
19.302964
20.537972
20.324588
20.466447
21.165609
21.282434
21.489859
21.565557
21.768808
21.311641
21.658540
21.155477
21.453500
20.909905
21.031499
21.059513
20.575523
##ZVALUE=315
0.675917
0.746846
0.705719
0.645518
0.657439
0.777841
0.720620
0.843406
0.599623
0.675917
0.757575
0.709891
0.633597
0.632405
0.669956
0.755787
0.689626
0.756979
0.876784
0.768900
0.789762
0.889897
0.960827
0.857711
0.864863
0.845790
0.962615
0.989437
0.981688
1.037717
1.028776
1.013875
1.187921
1.024604
1.306534
1.118779
1.238585
1.306534
1.441836
2.879500
10.586977
45.290589
97.626448
216.215849
345.306993
545.790792
668.692589
776.922703
801.371932
737.587810
634.734631
453.986526
323.497653
175.299644
95.851421
37.409663
17.482638
10.057688
10.683537
14.420748
19.778609
32.128692
44.878721
64.266920
80.486536
97.787976
105.240941
107.932687
102.429986
87.565780
74.945688
58.139563
44.614673
32.342672
25.672913
21.035671
19.546747
18.788576
19.215941
19.657612
20.157695
20.902753
21.338463
21.377802
21.395683
21.771789
21.913648
22.428632
22.778511
22.339821
21.669865
21.904707
21.926761
21.590590
20.963550
21.308661
##ZVALUE=320
0.668764
0.736713
0.554919
0.638962
0.735521
0.612736
0.714660
0.690818
0.652671
0.718832
0.595450
0.663996
0.739694
0.642538
0.657439
0.794530
0.701547
0.657439
0.933409
0.838637
0.928640
0.782609
0.824928
0.876784
0.906587
0.993609
0.882745
0.847578
0.874996
0.833869
0.594854
1.054406
0.840425
1.214743
0.945926
0.987649
1.150966
1.101494
1.188517
1.274943
1.632571
1.969934
4.718900
24.934411
63.383579
161.226988
261.795521
430.012941
566.196442
719.199777
785.430670
771.916509
696.007013
539.167523
397.176743
222.219825
129.341483
57.352781
27.107596
11.816621
9.218454
10.165572
12.795925
19.560456
27.934909
44.777989
57.997704
76.866746
91.686845
102.748871
105.427504
99.435449
89.422464
72.531700
59.322715
43.129921
35.187602
26.735663
23.338795
20.807981
20.698905
21.141768
21.084547
21.410584
21.716952
21.845698
22.304654
22.104979
21.537542
22.323728
21.970868
21.901727
21.995902
21.635890
21.634698
21.586418
##ZVALUE=325
0.644922
0.800490
0.852942
0.577569
0.650883
0.762939
0.730753
0.622869
0.587702
0.734925
0.620484
0.680685
0.578761
0.608563
0.782609
0.857711
0.805855
0.869632
0.689626
0.753999
0.926852
0.849962
0.721812
0.728965
0.734925
0.797510
0.906587
0.711679
0.751615
0.839829
0.947714
1.039505
1.020432
1.000762
1.007915
0.884533
1.060963
1.051426
1.172423
1.314878
1.211762
1.335740
1.321435
1.600981
3.249645
11.871457
46.872497
97.099543
211.103559
337.240696
523.723960
642.426014
753.313899
778.938532
709.968805
600.585938
416.752696
293.175578
160.140991
89.151859
35.225749
17.038584
9.632707
9.455681
10.967851
13.254881
19.642711
27.655959
43.904781
58.109760
76.796412
89.484453
97.991824
99.873543
94.046593
85.274577
70.032477
57.381988
42.269826
34.568906
27.466416
24.011731
22.629499
21.795630
22.239685
21.366477
22.253990
22.258759
21.824837
22.270679
21.735430
21.311641
21.169782
21.344423
21.110773
20.891428
##ZVALUE=330
0.444651
0.511408
0.453591
0.563860
0.540614
0.548959
0.587702
0.658631
0.637770
0.649691
0.491738
0.655651
0.770688
0.570416
0.666976
0.646710
0.549555
0.633597
0.737906
0.601411
0.619888
0.753999
0.599623
0.712872
0.486970
0.616908
0.635982
0.560880
0.708699
0.747442
0.785589
0.781417
0.881553
0.766516
0.843406
0.768900
0.903606
0.731945
0.895858
1.007915
0.983477
1.066923
1.192689
1.176000
1.234412
1.254678
1.672506
6.758571
21.615624
74.349642
141.650438
277.556777
404.765606
582.577586
689.201951
754.192472
731.531978
620.929003
503.475666
328.338742
214.530826
103.392601
54.747462
22.414923
11.966825
9.491444
9.820461
11.410713
14.061928
20.598769
28.397441
42.339563
54.477453
72.672963
84.219575
92.735887
95.185637
90.094805
81.680417
66.151619
54.924488
41.973591
34.570694
28.457642
24.808645
23.079515
21.835566
21.753907
21.381974
20.715594
20.950437
21.350980
20.697713
20.731688
20.805597
20.522475
##ZVALUE=335
0.597835
0.489950
0.466704
0.720620
0.653863
0.771880
0.724792
0.666976
0.725985
0.600815
0.705719
0.532866
0.598431
0.474453
0.541806
0.711679
0.803471
0.695586
0.589490
0.504851
0.689626
0.936985
0.723600
0.921488
0.695586
0.827909
0.903606
0.790954
0.626445
0.744462
0.735521
0.902414
0.766516
0.704527
0.884533
0.877976
0.962615
0.889897
0.910759
0.952482
0.932813
0.960827
1.177788
1.212955
1.079440
1.262426
1.233816
1.330972
1.492500
3.077984
10.895729
44.623613
94.481707
209.209919
330.948830
513.507724
629.649758
726.560950
734.738708
659.810901
553.041697
381.482840
262.552500
142.438412
77.995658
30.488968
15.620589
9.581447
9.786487
10.440946
11.815429
15.099645
19.928813
29.854774
39.628744
56.093931
68.034530
81.808567
88.919997
90.984702
86.758733
76.357722
66.919923
53.987503
44.785738
34.545660
29.187799
24.761558
22.746921
21.111965
20.910501
20.377636
20.486712
19.650459
20.106435
19.944906
##ZVALUE=340
0.595450
0.552535
0.527501
0.557899
0.716448
0.668764
0.604987
0.607967
0.721812
0.816584
0.599623
0.584722
0.625849
0.623465
0.586510
0.649691
0.646710
0.628829
0.649691
0.695586
0.686646
0.687838
0.751615
0.816584
0.845790
0.878572
0.483990
0.745654
0.825524
0.918508
0.814795
0.802875
0.885725
0.849962
0.737906
0.668764
0.735521
0.861883
0.747442
0.912547
0.844598
0.965595
0.882745
0.956655
0.910759
1.098514
1.034737
1.170635
1.230836
1.135468
1.479983
1.763701
6.917715
22.659898
73.317885
144.233704
290.934443
412.911773
567.582846
662.132502
715.220571
690.435767
576.190948
458.300710
291.986465
183.705688
89.319944
46.325922
17.435551
10.780692
9.967685
10.336637
11.026859
12.125969
15.490651
19.665956
28.681755
38.120747
52.996874
65.698624
77.919960
84.292889
86.301565
82.852840
75.520873
65.266490
52.642822
43.918490
33.698678
28.103590
23.578405
21.511912
20.232797
19.317865
19.073486
18.932819
##ZVALUE=345
0.573993
0.615716
0.559688
0.521541
0.594854
0.594854
0.667572
0.604987
0.635982
0.491738
0.613928
0.617504
0.697970
0.631809
0.568628
0.491738
0.656843
0.476837
0.647902
0.578761
0.587702
0.704527
0.713468
0.614524
0.640750
0.702739
0.669956
0.776649
0.661612
0.678897
0.559688
0.667572
0.786781
0.845790
0.698566
0.619888
0.923872
0.742674
0.932813
0.774860
0.917912
0.880957
0.732541
0.811815
0.880957
0.899434
1.013875
0.983477
0.923872
1.057982
1.072884
1.262426
1.332760
1.544952
2.545714
14.428496
41.227937
108.734965
192.020535
344.254971
467.305779
614.800453
679.898858
687.296987
631.572008
484.556556
364.445448
219.395757
126.990676
52.521825
26.722550
13.090968
10.458827
10.392666
10.765791
11.775494
12.472868
15.328526
19.475818
28.178692
36.581755
49.864650
60.361624
70.309639
77.180862
80.441833
78.081489
71.495771
62.865615
50.847530
42.365789
32.286644
26.526451
22.135973
20.067692
19.066930
##ZVALUE=350
0.727773
0.806451
0.566840
0.645518
0.492930
0.504851
0.467896
0.542998
0.528693
0.552535
0.607967
0.550747
0.643730
0.513792
0.585914
0.593662
0.571609
0.541806
0.661612
0.700951
0.727773
0.692606
0.741482
0.614524
0.632405
0.683665
0.680685
0.687838
0.580549
0.700951
0.724792
0.775456
0.662804
0.783801
0.671744
0.717640
0.879765
0.911951
0.769496
0.868440
0.792742
0.758767
0.892878
0.816584
0.771880
0.867844
0.881553
1.093745
0.885725
0.919700
1.040697
1.150966
1.220703
1.228452
1.199841
1.280904
1.988411
5.612969
25.828481
60.789585
147.938728
246.455669
403.771996
520.135760
639.386773
679.814816
636.392832
548.845530
387.127995
264.418721
136.207938
77.615976
33.627748
16.580820
10.167956
9.686947
10.065436
10.397434
11.136532
12.624860
15.097857
18.431544
25.617480
32.379627
44.289827
53.204894
64.346790
70.889592
73.837638
72.323680
65.777898
59.011579
47.673583
39.482713
30.678511
25.607944
##ZVALUE=355
0.526905
0.558496
0.521541
0.517964
0.579953
0.562668
0.560880
0.622869
0.625849
0.472665
0.555515
0.599623
0.622869
0.472665
0.535846
0.656843
0.420809
0.723600
0.558496
0.646710
0.646710
0.713468
0.662804
0.502467
0.603795
0.675917
0.625849
0.591874
0.562668
0.809431
0.666976
0.634789
0.585914
0.667572
0.608563
0.594854
0.704527
0.693798
0.702739
0.663996
0.661612
0.687838
0.737906
0.790954
0.780821
0.715852
0.788569
0.704527
0.854731
0.903606
0.937581
0.797510
0.778437
0.948906
1.035929
0.964999
1.217723
1.185536
1.361966
3.474951
12.106895
48.329830
98.590851
205.467939
319.028497
484.060645
584.466457
656.113029
651.721954
558.406711
451.143980
304.063559
194.970965
90.137720
46.112537
17.858744
10.915995
9.255409
9.521842
9.828806
9.807944
10.784864
11.982918
14.032722
16.422868
22.549629
29.165745
38.542747
46.771765
56.906939
62.590837
66.045523
65.442920
60.218573
53.741932
44.835806
##ZVALUE=360
0.586510
0.520945
0.655651
0.646710
0.653863
0.549555
0.534654
0.576973
0.607967
0.641942
0.574589
0.700951
0.607967
0.571609
0.564456
0.582933
0.676513
0.533462
0.584722
0.653863
0.666976
0.690818
0.612736
0.633597
0.726581
0.632405
0.653863
0.672936
0.657439
0.644922
0.646710
0.780821
0.711679
0.772476
0.627637
0.838637
0.658631
0.732541
0.696778
0.824928
0.714660
0.706911
0.797510
0.874996
0.791550
0.788569
0.798702
0.768900
0.771880
0.752807
0.966787
0.780821
0.865459
1.122952
1.004934
1.127720
1.052618
1.202822
1.238585
1.309514
1.608729
1.671910
18.376708
25.773644
59.123635
237.175822
271.809697
382.548571
534.357429
614.979863
643.949509
603.859425
483.405590
265.357494
231.301785
85.266829
62.121749
27.017593
13.629794
8.644462
8.765459
9.194613
9.388924
9.797812
9.944439
11.611581
12.182593
17.834902
18.611550
31.139851
32.354593
43.556690
48.203468
55.310726
59.868693
60.467720
##ZVALUE=365
0.571609
0.515580
0.585914
0.583529
0.453591
0.440478
0.589490
0.677705
0.598431
0.644922
0.551939
0.575781
0.579953
0.593662
0.589490
0.725985
0.567436
0.686646
0.666976
0.602603
0.685453
0.591874
0.673532
0.516772
0.645518
0.697970
0.846982
0.637770
0.699759
0.615716
0.616908
0.627637
0.757575
0.664592
0.566840
0.739694
0.791550
0.674725
0.684857
0.822544
0.719428
0.738502
0.768900
0.897646
0.781417
0.667572
0.759959
0.815988
0.819564
0.829697
0.857711
0.869632
0.835657
0.870824
0.874996
0.833869
0.940561
0.948906
1.090765
1.120567
1.238585
1.159906
1.285672
1.510978
3.078580
10.204911
39.678812
88.726878
200.382471
314.335823
466.550589
555.729866
618.643761
612.453818
521.900654
421.887636
273.677707
172.944665
79.154968
40.328503
15.134811
9.522438
8.023977
8.289814
8.248687
8.232594
9.054542
9.017587
9.542704
10.535717
12.530684
15.396476
21.157861
27.200580
35.627484
41.536689
##ZVALUE=370
0.653863
0.678897
0.677705
0.617504
0.602603
0.329614
0.533462
0.635982
0.701547
0.668764
0.632405
0.617504
0.585914
0.621676
0.593662
0.555515
0.678897
0.626445
0.685453
0.700951
0.431538
0.569820
0.604987
0.577569
0.836849
0.639558
0.761747
0.656843
0.586510
0.670552
0.688434
0.671744
0.651479
0.553727
0.515580
0.679493
0.635982
0.586510
0.653863
0.738502
0.726581
0.700951
0.817776
0.766516
0.772476
0.764728
0.698566
0.739694
0.770688
0.752807
0.784993
0.715852
0.791550
0.672936
0.773668
0.698566
0.753999
0.921488
0.780821
0.926852
1.077652
1.063943
0.992417
1.116991
1.265407
1.382828
1.679659
7.124543
22.938848
72.695613
137.208700
259.968638
372.794867
515.514612
585.756898
604.759455
556.339622
441.702604
332.342982
193.550587
112.835765
47.980547
23.843646
10.542870
7.653832
7.293820
7.287860
7.408857
7.820725
8.119941
8.170605
8.687973
9.358525
11.109710
13.492703
18.199682
##ZVALUE=375
0.594854
0.539422
0.598431
0.477433
0.476837
0.513792
0.570416
0.576973
0.595450
0.720620
0.622869
0.406504
0.477433
0.501871
0.591874
0.530481
0.642538
0.628829
0.540614
0.594854
0.665784
0.603795
0.671744
0.536442
0.561476
0.571609
0.430942
0.728965
0.708699
0.742674
0.565648
0.586510
0.719428
0.698566
0.741482
0.752807
0.625849
0.532866
0.648499
0.612736
0.755787
0.807643
0.855923
0.778437
0.633597
0.790954
0.792742
0.640750
0.750422
0.679493
0.648499
0.801682
0.559688
0.664592
0.754595
0.768900
0.742674
0.839829
0.970960
0.798702
0.749826
0.881553
0.916719
0.909567
1.030564
1.192689
1.176000
1.224875
1.472831
3.385544
12.477636
46.966672
101.127625
215.731859
320.195556
458.474755
547.772646
604.007840
584.592819
486.328602
381.235480
236.092806
151.599646
77.910423
41.044950
15.549660
8.642673
6.675720
6.901622
6.970763
6.997585
7.212758
7.434487
7.865429
7.857680
8.699894
##ZVALUE=380
0.579953
0.440478
0.437498
0.597835
0.489950
0.666976
0.616908
0.566840
0.495911
0.753999
0.591874
0.636578
0.499487
0.674725
0.354648
0.666976
0.421405
0.605583
0.464916
0.604987
0.498891
0.671744
0.646710
0.624657
0.534654
0.574589
0.525713
0.551939
0.488758
0.533462
0.562668
0.659823
0.543594
0.568628
0.602603
0.679493
0.861883
0.588894
0.724792
0.622869
0.626445
0.616908
0.572801
0.705719
0.478625
0.774860
0.702739
0.693798
0.561476
0.630617
0.803471
0.518560
0.712872
0.628829
0.742674
0.795722
0.922680
0.848770
0.769496
0.809431
0.863671
0.737906
0.771880
0.777841
0.782609
0.883937
0.927448
0.930429
1.176000
1.169443
1.373887
2.119541
6.474853
31.165481
72.886944
167.832971
266.463757
409.369469
511.731505
592.249632
592.984557
512.243509
422.526598
296.475887
202.638507
102.876425
54.448843
21.281838
10.661483
6.464720
6.286502
6.325841
6.443858
6.689429
6.680489
6.707907
##ZVALUE=385
0.555515
0.639558
0.632405
0.600815
0.540614
0.556707
0.634789
0.608563
0.567436
0.508428
0.655651
0.363588
0.540614
0.368953
0.504851
0.585914
0.591874
0.514984
0.609756
0.637770
0.588894
0.603795
0.615716
0.574589
0.765920
0.677705
0.556707
0.571609
0.644922
0.669956
0.654459
0.604987
0.637770
0.692606
0.729561
0.750422
0.715852
0.681877
0.714660
0.792742
0.513792
0.545979
0.565648
0.519753
0.595450
0.691414
0.682473
0.537634
0.541806
0.704527
0.693798
0.665784
0.510812
0.813603
0.799894
0.724792
0.625849
0.727773
0.711679
0.655651
0.606775
0.733733
0.864863
0.830889
0.755787
0.752807
0.858903
0.985861
1.000762
1.022816
1.172423
1.278520
1.270771
1.631975
3.360510
17.637610
45.464635
114.910603
199.778676
345.822573
454.347730
561.722517
589.515567
555.532575
484.805703
356.017947
255.459547
142.929554
82.279444
35.549998
16.502738
6.878972
5.908608
5.805492
5.897880
6.058812
##ZVALUE=390
0.552535
0.593662
0.631809
0.544786
0.655651
0.741482
0.593662
0.532866
0.643730
0.604987
0.512600
0.572801
0.617504
0.541806
0.492930
0.583529
0.620484
0.518560
0.501871
0.512600
0.609756
0.615716
0.624657
0.579953
0.632405
0.778437
0.707507
0.643730
0.673532
0.642538
0.740886
0.742674
0.740886
0.684857
0.746846
0.665784
0.645518
0.754595
0.761747
0.887513
0.698566
0.807643
0.603795
0.722408
0.782609
0.670552
0.734925
0.617504
0.636578
0.693798
0.669956
0.642538
0.665784
0.758767
0.582933
0.865459
0.797510
0.657439
0.757575
0.771880
0.806451
0.913739
0.864863
0.976920
0.951886
0.993609
0.871420
0.924468
0.907779
1.051426
1.134872
0.894666
1.160502
1.259446
1.143813
1.240969
2.001524
8.938909
28.185844
87.691545
164.733529
304.015875
409.234762
523.991585
581.783652
592.957735
544.621944
430.619717
329.792500
205.011964
121.415854
52.767992
25.752783
9.223819
5.860925
5.579591
##ZVALUE=395
0.632405
0.583529
0.446439
0.549555
0.543594
0.482798
0.430942
0.591874
0.555515
0.559688
0.540614
0.460744
0.328422
0.540614
0.582933
0.500679
0.506639
0.747442
0.639558
0.666976
0.466704
0.406504
0.600815
0.606775
0.510812
0.465512
0.676513
0.564456
0.595450
0.613928
0.656843
0.782609
0.751615
0.658631
0.607967
0.509620
0.539422
0.705719
0.515580
0.475645
0.653863
0.603795
0.595450
0.603795
0.581741
0.526905
0.601411
0.713468
0.758767
0.695586
0.692606
0.542998
0.551939
0.727773
0.577569
0.554919
0.601411
0.710487
0.667572
0.567436
0.640750
0.827909
0.688434
0.816584
0.721812
0.797510
0.709891
0.877976
0.927448
1.044869
1.010895
0.944734
0.986457
1.033545
1.082420
1.158714
1.101494
1.083612
1.362562
5.090833
18.300414
63.118935
120.423436
224.591494
332.791805
475.848913
560.323000
610.322952
591.595769
501.769781
394.714475
246.354938
155.909657
70.682764
34.847856
13.315678
##ZVALUE=400
0.454783
0.447631
0.526905
0.404716
0.630617
0.443459
0.582933
0.704527
0.496507
0.522733
0.571609
0.555515
0.461936
0.388622
0.536442
0.533462
0.510812
0.535846
0.551939
0.581741
0.636578
0.470877
0.596642
0.688434
0.530481
0.609756
0.578761
0.693798
0.557899
0.501871
0.542998
0.683665
0.475645
0.663996
0.528693
0.662804
0.732541
0.668764
0.519753
0.591874
0.528693
0.614524
0.495911
0.640750
0.611544
0.464916
0.613928
0.700951
0.454783
0.668764
0.739694
0.644922
0.807643
0.694990
0.714660
0.569820
0.635982
0.550747
0.666976
0.593662
0.745654
0.698566
0.627637
0.705719
0.725985
0.694990
0.758767
0.853539
0.879765
0.878572
0.971556
1.112819
1.051426
1.011491
0.913739
0.980496
1.070499
1.018643
0.996590
1.016855
1.247525
2.654791
9.328723
34.383535
75.151920
167.391896
265.471935
407.769680
501.814485
575.526953
585.524440
514.481664
424.048901
285.858512
189.791918
98.784566
##END
