##TITLE=AAI0851
##FORMAT=SPECTACLE-ASCII V-1.2
##DATA TYPE=ULTRAVIOLET SPECTRUM
##SECOND TYPE=ULTRAVIOLET SPECTRUM
##DATE=02/28/18
##TIME=17:45:20
##SPECTROMETER/DATA SYSTEM=SPECTACLE
##XUNITS=NM EM
##YUNITS=ENERGY
##YFACTOR=1
##FIRSTX=220
##LASTX=410
##NPOINTS=96
##3DDATA=Equidistant
##ZUNITS=NM EX
##FIRSTZ=210
##LASTZ=400
##ZPOINTS=39
##XYDATA=(Y..Y)
##ZVALUE=210
4.304647
4.598498
4.975796
4.052520
4.251599
4.283786
4.651546
3.956556
2.887845
3.570914
2.626777
2.723932
2.322793
3.111959
2.346635
2.449751
3.084540
2.872944
2.653599
3.120899
4.406571
3.226995
3.311634
3.662705
3.545880
3.435612
3.593564
4.658699
3.354549
4.467964
4.921556
5.116463
5.311966
3.935695
5.519986
5.274415
4.957914
5.750656
5.186796
4.831553
5.783439
5.237460
5.091429
6.168485
6.615520
5.456805
6.173849
6.329417
6.452799
5.864501
6.373525
6.195903
6.758571
6.388426
7.069707
6.979704
6.696582
6.157756
6.777644
7.060766
6.839633
6.414652
6.753802
7.035732
6.532669
6.990433
8.156896
9.762645
9.210706
10.832548
12.032986
16.143918
16.094446
19.113421
20.629764
20.793676
22.172928
20.905733
19.249916
19.327998
16.807914
14.955997
13.785958
12.382865
10.597706
8.927584
8.846521
8.576512
7.140636
6.374717
7.303953
7.604957
7.420778
8.078814
7.188916
7.463694
##ZVALUE=215
12.483597
12.540817
11.807680
8.767843
8.449554
7.669926
7.766485
7.606745
7.590652
8.120537
7.361770
5.769730
4.589558
3.657937
3.638864
3.335476
3.000498
3.029704
3.500581
2.903938
3.521442
3.614426
3.900528
4.257560
4.234910
4.548430
4.194975
3.945827
4.917979
4.461408
4.176497
5.037785
5.386472
5.755424
5.119443
4.255772
4.782677
4.614592
5.726814
6.085634
5.897880
5.216599
5.905628
5.021691
6.045699
5.856752
7.138848
6.010532
5.527735
6.437898
6.808639
6.466508
6.393790
6.144643
6.190538
6.320477
7.290840
7.283688
6.511807
5.599856
6.285906
7.385612
6.418824
6.634593
6.794930
6.657839
6.867647
7.936954
9.404421
11.350513
12.235641
14.174581
16.280413
16.623735
17.087460
19.733906
20.287633
18.991828
18.270612
16.523600
16.658902
14.432669
12.769699
11.141896
9.575486
8.374453
7.814765
7.201433
6.098747
6.219745
6.581545
5.851984
6.609559
6.242990
5.434752
7.122755
##ZVALUE=220
30.679703
33.997893
36.163926
34.112930
32.398701
25.366545
21.795630
17.908812
16.300678
15.716553
16.145706
16.214848
14.385581
13.482571
11.599660
8.458495
6.320477
6.025434
4.624724
3.173947
3.465414
3.667474
4.104972
3.928542
3.914833
4.057884
4.242659
4.784465
4.616976
4.273653
5.352497
5.651712
4.404783
5.223751
5.213618
6.074905
6.325841
6.115437
6.148815
5.823970
5.669594
5.809665
6.795526
6.139874
5.914569
5.701780
6.926656
5.910993
6.737709
6.165504
7.264614
7.269979
6.524920
6.552935
6.844997
6.474853
7.050633
6.657839
7.346869
7.265806
6.912947
7.164478
6.611943
7.733703
6.824732
6.727576
6.767511
8.064508
8.483529
9.340644
10.710955
12.838840
14.835000
17.235875
17.325878
18.120408
17.450452
17.416477
16.147494
16.077757
14.870763
12.584925
11.964440
11.914968
9.845495
8.405447
8.676648
7.553697
7.386804
8.303523
6.521940
7.497668
5.978942
6.008744
6.055832
6.630421
##ZVALUE=225
48.878789
53.275824
66.477656
82.647800
85.689425
88.231564
79.386830
64.056516
50.191879
41.322708
31.446815
29.672980
30.151606
28.297901
32.474995
27.186871
23.978949
18.554926
13.867617
9.863973
7.138848
4.352927
4.974604
4.613996
4.619956
3.822446
4.376769
4.590750
6.341934
4.936457
5.079508
5.328655
5.799532
5.542636
6.254911
6.422997
6.973743
6.596446
6.867647
6.747842
6.298423
5.856752
6.547570
6.531477
6.520748
7.033944
6.778836
6.905794
6.270409
6.527901
8.091927
7.321835
6.766915
6.506443
7.615685
6.957650
6.686449
7.227659
7.616878
7.150769
6.524920
6.641746
8.347631
7.105470
7.754564
8.158684
9.176731
10.527968
9.527802
11.622906
13.304949
12.431741
14.624000
14.602542
17.174482
15.970469
16.774535
15.669465
15.426874
14.114976
13.496876
11.705756
10.043979
10.144711
9.141564
9.006858
7.524490
7.147789
6.264448
7.433891
7.044673
6.465912
6.057620
6.378889
6.437898
6.574988
##ZVALUE=230
39.835572
43.049455
67.707896
111.586452
143.932700
181.925893
190.195441
186.638832
173.517466
139.205456
98.493695
73.228478
53.991675
48.193932
50.567985
54.333806
54.951906
53.479671
44.815540
36.197901
30.663610
17.805696
12.272596
8.427501
6.752610
5.959868
4.763603
6.000996
5.550981
6.167889
6.524920
5.910993
5.624890
6.252527
6.765723
6.196499
6.410480
6.804466
6.658435
7.097721
6.280541
6.289482
6.425977
7.890463
7.112622
7.236600
6.635785
7.561445
7.089972
6.718636
6.591678
6.796718
6.810427
7.594824
7.702708
6.602407
7.183552
7.252693
7.409453
8.041859
7.338524
8.454919
7.490516
7.494688
8.411407
7.155538
8.496642
9.203553
10.922551
11.689663
12.266636
14.696717
15.134811
16.038418
16.284585
17.635822
17.692447
16.918778
13.920665
14.898777
12.933612
12.000799
11.438727
9.686947
9.631515
9.508729
9.066463
8.362532
8.066893
7.322431
7.522702
7.717609
6.000996
6.963611
6.972551
7.506609
##ZVALUE=235
12.977719
15.090704
31.385422
72.064996
118.776560
183.798671
243.980885
313.125849
343.414545
343.804955
310.104489
254.459977
172.676444
125.143528
90.985894
78.620911
75.678825
80.977678
83.163977
84.992647
79.306960
69.908500
55.244565
35.988688
24.721622
16.213655
12.245774
7.685423
7.633567
6.359816
6.865859
6.806850
6.663799
7.231832
7.313490
7.005930
7.458925
7.434487
7.295609
6.671548
6.943941
7.430911
7.349849
8.225441
7.001758
6.208420
7.045865
7.729530
7.811785
6.759763
7.382631
7.902980
7.269979
6.925464
7.317662
8.093715
8.342862
7.608533
8.795857
8.410811
8.103848
8.359551
8.215904
9.116530
9.218454
7.976890
9.135604
10.686517
10.507703
11.384487
13.475418
13.917685
16.684532
18.184781
17.942786
18.709898
17.973781
18.234849
15.838742
16.096830
14.731884
12.922883
14.190674
11.893511
10.150671
9.496808
9.750724
7.935762
9.265542
9.250641
8.718967
8.130670
8.207560
9.034872
8.133650
8.641481
##ZVALUE=240
2.542734
2.336502
6.165504
16.595721
46.963692
87.784529
176.458955
259.609818
390.748978
475.340486
550.123453
544.252992
506.242514
411.009789
322.335958
208.866596
153.582692
116.589665
103.043914
110.278726
118.712783
124.333501
119.067430
110.839605
85.252523
68.426728
46.936870
33.203959
20.322800
13.411641
10.637641
8.691549
7.962584
8.738637
9.138584
7.878542
8.942485
6.888509
6.883740
7.676482
6.750822
7.047653
7.548928
8.189678
7.608533
8.875728
8.219481
6.947517
7.901788
7.729530
8.940697
8.684993
8.670688
8.091927
7.509589
7.304549
8.799434
8.454919
9.828806
8.953810
8.180737
7.972717
8.507967
9.483695
9.572506
9.055734
8.500814
10.477901
12.152791
12.605786
13.428926
16.115904
17.317533
18.487573
17.472506
19.884706
19.678473
19.074678
18.955469
16.301870
15.183687
14.396906
13.810992
13.569593
12.322664
11.069775
10.190606
10.416508
9.805560
10.277629
9.260774
9.530783
9.531975
10.065436
9.273887
10.448694
##ZVALUE=245
2.172589
1.943707
2.192855
2.023578
4.022717
14.045835
35.734773
92.753768
160.416961
298.194885
414.062738
566.886663
648.479462
676.060915
642.886758
573.927760
427.509546
318.941474
197.378993
135.525465
104.809999
103.828907
124.630928
131.532550
140.614510
130.427480
123.519897
95.572472
78.005791
51.790476
38.976669
23.531914
16.475916
11.354685
9.127855
7.768869
8.366704
7.630587
7.891655
7.601976
7.960796
7.375479
7.263422
6.922483
6.494522
7.544756
7.077456
7.833838
6.510615
6.846786
7.399917
7.592440
7.929802
7.560849
7.385612
8.099675
7.539988
7.304549
7.501841
7.677674
7.573962
7.743835
8.756518
7.621646
9.176731
7.711649
8.057952
9.918809
9.589791
10.518432
12.658834
14.848709
15.113950
16.552806
17.158985
15.997887
16.183853
15.901923
14.414787
15.290976
12.524724
12.056828
10.679960
10.914803
9.637475
10.023713
9.892583
9.035468
8.971691
8.360744
9.100437
8.554459
9.330511
9.704828
8.279681
8.167624
##ZVALUE=250
1.705885
1.856685
1.886487
1.730919
1.783967
2.078414
2.647638
7.363558
30.747652
67.242980
162.205696
272.114873
399.076939
576.888919
694.923997
787.421465
802.212954
715.913773
602.484941
413.034558
287.168622
188.374519
117.430687
100.463629
114.369988
128.235817
143.203735
144.362450
138.587952
125.407577
110.968947
79.897642
59.547424
38.425922
24.353862
14.406443
9.353757
8.318424
7.829666
7.247925
6.869435
7.050633
7.467866
7.353425
6.825924
7.452965
5.862713
5.809665
5.722642
5.813837
6.213784
7.319450
7.418990
6.243587
6.569624
6.841421
6.044507
6.534457
6.778836
6.508827
6.697774
6.617904
6.882548
6.864667
7.332563
7.138848
7.609725
7.823706
8.992553
9.578466
10.504723
12.329817
12.248755
13.015866
15.370846
14.782548
12.654662
12.538433
11.830926
12.544990
11.318922
10.223985
10.061860
8.929968
8.592606
8.457899
8.645654
8.740425
8.364916
7.301569
7.812977
7.825494
7.615685
7.672906
7.564425
7.680655
##ZVALUE=255
1.562834
1.327991
1.559854
1.598597
1.861453
1.527667
1.452565
2.370477
2.207756
4.376769
20.374656
51.056743
105.210543
231.693983
366.543531
572.333932
715.425014
856.094956
897.300839
841.819644
731.212497
585.700870
371.467471
239.382982
133.455992
99.152923
94.028711
106.447935
131.609440
143.510699
151.636600
145.543814
133.171678
104.524493
81.813931
54.525733
38.698912
22.262931
13.513565
8.374453
7.715821
6.672740
6.018877
6.086826
6.116629
6.023645
6.531477
5.700588
5.785823
5.890727
5.775690
5.946755
6.046891
5.270839
5.437732
5.720854
5.348921
5.537868
6.029606
5.748868
6.231666
5.540848
6.088614
5.895495
7.441640
6.473660
6.396770
6.826520
7.176995
7.879734
9.289980
9.257793
10.911822
11.217594
11.140704
11.210442
11.356473
10.967851
10.563731
10.347962
9.761453
8.434653
9.163618
7.728934
7.778406
7.588863
7.107854
7.463694
6.980896
7.481575
6.390810
7.003546
6.752610
6.528497
6.937981
7.152557
##ZVALUE=260
1.185536
1.266599
1.266599
1.499653
1.460910
1.358986
1.226664
1.823902
1.377463
1.786947
2.106428
2.536774
10.658503
30.502677
84.787607
166.302919
346.052647
509.929657
676.855445
904.881954
1007.006764
1012.720466
932.317972
714.798570
525.901914
310.113430
200.404525
110.011697
85.448623
87.312460
107.664466
132.258534
146.397948
156.248808
151.869655
135.266781
111.694932
81.727505
62.786937
37.872791
22.695661
13.247728
8.333921
6.373525
6.040931
5.762577
5.255938
6.022453
5.611777
5.549788
4.721880
5.351901
5.134940
4.771948
4.554987
5.152822
4.830956
4.812479
4.798770
5.202889
5.109906
5.235672
5.042553
5.592704
5.899668
5.830526
5.485415
5.761981
6.123781
6.759763
7.782578
8.061528
8.384585
9.802580
9.849668
8.980632
9.207726
9.186864
9.441972
8.141994
7.966757
6.765723
7.128716
6.873608
6.412864
6.490946
6.065965
6.087422
5.904436
5.761981
5.878806
6.277561
6.017685
6.464720
6.067753
5.841851
##ZVALUE=265
1.183748
1.187921
1.308918
1.493692
1.198649
1.290441
1.110435
1.120567
1.540780
1.329780
1.388788
1.430511
1.626611
2.118945
4.271865
22.942424
57.677627
147.057772
255.159736
486.482978
692.873001
881.002545
1015.710831
1015.710831
1005.983949
879.869461
649.762750
459.419489
252.689719
151.975751
87.607503
74.694753
83.708763
110.531449
136.484504
154.326558
158.337951
148.866773
134.811997
106.832981
84.107518
56.396723
37.281513
19.500852
13.194680
7.173419
5.763769
5.323887
5.017519
5.112886
4.873872
4.684925
5.169511
5.159974
4.591942
5.226731
4.608631
4.857779
4.642606
5.039573
4.450679
4.548430
4.812479
4.929900
5.026460
5.006790
5.321503
5.401969
4.982948
5.939603
6.111860
7.722974
7.823706
7.969737
8.597970
7.765889
8.295774
7.434487
7.322431
7.339716
6.891489
6.480813
6.425977
5.754828
5.561709
5.464554
5.579591
5.804896
5.205870
5.457997
5.376935
5.531907
4.975796
5.418658
5.566478
5.054474
##ZVALUE=270
1.070499
1.026988
0.985861
1.297593
1.068711
1.058578
1.331568
1.174808
1.376867
1.319647
1.235604
1.475811
1.634955
1.585484
1.641512
2.063513
2.391934
11.090636
32.994747
105.717778
211.104751
367.390513
644.482970
859.524012
1015.710831
1015.710831
1015.710831
1015.710831
816.113949
617.659688
429.744720
225.895643
125.243664
66.324472
64.402819
87.556839
108.654499
137.344599
154.707432
160.076618
155.440569
133.864880
113.951564
82.778931
59.824586
34.711957
22.712946
12.901425
8.379817
5.713701
5.226731
4.918575
5.226731
4.457831
4.879832
4.326701
4.707575
4.153848
4.544854
4.497766
4.295707
4.856586
3.980994
4.165769
4.355907
3.923774
4.401803
4.664660
4.737973
5.593896
5.878806
5.963445
6.621480
7.143617
6.929636
7.206798
7.095933
6.666780
5.944967
5.717874
5.611777
5.670786
5.218983
5.137920
4.951954
5.155802
5.100965
4.984736
4.647970
4.918575
4.960895
4.653931
4.988909
4.702806
5.306602
4.907846
##ZVALUE=275
0.895858
0.975728
1.075864
0.989437
1.195669
1.066923
1.083612
1.018643
1.186728
1.005530
1.234412
1.157522
1.290441
1.489520
1.343489
1.424551
1.617670
1.707673
2.065897
5.734563
20.685792
13.009906
173.914433
317.083001
598.082542
800.928473
1015.710831
1015.710831
1015.710831
1015.710831
989.896655
792.135596
502.169728
313.614011
149.617791
81.966519
52.290559
60.067773
86.549520
107.022524
133.797526
149.049759
156.060457
152.996778
135.019422
110.892653
81.747770
60.040951
36.253929
24.062991
11.986494
8.715987
5.781651
4.772544
4.561543
4.686713
4.159808
4.302859
4.621744
4.116893
4.695654
4.062653
4.090667
4.373789
4.383922
4.483461
4.426837
4.472733
4.641414
5.391836
5.748868
6.575584
6.290674
6.909966
6.851554
6.612539
6.250739
6.182790
5.967617
5.954504
5.469918
5.260706
5.204678
4.492998
4.582405
4.898906
4.425645
4.524589
4.537702
4.748702
4.400611
4.130602
4.176497
4.629493
4.208684
4.511476
##ZVALUE=280
0.991821
1.051426
1.174808
1.234412
1.345873
1.199841
1.333952
1.251698
1.314878
1.305938
1.328588
1.509786
1.144409
1.560450
1.453757
1.324415
1.564622
1.590848
1.764894
1.902580
2.087951
2.848506
12.954473
45.336485
141.364932
258.623958
481.719971
694.268942
979.864001
1015.897989
1015.897989
1015.897989
1015.897989
858.243704
637.158751
359.742641
215.993524
96.870661
55.184960
43.380857
55.839419
82.893968
105.785728
132.937431
147.248507
152.723789
149.028897
129.096508
109.917521
80.105662
59.496760
36.032796
24.564862
12.733936
8.239746
5.626678
4.905462
4.481673
4.574656
4.463792
4.541874
4.400611
4.436970
4.651546
4.562736
4.368424
4.330873
4.418492
4.855990
5.023479
5.122423
5.520582
5.865693
6.313920
6.413460
6.207824
5.944967
5.669594
5.746484
5.375743
5.793571
4.929900
4.446507
4.679561
4.397631
4.675984
4.390478
4.705787
4.556775
4.072785
4.445910
4.426837
4.307628
4.450679
4.256964
4.174709
##ZVALUE=285
0.831485
0.832677
0.911951
0.787973
1.008511
0.951886
0.932813
0.975728
1.066923
0.978708
1.072884
1.094937
1.127720
0.944734
0.800490
0.897646
1.080632
1.188517
1.233816
1.649857
1.513958
1.446605
1.739860
2.115965
6.609559
23.330450
82.259774
174.097419
375.194550
590.139627
828.226805
1015.710831
1015.710831
1015.710831
1015.710831
993.819833
785.107017
485.265851
299.191475
139.442682
71.527958
35.273433
36.347508
55.616498
75.168610
105.689764
124.476552
142.895579
149.293542
146.038532
131.087899
106.183887
84.503889
58.373809
40.144920
21.842718
13.413429
7.839799
5.549788
4.444718
4.208684
3.950000
3.948808
4.092455
4.012585
4.027486
4.031658
4.526973
4.704595
4.993677
5.159974
5.367994
5.402565
5.754828
5.816817
5.251765
5.572438
5.680919
5.009770
4.798770
4.702806
4.579425
4.276633
4.258752
4.285574
3.931522
4.158616
4.110932
4.027486
3.750920
4.023910
3.962517
3.647804
3.939867
4.098415
4.073977
##ZVALUE=290
0.886917
0.815988
0.704527
0.810623
0.937581
0.823736
0.814795
0.951886
0.867844
0.976920
0.922680
0.983477
1.109838
0.953674
1.165867
1.005530
1.158714
1.136661
1.295805
1.284480
1.451969
1.523495
1.359582
1.659989
1.776814
1.956820
2.637506
9.774566
46.195984
113.297701
231.427550
480.051041
728.102922
1015.710831
1015.710831
1015.710831
1015.710831
1015.710831
918.926001
603.821874
396.807790
193.986893
102.057457
41.468740
27.014613
35.488605
49.337745
73.896646
93.053579
121.328831
136.025548
145.894885
142.411590
129.033923
108.532906
78.222752
59.690475
35.731792
23.767948
13.024807
8.386970
5.197525
4.479885
4.186630
3.901720
3.981590
4.017949
4.384518
4.514456
4.853606
5.154610
5.252957
5.676746
5.826950
5.194545
5.180836
5.001426
4.873872
4.661679
4.039407
4.247427
4.060864
4.096627
4.028678
3.676414
3.748536
3.885627
3.930926
4.097819
3.989935
4.033446
3.742576
3.702641
3.655553
3.904700
3.819466
##ZVALUE=295
0.942945
0.786781
0.577569
0.765920
0.832677
0.951886
0.923872
1.002550
0.878572
0.854731
0.868440
0.912547
0.913739
0.943542
0.857711
0.909567
0.919700
0.808835
1.233816
1.169443
1.138449
1.190901
1.146793
1.273751
1.425743
1.576543
1.787543
2.154708
2.297759
4.613996
18.205643
75.120926
169.874430
391.949415
624.977946
977.999568
1015.712619
1015.712619
1015.712619
1015.712619
1015.712619
760.749578
519.897938
273.620486
146.228671
53.258538
27.072430
22.072792
29.614568
48.701763
65.161586
91.177821
110.043883
129.348636
137.084723
133.975744
122.026801
100.337863
79.848766
53.241849
37.681460
21.782517
14.123917
7.949471
5.796552
4.581809
4.385710
4.024506
4.433990
4.497766
4.706979
5.158782
5.482435
5.434752
5.354881
5.211830
5.061626
4.922748
4.764795
4.118681
4.356503
4.057884
4.262924
3.842711
3.950000
3.997684
4.129410
3.799796
3.837943
3.328919
4.100800
3.567934
3.988743
3.895760
3.804564
3.608465
##ZVALUE=300
0.850558
0.808835
0.804663
0.691414
0.795722
0.674725
0.962615
0.755787
0.689626
0.882745
0.832677
0.939965
0.893474
0.913739
0.899434
0.942945
0.812411
0.977516
1.095533
1.106858
1.086593
1.102686
1.089573
1.332760
1.401901
1.230836
1.347661
1.577735
1.717806
1.871586
2.256632
2.434850
11.439919
41.212440
139.722824
271.839499
546.959639
811.139941
1015.712023
1015.712023
1015.712023
1015.712023
1015.712023
985.363722
639.585853
410.257578
199.208856
102.413893
36.678910
19.378662
19.908547
26.513934
42.614937
58.832765
84.371567
104.610920
122.963786
129.704475
127.921700
118.626952
98.697543
78.682899
54.706931
39.138794
23.250580
15.071630
8.377433
6.321669
4.984736
4.716516
4.680753
4.932880
5.170703
5.041957
4.656911
4.749894
4.843473
4.589558
4.405975
4.259944
4.052520
4.163980
4.030466
4.031658
3.836751
3.663898
3.983974
3.534555
3.583431
3.370643
3.643632
3.700852
3.600717
3.470778
3.250837
3.441572
##ZVALUE=305
0.683665
0.772476
0.747442
0.738502
0.732541
0.796914
0.693798
0.765920
0.616908
0.689626
0.791550
0.827909
0.869632
0.883937
0.889897
0.839829
0.976920
1.016855
0.903606
0.966787
0.858903
1.073480
1.049638
1.004934
1.194477
1.090765
1.237988
1.406670
1.448989
1.458526
1.520514
1.627803
1.895428
2.231598
4.300475
28.175712
83.635449
235.025883
418.491960
743.768811
994.755030
1015.710831
1015.710831
1015.710831
1015.710831
1015.710831
855.044723
528.338552
322.737694
142.561793
66.825747
21.665692
13.613701
17.610788
25.876760
41.608810
57.227612
82.342625
99.693537
116.409659
122.016668
121.612549
111.705661
94.204545
75.940490
51.985979
36.732554
22.421479
14.440417
8.738637
6.859899
5.151629
4.934669
4.770756
4.742742
4.552603
4.504919
4.199743
3.954768
4.243851
4.198551
3.865957
3.927946
3.766418
3.957748
3.732443
3.910661
3.648996
3.537536
3.646612
3.527999
3.298521
3.303885
3.440976
3.169775
3.434420
##ZVALUE=310
0.631809
0.737906
0.912547
0.700951
0.882745
0.843406
0.695586
0.807643
0.659823
0.650883
0.645518
0.732541
0.816584
0.815988
0.882745
0.701547
0.963807
0.881553
0.924468
0.965595
0.936985
0.874996
0.835657
0.946522
1.089573
1.133680
1.061559
1.219511
1.375675
1.300573
1.315475
1.669526
1.649857
1.549721
1.761913
1.918674
2.427697
12.032986
41.267872
140.796900
285.452008
586.248636
873.174667
1015.710831
1015.710831
1015.710831
1015.710831
1015.710831
1015.710831
722.798705
474.765897
232.727528
119.020939
40.084720
16.982555
11.765957
15.343428
23.542643
34.083724
53.135753
70.614815
92.539787
106.176734
114.994645
116.193891
107.200742
92.119575
72.417855
54.488778
34.559965
23.679733
14.839768
9.789467
6.608963
5.254745
5.089641
4.734993
4.482865
4.211664
4.004836
3.817677
3.733635
3.646612
3.688931
3.593564
3.705621
3.572702
3.938675
3.588796
3.439784
3.473759
3.340840
3.186464
3.304482
3.079772
3.258586
##ZVALUE=315
0.621676
0.681877
0.677705
0.576973
0.620484
0.584722
0.733733
0.758767
0.697970
0.797510
0.696778
0.793934
0.748634
0.574589
0.731945
0.732541
0.902414
0.941753
0.683665
0.800490
0.848770
0.843406
0.738502
0.767708
1.084805
0.915527
1.050830
1.200438
1.127720
1.058578
1.241565
1.518726
1.186728
1.444817
1.648664
1.696944
1.909733
2.123713
2.280474
5.474687
22.408962
94.664693
207.940936
465.586782
756.074786
1015.720963
1015.720963
1015.720963
1015.720963
1015.720963
1015.720963
896.227956
628.580451
333.032608
183.263421
64.475536
25.657415
10.541677
10.856986
13.691783
19.952655
32.963753
46.624541
66.099763
83.507895
100.547671
108.269453
109.090805
103.705525
85.595846
71.475506
51.784515
37.213564
22.280812
14.322996
8.834600
6.551743
5.248785
4.515648
4.065633
3.853440
3.838539
3.767610
3.765821
3.543496
3.567934
3.756881
3.793836
3.654957
3.409982
3.806949
3.357530
3.245473
3.425479
3.238916
3.344417
##ZVALUE=320
0.601411
0.607967
0.560880
0.593662
0.667572
0.650883
0.635982
0.700951
0.668764
0.773668
0.780821
0.649691
0.598431
0.851750
0.814795
0.856519
0.725985
0.789762
0.848770
0.787973
0.744462
0.817776
0.887513
0.980496
0.916719
0.901818
0.981688
1.140833
0.920892
1.013875
1.101494
1.144409
1.056790
1.207590
1.475811
1.319647
1.586676
1.696944
1.895428
2.101660
2.302527
2.994537
9.616613
54.159760
137.686729
357.885957
592.209697
973.014832
1015.712023
1015.712023
1015.712023
1015.712023
1015.712023
1015.711427
801.799893
428.315997
240.105987
100.283623
42.867661
13.355613
9.172559
9.726882
11.912584
18.958449
27.805567
44.923425
59.612989
78.698993
92.824697
102.348924
103.666782
96.627474
85.036755
66.613555
50.240755
32.622814
22.185445
13.430715
8.870959
5.546808
4.681945
3.985763
3.943443
3.705621
3.744960
3.578663
3.377795
3.652573
3.185868
3.199577
3.316998
3.068447
3.348589
3.398657
3.798604
3.378987
##ZVALUE=325
0.620484
0.672936
0.628829
0.650883
0.794530
0.767708
0.760555
0.748634
0.688434
0.703931
0.803471
0.804663
0.745654
0.675917
0.727773
0.642538
0.848770
0.765920
0.704527
0.747442
0.887513
0.800490
0.876784
0.866652
1.000762
0.932813
0.869632
0.963807
0.976920
0.953674
0.864863
1.102686
1.038909
1.139641
1.227856
1.272559
1.286864
1.396537
1.539588
1.631975
1.869798
1.888871
2.244711
2.315640
6.292462
26.007891
106.738806
224.692822
507.053733
821.793675
1015.737653
1015.737653
1015.737653
1015.737653
1015.737653
1015.737653
855.277777
576.233864
295.874476
157.223940
55.914521
22.137761
9.183884
7.993579
8.941889
11.074543
17.899871
26.412606
43.126941
58.062673
78.482628
87.976456
96.906424
98.289847
90.196729
79.288483
61.201453
46.107769
29.714704
20.329952
11.845827
8.217692
5.535483
4.559755
4.040599
3.820658
3.636479
3.606677
3.459454
3.349781
3.517866
3.218651
3.277659
3.354549
3.243685
3.292561
##ZVALUE=330
0.731945
0.677705
0.718832
0.665784
0.780821
0.637770
0.590682
0.803471
0.773668
0.657439
0.618696
0.773668
0.769496
0.621676
0.711679
0.626445
0.846982
0.787973
0.991821
0.862479
0.828505
0.805855
0.810623
0.838637
0.879765
0.799894
0.978708
0.973940
0.950694
0.897646
1.043677
1.118779
1.182556
1.060963
1.178980
1.168847
1.325607
1.270771
1.418591
1.463890
1.446605
1.581907
1.733899
1.963973
2.086759
2.226830
3.168583
15.028715
48.708916
164.002776
318.540931
637.736917
938.346982
1015.813947
1015.813947
1015.813947
1015.813947
1015.813947
1015.813947
697.650909
431.882739
191.083550
90.387464
29.590726
12.156963
7.643700
7.716417
8.539557
10.851622
17.464757
25.571585
39.276481
52.668452
71.886778
82.626939
90.638995
90.884566
84.429979
72.310567
55.915713
42.250752
28.008819
19.499660
12.061000
8.492470
5.580783
4.625916
4.061460
3.706813
3.454685
3.372431
3.429651
3.287792
3.317595
3.020763
2.923608
##ZVALUE=335
0.477433
0.323653
0.389814
0.421405
0.462532
0.455976
0.654459
0.517964
0.378489
0.533462
0.386834
0.480413
0.315905
0.326633
0.544786
0.610948
0.465512
0.487566
0.488758
0.590682
0.564456
0.481606
0.665784
0.624657
0.772476
0.784993
0.827909
0.770688
0.561476
0.634789
0.581741
0.817776
0.895858
0.678897
0.821948
0.878572
1.007915
0.889897
1.026988
1.126528
0.937581
1.064539
1.135468
1.323819
1.482964
1.594424
1.681447
1.958609
2.289414
6.796718
26.236773
106.510520
220.938921
487.374067
772.357583
1015.603542
1015.603542
1015.603542
1015.603542
1015.603542
1015.603542
885.236859
588.278770
299.526453
150.222778
47.904849
18.252730
8.555651
7.256866
7.505417
8.249879
10.500550
15.119910
25.553703
35.568476
52.473545
64.394474
76.956749
83.868504
84.445477
78.339577
66.760778
54.686666
39.774776
29.358864
18.975735
12.953877
8.018613
5.827546
4.399419
3.524423
3.381968
3.144741
2.941489
3.045797
3.017783
##ZVALUE=340
0.521541
0.567436
0.643730
0.464916
0.637770
0.497699
0.542998
0.669956
0.549555
0.483990
0.641942
0.640750
0.674725
0.545979
0.516772
0.680685
0.771880
0.653863
0.584722
0.643730
0.695586
0.708699
0.740886
0.828505
0.598431
0.798702
0.804663
0.813603
0.841618
0.819564
0.710487
0.818968
0.879765
0.802875
0.911951
0.843406
1.027584
0.901818
0.971556
1.146793
1.224875
1.278520
1.280904
1.176596
1.262426
1.364946
1.582503
1.609921
1.818538
2.006888
2.194643
3.524423
13.144612
66.298842
164.164901
409.426689
678.305626
1015.710831
1015.710831
1015.710831
1015.710831
1015.710831
1015.710831
1015.194654
763.405561
397.911668
206.219554
70.696473
26.021600
9.520650
7.715821
7.527471
7.598996
8.737445
10.698438
16.047955
22.991896
34.712553
46.380758
62.250495
71.126819
78.671575
79.650879
73.573589
64.527988
50.798655
40.647984
28.733611
20.887852
11.701584
8.296967
5.299449
4.504919
3.537536
3.257990
3.095865
##ZVALUE=345
0.657439
0.514984
0.584722
0.598431
0.449419
0.488758
0.681877
0.626445
0.562668
0.597835
0.615716
0.721812
0.467896
0.585914
0.681877
0.629425
0.605583
0.550747
0.559688
0.653863
0.602603
0.561476
0.806451
0.589490
0.697970
0.769496
0.735521
0.927448
0.715852
0.788569
0.800490
0.851750
0.772476
0.720620
1.015663
0.889897
1.000762
0.956655
0.980496
1.089573
1.072884
1.096725
1.196861
1.130700
1.167655
1.375675
1.357794
1.441836
1.412630
1.587868
1.647472
1.973510
2.152920
2.592802
5.751848
36.744475
103.283525
278.247595
500.152707
897.181034
1015.710831
1015.710831
1015.710831
1015.710831
1015.710831
1015.710831
863.037705
487.994552
263.927579
95.950961
40.285587
13.176799
8.255839
7.393956
6.899834
6.629825
6.945729
9.040833
12.821555
21.332502
30.106902
44.350624
54.861903
64.753890
70.742965
72.245598
70.667863
59.762597
51.844716
38.753748
29.306412
18.475652
12.755990
7.843971
5.679727
4.121661
##ZVALUE=350
0.524521
0.509620
0.488758
0.594854
0.535846
0.603795
0.506639
0.604987
0.831485
0.833869
0.467896
0.576973
0.629425
0.609756
0.711679
0.534654
0.586510
0.535846
0.662804
0.657439
0.586510
0.618696
0.680685
0.649691
0.743866
0.692606
0.584722
0.772476
0.723600
0.815988
0.842810
0.827909
0.917912
0.860691
0.774860
0.897646
0.939965
0.900626
0.836849
0.807643
0.927448
1.017451
1.018643
1.003742
1.177788
1.332760
1.148582
1.301765
1.434684
1.457930
1.614690
1.580715
1.823902
1.859665
2.049804
2.305508
4.309416
15.963912
72.153807
169.107914
409.540534
685.234666
1015.712023
1015.712023
1015.712023
1015.712023
1015.712023
1015.712023
985.517502
678.491592
337.682962
182.995796
65.484643
23.518801
9.129643
7.535815
6.493926
5.910993
6.051660
6.480813
8.678436
11.640787
18.580556
25.809407
37.497878
47.139525
58.079958
63.372850
66.466928
63.985586
56.552887
48.431754
36.181808
27.501583
18.148422
13.047457
##ZVALUE=355
0.664592
0.470877
0.558496
0.607967
0.683665
0.751615
0.549555
0.622869
0.649691
0.729561
0.685453
0.620484
0.597835
0.676513
0.731945
0.607967
0.575781
0.636578
0.701547
0.574589
0.704527
0.700951
0.636578
0.669956
0.643730
0.707507
0.706911
0.867844
0.745654
0.809431
0.804663
0.866652
0.844598
0.512600
0.797510
0.894666
0.705719
0.824928
0.795722
0.777841
1.142621
0.972748
0.949502
0.902414
0.978708
0.969768
1.049638
1.237988
1.070499
1.297593
1.159906
1.378655
1.407862
1.849532
1.532435
1.699924
1.675487
2.233982
2.431870
8.528829
32.440424
127.178431
262.233615
544.008017
844.890475
1015.724540
1015.724540
1015.724540
1015.724540
1015.724540
1015.724540
692.246556
428.953767
188.978910
91.275573
28.309822
11.074543
6.473660
5.995631
5.317926
5.216599
5.300641
5.657673
7.488728
10.269880
15.888810
22.256970
32.786727
41.375756
50.930977
57.314634
60.906410
58.898926
53.017735
45.785904
35.353899
##ZVALUE=360
0.412464
0.606775
0.575781
0.562668
0.569820
0.573993
0.634789
0.523925
0.538826
0.614524
0.642538
0.586510
0.547767
0.598431
0.657439
0.509620
0.711679
0.665784
0.686646
0.644922
0.831485
0.688434
0.592470
0.726581
0.636578
0.711679
0.731945
0.676513
0.741482
0.730753
0.702739
0.821948
0.714660
0.797510
0.719428
0.961423
0.920892
0.849962
0.975728
0.874996
0.866652
0.860691
0.976920
1.030564
0.960827
1.152754
0.816584
1.140833
1.150966
1.128912
1.288652
1.299977
1.231432
1.458526
1.611710
1.498461
1.444817
1.935959
2.037883
2.316833
2.517700
3.985763
15.143752
69.948435
168.236494
414.603353
710.000992
1015.710831
1015.710831
1015.710831
1015.710831
1015.710831
1015.710831
818.145871
527.879596
250.575542
128.841996
44.966936
16.516447
6.941557
6.141663
5.436540
5.015731
4.895926
5.029440
5.125999
6.166697
8.331537
11.886954
19.069910
26.076436
36.367774
43.240786
50.171614
54.685473
54.603815
##ZVALUE=365
0.581741
0.479817
0.641942
0.522733
0.844598
0.684857
0.476837
0.664592
0.586510
0.610948
0.695586
0.545979
0.637770
0.561476
0.524521
0.610948
0.617504
0.702739
0.682473
0.627637
0.667572
0.504851
0.731945
0.789762
0.620484
0.836849
0.671744
0.664592
0.794530
0.597835
0.570416
0.711679
0.573993
0.794530
0.670552
0.829697
0.838637
0.852942
0.878572
0.867844
1.029968
1.011491
0.879765
0.888705
0.925660
1.066923
0.982881
1.119971
1.010895
1.000762
1.147985
1.089573
1.109838
1.120567
1.340508
1.216531
1.474619
1.385808
1.590848
1.564622
1.879930
2.157688
2.533793
2.954602
6.579757
41.184425
110.001564
286.611915
526.552796
952.665806
1015.712619
1015.712619
1015.712619
1015.712619
1015.712619
960.778594
669.913888
354.568958
187.127590
63.548684
23.170710
7.342696
5.808473
5.428791
5.272627
4.922748
4.278421
4.456639
4.449487
5.223751
6.932616
10.605454
14.749765
22.378564
29.132962
38.131475
##ZVALUE=370
0.631809
0.626445
0.559688
0.718832
0.520945
0.656843
0.652671
0.676513
0.622869
0.604987
0.563860
0.702739
0.572801
0.723600
0.685453
0.761747
0.580549
0.562668
0.584722
0.738502
0.721812
0.603795
0.627637
0.654459
0.692606
0.829697
0.802875
0.706911
0.745654
0.839829
0.764728
0.769496
0.614524
0.735521
0.885725
0.778437
0.773668
0.932813
0.914931
0.779629
0.651479
0.760555
0.924468
0.885725
0.898838
0.992417
1.092553
0.902414
1.050830
0.978708
0.977516
1.072884
1.130700
1.052618
1.298785
1.190901
1.432896
1.368523
1.511574
1.548529
1.525879
1.724958
1.878738
2.150536
2.157688
2.398491
3.779531
18.173456
62.025785
210.636854
398.249030
756.632686
1015.779972
1015.779972
1015.779972
1015.779972
1015.779972
1015.779972
832.850933
440.424681
236.986876
87.977648
37.927628
11.913776
6.418824
5.378723
4.947782
4.513860
4.281998
4.013777
3.877878
3.902912
4.488826
6.344914
8.788705
13.733506
##ZVALUE=375
0.514984
0.441670
0.371933
0.411868
0.474453
0.507832
0.405908
0.505447
0.469685
0.502467
0.487566
0.599623
0.642538
0.621676
0.518560
0.396967
0.481606
0.601411
0.520945
0.627637
0.559688
0.655651
0.698566
0.618696
0.591874
0.496507
0.683665
0.575781
0.579953
0.572801
0.727773
0.596642
0.549555
0.722408
0.581741
0.724792
0.739694
0.825524
0.783801
0.591874
0.671744
0.698566
0.686646
0.783801
0.725985
0.739694
0.762939
0.848770
0.831485
0.950694
0.780821
0.851750
0.925660
1.135468
0.930429
0.991821
0.961423
1.055598
1.123548
1.194477
1.221895
1.226664
1.430511
1.445413
1.598597
1.510978
1.902580
2.254844
2.531409
8.974671
31.956434
122.027993
262.815952
587.311983
919.003487
1015.710831
1015.710831
1015.710831
1015.710831
1015.710831
997.954011
608.640909
374.778509
177.622437
82.754493
23.082495
8.561611
5.301833
4.856586
4.527569
4.000664
3.938675
3.709793
3.473759
3.450513
3.773570
##ZVALUE=380
0.495911
0.590682
0.487566
0.433922
0.496507
0.539422
0.377893
0.611544
0.577569
0.482798
0.481606
0.462532
0.537634
0.561476
0.623465
0.514984
0.661612
0.557899
0.502467
0.642538
0.490546
0.591874
0.704527
0.692606
0.494719
0.582933
0.687838
0.596642
0.709891
0.613928
0.526905
0.617504
0.699759
0.683665
0.618696
0.630617
0.668764
0.701547
0.695586
0.753999
0.741482
0.763535
0.646710
0.704527
0.552535
0.695586
0.715852
0.696778
0.790954
0.863671
0.707507
0.819564
0.827909
0.829697
0.965595
0.935793
0.925660
1.044869
0.974536
1.023412
1.119971
1.181960
1.049638
1.203418
1.352429
1.526475
1.711845
1.719594
2.048612
2.280474
2.744794
4.400611
25.392771
77.324510
226.080418
411.253572
773.996711
1015.751958
1015.751958
1015.751958
1015.751958
1015.751958
1015.751958
858.930945
492.668748
285.891891
112.696886
48.480630
11.968613
5.760789
4.676580
4.526973
4.018545
3.852844
3.684759
3.341436
##ZVALUE=385
0.416636
0.384450
0.426769
0.411868
0.578761
0.624657
0.480413
0.431538
0.360608
0.311732
0.506639
0.406504
0.476837
0.406504
0.518560
0.611544
0.677705
0.449419
0.529885
0.722408
0.466704
0.539422
0.566840
0.765920
0.601411
0.504851
0.518560
0.529885
0.578761
0.538826
0.655651
0.498891
0.532866
0.632405
0.470877
0.483990
0.551939
0.617504
0.646710
0.566840
0.703931
0.636578
0.690818
0.667572
0.587702
0.571609
0.641942
0.666976
0.773668
0.626445
0.764728
0.729561
0.809431
0.673532
0.807643
0.976920
0.805855
0.744462
0.839829
0.760555
0.845790
0.834465
1.144409
1.103878
1.195669
1.100898
1.262426
1.534820
1.821518
1.865625
1.967549
2.243519
2.503991
2.961755
8.781552
47.929883
125.326514
329.761505
574.826598
972.445011
1015.716791
1015.716791
1015.716791
1015.716791
1015.716791
1005.548835
741.901994
408.739448
232.409835
90.924501
34.500957
7.883906
4.664660
4.073977
3.897548
3.671646
##ZVALUE=390
0.416636
0.488758
0.682473
0.515580
0.386834
0.484586
0.427961
0.385642
0.433922
0.600815
0.413656
0.417829
0.463724
0.484586
0.525713
0.497699
0.501871
0.469685
0.590682
0.388622
0.454783
0.525713
0.466704
0.550747
0.552535
0.355840
0.541806
0.504851
0.668764
0.445843
0.498891
0.446439
0.592470
0.486970
0.580549
0.588894
0.542998
0.542998
0.510812
0.667572
0.662804
0.563860
0.531673
0.685453
0.646710
0.554919
0.702739
0.586510
0.558496
0.734925
0.905991
0.604987
0.734925
0.798702
0.646710
0.708699
0.685453
0.726581
0.657439
0.753999
0.801682
0.828505
0.825524
0.995994
1.076460
1.042485
1.272559
1.356602
1.417994
1.459718
1.707673
1.794696
1.768470
2.148747
2.205968
2.429485
4.532933
29.124618
90.184808
267.253518
484.897494
862.156749
1015.710831
1015.710831
1015.710831
1015.710831
1015.710831
1015.710831
852.088928
516.966581
301.565528
123.468637
57.109594
15.594959
5.637407
4.064441
##ZVALUE=395
0.488758
0.428557
0.534654
0.441670
0.484586
0.357628
0.407696
0.334978
0.521541
0.429749
0.359416
0.602603
0.681877
0.432730
0.534654
0.615716
0.434518
0.353456
0.646710
0.549555
0.406504
0.347495
0.473857
0.576973
0.481606
0.428557
0.497699
0.409484
0.455976
0.563860
0.580549
0.519753
0.455976
0.652671
0.389814
0.662804
0.503659
0.669956
0.605583
0.628829
0.529885
0.769496
0.651479
0.498891
0.537634
0.725985
0.694990
0.554919
0.639558
0.810623
0.686646
0.640750
0.737906
0.766516
0.738502
0.663996
0.604987
0.671744
0.805855
0.815988
0.867844
0.876784
0.743866
0.910759
0.960827
1.042485
1.182556
1.112819
1.375675
1.419783
1.580715
1.500845
1.585484
1.771450
1.734495
1.917481
1.912713
2.295971
2.689958
14.845729
54.664612
190.662742
363.295078
701.938868
981.387496
1015.715003
1015.715003
1015.715003
1015.715003
1015.715003
993.111730
621.302724
391.546488
183.036923
84.918737
24.663806
##ZVALUE=400
0.469685
0.432730
0.525713
0.418425
0.430942
0.348687
0.504851
0.387430
0.331998
0.421405
0.413656
0.417829
0.432730
0.506639
0.439882
0.493526
0.592470
0.456572
0.377893
0.367761
0.496507
0.439882
0.510812
0.457764
0.457764
0.480413
0.384450
0.676513
0.469685
0.467896
0.612736
0.544786
0.568628
0.584722
0.677705
0.546575
0.585914
0.664592
0.570416
0.546575
0.539422
0.502467
0.642538
0.564456
0.590682
0.590682
0.670552
0.567436
0.658631
0.594854
0.767708
0.547767
0.810623
0.487566
0.653863
0.623465
0.644922
0.786781
0.781417
0.735521
0.718832
0.835657
0.886917
0.871420
0.914931
0.962615
1.008511
1.046658
1.312494
1.380444
1.592636
1.418591
1.463890
1.629591
1.465678
1.541972
1.557469
1.732707
1.718998
1.982450
2.249479
7.970929
31.222701
117.436647
249.504447
546.515584
846.874714
1015.710831
1015.710831
1015.710831
1015.710831
1015.710831
1015.710831
732.544661
473.487973
229.363441
##END
