##TITLE=AAI0852
##FORMAT=SPECTACLE-ASCII V-1.2
##DATA TYPE=ULTRAVIOLET SPECTRUM
##SECOND TYPE=ULTRAVIOLET SPECTRUM
##DATE=02/28/18
##TIME=17:48:23
##SPECTROMETER/DATA SYSTEM=SPECTACLE
##XUNITS=NM EM
##YUNITS=ENERGY
##YFACTOR=1
##FIRSTX=220
##LASTX=410
##NPOINTS=96
##3DDATA=Equidistant
##ZUNITS=NM EX
##FIRSTZ=210
##LASTZ=400
##ZPOINTS=39
##XYDATA=(Y..Y)
##ZVALUE=210
6.973743
6.064773
4.888773
4.676580
4.346967
5.027652
5.428791
5.509853
5.072951
4.288554
4.305840
4.121661
3.741980
3.895760
4.003644
4.789829
4.724860
4.760623
5.534887
6.044507
5.727410
6.149411
6.713867
7.021427
7.241964
8.034706
7.637739
8.058548
9.103417
8.195639
8.938909
9.859800
9.598732
9.642839
11.014938
11.127591
11.025667
12.233853
11.919737
12.361407
12.412667
12.341738
12.850761
11.152625
12.819767
13.424754
13.709664
14.482737
14.598966
15.799999
14.706850
14.796853
16.374588
16.360879
15.733838
16.360879
15.886426
15.420914
15.854836
16.778708
17.316937
15.946627
16.621947
16.728640
18.573999
18.618703
20.847917
23.661852
24.865866
34.142733
38.680434
45.936704
54.979920
62.527657
66.969991
72.912574
78.293681
79.333782
79.724789
77.753663
76.696873
67.169666
59.158802
49.774647
40.553808
33.516884
24.723411
21.784902
18.634796
17.925501
17.830729
17.830729
17.689466
18.205643
18.997788
20.442605
##ZVALUE=215
25.456548
23.141503
22.360682
16.451478
12.691617
10.649562
8.950830
8.434653
10.115504
9.432435
9.216666
7.998943
6.651878
5.824566
5.768538
5.230904
6.317496
5.940795
5.393624
5.547404
6.248951
7.596612
7.281899
7.409453
7.880926
8.651614
8.887649
9.426475
9.524822
9.770989
9.786487
9.370446
10.518432
10.752678
10.194778
9.987950
11.888742
11.612773
11.761785
11.741519
12.114644
12.272596
12.233853
13.677478
12.648702
14.344454
14.402866
15.516877
14.134645
14.590621
14.232993
14.158487
15.197992
15.098453
14.939904
14.949441
15.251637
15.610456
14.556646
16.896725
14.432669
14.631748
15.757680
15.999675
15.688539
17.609596
17.335415
17.643571
20.005703
22.390485
25.731921
31.130910
36.683679
40.648580
44.914484
49.954653
53.753853
54.367781
50.415993
49.858689
45.024753
42.857528
34.756660
29.180646
26.012659
20.838976
18.180609
15.281439
13.051629
12.970567
13.168454
12.259483
11.387467
11.414886
13.450980
12.267828
##ZVALUE=220
80.280900
79.817772
87.493658
86.431503
74.017644
57.013631
42.776465
27.990937
21.085739
17.265677
17.858744
19.227862
17.557740
16.169548
13.364553
11.074543
9.608865
7.292628
7.371902
6.616712
7.249713
7.572770
7.139444
8.013844
8.119941
8.632541
10.046959
10.566711
10.275841
8.955598
11.099577
10.409951
11.858940
11.167526
11.516809
10.497570
12.597442
11.542439
13.023615
12.848973
13.911724
12.201667
13.215542
13.254881
13.297796
13.142824
13.867617
13.810992
14.426708
13.589859
14.022589
13.729930
14.992952
14.628768
15.344620
15.288591
16.251802
14.911890
15.292764
14.611483
16.000867
16.245842
16.066432
17.359853
18.627644
16.979575
18.610954
20.327568
22.717714
26.281476
31.835437
35.846829
44.364929
50.812960
54.071546
60.713887
64.486861
65.934658
66.342950
64.571500
57.471991
55.012703
47.777891
35.864711
31.907558
25.769472
21.861792
17.941594
16.631484
15.465617
17.466545
15.254617
14.993548
14.117956
14.666915
14.322996
##ZVALUE=225
132.947564
133.489966
172.197819
210.321546
221.572518
227.032900
205.315948
154.387951
115.020871
81.103444
47.252774
36.430955
32.601953
34.376979
32.766461
32.199621
27.453899
21.252632
16.353726
13.941526
11.575818
8.518696
9.549856
10.344982
10.402799
10.597706
12.504458
10.829568
12.226701
12.305975
11.426806
12.653470
13.509989
13.064742
12.859702
14.205575
13.911724
15.099645
13.725758
14.395714
14.820695
14.554858
15.106797
14.628768
15.311837
15.526414
15.134811
15.710592
16.013980
16.379952
16.519427
17.126799
17.002821
17.019510
15.497804
16.710758
16.980767
16.988516
17.869473
17.246604
17.744899
16.435981
17.131567
17.699599
17.930865
19.196868
19.307733
22.587776
22.593737
27.591586
31.891465
38.113594
42.535663
46.274662
49.309731
50.151944
50.836802
52.788854
50.217509
48.686862
43.951869
38.425922
37.543774
29.838681
26.866794
21.575689
20.953417
19.036531
18.582940
15.477538
16.151667
16.394854
16.438961
14.799833
15.315413
14.015436
##ZVALUE=230
72.470903
82.089901
119.727850
183.915496
235.035419
289.563537
307.039618
307.983756
276.278853
234.601498
161.083937
111.092925
67.542791
56.397915
51.602721
56.135654
56.044459
54.443479
49.251914
40.275455
32.761693
21.592975
16.328692
10.829568
10.550618
9.531975
9.231567
10.230541
9.330511
9.963512
10.778904
9.435415
10.833740
10.239482
10.800958
11.156797
11.510849
10.772943
11.654496
12.369752
10.917783
12.140870
11.916757
12.009740
12.097955
11.763573
11.842847
12.923479
12.234449
11.686683
11.509657
12.171865
12.080669
13.468862
12.524724
11.343956
12.043715
12.114644
11.827946
11.322498
11.830926
12.866855
13.137460
13.962984
12.657642
14.109612
14.202595
14.874935
16.299486
19.866824
21.186471
24.471879
27.185678
31.325817
32.369494
33.931732
34.560561
33.215880
31.520724
30.336976
30.117631
25.684834
25.403500
20.240545
18.016696
15.014410
15.099645
12.212992
13.719797
12.764931
12.014508
12.524724
12.541413
12.391806
10.847449
11.208653
##ZVALUE=235
18.665791
19.981861
42.036772
100.165606
163.361430
268.009901
354.297757
459.082723
506.037474
517.108440
465.494990
358.627439
271.239877
163.408518
116.838813
90.018511
79.738498
79.868436
88.276863
88.979602
80.465674
72.320700
51.166415
39.874911
25.416613
19.561648
13.355613
11.956692
9.479523
10.016561
9.943843
9.395480
10.441542
10.670424
10.196567
9.597540
9.355545
10.523796
10.388494
9.982586
9.493828
9.044409
10.173917
11.164546
10.640621
11.467934
10.333657
10.341406
10.623932
11.458993
11.588931
10.066628
11.428595
11.637807
11.110902
11.426806
11.637807
11.422634
11.095405
10.862947
11.454821
10.771751
10.303855
11.310577
10.555983
11.524558
11.189580
13.031960
13.466477
14.440417
16.069412
19.944906
22.584796
22.319555
23.168921
23.976564
23.239851
23.495555
22.494793
20.039678
19.108653
16.310811
15.646815
14.819503
12.286901
11.587739
11.720657
10.763407
10.484457
10.520816
9.874701
10.628700
9.420514
10.583997
9.833574
10.391474
##ZVALUE=240
2.360940
2.960563
6.973743
24.790764
52.342415
115.792751
195.010900
313.525796
430.230498
518.357754
597.057939
597.047806
526.876450
448.029637
329.274535
231.485963
148.238540
112.334490
104.105473
107.804537
117.581487
126.439929
122.168660
104.293823
90.084672
63.838959
49.996972
30.670762
22.315979
15.544891
12.421608
11.193752
10.031462
11.273623
9.179711
7.902980
9.016991
9.433627
8.983612
9.170771
8.565784
8.823872
8.669496
8.882880
8.720756
8.872747
9.372830
9.345412
10.751486
9.651780
9.967685
9.416938
10.156631
9.994507
9.407997
9.289980
9.676814
10.107756
10.643601
8.821487
9.228587
10.176897
9.502769
10.006428
10.798573
11.872649
11.541843
13.587475
13.344884
15.242696
16.084909
18.564463
20.611882
23.238659
25.402904
24.901628
24.024844
24.445653
22.929907
20.135641
18.671751
15.592575
15.441775
14.046431
13.521910
11.159778
11.077523
11.768937
12.261868
10.485649
10.029674
11.120439
11.629462
11.146665
10.334849
10.122657
##ZVALUE=245
1.717806
2.240539
2.037883
2.174973
5.448461
14.508963
47.164559
101.640821
215.695500
329.483747
504.809618
624.932647
716.515779
758.598447
736.981034
630.199909
506.553650
351.171494
251.882672
155.174732
124.388933
113.052726
118.702650
135.941505
137.358904
133.030415
116.777420
101.660490
75.483918
59.175491
41.000843
26.814938
20.155907
11.781454
10.221601
9.685755
10.201931
9.722710
9.000897
9.583831
8.226633
9.155869
8.541942
8.635521
9.152889
8.225441
8.557439
8.440614
8.675456
8.315444
9.975433
8.923411
9.461641
9.715557
10.003448
10.378957
10.393858
9.755492
9.729862
10.311604
10.449886
10.421872
10.263920
10.099411
10.547638
11.318922
11.408925
12.905598
14.034510
15.275478
16.874671
20.927787
22.402406
22.413731
26.427507
24.963617
23.885965
23.512840
22.385716
21.058917
18.836856
17.695427
15.796423
13.438463
14.107823
12.727976
12.736917
11.023879
12.076497
11.523962
10.897517
11.273623
10.716915
10.371804
9.913445
11.664629
##ZVALUE=250
1.496673
1.462698
1.858473
1.689792
1.708865
1.678467
3.008842
11.773705
32.753944
92.363954
174.673796
339.424610
478.366613
679.422617
798.759460
880.571604
893.794894
825.824738
681.733489
532.598495
338.958502
221.634507
127.857924
102.898479
115.764737
129.780769
139.247775
147.741437
143.219829
127.262473
107.200742
83.468556
59.321523
37.073493
25.287867
15.579462
11.593699
9.801984
8.819699
8.370876
8.145571
8.486509
7.841587
8.208752
7.720590
7.426739
8.252859
8.610487
8.320808
7.067919
8.573532
8.027554
8.990765
7.827878
7.991791
7.828474
7.796884
8.042455
8.372664
8.167624
8.413792
8.488894
8.215904
8.182526
8.042455
9.180903
8.760691
10.030866
10.788441
11.796951
13.940930
16.102791
17.549992
18.310547
18.857718
18.939972
19.107461
17.586946
18.351674
14.827847
15.517473
13.237596
11.912584
11.357665
10.583997
10.150671
10.085702
9.648800
8.863807
9.509921
9.147525
9.287000
8.245707
9.336472
9.300709
8.716583
##ZVALUE=255
1.593828
1.461506
1.699924
1.464486
1.614690
1.792908
1.724958
2.015829
2.451539
6.316900
21.127462
71.131587
143.198967
296.433568
444.677472
682.992935
840.262771
1007.285714
1015.712023
995.050669
869.521499
701.444745
448.347926
283.359885
146.160722
106.751919
97.403526
111.031532
135.729909
146.447420
154.629946
150.190592
135.316849
108.665824
86.226463
55.021644
39.103627
22.962689
15.358925
9.861588
7.961988
6.865859
7.818937
7.208586
6.749630
7.104874
7.092953
7.120967
7.048845
6.784797
7.413626
7.098913
7.128716
6.513596
6.402731
6.670952
6.386638
5.791783
6.678700
6.956458
7.387996
7.191896
7.699728
7.384419
7.145405
7.926822
8.270741
8.973479
9.144545
9.999871
11.063814
12.908578
14.224648
15.596747
14.347434
15.406609
15.780926
15.353560
14.483929
12.830496
12.316704
10.167956
10.611415
9.460449
8.777976
8.692741
7.710457
8.278489
8.486509
7.411838
8.204579
8.573532
7.892847
7.292628
8.482933
8.040667
##ZVALUE=260
1.398921
1.472831
1.473427
1.426935
1.640916
1.692772
1.685619
1.670718
2.028942
1.824498
2.128482
3.329515
10.968447
45.242906
102.922916
246.384740
399.989486
660.896897
859.379768
1015.811563
1015.811563
1015.811563
1015.811563
873.134732
568.161607
385.397673
215.657949
131.310821
91.102719
91.426969
112.690926
131.030679
148.727894
154.681802
151.251554
130.986571
112.542510
82.832575
62.037706
38.644671
24.881959
13.581514
9.564757
7.819533
7.087588
6.243587
7.170439
6.833673
6.913543
6.460547
6.500483
6.523728
6.955862
6.402731
5.686879
6.884933
6.265640
6.230474
6.615520
6.017685
6.450415
6.221533
6.633997
6.148815
6.163716
7.250905
6.432533
7.192492
7.489920
8.981824
9.092689
10.724664
12.127757
12.439489
13.588667
12.566447
12.885928
11.813641
11.309981
10.630488
9.817481
8.933544
8.703470
8.854866
7.684827
7.967949
6.864667
7.869601
7.192492
7.468462
7.808805
7.589459
7.576942
7.867813
7.651448
8.060932
##ZVALUE=265
1.118779
1.319647
1.230836
1.436472
1.308918
1.082420
1.455545
1.336932
1.704693
1.680851
1.626611
1.677871
1.784563
2.467632
6.957650
24.426579
89.830756
177.432895
314.332843
592.679977
846.329927
1015.710831
1015.710831
1015.710831
1015.710831
989.606977
777.645707
493.964553
317.751765
168.944001
107.242465
76.744556
88.045597
116.509795
133.770704
154.106617
158.073902
150.961876
135.923624
107.761621
82.882643
57.311654
38.552880
21.126866
14.296770
8.436441
6.767511
6.639957
6.372929
5.754828
5.556941
5.894899
5.945563
6.006956
6.139874
6.064773
5.606413
5.700588
5.820990
5.810857
6.209612
5.560517
5.770922
5.698800
5.965829
5.604625
6.785989
6.580949
6.910563
8.035898
8.849502
8.824468
10.136962
10.626912
10.751486
11.013746
10.917783
9.633899
9.761453
9.140968
8.830428
7.764697
7.153749
6.666780
7.235408
6.649494
6.337762
6.641746
6.818771
6.611943
6.624460
6.729960
7.353425
7.880926
8.177757
8.612871
##ZVALUE=270
0.882745
0.960827
1.049638
1.246929
1.099706
1.252890
1.240969
1.300573
1.416802
1.136661
1.505613
1.341701
1.660585
1.730919
2.111793
2.325773
2.946854
13.762712
44.097900
143.094659
281.801820
495.311618
865.138769
1015.629768
1015.629768
1015.629768
1015.629768
1015.629768
1004.787683
787.560940
545.608401
292.970538
163.482428
78.786612
66.827536
88.583827
111.461878
138.823986
156.039000
159.501433
152.789950
136.879683
115.821958
82.446933
59.981942
35.948753
23.184419
13.717413
8.580685
6.417632
6.022453
5.994439
5.687475
5.493760
5.666614
5.621910
5.675554
5.335808
5.054474
5.248785
5.192757
4.855990
5.363822
5.276799
5.066991
5.582571
5.513430
6.280541
5.809665
7.302761
8.219481
8.558631
9.303689
9.885430
10.299683
10.033846
9.847879
9.289980
8.688569
7.729530
7.541776
6.837845
6.409883
6.208420
6.097555
5.572438
5.439520
5.796552
6.285906
5.942583
5.759597
6.065965
6.536841
6.611943
6.556511
6.926656
##ZVALUE=275
1.033545
0.952482
1.036525
1.045465
1.046658
1.192689
1.193881
1.034737
1.106858
1.499653
1.333952
1.290441
1.441836
1.334548
1.557469
1.847744
1.830459
2.126694
2.214909
6.044507
25.482774
104.276538
220.503807
473.996997
735.958815
1015.710831
1015.710831
1015.710831
1015.710831
1015.710831
1015.710831
867.903829
614.549518
337.000489
196.222663
88.122487
56.338906
62.086582
82.252622
111.950636
133.304000
153.644681
158.366561
151.984692
137.376785
109.278560
85.915923
57.246685
40.036440
23.031831
14.721751
8.457899
7.092953
5.683899
5.230904
4.987717
5.068779
5.299449
4.875660
5.434752
5.259514
5.245805
5.472898
4.866719
5.047917
4.991889
5.124807
5.435944
5.582571
6.795526
7.190704
8.022785
9.082556
9.196997
9.598732
10.134578
9.820461
8.938909
8.499622
7.923841
7.451773
6.647706
6.141663
6.013513
5.258918
5.422831
5.787611
5.375743
5.140901
5.518794
5.547404
5.377531
5.068779
5.565882
5.472898
5.479455
##ZVALUE=280
1.114607
1.020432
1.114607
1.001954
1.192689
1.025796
1.120567
1.114607
1.062751
1.223683
1.144409
1.207590
1.382828
1.589656
1.454949
1.429915
1.463890
1.706481
1.781583
2.223849
2.445579
2.896786
18.135905
61.477423
192.482471
343.616009
617.632866
887.731910
1015.781760
1015.781760
1015.781760
1015.781760
1015.781760
1015.781760
803.987980
456.933975
271.780491
116.577744
61.571002
45.240521
57.416558
83.106756
107.137561
133.204460
148.868561
154.173970
148.969889
130.537748
111.110806
80.863833
59.100986
36.813617
23.944974
13.467669
9.155869
6.164908
5.308986
5.434752
4.689693
4.837513
4.466772
4.984736
4.956722
5.331635
4.803538
4.921556
4.889965
5.068779
5.422831
5.996823
6.430745
7.730722
7.567406
8.278489
8.224845
8.446574
8.022785
8.082986
7.427931
6.728768
6.122589
5.725622
5.404949
5.064607
5.121827
4.658699
5.044937
4.623532
5.014539
4.562736
4.575849
4.666448
4.999638
4.955530
5.125999
4.864931
##ZVALUE=285
0.938773
0.988841
0.713468
0.732541
0.886917
0.955462
1.174808
1.111627
1.204610
1.170635
0.995994
1.027584
1.113415
1.306534
1.185536
1.123548
1.304746
1.524687
1.390576
1.718998
1.855493
2.004504
2.095699
2.604723
9.340644
35.486817
121.862888
237.119794
483.067036
741.927624
996.086001
1015.710831
1015.710831
1015.710831
1015.710831
1015.710831
994.795561
631.988645
388.161540
176.979899
86.238980
39.358735
37.697554
56.669712
76.222420
106.441975
127.157569
142.918825
152.044892
146.589875
131.356716
108.789802
87.321997
58.951974
39.994717
23.232698
15.106797
8.171797
5.850792
5.039573
4.713535
4.445910
4.644990
4.566908
4.151464
4.698634
4.555583
5.018711
5.444884
5.657673
6.146431
6.759763
7.126927
6.949902
7.504821
7.452965
6.711483
6.667972
6.110668
6.222725
5.570650
5.105734
4.782677
4.375577
4.526973
4.478693
4.596710
4.293919
4.395843
4.132986
4.209876
4.446507
4.277825
4.383922
4.182458
4.336834
##ZVALUE=290
0.962615
0.934601
0.909567
0.906587
0.978708
1.077652
0.810623
0.810623
1.046658
1.186728
1.142621
1.006722
1.217723
1.218915
1.018643
1.323819
1.196861
1.160502
1.395941
1.756549
1.653433
1.827478
1.735687
1.906753
2.453923
2.733469
3.844500
14.328957
72.963834
160.472989
361.488461
623.186827
948.782563
1015.712023
1015.712023
1015.712023
1015.712023
1015.712023
1015.711427
845.669508
541.687012
258.681774
128.526688
46.019554
29.086471
36.996603
50.855875
76.126456
96.389651
122.194886
137.026906
145.443678
143.091679
127.780437
109.467506
79.619884
57.527423
34.563541
25.297999
13.818741
8.988976
5.933642
4.980564
4.686713
4.538894
4.531741
4.779696
4.864931
4.724860
5.547404
6.110668
6.295443
6.631613
6.443858
6.669760
6.620884
6.658435
6.033778
5.358458
5.576611
5.137920
4.943609
4.581809
4.451871
4.296899
4.895926
4.598498
4.265904
4.100800
4.312992
4.201531
4.351735
4.224777
4.251599
4.242659
4.309416
##ZVALUE=295
0.832677
0.950694
0.694990
0.946522
0.719428
0.784993
0.859499
0.862479
0.932813
0.776649
0.862479
0.903606
1.188517
1.068711
1.010895
1.143813
1.114607
1.258850
1.348853
1.089573
1.289845
1.394749
1.380444
1.578927
1.757741
1.781583
2.069473
2.427697
2.714992
5.048513
21.640658
98.500848
223.033428
512.329936
812.261701
1015.710831
1015.710831
1015.710831
1015.710831
1015.710831
1015.710831
986.579657
695.805550
359.981656
192.226768
67.451596
32.694936
23.537874
31.004548
48.720837
67.035556
93.283653
110.838413
132.510662
138.283968
134.871602
123.988986
101.694465
81.237555
54.828525
39.009452
22.641420
14.378428
8.780956
6.254911
5.040765
4.777908
4.979968
5.054474
5.470514
5.633831
5.625486
6.232858
6.454587
6.097555
6.370544
5.973577
5.830526
5.137920
4.565716
4.961491
4.671812
4.393458
4.132986
4.168749
4.256964
4.479885
4.391670
4.049540
4.051924
3.969669
4.025698
3.871918
4.218817
4.132986
4.053712
##ZVALUE=300
0.751615
0.831485
0.800490
0.683665
0.866652
0.772476
0.730753
0.944734
0.850558
0.797510
0.925660
0.774860
0.901818
0.870824
0.914931
0.930429
1.061559
1.037717
1.111627
1.226664
1.070499
1.165867
1.285672
1.373887
1.485944
1.761913
1.559854
1.667738
2.010465
2.049804
2.610683
3.042817
14.198422
55.902600
193.179846
376.071930
737.583637
1015.712023
1015.712023
1015.712023
1015.712023
1015.712023
1015.712023
1015.712023
852.519870
549.721718
270.148516
141.190886
50.821900
22.839904
20.099878
27.867556
44.305921
60.888529
84.925890
104.202628
124.035478
131.106973
129.118562
119.030476
98.519921
80.397725
54.766536
38.994551
22.971630
15.260577
9.299517
6.837845
5.747676
5.589724
5.539656
5.916953
6.107688
6.405711
6.426573
6.538630
5.412698
5.646944
5.058646
4.910827
5.156994
4.567504
4.520416
4.479885
4.255772
4.001856
4.264712
4.337430
4.225969
4.019737
3.814697
3.837943
4.052520
3.933907
3.634691
3.862977
##ZVALUE=305
0.809431
0.760555
0.832677
0.717640
0.820756
0.768900
0.634789
0.775456
0.719428
0.929832
0.908971
0.735521
0.845790
1.033545
0.962615
1.048446
0.994802
1.064539
0.931621
1.239777
1.070499
1.151562
1.163483
1.330972
1.487732
1.707673
1.619458
1.586676
1.685619
1.813769
2.012849
2.433658
2.501607
2.772808
7.849932
37.965775
166.759491
349.694490
723.254681
1014.154553
1015.710831
1015.710831
1015.710831
1015.710831
1015.710831
1015.710831
1015.710831
690.511465
415.295959
223.987699
81.315637
33.464432
15.762448
17.428994
27.724504
39.428473
60.312748
79.138875
101.823807
115.086436
124.593973
123.487711
111.963749
97.410679
73.646903
56.571960
35.889745
24.461746
13.794899
9.681582
7.531643
6.781816
6.502867
6.016493
5.982518
5.927682
5.707741
5.358458
4.886985
4.859567
4.643798
4.259944
4.623532
3.883839
4.086494
4.302859
3.939867
3.934503
4.061460
3.786683
3.681779
3.827810
3.559589
3.983974
3.624558
3.876686
##ZVALUE=310
0.760555
0.730753
0.665784
0.823736
0.501871
0.752807
0.649691
0.802875
0.827909
0.870824
0.884533
0.889897
0.862479
1.019835
0.840425
0.890493
0.809431
0.957847
0.992417
0.829697
0.945926
1.147985
0.851750
0.950694
1.068711
1.256466
1.315475
1.416802
1.598597
1.531839
1.713634
1.589656
1.872778
1.982450
2.335906
2.612472
3.758669
13.547540
79.935789
188.932419
451.712608
758.083463
1015.703678
1015.703678
1015.703678
1015.703678
1015.703678
1015.703678
1015.703678
972.394943
547.843575
319.604874
131.406784
57.295561
18.881559
12.795925
16.860962
22.779703
36.285520
49.667954
73.112845
88.993907
107.486844
116.343498
115.926862
108.904839
91.492534
75.423717
52.728653
37.150979
22.490621
15.933514
10.321736
8.011460
6.449819
5.879998
5.637407
4.782677
4.404783
4.275441
4.180670
4.192591
3.971457
3.951788
4.116893
4.219413
4.005432
3.990531
3.847480
3.869534
3.869534
3.893971
3.621578
3.809929
3.765821
3.511906
##ZVALUE=315
0.733733
0.816584
0.705719
0.551939
0.518560
0.688434
0.674725
0.616908
0.709891
0.784993
0.743866
0.873804
0.772476
0.839829
0.983477
0.924468
0.784993
0.890493
0.875592
0.938773
1.042485
1.045465
0.977516
0.964999
1.019835
1.133680
1.188517
1.315475
1.262426
1.392961
1.469851
1.454949
1.600981
1.785755
1.943707
1.871586
2.309680
2.581477
2.984405
6.982684
29.069781
121.545792
262.903571
576.466918
931.896567
1015.710831
1015.710831
1015.710831
1015.710831
1015.710831
1015.710831
1015.710831
805.087686
422.432423
225.189924
79.432726
30.543804
12.068748
11.234879
14.996529
20.503998
33.395886
47.026873
67.796707
83.202720
100.503564
109.702945
109.664798
104.104877
87.544918
72.089434
52.087903
37.874579
22.712946
14.992952
9.233952
6.935596
5.236864
4.687905
4.366636
4.254580
3.935695
4.026890
3.831983
3.818870
3.738999
4.019737
3.860593
3.737807
3.725886
3.736615
3.682971
3.567934
3.611445
3.533959
3.645420
##ZVALUE=320
0.704527
0.809431
0.624657
0.524521
0.754595
0.562668
0.597835
0.720620
0.714660
0.762939
0.708699
0.799894
0.656843
0.874996
0.942945
0.848770
0.758767
0.859499
0.863671
0.802875
0.911951
0.984669
0.883937
0.959635
0.942945
1.104474
1.019835
0.912547
1.075864
1.171827
1.205802
1.284480
1.270771
1.445413
1.717806
1.664758
1.741648
1.958609
2.071857
2.249479
2.623796
3.787875
12.457967
71.616769
176.348686
448.617935
746.776462
1015.710831
1015.710831
1015.710831
1015.710831
1015.710831
1015.710831
1015.710831
1015.710831
606.035590
338.230729
130.642653
55.622458
16.479492
10.379553
10.685921
12.640953
19.765496
28.171539
44.997931
60.038567
78.377724
92.129707
103.504658
104.689002
98.578930
86.668730
67.302585
52.138567
33.695698
22.744536
13.894439
9.131432
6.212592
4.627705
4.245639
4.289746
4.159808
4.159808
3.891587
3.723502
3.887415
3.763437
3.693700
3.525615
3.785491
3.406405
3.561974
3.348589
3.490448
##ZVALUE=325
0.637770
0.565648
0.881553
0.817776
0.666976
0.588894
0.653863
0.654459
0.639558
0.705719
0.678897
0.585914
0.739694
0.634789
0.750422
0.834465
0.822544
0.729561
0.940561
0.764728
0.792742
0.874996
0.823736
0.922680
1.028776
1.025796
1.042485
0.970960
1.161695
1.141429
1.308918
1.095533
1.274943
1.188517
1.300573
1.610518
1.581907
1.665950
1.933575
1.965761
1.952648
2.484918
2.780557
3.314614
7.236600
46.883821
123.910904
330.239534
605.395436
1015.706658
1015.706658
1015.706658
1015.706658
1015.706658
1015.706658
1015.706658
1015.706658
763.170719
444.433689
186.441541
84.787607
23.087859
11.261702
9.240508
9.718537
12.696981
17.827749
29.494762
41.662455
60.181618
75.287819
90.604424
98.033547
98.458529
91.823936
76.590776
63.308477
44.744611
31.910539
19.736886
13.120770
7.906556
5.974770
4.645586
4.152656
3.814697
3.924966
3.968477
3.736615
3.622770
3.495812
3.436804
3.299713
3.646612
3.453493
3.410578
##ZVALUE=330
0.467896
0.577569
0.610948
0.693798
0.573993
0.689626
0.714660
0.650883
0.605583
0.731945
0.716448
0.679493
0.665784
0.680685
0.698566
0.772476
0.766516
0.742674
0.539422
0.801682
0.664592
0.721812
0.836849
0.853539
0.952482
1.042485
0.943542
0.950694
0.965595
0.901818
0.987649
1.119971
0.968575
1.220703
1.008511
1.214743
1.223683
1.253486
1.355410
1.509786
1.640916
1.856685
1.858473
2.307892
2.474785
2.616644
3.921986
18.675923
62.722564
207.758546
403.846502
804.309845
1015.709639
1015.709639
1015.709639
1015.709639
1015.709639
1015.709639
1015.709639
956.662893
606.879592
276.748538
135.746598
41.934848
15.376806
8.808970
8.385777
9.144545
11.492968
18.234849
26.161671
40.404797
53.728819
71.667433
83.471537
91.130733
92.148781
83.462000
72.644949
55.837631
42.398572
27.136803
19.544959
12.461543
8.575916
5.908608
4.642606
4.094839
3.964901
3.841519
3.583431
3.529787
3.434420
3.278852
3.327727
3.431439
##ZVALUE=335
0.675917
0.729561
0.540614
0.482798
0.582933
0.677705
0.598431
0.518560
0.539422
0.595450
0.652671
0.544786
0.758767
0.689626
0.749826
0.737906
0.713468
0.766516
0.695586
0.659823
0.788569
0.697970
0.632405
0.762939
0.686646
0.834465
0.951886
0.851750
0.801682
0.918508
0.923872
0.883937
0.931621
1.085997
1.075864
1.072884
1.266599
1.214743
1.354814
1.382828
1.465678
1.450777
1.553893
1.599789
1.880527
2.180934
2.143979
2.730489
2.962947
9.015799
33.865571
143.862963
307.533741
687.751770
1015.706658
1015.706658
1015.706658
1015.706658
1015.706658
1015.706658
1015.706658
1015.706658
743.743777
383.119583
196.115971
62.465668
21.888614
9.375811
8.203983
8.399487
9.126663
12.230873
16.220808
26.538968
36.276579
52.822828
64.142942
77.177882
84.130764
84.063411
79.178810
65.280795
54.150820
40.856600
30.661821
18.829703
13.343692
8.634925
6.039739
4.633665
4.128814
3.647804
3.503561
3.435612
3.355742
3.026724
##ZVALUE=340
0.559688
0.508428
0.514984
0.635982
0.527501
0.572801
0.688434
0.757575
0.630617
0.743866
0.588894
0.627637
0.690818
0.734925
0.601411
0.591874
0.664592
0.735521
0.659823
0.774860
0.687838
0.622869
0.835657
0.800490
0.650883
0.793934
0.813603
0.763535
0.910759
0.829697
0.933409
0.925660
0.859499
1.032948
0.906587
1.118779
1.080632
0.897646
1.176000
1.158714
1.173615
1.416802
1.492500
1.446605
1.510978
1.948476
1.773834
2.038479
2.127886
2.471805
2.652407
4.468560
15.970469
81.681013
203.992724
521.803498
887.671709
1015.737653
1015.737653
1015.737653
1015.737653
1015.737653
1015.737653
1015.737653
948.976874
486.796498
266.870856
100.410581
35.629869
11.187792
8.756518
8.330941
8.400679
9.194613
10.824800
16.505718
23.189783
35.132766
46.386719
61.919689
72.037578
79.095960
79.350471
73.699951
65.121651
52.516460
40.730834
27.634501
20.565987
12.732744
8.701682
5.643964
4.577637
3.773570
3.659725
3.448725
##ZVALUE=345
0.600815
0.661612
0.577569
0.694990
0.546575
0.577569
0.557899
0.577569
0.618696
0.634789
0.701547
0.701547
0.498891
0.669956
0.656843
0.662804
0.593662
0.659823
0.529885
0.700951
0.781417
0.608563
0.758767
0.773668
0.744462
0.721812
0.804663
0.830889
0.793934
0.764728
0.702739
1.060963
1.094937
0.774860
0.808835
0.882745
0.859499
1.033545
0.923872
1.132488
1.246929
1.238585
1.281500
1.251698
1.235604
1.541972
1.574755
1.858473
1.818538
1.945496
2.284646
2.484918
2.729893
3.347993
7.192492
45.346618
128.247738
356.231928
654.555559
1015.710831
1015.710831
1015.710831
1015.710831
1015.710831
1015.710831
1015.710831
1015.710831
673.670769
373.361707
140.003562
56.840777
16.780496
9.576678
8.600950
8.055568
7.551908
7.892847
9.711981
13.447404
21.874905
31.281710
44.866800
55.072904
64.748526
71.389675
73.644519
70.459843
61.373711
52.122474
39.267540
29.214621
18.736720
13.173819
7.851720
5.808473
4.394650
##ZVALUE=350
0.450611
0.553727
0.560880
0.598431
0.609756
0.460744
0.552535
0.579953
0.494719
0.592470
0.642538
0.645518
0.557899
0.718832
0.664592
0.486970
0.666976
0.599623
0.677705
0.721812
0.604987
0.670552
0.793934
0.864863
0.602603
0.661612
0.802875
0.827909
0.848770
0.782609
0.646710
0.820756
0.805855
0.860691
0.803471
0.760555
0.857711
1.024604
0.941753
0.811815
1.022816
1.112819
1.091957
1.120567
1.169443
1.249909
1.401901
1.382828
1.435876
1.603961
1.664758
1.705885
2.186894
2.220869
2.446771
2.937913
4.372597
22.961497
77.258945
245.501995
476.182699
958.325863
1015.668511
1015.668511
1015.668511
1015.668511
1015.668511
1015.668511
1015.668511
834.482908
503.369570
219.458938
94.449520
23.107529
10.413527
8.072853
7.252693
6.653666
6.448627
7.282495
8.721948
13.414621
18.624663
28.032660
36.859512
48.880577
57.043433
64.949989
67.041516
64.498782
58.358908
47.092438
38.032532
26.512742
19.316673
12.132525
##ZVALUE=355
0.666976
0.756979
0.556707
0.647902
0.511408
0.790954
0.799894
0.619888
0.768900
0.725985
0.575781
0.701547
0.695586
0.810623
0.671744
0.661612
0.622869
0.635982
0.782609
0.781417
1.031756
0.764728
0.824928
0.760555
0.776649
0.700951
0.838637
0.949502
0.792742
0.897646
0.868440
0.901818
1.025796
0.897646
0.866652
0.857711
1.010895
0.967979
0.998974
1.097918
1.149774
1.159906
1.085997
1.177788
1.136661
1.382828
1.276731
1.406670
1.433492
1.341701
1.586676
1.675487
1.788735
1.945496
2.059937
2.343655
2.604723
2.941489
3.631711
12.133718
44.296980
168.195963
334.665775
709.438920
1015.712023
1015.712023
1015.712023
1015.712023
1015.712023
1015.712023
1015.712023
1015.712023
729.621649
328.823924
152.654648
39.354563
13.665557
8.250475
7.256866
6.454587
6.156564
6.111860
6.730556
7.739663
10.520816
16.387701
23.148656
33.334494
41.709542
53.386688
57.972670
61.028600
59.577823
46.170950
45.717955
35.639405
##ZVALUE=360
0.550747
0.648499
0.616908
0.680685
0.550747
0.637770
0.658631
0.570416
0.577569
0.738502
0.709891
0.817776
0.703931
0.715852
0.828505
0.699759
0.692606
0.633597
0.716448
0.883937
0.857711
0.854731
0.783801
0.834465
0.662804
0.812411
0.746846
0.785589
0.639558
0.964999
0.786781
0.835657
0.998974
1.004934
0.876784
1.017451
0.997782
1.014471
0.943542
1.050830
1.058578
0.944734
1.138449
1.203418
1.230836
1.237988
1.290441
1.342893
1.266599
1.522899
1.469851
1.584888
1.728535
1.741648
1.820922
1.940727
2.311468
2.437830
2.602935
2.795458
3.378987
4.581809
24.732947
86.293817
286.090970
547.204614
997.243524
1015.710831
1015.710831
1015.710831
1015.710831
1015.710831
1015.710831
1015.710831
812.422037
487.570763
202.670693
79.274774
18.102527
8.600950
6.998777
6.472468
6.195903
5.581975
5.346537
5.646944
6.853938
8.730888
13.847947
18.727779
27.649999
35.046935
44.959784
50.597787
54.724813
54.343939
##ZVALUE=365
0.454783
0.608563
0.476837
0.558496
0.487566
0.593662
0.661612
0.503659
0.614524
0.592470
0.581741
0.615716
0.576973
0.614524
0.640750
0.480413
0.576973
0.701547
0.756979
0.694990
0.683665
0.547767
0.613928
0.747442
0.797510
0.764728
0.775456
0.811815
0.755787
0.793934
0.676513
0.765920
0.878572
0.658631
0.805855
0.808835
0.778437
0.926852
1.152754
0.711679
0.996590
1.053810
0.974536
0.982881
1.030564
0.990629
1.244545
1.094937
1.161695
1.318455
1.401901
1.370907
1.420975
1.441836
1.628995
1.758933
1.639724
1.752973
2.032518
2.301931
2.544522
2.805591
3.278852
3.892779
11.444688
49.013495
199.641585
422.628522
905.558467
1015.614867
1015.614867
1015.614867
1015.614867
1015.614867
1015.614867
1015.614867
973.650813
619.176626
273.516774
120.109916
28.103590
10.439754
6.870627
6.207824
5.734563
5.672574
4.837513
4.803538
4.939437
5.498528
7.594824
10.077953
16.012788
22.208691
31.154752
37.664771
##ZVALUE=370
0.653863
0.593662
0.647902
0.578761
0.504851
0.527501
0.744462
0.666976
0.772476
0.528693
0.684857
0.471473
0.581741
0.650883
0.626445
0.583529
0.648499
0.696778
0.622869
0.679493
0.823736
0.732541
0.720620
0.763535
0.642538
0.784993
0.876784
0.650883
0.710487
0.776649
0.877976
0.814795
0.827909
0.896454
0.921488
0.845790
0.938773
0.683665
0.836849
0.904799
1.005530
0.830889
1.033545
1.046658
1.153946
1.120567
1.173615
1.090765
1.126528
1.031756
0.991821
1.099706
1.224875
1.195669
1.351833
1.541972
1.511574
1.512766
1.657605
1.764894
2.014637
2.110600
2.219677
2.465844
2.853870
3.180504
4.822612
26.589632
92.332363
299.979448
566.575527
1010.657549
1015.712023
1015.712023
1015.712023
1015.712023
1015.712023
1015.712023
1015.711427
695.140958
392.420888
145.330429
58.108568
15.651584
7.566810
5.869865
5.629659
5.022883
4.833937
4.371405
4.388690
4.492998
4.867911
6.670952
8.926988
13.631582
##ZVALUE=375
0.523925
0.566840
0.681877
0.416636
0.616908
0.469685
0.637770
0.723600
0.690818
0.586510
0.569820
0.639558
0.545979
0.686646
0.683665
0.500679
0.594854
0.534654
0.705719
0.734925
0.689626
0.668764
0.701547
0.759959
0.794530
0.784993
0.583529
0.696778
0.721812
0.655651
0.643730
0.634789
0.676513
0.797510
0.831485
0.698566
0.820756
0.893474
0.827909
0.748634
0.877976
0.888705
0.805855
0.994802
0.820756
0.820756
0.862479
0.916719
0.979900
0.981688
1.030564
1.173615
1.084805
1.077652
1.123548
1.138449
1.324415
1.260638
1.543760
1.325607
1.518726
1.538992
1.698732
1.775622
1.974702
2.254844
2.526641
3.040433
3.603697
13.735890
53.351521
200.477839
422.955751
911.768675
1015.710831
1015.710831
1015.710831
1015.710831
1015.710831
1015.710831
1015.710831
888.382792
570.342541
273.711681
127.100945
33.068657
11.382699
6.110668
5.553961
5.209446
4.957914
4.378557
4.142523
3.793836
3.810525
4.313588
##ZVALUE=380
0.634789
0.841618
0.614524
0.674725
0.677705
0.664592
0.806451
0.739694
0.773668
0.820756
0.723600
0.662804
0.806451
0.822544
0.792742
0.787973
0.923872
0.785589
0.657439
0.739694
0.746846
0.737906
0.821948
0.824928
0.886917
0.905991
0.742674
0.896454
0.813603
0.901818
0.773668
0.810623
0.835657
0.736713
0.848770
0.957847
0.924468
0.931621
0.757575
0.887513
0.924468
0.981688
1.041889
0.881553
1.020432
1.077652
0.973940
1.053810
1.053810
1.121759
1.150966
1.191497
1.217723
1.185536
1.256466
1.283884
1.294613
1.329780
1.523495
1.427531
1.468658
1.636744
1.741648
1.817942
2.015829
2.070665
2.526641
2.634525
3.193617
3.624558
4.116893
6.547570
37.690997
122.351646
381.247997
700.186491
1015.874743
1015.874743
1015.874743
1015.874743
1015.874743
1015.874743
1015.874743
1015.874743
756.052732
439.429879
170.138478
70.747733
15.963912
7.227659
5.743504
5.239844
4.772544
4.936457
4.412532
4.027486
##ZVALUE=385
0.468493
0.506639
0.494719
0.609756
0.539422
0.474453
0.434518
0.358820
0.411868
0.542998
0.367761
0.517964
0.388622
0.421405
0.577569
0.661612
0.636578
0.565648
0.685453
0.582933
0.620484
0.528693
0.573993
0.548959
0.632405
0.719428
0.540614
0.529885
0.639558
0.523925
0.657439
0.805855
0.692606
0.644922
0.761747
0.675917
0.616908
0.860691
0.804663
0.648499
0.805855
0.786781
0.826716
0.766516
0.797510
0.798702
0.697970
0.906587
0.928640
0.749826
0.916719
0.872612
0.910759
0.885725
1.034737
1.143813
1.127720
1.129508
1.285672
1.100898
1.028776
1.469851
1.264811
1.374483
1.543760
1.552701
1.736879
2.023578
2.274513
2.574921
2.836585
3.156662
3.355742
4.260540
13.355613
82.569718
213.139653
526.293516
917.119980
1015.716791
1015.716791
1015.716791
1015.716791
1015.716791
1015.716791
1015.716791
1015.716791
594.734550
332.869887
126.850605
44.577718
9.513497
5.837679
5.027652
4.633665
4.343987
##ZVALUE=390
0.550747
0.536442
0.623465
0.605583
0.646710
0.652671
0.661612
0.591874
0.458956
0.560880
0.572801
0.604987
0.597835
0.688434
0.721812
0.634789
0.618696
0.705719
0.631809
0.629425
0.572801
0.491738
0.594854
0.466704
0.728965
0.584722
0.671744
0.702739
0.706911
0.697970
0.560880
0.618696
0.602603
0.525713
0.547767
0.603795
0.832677
0.747442
0.817776
0.742674
0.915527
0.910759
0.805855
0.904799
0.843406
0.806451
0.873804
0.918508
0.900626
0.953674
0.933409
0.961423
0.938773
1.150966
1.000762
0.954866
1.055598
1.059771
1.236796
1.188517
1.253486
1.077652
1.387596
1.391768
1.465678
1.426935
1.776814
1.897812
1.983643
2.202988
2.545714
2.662539
2.747774
3.039837
2.985001
3.452897
7.401705
34.141541
155.163407
348.066688
791.385770
1015.797853
1015.797853
1015.797853
1015.797853
1015.797853
1015.797853
1015.797853
1015.797853
853.685737
444.931984
225.799680
69.653988
21.505952
6.360412
5.172491
##ZVALUE=395
0.621676
0.526905
0.667572
0.719428
0.666976
0.623465
0.641942
0.562668
0.606775
0.473857
0.590682
0.507832
0.596642
0.747442
0.680685
0.929832
0.638962
0.613928
0.749826
0.766516
0.892878
0.751615
0.672936
0.612736
0.673532
0.764728
0.704527
0.747442
0.770688
0.746846
0.696778
0.768900
0.754595
0.625849
0.716448
0.811815
0.686646
0.604987
0.834465
0.918508
0.825524
0.827909
0.882745
0.934601
0.844598
0.747442
0.934601
0.927448
0.986457
0.941753
1.072884
1.203418
1.086593
1.038909
1.069903
1.123548
1.062751
1.184940
1.160502
1.092553
1.385808
1.208782
1.244545
1.451969
1.420975
1.637936
1.724958
1.899600
2.098680
2.182722
2.290606
2.348423
2.711415
2.710819
2.591610
2.857447
2.717972
3.405809
4.460812
22.828579
86.290836
295.790434
559.673905
997.940898
1015.867591
1015.867591
1015.867591
1015.867591
1015.867591
1015.867591
1015.867591
990.733504
641.909838
275.274515
125.369430
35.798550
##ZVALUE=400
0.466704
0.523925
0.540614
0.497699
0.365973
0.506639
0.427961
0.480413
0.649691
0.479817
0.564456
0.690818
0.448823
0.456572
0.516772
0.563860
0.426769
0.569820
0.478625
0.566840
0.534654
0.520945
0.431538
0.589490
0.404716
0.471473
0.487566
0.454783
0.587702
0.589490
0.614524
0.610948
0.565648
0.593662
0.634789
0.663996
0.581741
0.571609
0.766516
0.537634
0.798702
0.780821
0.676513
0.784993
0.676513
0.768900
0.949502
0.701547
0.854731
0.862479
0.841618
0.744462
0.749826
0.879765
0.748634
1.014471
0.881553
0.854731
1.048446
1.003742
1.126528
1.007915
0.894666
1.165867
1.163483
1.207590
1.358986
1.491904
1.653433
2.000928
1.951456
2.066493
2.100468
2.016425
2.175570
1.914501
1.942515
2.396703
2.402663
2.998710
3.468990
11.576414
43.863654
162.789822
350.703001
775.880814
1015.710831
1015.710831
1015.710831
1015.710831
1015.710831
1015.710831
1015.710831
1015.710831
751.152635
375.268459
##END
