##TITLE=AAI0551
##FORMAT=SPECTACLE-ASCII V-1.2
##DATA TYPE=ULTRAVIOLET SPECTRUM
##SECOND TYPE=ULTRAVIOLET SPECTRUM
##DATE=02/28/18
##TIME=15:28:46
##SPECTROMETER/DATA SYSTEM=SPECTACLE
##XUNITS=NM EM
##YUNITS=ENERGY
##YFACTOR=1
##FIRSTX=220
##LASTX=410
##NPOINTS=96
##3DDATA=Equidistant
##ZUNITS=NM EX
##FIRSTZ=210
##LASTZ=400
##ZPOINTS=39
##XYDATA=(Y..Y)
##ZVALUE=210
3.784895
3.985763
3.641844
3.839731
4.197955
4.076958
4.540682
3.685951
3.746748
3.834963
3.613830
3.012419
2.998710
3.182888
2.939701
2.268553
3.543496
3.175735
2.701879
3.562570
3.218651
3.677607
3.481507
3.973842
3.532767
4.769564
4.182458
4.441738
4.100800
4.049540
4.242659
4.511476
5.303621
4.648566
4.584789
4.930496
4.861951
5.244613
5.377531
5.723834
4.937649
5.438924
6.301999
6.076694
6.140471
6.477833
5.663633
6.040931
6.161928
6.357431
7.134676
6.310940
6.038547
6.072521
5.919933
7.033944
7.002950
6.850958
7.351637
5.825758
6.891489
6.277561
6.628633
7.270575
7.465482
7.091761
8.498430
9.853840
10.373592
13.009906
13.807416
17.216802
19.967556
22.270679
24.865866
24.028420
25.819540
23.537874
24.324656
21.386743
20.218492
18.954873
15.757680
14.137626
12.534857
12.445450
11.116862
9.586811
9.849668
9.546876
9.969473
9.711981
10.229945
9.956956
11.385679
11.736751
##ZVALUE=215
11.949539
13.875961
10.914803
10.271668
7.401705
6.896853
6.865859
7.172823
7.750988
7.396936
6.940961
6.247759
5.236864
4.213452
3.412962
3.458858
3.018975
2.658963
3.427863
3.981590
3.392696
4.263520
3.851652
3.688931
4.090667
4.308820
4.243851
4.449487
4.325509
4.231930
5.485415
5.309582
5.106926
5.377531
5.811453
5.050898
5.364418
6.254911
5.262494
4.795790
5.579591
5.888939
5.882978
7.334948
6.230474
6.373525
6.060600
6.188750
7.725954
7.112622
5.882978
7.276535
5.891919
6.446838
6.177425
6.863475
6.733537
6.568432
7.260442
6.153584
7.887483
7.803440
7.700920
8.280873
7.606745
8.534789
8.234978
8.823872
10.885000
11.681914
14.084578
14.573932
18.395782
18.569827
21.202564
21.734834
23.369789
22.312999
20.430684
22.011995
21.133423
18.588901
16.291738
15.416741
14.011860
12.944937
11.565685
10.865927
11.846423
10.206699
10.573864
11.047721
10.552406
10.778904
12.530684
12.131929
##ZVALUE=220
51.400661
51.425695
41.861534
37.603974
32.016635
25.151968
21.880865
17.445683
15.834570
16.177893
15.405416
16.832948
14.377832
13.990998
10.232925
8.256435
6.748438
5.346537
4.215837
3.684759
3.843904
3.884435
4.299879
3.950000
4.230738
4.922748
4.642606
4.759431
4.948974
5.522966
6.380677
6.739497
6.450415
6.437898
6.415844
6.522536
5.943775
7.244945
6.849766
6.646514
7.042885
6.880760
6.806850
6.660819
7.228851
7.087588
6.514788
6.435513
8.087754
7.090569
6.992817
8.513927
7.527471
8.079410
7.273555
6.666780
7.713437
7.746816
8.350611
8.692741
7.515550
8.155704
8.574724
8.313656
8.079410
7.902980
8.573532
9.122491
11.279583
13.017654
14.861822
16.608834
18.691421
22.078753
22.797585
23.162961
23.560524
24.467707
21.964908
22.403598
21.468997
20.629764
18.032789
17.038584
16.500950
14.179945
13.008714
11.840463
11.130571
10.695457
12.121797
10.407567
10.415912
9.977818
10.635853
10.327697
##ZVALUE=225
106.468797
110.710859
122.062564
132.919550
117.345452
104.552507
91.856718
68.866611
49.163699
38.206577
31.226873
27.647614
28.172731
31.240582
30.819774
28.283596
23.738742
18.158555
13.915896
10.201931
7.826686
5.103946
4.718900
4.660487
4.698634
5.274415
4.644990
5.786419
5.813837
6.611943
6.671548
6.646514
7.582903
7.765889
7.900596
8.136630
8.495450
7.600784
7.902980
8.126497
8.485913
8.070469
8.637905
8.950830
8.150935
8.370876
7.842779
8.042455
8.776784
7.877946
9.135604
9.141564
10.056496
8.970499
9.615421
10.562539
9.411573
10.293722
10.216832
10.758638
9.719729
10.364652
9.590983
10.276437
9.373426
10.670424
10.925531
10.557771
13.179779
12.686849
16.370416
16.977787
20.076632
24.654865
24.326444
26.091933
25.898814
25.540590
23.891926
21.925569
20.966530
20.225644
19.699931
17.917752
15.694499
15.621781
14.911890
14.330745
13.407469
14.224648
12.995601
12.957454
13.023615
13.757944
13.506413
12.589693
##ZVALUE=230
111.060739
120.119452
166.293979
222.279429
253.955722
270.482898
265.216827
238.799453
210.139751
153.137445
114.327669
76.138973
59.141517
48.308969
48.809648
54.821968
54.491758
53.062439
45.614839
37.979484
28.048754
22.409558
12.556911
9.596944
6.689429
5.599856
6.725788
6.933808
6.787777
6.295443
7.182956
7.353425
8.015633
8.069873
8.138418
9.632707
9.155869
9.866953
9.594560
9.022951
8.594990
9.432435
10.352731
9.260774
8.732677
9.374619
9.874701
9.867549
10.045767
9.977818
9.204745
10.783672
9.442568
10.929704
10.227561
10.809898
10.907650
9.823442
10.644794
9.549856
11.225939
10.734797
10.658503
10.792613
10.074973
12.094975
11.661649
12.262464
14.422536
15.032887
18.073916
20.563602
24.036765
24.251938
25.941730
27.839541
28.467774
25.410652
26.109815
23.961663
24.443865
22.221804
20.486712
21.264553
19.498467
18.657446
16.925931
17.559528
17.783642
16.636848
16.627908
16.139746
15.989542
17.515421
16.800761
16.933680
##ZVALUE=235
56.336522
59.925914
110.902786
218.867660
299.983621
401.725769
449.945927
487.335920
494.270921
465.385914
393.232703
305.087566
207.893848
151.940584
103.604794
83.467960
74.371696
79.451799
84.946752
87.840557
81.069469
65.105557
53.054690
36.722422
27.078986
17.066598
12.752414
10.145903
9.304881
7.397532
8.436441
9.242892
10.379553
9.772778
9.819865
11.393428
10.325909
9.682775
10.783672
11.742711
9.553432
12.022853
11.260509
11.463761
10.246634
11.098981
10.953546
11.279583
11.562705
11.069775
11.074543
10.484457
12.274981
11.660457
10.579824
11.507869
11.329651
11.918545
12.542605
12.681484
12.109876
12.368560
13.617873
12.336969
13.061762
14.742613
14.526844
14.231801
17.770529
17.995834
20.207763
22.828579
24.195910
29.214621
28.403997
28.987527
32.291412
31.818748
30.369759
30.783415
28.857589
26.182532
26.482940
24.823546
23.931861
22.702813
21.598935
23.141503
23.691654
22.369623
21.392703
22.455454
23.545623
23.052692
21.500587
20.628572
##ZVALUE=240
2.993941
3.671646
24.613738
67.533851
170.458555
263.267756
426.666737
547.264814
665.773749
714.752674
731.194019
694.094896
625.265837
498.175621
380.876660
239.294767
168.266892
118.803978
102.157593
103.800893
118.750930
124.146938
118.659735
107.799768
83.959699
66.976547
48.314929
35.587549
21.772981
14.602542
12.513995
10.629892
10.572672
10.728836
9.976625
11.887550
10.429621
9.839535
10.430813
11.287928
11.197925
10.369420
12.056828
10.812879
12.066960
12.174845
10.823607
11.943579
12.571812
10.419488
10.803938
10.974407
11.832714
10.806918
10.495782
12.112856
11.864901
11.611581
13.509989
12.399554
14.617443
13.177991
12.647510
13.166666
12.944937
14.168620
13.889670
15.915632
17.559528
18.843412
20.785928
24.020672
25.322437
28.091669
31.447411
29.735565
30.770898
31.806827
31.270981
29.069781
29.889941
29.060841
27.355552
26.340485
26.180744
26.548505
26.677847
25.043488
26.196837
25.174618
26.700497
24.531484
23.715496
25.211573
23.412704
24.004579
##ZVALUE=245
1.851916
2.303720
2.499819
2.791882
10.147691
55.549741
128.966570
270.440578
417.584777
555.419922
728.150010
819.468498
873.730779
869.578719
791.912675
666.123629
488.864779
352.391601
245.389938
145.250559
113.147497
104.652643
114.484429
130.349994
132.738948
128.699541
116.304755
96.829534
80.399513
53.404570
39.204955
24.495721
17.486811
12.036562
11.513829
10.116696
10.481477
9.283423
9.472966
10.216832
9.642839
10.578632
9.542704
11.119843
10.559559
9.885430
9.318590
10.594726
10.175705
9.756684
9.579659
10.768771
9.505749
9.732842
10.288954
9.551644
9.613633
10.345578
9.678602
9.800792
9.653568
10.007620
10.322928
10.955930
10.942817
12.048483
12.342930
13.921857
14.136434
15.900731
18.354654
19.953847
21.788478
24.717450
23.413897
25.490522
27.383566
26.463866
25.555491
25.595427
26.033521
24.956465
22.949576
24.217963
21.379590
22.623539
22.201538
22.675991
21.832585
21.508932
21.789670
21.005869
21.140575
21.512508
21.325946
20.209551
##ZVALUE=250
1.624823
1.561642
1.851916
1.864433
2.187490
2.154708
4.482865
24.761558
113.360882
212.211609
407.740474
575.990677
728.277564
869.202018
955.796838
1009.500027
960.940719
836.535692
693.475008
468.595624
306.852460
201.779008
120.831728
100.270510
106.688738
124.920607
139.684677
143.297911
138.752460
127.829909
110.583901
83.891749
59.064627
37.050843
25.954843
15.379786
11.070967
9.810925
8.378625
9.085536
8.615851
7.802844
9.196997
8.715987
9.235740
8.748770
8.159876
7.598996
8.196831
8.050799
7.872581
7.920861
8.425713
8.497834
7.901788
8.630753
7.758737
8.069873
8.798838
8.525848
8.853674
9.915829
8.789897
8.115768
8.861423
8.657575
10.163784
11.594892
11.249781
12.756586
15.378594
16.181469
18.123984
18.852949
21.472573
21.585822
21.519661
21.903515
21.034479
19.430518
19.170642
20.464659
18.979907
18.324852
18.718839
16.901493
16.394854
17.665625
17.410517
16.480684
17.268658
17.349720
18.449426
17.018914
17.564893
17.556548
##ZVALUE=255
1.568794
1.450777
1.538992
1.570582
2.545714
2.209544
2.180934
2.460480
2.883673
10.301471
70.199966
162.260532
289.188623
511.255860
693.293810
910.406709
1009.861827
1015.710831
1015.710831
1015.710831
872.409940
672.557950
405.424833
258.249640
141.917467
105.558634
93.845725
106.856823
129.961967
143.433809
149.317980
144.416690
130.977631
107.640624
83.352923
56.684613
37.719607
22.921562
15.858412
9.838939
9.011626
8.183718
8.357763
7.678866
7.108450
8.098483
8.072853
8.656979
7.829666
8.451939
7.909536
7.824898
7.805824
8.752942
7.521510
8.205771
7.486939
7.984638
7.742643
8.028746
7.994771
7.896423
8.728504
8.583665
9.375811
10.229945
9.763837
10.195971
11.572838
12.457967
13.454556
16.028881
17.000437
18.506646
19.508600
17.975569
19.866824
19.791722
19.305944
17.736554
17.101765
17.321706
16.680956
15.618801
14.046431
15.130639
14.835000
14.560819
15.184879
14.734864
14.710426
16.172528
15.081763
14.399886
14.726520
15.753508
##ZVALUE=260
1.495481
1.536608
1.346469
1.731515
1.874566
1.557469
1.855493
2.017617
2.453923
2.373457
2.990961
5.065799
23.916960
113.430023
226.143003
463.666916
674.086809
962.307453
1015.710831
1015.710831
1015.710831
1015.710831
1015.710831
869.323611
550.823808
361.520648
198.916793
127.440691
87.418556
86.716413
101.463795
131.128430
144.882798
154.958963
149.988532
132.524967
112.877488
82.943439
60.349703
38.325787
25.191903
14.614463
10.236502
8.817911
8.153915
8.030534
7.990599
7.991791
7.623434
7.237792
7.674694
8.551478
7.801652
7.402897
7.858872
7.754564
7.312894
8.068681
7.445812
7.608533
7.913709
8.193851
8.162856
8.296967
8.100867
8.400679
9.081960
10.186434
9.984970
11.592507
13.285875
14.804602
15.077591
16.549826
17.915964
18.486977
17.388463
17.471910
17.481446
16.097426
15.822649
16.648769
14.708638
15.615821
13.984442
13.554692
13.713837
13.142824
13.598800
13.335943
13.736486
13.514757
14.539957
13.266802
14.202595
14.016628
##ZVALUE=265
1.603961
1.416802
1.475811
1.337528
1.440644
1.611710
1.793504
1.910925
2.026558
1.728535
2.219677
2.365708
2.215505
3.738999
10.249615
68.270564
158.600807
351.114869
557.665825
908.262730
1015.710831
1015.710831
1015.710831
1015.710831
1015.710831
1015.710831
910.063982
598.106980
289.509892
166.018605
91.631413
73.787570
84.223747
113.246441
130.502582
151.574612
153.423548
150.572658
135.973692
107.426643
85.288882
57.903528
39.001703
22.587776
16.437769
10.797977
9.174943
8.960962
8.283854
8.309484
7.866621
8.420944
8.313656
7.830858
8.182526
7.927418
7.831454
7.949471
7.610917
8.081794
7.902980
7.766485
7.978678
8.308887
8.382797
8.453727
9.164810
9.862781
10.287762
10.379553
11.917949
14.053583
13.852715
16.033649
16.321540
16.268492
16.056895
15.244484
14.828444
14.189482
13.609529
13.396740
12.753606
12.811422
12.497902
12.596846
12.796521
12.690425
13.294816
13.005733
12.438893
12.887716
14.214516
13.366938
12.941957
14.483929
##ZVALUE=270
1.344681
1.430511
1.351833
1.293421
1.365542
1.369715
1.194477
1.428723
1.845956
1.758933
1.947880
2.053976
1.949668
2.434850
2.425909
2.806783
4.134774
30.066967
89.748502
252.743959
440.964699
675.829649
1001.520753
1015.707850
1015.707850
1015.707850
1015.707850
1015.707850
1001.685858
744.078755
497.178435
248.246789
137.085915
68.582892
64.613819
86.465478
107.112527
137.308836
149.649978
156.579614
149.343610
133.070946
114.824772
82.726479
60.982704
37.089586
24.869442
15.326738
11.020899
8.584857
8.467436
8.234978
8.331537
8.454919
7.724762
7.521510
7.685423
7.628798
7.279515
7.643700
7.391572
7.478595
7.684827
7.353425
8.002520
7.989407
7.743835
8.544922
9.332895
9.799600
10.504723
12.203455
13.333559
13.657808
13.734698
13.856888
14.091730
13.892651
13.316870
13.113618
13.013482
13.162494
11.654496
12.074709
11.879802
11.707544
11.436939
12.319684
11.759996
11.431575
12.011528
11.891723
12.134910
12.196898
12.729764
12.192726
##ZVALUE=275
1.089573
1.179576
1.271963
1.146793
1.261830
1.191497
1.409650
1.304746
1.395941
1.479983
1.561642
1.500845
1.594424
1.592636
1.862645
2.122521
2.108812
2.717972
3.168583
12.388825
52.749515
139.446855
342.277884
568.764806
920.515656
1015.712023
1015.712023
1015.712023
1015.712023
1015.712023
1015.712023
915.246606
633.952022
331.204534
189.061761
85.092783
56.465864
62.045455
81.434846
110.844970
130.183697
148.660541
156.178474
149.798989
136.418939
107.766986
84.322691
58.266521
42.379498
24.630427
17.012954
10.778904
8.693933
8.174777
7.666945
7.687807
7.836819
7.430911
7.822514
7.319450
7.302761
7.639527
7.118583
7.248521
7.347465
7.114410
7.583499
8.423924
8.588433
9.252429
10.421872
11.101961
11.863708
13.815761
13.312697
13.762712
13.632774
14.213920
13.220906
12.597442
12.573600
12.431741
12.227893
11.288524
12.021661
12.338758
11.228919
11.904836
11.819601
12.243986
11.864901
12.387633
13.108850
12.766719
12.908578
13.194680
##ZVALUE=280
1.071692
1.053810
0.979900
1.079440
1.071692
1.126528
1.148582
0.945926
1.154542
1.414418
1.237988
1.493692
1.695752
1.580715
1.706481
1.859665
1.902580
1.987815
1.913905
2.417564
2.750754
3.863573
31.888485
100.085735
279.374719
460.575819
762.251616
999.885798
1015.710831
1015.710831
1015.710831
1015.710831
1015.710831
992.060900
740.274787
413.484573
247.562528
109.790564
61.157942
44.817924
56.843758
83.420873
107.419491
130.636692
145.025849
151.571631
145.687461
127.210617
109.487772
80.927610
59.944987
38.019419
26.041865
15.429854
11.181831
8.695722
7.658601
6.930828
6.961823
7.005930
6.971955
6.842613
6.900430
7.110834
7.361770
7.049441
7.198453
7.405877
8.497834
9.569526
9.557605
10.351539
11.281967
11.693835
12.694597
13.326406
13.684630
12.723804
13.204813
12.421608
12.579560
12.566447
12.674928
12.636781
12.744665
12.840629
13.028979
12.860894
13.066530
13.525486
13.656616
14.034510
14.117956
13.685822
13.600588
13.985634
##ZVALUE=285
1.050830
1.225471
1.144409
1.131892
1.009703
1.007915
1.121759
1.292825
1.305938
0.991821
1.255870
1.247525
1.210570
1.457930
1.411438
1.260638
1.420975
1.709461
1.857877
1.855493
2.155900
2.468824
2.568960
3.208518
17.095804
59.901476
149.280429
357.909799
569.748878
917.448997
1015.710831
1015.710831
1015.710831
1015.710831
1015.710831
1015.710831
969.509482
568.912625
344.786644
157.685876
80.268979
39.416552
37.568808
56.291819
76.872706
106.785893
124.393702
142.003894
147.610903
141.770840
130.797625
105.268955
85.088611
58.698654
41.272640
24.113655
15.660524
10.548830
7.898808
7.026792
6.894469
6.869435
6.897449
6.959438
7.047653
7.050633
7.209778
7.360578
8.507967
9.074807
9.365678
10.702610
10.690689
12.110472
12.494922
12.531877
12.917519
13.148785
13.661981
13.437867
13.348460
13.609529
13.951659
14.412999
13.828874
14.462471
15.139580
14.908910
15.025735
15.455484
15.116930
15.269518
15.121698
15.689731
15.348792
14.846921
##ZVALUE=290
0.981688
0.879765
1.039505
0.916719
1.145601
0.971556
1.192689
1.091957
1.215935
1.265407
1.129508
1.002550
1.228452
1.252890
1.183748
1.279712
1.360774
1.340508
1.509786
1.652837
1.830459
1.717806
2.175570
2.142787
2.663732
3.230572
5.207658
23.105741
101.233721
211.513638
373.861790
695.336461
985.988975
1015.710831
1015.710831
1015.710831
1015.710831
1015.710831
1015.710831
787.741542
502.230525
234.562755
112.451911
43.120980
28.456450
35.175681
49.777627
73.704720
93.237758
119.680762
133.240819
141.870975
139.734745
125.077963
107.494593
79.566836
61.114430
38.308501
25.900602
15.503764
10.890961
8.329749
7.064939
6.774664
6.744862
7.126927
6.843805
7.512569
7.824898
8.404851
8.786917
10.097623
11.106730
11.661649
11.906624
12.308955
12.793541
12.829900
13.422966
14.218688
13.513565
14.503598
14.663935
15.395880
15.242696
15.551448
15.725493
16.664863
16.497970
15.962720
16.358495
16.343594
16.186833
16.525984
16.018748
15.710592
##ZVALUE=295
0.894666
0.902414
0.857711
0.784993
0.985861
0.796914
1.066923
1.027584
0.992417
1.042485
1.183748
0.876784
0.980496
1.419783
1.195669
1.264811
1.114607
1.221895
1.409650
1.168847
1.292825
1.492500
1.617670
1.704693
2.094507
2.030730
2.353787
2.677441
3.085732
8.996725
35.629869
129.296780
262.245536
543.063879
797.742605
1015.710831
1015.710831
1015.710831
1015.710831
1015.710831
1015.710831
920.356512
620.208979
317.704678
161.920786
56.421757
28.922558
23.267865
30.814409
47.731996
65.151453
91.517568
109.040737
128.382444
137.409568
132.116675
121.447444
99.328756
81.445575
55.547953
39.385557
24.183989
16.445518
10.346770
8.047819
6.853938
6.824732
7.560849
7.223487
8.422732
8.223653
9.389520
10.180473
11.484623
11.534691
12.261868
11.748672
12.504458
13.028979
13.419986
13.847947
14.288425
14.985800
15.661716
15.710592
16.209483
16.708970
16.377568
16.541481
16.358495
16.607642
16.826987
16.826987
15.979409
16.452670
15.985966
##ZVALUE=300
0.814795
0.905991
0.817776
0.729561
0.823736
0.701547
0.874996
0.785589
0.856519
0.965595
0.937581
0.922680
0.912547
1.029968
1.011491
1.156926
1.164675
1.095533
1.035929
1.111627
1.260638
1.261830
1.443624
1.557469
1.726747
1.610518
1.791716
1.830459
2.017617
2.360940
2.595782
4.065633
15.836954
79.534650
175.388455
386.517644
606.436729
956.108570
1015.710831
1015.710831
1015.710831
1015.710831
1015.710831
1015.710831
813.951492
460.001826
272.539854
110.770464
49.554706
20.293593
18.883944
28.448701
39.913654
61.705709
79.588890
104.496479
119.144917
128.527880
126.246810
114.791989
100.176930
75.384974
57.403445
38.192868
26.001930
14.807582
10.887980
8.333921
7.770658
7.678866
7.874966
8.879900
9.776950
10.077953
10.702610
10.990500
11.650920
12.067556
12.529492
13.709664
13.221502
14.406443
14.136434
14.897585
15.203953
16.188622
16.424656
16.211867
16.369820
16.625524
16.262531
15.956759
15.776753
15.401840
16.100407
14.876723
##ZVALUE=305
0.782609
0.846982
0.902414
0.826716
0.848770
0.775456
0.772476
0.851750
0.682473
0.838637
0.760555
0.757575
1.011491
0.972748
0.921488
0.942945
1.040697
0.906587
1.035929
1.058578
0.998974
1.018643
1.293421
1.361966
1.314878
1.335740
1.416802
1.379848
1.717806
1.760721
1.939535
1.979470
2.361536
2.705455
7.704496
47.456622
117.708445
293.499827
488.488674
827.059746
1015.701890
1015.701890
1015.701890
1015.701890
1015.701890
1015.701890
1015.701890
678.019524
418.097973
180.192590
82.136989
26.246905
15.037656
17.655492
24.527907
40.777922
55.946708
79.003572
96.601844
113.850832
119.991899
119.990706
111.068487
92.089772
75.055957
52.038431
39.011836
23.728609
16.614795
10.997653
9.019971
8.585453
9.011626
9.289980
10.075569
10.640621
10.434985
11.187792
11.498928
12.320876
12.598634
13.290644
13.788939
13.549924
14.310479
14.790893
14.798641
14.730692
14.980435
15.398860
15.081763
15.037656
14.530420
14.553666
14.660954
14.280677
##ZVALUE=310
0.821948
0.787973
0.868440
0.908971
0.843406
0.888705
0.811815
0.755787
0.854731
0.715852
0.729561
0.805855
0.788569
1.073480
0.952482
0.931621
1.029968
0.942945
0.995994
1.008511
1.156926
1.171827
1.187921
1.214743
1.179576
1.151562
1.272559
1.365542
1.414418
1.366735
1.539588
1.818538
1.818538
1.837611
2.313852
2.357960
3.601909
20.565987
61.956644
177.990794
328.475833
629.528761
912.328959
1015.710831
1015.710831
1015.710831
1015.710831
1015.710831
1015.710831
847.798586
556.084514
278.499722
143.067837
47.161579
19.111633
12.314916
14.832616
23.273826
33.333898
50.901771
67.479610
90.726614
103.526711
113.889575
114.162564
104.990602
91.958642
72.362423
55.206418
36.800504
26.296973
17.042756
13.613701
10.376573
9.912848
10.119677
9.663701
9.856820
10.169744
10.421872
11.022687
11.647940
11.672974
12.349486
12.732744
12.627840
12.575984
13.081431
13.141632
12.916923
12.895465
12.870431
12.719631
12.394786
12.334585
12.186766
##ZVALUE=315
0.758767
0.848770
0.822544
1.052618
0.917912
0.921488
0.910759
0.953674
0.981688
0.895858
0.952482
1.064539
0.991821
1.104474
1.034737
0.974536
1.032948
0.813603
1.039505
1.073480
1.066923
1.235604
1.030564
1.189709
1.131892
1.325607
1.421571
1.524687
1.512766
1.534820
1.648664
1.641512
1.914501
1.727939
1.905560
2.094507
2.161860
2.559423
2.751946
8.795857
33.346415
118.912458
239.018798
496.649742
773.543715
1015.847921
1015.847921
1015.847921
1015.847921
1015.847921
1015.847921
1011.338830
754.289627
404.686928
221.621990
78.415871
29.725432
11.644959
11.228919
14.886856
20.275712
32.506585
45.534968
65.577626
80.998540
98.194480
106.813908
108.673573
101.262927
86.957812
72.300434
52.019954
39.303899
25.514960
18.546581
12.939572
10.928512
9.545684
9.745955
9.672642
9.722710
10.206699
10.279417
10.366440
10.380745
10.886788
11.100769
11.132956
11.349916
10.958910
11.507869
10.885596
11.621714
11.052489
10.803938
10.885596
##ZVALUE=320
0.741482
0.676513
0.732541
0.815988
0.684857
0.681877
0.750422
0.635982
0.741482
0.858903
0.917912
0.886917
0.739694
0.865459
0.679493
0.969768
0.999570
1.040697
0.855923
0.757575
0.847578
1.037717
0.974536
0.965595
1.015663
1.054406
1.278520
1.111627
1.313686
1.197457
1.232624
1.188517
1.436472
1.342893
1.650453
1.699924
1.595616
1.765490
1.889467
2.077818
2.509952
4.058480
15.118718
72.206855
168.017745
395.357609
624.487996
978.857875
1015.712023
1015.712023
1015.712023
1015.712023
1015.712023
1015.712023
947.744846
535.245538
308.449864
129.253864
54.682493
15.345812
9.624958
10.516644
12.477636
19.276738
27.692914
43.762922
58.494806
76.619983
90.938807
100.939870
103.002787
96.133947
86.188912
66.950917
52.231550
34.784675
25.664568
16.789436
12.997985
10.369420
9.483695
9.128451
9.117723
9.476542
9.208918
9.270906
9.675622
9.582639
9.616613
9.548664
9.512901
9.518862
9.544492
9.070635
9.481907
9.083748
##ZVALUE=325
0.688434
0.638962
0.748634
0.584722
0.802875
0.739694
0.645518
0.721812
0.877976
0.807643
0.865459
0.759959
0.782609
0.743866
0.670552
0.647902
0.838637
0.709891
0.737906
0.934601
0.780821
0.917912
0.930429
0.964999
0.955462
0.882745
1.071692
1.327991
1.064539
1.022816
1.078844
1.005530
1.091957
1.260638
1.257658
1.164675
1.320839
1.557469
1.729727
1.693964
1.804829
2.012849
2.265573
2.732873
7.492900
45.871735
113.549829
283.690691
476.962924
725.083947
1015.707850
1015.707850
1015.707850
1015.707850
1015.707850
1015.707850
993.002653
724.372864
392.719507
220.211744
78.839660
29.961467
10.373592
8.346438
9.689927
11.911988
18.259883
26.291609
42.825937
57.892799
76.034665
86.833835
97.882748
97.465515
90.177655
79.981685
62.516928
47.729611
32.564998
23.636818
15.643835
12.235641
9.640455
9.226799
8.743405
8.662939
8.692741
8.652806
8.247495
8.421540
8.529425
8.465648
8.503795
8.344650
8.457899
8.284450
##ZVALUE=330
0.702739
0.710487
0.720620
0.743866
0.580549
0.538826
0.762939
0.705719
0.710487
0.759959
0.639558
0.531673
0.720620
0.776649
0.588894
0.627637
0.717640
0.589490
0.976920
0.795722
0.716448
0.666976
0.692606
0.803471
0.918508
0.823736
0.761747
1.041889
0.893474
0.924468
1.043677
1.086593
1.070499
1.131892
1.062751
1.204610
1.349449
1.353621
1.286864
1.259446
1.497865
1.736879
1.761913
1.883507
2.080798
2.294779
3.859997
21.100640
63.486695
190.825462
348.873734
654.079914
935.217738
1015.710831
1015.710831
1015.710831
1015.710831
1015.710831
1015.710831
869.718790
578.809977
287.602544
146.863461
46.968460
16.020536
8.896589
8.271933
9.212494
11.929870
18.380880
25.872588
40.059686
52.566528
70.678592
82.834959
89.978576
89.637637
83.295703
74.409842
58.035851
45.288801
30.708909
22.592545
15.401840
12.383461
9.752512
8.735657
8.060932
7.979870
7.668734
7.635951
7.679462
7.745624
7.482767
7.642508
7.672906
##ZVALUE=335
0.538826
0.543594
0.591874
0.749826
0.757575
0.637770
0.634789
0.622869
0.821948
0.587702
0.625849
0.814795
0.640750
0.740886
0.752807
0.673532
0.654459
0.709891
0.782609
0.834465
0.733733
0.752807
0.725985
0.752807
0.811815
0.894666
0.721812
0.966787
0.954866
0.955462
0.950694
1.039505
0.928640
0.948906
0.999570
0.986457
1.021624
1.058578
1.180768
1.297593
1.192689
1.347661
1.325607
1.551509
1.623631
1.598597
1.828671
2.202988
2.482533
9.752512
35.939813
127.412677
249.911547
523.011684
797.770619
1015.710831
1015.710831
1015.710831
1015.710831
1015.710831
1015.710831
910.873413
644.086599
349.902511
186.906457
62.340498
23.127794
9.493828
8.064508
7.945895
8.982420
11.768937
16.295910
25.933981
35.674572
51.597953
64.001679
76.377988
83.111525
84.845424
79.839826
67.079663
56.496859
43.748617
33.103824
21.971464
16.583800
11.721849
9.428859
8.353591
7.393956
7.109642
7.209778
7.189512
6.958842
7.128716
##ZVALUE=340
0.629425
0.513792
0.577569
0.817776
0.623465
0.630617
0.549555
0.567436
0.690818
0.630617
0.652671
0.677705
0.455976
0.599623
0.580549
0.581741
0.527501
0.726581
0.679493
0.672936
0.800490
0.734925
0.777841
0.771880
0.729561
0.664592
0.600815
0.808835
0.745654
0.903606
0.868440
0.877976
0.811815
0.930429
0.944734
0.845790
1.049638
0.924468
1.012683
0.959635
1.165867
1.106858
1.336932
1.316667
1.282692
1.314878
1.591444
1.654625
1.840591
2.073646
2.253652
4.678965
18.291473
82.623959
188.444853
437.063575
703.034997
1015.710831
1015.710831
1015.710831
1015.710831
1015.710831
1015.710831
960.094929
685.873628
375.438929
217.173696
89.409947
34.621954
10.506511
8.412600
7.969737
8.159876
9.137988
11.072755
16.894937
23.036599
35.097599
46.236515
62.178969
70.826411
78.306794
78.347921
74.077845
66.879988
53.116679
42.380691
30.077696
22.793412
15.751719
11.867881
8.799434
7.696748
6.875992
6.868839
6.711483
##ZVALUE=345
0.553727
0.582933
0.503659
0.469685
0.668764
0.530481
0.652671
0.495911
0.591874
0.707507
0.615716
0.640750
0.683665
0.525713
0.639558
0.695586
0.666976
0.654459
0.626445
0.375509
0.835657
0.724792
0.745654
0.667572
0.612736
0.841618
0.789762
0.819564
0.629425
0.632405
0.799894
0.795722
0.832677
0.950694
0.999570
0.910759
0.873804
0.914931
1.026988
1.068711
0.911951
0.964999
1.047850
1.239777
1.085997
1.158714
1.310706
1.536608
1.474619
1.702905
1.537800
1.837611
2.019405
2.582669
7.990599
47.698617
122.224689
298.307538
509.126782
854.495764
1015.690565
1015.690565
1015.690565
1015.690565
1015.690565
1001.105905
771.425962
463.582873
271.898508
112.060905
50.694942
15.791655
9.023547
7.905960
7.517934
7.370710
8.130670
10.178685
13.538599
21.523833
30.921698
45.022964
54.000616
64.677596
70.518851
72.189569
70.102811
61.417818
53.071976
40.881634
31.634569
21.295547
15.341640
10.869503
8.846521
7.342696
##ZVALUE=350
0.692606
0.860691
0.675917
0.814795
0.727773
0.695586
0.679493
0.784993
0.740886
0.739694
0.631809
0.729561
0.712872
0.799894
0.809431
0.721812
0.841618
0.691414
0.721812
0.735521
0.743866
0.753999
0.877976
0.831485
0.904799
0.834465
0.837445
0.881553
0.909567
0.921488
0.888705
0.891685
0.808835
0.932813
0.866652
0.867844
1.066923
1.064539
1.004934
0.865459
1.019835
1.017451
0.966787
1.141429
1.174808
1.125932
1.253486
1.402497
1.400709
1.458526
1.564622
1.595616
1.864433
2.081990
2.045631
2.492666
4.223585
26.257634
75.044632
210.222006
378.739834
710.762739
979.533792
1015.834808
1015.834808
1015.834808
1015.834808
1015.834808
889.763832
537.308455
339.442492
163.615942
78.175664
21.823645
9.569526
7.379651
6.988645
6.465912
6.595850
7.752776
9.193420
13.619661
18.854737
27.993917
36.379695
49.146414
57.733655
64.511895
66.738725
64.189434
59.470534
48.150420
40.640831
29.120445
22.272468
15.467405
##ZVALUE=355
0.655651
0.651479
0.659823
0.578761
0.540614
0.500679
0.644922
0.519753
0.678897
0.587702
0.622869
0.563860
0.626445
0.693798
0.571609
0.522733
0.689626
0.734925
0.657439
0.781417
0.750422
0.777841
0.650883
0.801682
0.746846
0.675917
0.703931
0.735521
0.777841
0.664592
0.895858
0.795722
0.779629
0.789762
0.783801
0.702739
0.971556
0.723600
0.844598
0.919700
1.044869
0.938773
0.969768
1.031756
0.871420
1.086593
1.165867
1.184940
1.094937
1.143813
1.411438
1.389980
1.467466
1.411438
1.740456
1.736879
1.934767
2.141595
2.677441
12.180805
42.582750
144.269466
278.803706
556.666851
835.508704
1015.709639
1015.709639
1015.709639
1015.709639
1015.709639
985.378623
648.400784
404.478908
175.066590
83.651543
24.492741
10.457635
7.067919
6.757975
6.282926
6.144643
6.094575
6.356835
8.501410
11.077523
16.825795
23.488998
33.238530
41.962862
50.197840
57.073832
60.573816
59.260726
54.143667
47.239661
37.570596
##ZVALUE=360
0.539422
0.513792
0.513792
0.477433
0.507832
0.574589
0.526905
0.638962
0.444651
0.533462
0.584722
0.495911
0.490546
0.541806
0.597835
0.586510
0.687838
0.618696
0.588894
0.573993
0.621676
0.701547
0.568628
0.557899
0.639558
0.626445
0.540614
0.677705
0.676513
0.700951
0.675917
0.707507
0.591874
0.778437
0.734925
0.755787
0.755787
0.591874
0.976920
0.732541
0.936985
0.974536
0.974536
0.951886
0.772476
0.992417
0.983477
1.030564
0.934601
1.000762
1.124740
1.155734
1.333952
1.456738
1.374483
1.292825
1.569986
1.818538
1.910925
2.289414
2.575517
5.128980
19.909739
83.746910
192.939639
446.121693
706.280470
1015.596986
1015.596986
1015.596986
1015.596986
1015.596986
1015.596986
777.942538
513.727665
255.538821
129.005909
40.577650
15.674829
7.219911
6.366968
5.976558
5.610585
5.300641
5.407929
5.827546
6.904602
9.372830
12.704730
19.210577
26.162863
36.735535
44.294000
51.294565
54.195523
54.101944
##ZVALUE=365
0.564456
0.517964
0.560880
0.626445
0.444651
0.631809
0.722408
0.659823
0.824928
0.634789
0.659823
0.565648
0.678897
0.632405
0.787973
0.824928
0.674725
0.719428
0.654459
0.757575
0.660419
0.601411
0.697970
0.681877
0.679493
0.784993
0.629425
0.726581
0.882745
0.718832
0.823736
0.886917
0.958443
0.920892
0.823736
1.024604
0.880957
0.887513
0.936985
0.980496
0.757575
0.659823
0.870824
0.866652
0.980496
0.863671
1.028776
1.012683
1.161695
1.144409
1.053810
1.165867
1.372695
1.238585
1.393557
1.432896
1.394749
1.519918
1.527667
1.821518
1.996756
2.399683
2.357960
2.954006
7.979870
46.055913
116.671920
297.326446
538.951755
961.524844
1015.710831
1015.710831
1015.710831
1015.710831
1015.710831
954.880714
657.647848
347.163677
180.383921
60.921907
23.028851
7.952452
6.356835
5.906820
5.710721
5.446672
5.317926
4.930496
5.435944
5.993843
7.615685
11.676550
15.792847
23.854971
30.226707
39.092898
##ZVALUE=370
0.621676
0.622869
0.662804
0.762939
0.707507
0.719428
0.499487
0.616908
0.571609
0.723600
0.755787
0.519753
0.687838
0.778437
0.818968
0.649691
0.705719
0.686646
0.662804
0.779629
0.801682
0.535846
0.772476
0.740886
0.689626
0.748634
0.893474
0.869632
0.606775
0.716448
0.605583
0.698566
0.778437
0.806451
0.685453
0.652671
0.710487
0.696778
0.784993
0.778437
0.851750
0.873804
0.919700
0.788569
1.028776
1.005530
0.837445
0.915527
1.018643
0.990629
0.872612
0.924468
1.024604
0.969768
1.176596
1.178980
1.251698
1.144409
1.339912
1.483560
1.486540
1.602769
1.675487
1.926422
2.044439
2.468824
4.281402
23.686886
74.919462
233.472586
433.637500
802.257657
1015.715599
1015.715599
1015.715599
1015.715599
1015.715599
1015.715599
786.030889
431.590676
239.262581
90.662837
39.061904
12.783408
7.025599
5.826950
5.573630
5.052686
4.905462
4.478693
4.781485
4.826784
5.435944
7.321835
9.644628
14.358759
##ZVALUE=375
0.511408
0.499487
0.442863
0.318885
0.455976
0.440478
0.482798
0.398755
0.481606
0.682473
0.470877
0.618696
0.488758
0.519753
0.486970
0.415444
0.592470
0.512600
0.648499
0.505447
0.582933
0.444651
0.713468
0.558496
0.462532
0.592470
0.544786
0.492930
0.777841
0.592470
0.517964
0.386834
0.500679
0.553727
0.514984
0.478625
0.563860
0.552535
0.522733
0.655651
0.596642
0.532866
0.647902
0.662804
0.697970
0.838637
0.639558
0.793934
0.811815
0.878572
0.850558
0.871420
0.869632
0.843406
0.855923
0.905991
0.829697
0.946522
1.090765
1.023412
0.992417
1.226664
1.248717
1.310706
1.465678
1.606941
1.780987
2.220869
2.721548
12.240410
41.029453
136.379600
275.089741
590.538979
887.504816
1015.608907
1015.608907
1015.608907
1015.608907
1015.608907
922.765732
542.734861
335.983634
161.108971
74.900985
22.295713
8.593798
5.385876
5.002618
4.876852
4.662871
4.483461
4.698634
4.178882
4.486442
5.003810
##ZVALUE=380
0.326633
0.249743
0.321865
0.363588
0.366569
0.224710
0.291467
0.300407
0.309944
0.352859
0.229478
0.322461
0.217557
0.460744
0.459552
0.290871
0.168681
0.289679
0.287890
0.252724
0.350475
0.403523
0.460744
0.305772
0.384450
0.278950
0.153780
0.392795
0.638962
0.446439
0.347495
0.230670
0.414848
0.536442
0.449419
0.402927
0.336766
0.333786
0.502467
0.383854
0.512600
0.518560
0.413656
0.487566
0.571609
0.515580
0.629425
0.646710
0.486970
0.503659
0.481606
0.513792
0.559688
0.561476
0.539422
0.655651
0.705719
0.797510
0.762939
0.893474
0.915527
0.953674
0.938773
1.124740
1.094937
1.155734
1.368523
1.568794
1.791716
1.852512
2.645850
5.312562
30.619502
85.662603
239.137411
427.739620
784.243941
1015.464664
1015.464664
1015.464664
1015.464664
1015.464664
1015.464664
807.744861
449.055433
252.451897
98.073483
42.072535
11.518598
5.739927
4.760623
4.530549
4.339814
4.229546
3.769994
3.974438
##ZVALUE=385
0.502467
0.456572
0.537634
0.473857
0.429749
0.459552
0.529885
0.438690
0.375509
0.537634
0.631809
0.428557
0.506639
0.633597
0.488758
0.510812
0.683665
0.401735
0.595450
0.396967
0.442863
0.464916
0.671744
0.623465
0.619888
0.599623
0.672936
0.583529
0.691414
0.562668
0.612736
0.481606
0.602603
0.622869
0.611544
0.726581
0.588894
0.641942
0.727773
0.652671
0.763535
0.745654
0.717640
0.648499
0.797510
0.706911
0.722408
0.738502
0.682473
0.720620
0.865459
0.894666
0.941753
0.736713
0.746846
0.861883
0.847578
0.971556
0.965595
0.869632
1.085997
1.126528
1.024604
1.123548
1.212955
1.273751
1.385808
1.642704
1.799464
2.008677
2.223849
2.336502
2.446771
3.610849
13.275743
70.655942
163.104534
378.446579
636.310577
1012.839675
1015.712023
1015.712023
1015.712023
1015.712023
1015.712023
1001.420617
721.148849
379.094481
211.172700
77.335835
28.221607
7.585883
5.235672
4.708767
4.451871
4.297495
##ZVALUE=390
0.375509
0.448823
0.406504
0.472665
0.486970
0.324845
0.293851
0.392795
0.303984
0.422597
0.413656
0.541806
0.466704
0.478625
0.466704
0.641942
0.509620
0.508428
0.498891
0.549555
0.442863
0.505447
0.446439
0.528693
0.569820
0.433922
0.671744
0.434518
0.531673
0.491738
0.548959
0.504851
0.598431
0.617504
0.616908
0.476837
0.465512
0.505447
0.566840
0.632405
0.652671
0.500679
0.697970
0.787973
0.581741
0.698566
0.617504
0.654459
0.650883
0.696778
0.747442
0.576973
0.800490
0.738502
0.792742
0.748634
0.851750
0.736713
0.799894
0.953674
0.942945
0.992417
1.131892
1.010895
0.996590
1.210570
1.087785
1.376867
1.520514
1.800656
1.937747
1.949668
2.127886
2.251863
2.398491
2.675653
6.503463
47.135949
133.966804
342.587829
590.580702
987.538695
1015.642881
1015.642881
1015.642881
1015.642881
1015.642881
1015.642881
947.086811
546.674728
306.138396
118.600726
50.466657
12.629628
5.633831
4.708767
##ZVALUE=395
0.497699
0.499487
0.482798
0.579953
0.430942
0.610948
0.481606
0.613928
0.385642
0.569820
0.492930
0.511408
0.596642
0.510812
0.650883
0.411868
0.543594
0.583529
0.474453
0.664592
0.539422
0.684857
0.461936
0.630617
0.570416
0.493526
0.703931
0.577569
0.770688
0.652671
0.631809
0.640750
0.626445
0.562668
0.583529
0.727773
0.588894
0.650883
0.602603
0.681877
0.653863
0.720620
0.617504
0.632405
0.781417
0.681877
0.661612
0.695586
0.733733
0.754595
0.836849
0.809431
0.732541
0.869632
0.859499
0.874996
0.872612
0.937581
0.996590
0.905991
0.963807
1.017451
0.974536
1.143813
1.075864
1.314878
1.208782
1.567602
1.510978
1.685619
1.608729
1.886487
1.828671
1.916885
1.871586
2.046824
2.328753
2.453923
3.515482
24.840832
97.082853
308.286548
543.207526
948.054790
1015.710831
1015.710831
1015.710831
1015.710831
1015.710831
1015.710831
1006.318927
617.582798
375.850797
167.998672
77.382922
22.820830
##ZVALUE=400
0.545979
0.571609
0.342727
0.542998
0.519753
0.574589
0.576973
0.620484
0.586510
0.541806
0.501871
0.431538
0.446439
0.502467
0.446439
0.515580
0.486970
0.616908
0.674725
0.503659
0.556707
0.534654
0.556707
0.457764
0.560880
0.595450
0.548959
0.530481
0.527501
0.472665
0.574589
0.604987
0.496507
0.509620
0.633597
0.699759
0.629425
0.703931
0.536442
0.598431
0.549555
0.692606
0.766516
0.668764
0.720620
0.568628
0.643730
0.642538
0.694990
0.789762
0.700951
0.798702
0.722408
0.883937
0.703931
0.745654
0.874996
0.872612
0.851750
0.782609
0.896454
0.805855
0.812411
1.074672
0.965595
1.185536
1.216531
1.470447
1.491904
1.664758
1.697540
1.635551
1.723766
1.806617
1.494884
1.792908
1.696944
1.875758
2.243519
2.526641
2.770424
11.932850
45.795441
168.207884
345.881581
708.398819
1007.368565
1015.701890
1015.701890
1015.701890
1015.701890
1015.701890
1015.701890
786.210895
500.596762
237.021446
##END
