##TITLE=AAI0802
##FORMAT=SPECTACLE-ASCII V-1.2
##DATA TYPE=ULTRAVIOLET SPECTRUM
##SECOND TYPE=ULTRAVIOLET SPECTRUM
##DATE=02/28/18
##TIME=16:16:48
##SPECTROMETER/DATA SYSTEM=SPECTACLE
##XUNITS=NM EM
##YUNITS=ENERGY
##YFACTOR=1
##FIRSTX=220
##LASTX=410
##NPOINTS=96
##3DDATA=Equidistant
##ZUNITS=NM EX
##FIRSTZ=210
##LASTZ=400
##ZPOINTS=39
##XYDATA=(Y..Y)
##ZVALUE=210
5.698800
4.491806
5.432963
4.960895
5.255938
4.505515
4.329681
4.118681
4.025698
3.878474
3.496408
3.436804
3.333688
3.844500
3.861785
3.443956
3.853440
4.006624
4.290938
4.449487
4.624724
5.352497
5.583763
5.208850
5.280972
6.086826
6.189942
6.416440
5.831718
6.351471
6.358624
7.424951
6.911755
7.281899
8.225441
7.414818
7.124543
6.763935
6.453991
6.752610
6.215572
6.907582
8.063912
7.351637
7.561445
7.226467
8.212924
7.007718
8.000731
8.661747
7.813573
8.420944
8.231997
7.727742
8.177757
8.823872
9.446740
7.616878
9.297729
9.784698
8.573532
8.560419
8.974671
8.210540
9.836555
9.783506
10.494590
10.980964
13.097525
16.367435
17.660856
21.049976
23.746490
26.537776
28.365850
29.253960
30.080676
28.289557
29.635429
28.179884
26.084781
25.271773
20.611882
19.852519
16.588569
13.452768
10.000467
8.893609
8.922815
7.937551
8.878708
8.401871
9.546876
9.733438
9.765625
10.171533
##ZVALUE=215
18.168688
18.579960
13.842583
10.863543
9.449720
7.971525
7.667542
8.320808
9.012818
7.924438
7.630587
6.522536
5.914569
4.639626
4.047751
4.201531
3.416538
3.735423
4.204512
3.734827
3.903508
4.109740
4.881620
4.444718
4.602671
6.215572
4.688501
5.250573
5.404949
5.208850
5.691648
5.541444
5.552769
5.591512
6.526709
6.396770
5.379915
6.378889
5.640984
6.313920
6.392598
5.440712
6.070733
6.016493
5.910993
5.404949
6.011724
6.503463
7.154942
7.161498
6.560683
6.242990
5.502701
5.947948
6.761551
6.903410
7.444620
6.514788
7.148981
6.879568
7.086992
6.679893
8.377433
7.977486
6.628633
8.373857
8.465648
9.462833
10.967851
11.567473
13.520718
14.793873
16.153455
18.633604
20.843744
19.259453
21.079779
22.584796
19.503832
19.255877
19.318461
18.643737
17.061830
13.628602
10.986924
8.494854
8.551478
7.470846
7.249713
6.750822
7.112622
6.320477
6.420612
7.118583
6.650686
7.990599
##ZVALUE=220
47.142506
48.620701
52.558780
44.224858
38.766861
29.798746
22.420883
19.054413
15.958548
15.451908
16.913414
17.438531
15.423894
13.836622
10.999441
9.405613
6.617904
5.537868
4.246831
4.081726
4.045963
4.097819
4.673600
4.881620
3.848672
4.864931
4.573464
5.414486
4.932880
5.811453
5.131960
5.387664
5.546808
5.217791
4.829764
5.884767
5.771518
6.019473
6.464720
6.490946
5.721450
6.419420
6.381869
6.678700
6.139874
5.503893
7.294416
5.778670
6.813407
7.096529
6.918907
6.855726
6.944537
6.880760
7.459521
6.941557
7.349849
6.578565
7.597804
6.740689
6.599426
6.208420
7.151961
6.070733
6.817579
6.738901
8.018613
7.597804
8.338690
9.510517
11.448860
11.080503
12.932420
14.557838
14.544725
14.910698
15.392900
12.458563
14.121532
13.270974
12.459755
11.744499
10.121465
9.347796
8.142591
8.648634
7.129908
6.506443
6.094575
5.921721
6.629825
6.007552
6.431937
6.218553
6.148815
6.192923
##ZVALUE=225
61.889887
69.589615
79.631805
98.536611
100.519657
97.325444
82.224607
62.514544
46.997666
39.306879
30.485988
28.682947
29.348731
31.111836
29.688478
28.277636
22.915602
17.642975
14.685988
11.223555
6.788969
4.438758
4.325509
4.316568
3.881454
4.131794
4.619956
4.623532
4.316568
4.430413
5.318522
5.302429
5.390644
5.592704
4.651546
5.200505
5.049706
5.439520
6.065965
4.457831
5.711913
6.645918
5.069971
6.137490
5.447865
5.971789
5.951524
5.541444
5.915761
5.386472
5.182624
6.240606
6.108880
7.021427
6.033778
6.200671
5.644560
5.668998
6.091595
5.779862
6.581545
6.653666
6.566644
6.157756
7.212758
7.501841
7.591844
6.970763
8.729696
9.935498
9.685755
10.935664
12.034774
11.919737
12.872815
13.725758
14.001727
13.613701
12.918711
11.760592
10.773540
10.500550
9.583831
9.402633
9.914637
7.684827
8.069873
6.976724
7.554889
7.999539
7.623434
7.307529
7.595420
7.426739
7.213950
7.516742
##ZVALUE=230
58.401823
60.955882
95.407963
130.707622
169.270635
207.811594
221.010447
201.974511
177.144408
130.238533
97.636580
66.965818
53.321719
45.857430
49.135685
53.400993
55.564642
51.980615
45.872927
39.683580
27.652979
19.210577
12.006760
8.965731
5.334616
4.630685
4.704595
4.964471
4.876852
5.464554
4.934669
4.899502
6.024837
5.180836
5.843639
5.476475
5.914569
5.479455
5.593896
6.011724
5.806684
5.189776
6.218553
6.053448
6.786585
6.956458
6.583929
6.059408
6.965995
6.393790
6.597638
6.852746
7.131696
6.421804
5.786419
6.903410
7.232428
7.021427
6.825924
6.786585
7.412434
6.856918
7.778406
6.991625
8.409619
9.114742
8.266568
8.795857
9.425879
9.360909
9.034872
12.395978
13.473630
14.601946
14.390945
15.853643
16.734600
14.409423
14.208555
12.821555
12.761950
11.645555
11.810660
11.545420
9.992719
10.849833
9.379983
8.469820
9.636879
10.897517
9.528995
8.378625
9.192824
8.865595
8.703470
8.195639
##ZVALUE=235
21.704435
23.214817
54.175854
88.863969
159.282684
215.832591
287.916660
348.240733
369.168520
356.877446
301.507711
237.302780
182.325840
119.177699
90.428591
76.004863
80.256462
84.578991
86.885691
84.892511
81.682801
69.474578
50.578713
38.727522
23.214817
17.417669
10.287762
8.100867
7.519722
6.893873
6.559491
6.472468
7.210970
6.462932
5.791783
6.713867
6.900430
6.108880
6.790757
6.916523
6.660819
7.005930
7.058978
7.038713
7.371902
6.777644
7.745624
6.353855
7.313490
6.880760
7.001758
7.200837
7.902980
6.941557
7.902980
7.234812
7.132888
8.620620
8.383989
7.625818
8.226633
7.796884
7.921457
9.273887
8.679628
9.891987
9.765625
10.329485
10.620952
10.539889
11.965632
15.848875
15.523434
17.091632
17.341971
19.257665
18.623471
19.124746
15.680790
16.925931
16.651750
15.368462
14.508963
12.424588
12.747645
12.447834
11.081696
11.126995
12.339950
11.029840
10.603666
11.638999
11.057854
11.129975
11.060834
10.561943
##ZVALUE=240
2.505779
3.265738
8.511543
35.934448
69.695711
135.281682
212.401748
348.937511
447.911620
567.555428
595.712662
571.568012
517.823696
379.992723
292.638540
213.234425
133.751631
105.178952
98.861456
105.788708
119.081736
125.360489
116.477609
105.928779
82.116723
69.619417
50.554872
32.268763
23.063421
13.922453
11.331439
8.435845
8.993745
7.802844
8.241534
7.861853
8.271933
7.709861
6.853938
7.587671
8.427501
7.007718
7.557869
7.348657
6.764531
7.251501
7.270575
7.686615
7.770658
7.354617
6.203651
7.593632
6.549954
8.037686
7.839799
8.114576
7.403493
7.465482
7.537603
7.958412
8.211732
8.827448
8.841753
8.727908
9.823442
8.489490
9.261966
10.004640
11.831522
12.835860
13.204813
15.102625
16.240478
18.270612
17.077923
18.013716
17.523766
18.542409
17.489791
15.598536
15.893579
14.826655
15.965700
15.201569
12.649894
13.140440
14.278889
13.624430
12.926459
13.197660
13.379455
11.874437
13.001561
13.745427
12.561679
13.235807
##ZVALUE=245
2.092719
2.189875
2.387762
2.053976
6.736517
20.720959
56.967735
112.110972
224.656463
325.633883
485.787988
599.088669
676.155686
695.030689
654.597878
525.622964
413.937569
272.578597
194.793940
124.645829
101.966858
103.811622
122.906566
137.834549
139.250755
132.563710
115.346909
102.649927
75.546503
57.484508
40.060878
23.691654
17.643571
10.802746
9.655952
8.211732
7.746816
8.086562
7.758737
7.689595
8.500814
7.359982
7.169843
6.955862
7.230639
7.160902
6.871819
7.240772
8.071661
6.758571
7.297993
7.259846
7.140636
7.023811
7.272959
7.020831
7.596612
6.836653
6.701946
7.280707
7.131696
8.573532
7.424951
7.980466
8.709431
9.300709
9.241700
9.452701
10.435581
11.782646
14.009476
13.442636
14.155507
15.026927
17.075539
16.698837
15.570521
16.008615
16.062856
14.921427
14.325976
13.889670
13.471842
14.654994
12.068748
12.990832
12.777448
13.511777
12.374520
12.029409
12.188554
13.283491
12.833476
12.602806
12.866855
12.351871
##ZVALUE=250
1.461506
1.804829
1.665950
1.748800
2.026558
2.220869
3.146529
13.797879
39.937496
98.660588
181.742907
320.187807
442.501903
607.614517
704.843998
760.859847
743.349791
672.971010
516.486764
386.319757
242.176652
162.603855
106.306672
98.558664
113.501549
128.589869
138.909817
144.218802
140.007734
125.056505
108.598471
78.682899
57.709813
36.234856
24.584532
14.754534
9.770989
8.490682
6.766915
7.563829
7.193685
6.838441
7.256866
5.979538
6.990433
6.659627
6.367564
6.266832
5.991459
6.036758
6.160736
6.047487
6.547570
6.206632
6.587505
6.283522
5.842447
5.930662
5.716681
5.877614
6.695986
6.193519
6.414652
7.035732
7.054806
8.031726
8.314848
8.101463
7.765889
8.958578
9.970665
11.572838
12.182593
12.371540
13.926625
13.944507
13.179779
13.302565
13.121963
12.313724
12.691617
12.455583
12.522936
11.989474
12.100935
10.713935
11.190772
11.018515
11.080503
12.088418
11.123419
10.992885
11.505485
10.737777
11.753440
11.754632
##ZVALUE=255
1.370907
1.462698
1.572967
1.505613
1.768470
1.777411
2.064705
1.695752
2.054572
6.947517
25.099516
79.414845
151.845813
306.231976
437.968969
642.105937
758.571029
866.830945
885.619521
794.759989
678.708553
543.465018
334.745646
216.751695
125.287771
97.845793
94.656944
109.483600
132.423639
145.129561
151.016712
144.287944
134.258866
103.815794
86.608529
57.052970
38.639903
22.578835
13.153553
8.705854
7.756948
6.823540
5.862713
6.456971
6.479621
6.094575
6.344914
6.385446
6.134510
6.115437
5.993843
6.048679
5.527735
5.083680
5.325675
6.389618
6.053448
5.876422
5.455613
5.908608
6.001592
5.494952
6.594658
5.578995
6.384850
6.056428
6.021857
7.266998
7.729530
8.214712
8.478761
10.831952
11.130571
10.790825
11.813641
12.967587
11.954904
11.476874
11.533499
11.253953
11.047721
10.858774
11.681914
10.608435
10.236502
10.381937
10.012984
10.608435
10.254979
10.223985
9.928942
10.980964
10.493994
10.400414
10.416508
10.856986
##ZVALUE=260
1.521707
1.542568
1.414418
1.652837
1.418591
1.529455
1.439452
1.552701
1.567602
1.786947
2.065897
3.007650
12.297630
46.584010
94.046593
210.932493
337.817669
533.627868
684.486032
871.918797
951.680541
948.769450
817.682743
663.884878
434.621572
297.559500
168.864727
112.336874
79.869628
86.145997
102.339983
129.501820
146.002769
153.282881
152.308941
134.414434
114.219785
83.043575
61.273575
38.075447
23.974776
14.044642
8.855462
6.136894
5.698800
5.824566
6.072521
5.374551
5.315542
5.645752
5.698800
5.023479
5.562901
4.720688
5.269647
5.159974
4.935861
5.190969
5.056858
5.489588
5.315542
5.384684
5.392432
5.879998
5.399585
5.715489
5.703568
6.154776
7.043481
7.398725
8.134842
8.567572
9.541512
9.876490
10.752678
10.574460
11.219978
9.886622
10.221601
9.447932
9.005666
10.053515
9.715557
9.495616
9.990931
9.957552
9.327531
9.348989
9.464622
10.181665
9.615421
9.828806
9.708405
10.142922
10.115504
9.868741
##ZVALUE=265
1.244545
1.242757
1.573563
1.316667
1.438856
1.172423
1.524687
1.085997
1.536608
1.322627
1.740456
1.795888
1.722574
2.166629
7.527471
25.721788
86.142421
160.234571
267.671943
481.248498
675.001740
906.223655
1014.311910
1015.710831
967.871547
768.207908
602.538586
376.604795
244.453549
130.265951
85.684657
69.904923
83.646774
113.635659
136.205554
153.747797
159.028769
152.390003
134.775639
107.471943
85.102916
54.940581
36.627650
21.368861
12.522936
8.111000
6.299615
5.412698
5.295873
5.387664
5.364418
5.567670
4.990697
5.154610
5.190969
5.123615
5.295873
4.757643
5.454421
5.144477
5.126595
5.334616
5.252957
5.732775
5.215406
5.939603
6.223917
6.351471
6.064773
6.780624
7.319450
8.643866
8.779764
9.513497
9.813905
9.002686
9.511709
8.943677
9.164810
9.832978
8.892417
8.785725
8.607507
8.804798
8.656979
8.521676
8.720756
8.970499
9.234548
8.780956
8.942485
9.065866
9.033680
9.447932
9.680986
9.503961
##ZVALUE=270
1.183748
1.201630
1.196861
1.200438
1.294613
1.224875
1.163483
1.189709
1.407862
1.636744
1.580715
1.602769
1.701713
1.794696
1.872778
2.040863
2.756715
14.162660
42.421818
121.981502
234.305859
392.690897
657.248497
864.636898
1015.756726
1015.756726
1015.756726
971.016884
741.552711
553.119779
384.794474
203.781724
113.855004
63.882470
64.313412
85.648894
108.781457
136.741996
152.656436
160.418749
153.745413
135.530829
113.346577
81.088543
58.527589
35.863519
23.211837
13.256669
8.542538
5.965829
5.729795
5.255938
4.970431
5.452633
5.698800
5.232692
4.918575
5.472898
5.411506
5.366802
4.761815
5.097985
5.261898
5.139709
5.351901
5.539656
5.606413
6.291866
6.486773
6.650686
6.782413
7.699728
8.181930
8.788705
8.997917
8.618832
8.354783
8.644462
9.108782
8.307695
8.415580
8.106828
7.831454
7.677674
8.150935
8.133650
8.275509
8.002520
8.046627
8.127689
8.522868
7.936954
8.365512
8.450747
8.366704
8.494854
##ZVALUE=275
1.112819
1.034737
0.988841
1.082420
1.269579
1.185536
1.204610
1.190901
1.408458
1.362562
1.284480
1.284480
1.584888
1.471639
1.690984
1.685619
1.948476
2.163649
2.156496
6.928444
25.342703
70.221424
188.982487
343.066454
608.962774
808.836818
1008.272767
1015.791893
1015.791893
1015.791893
964.213610
699.343681
499.796867
268.541574
156.190991
72.332621
52.267909
62.274933
80.932975
110.133886
132.783651
151.162744
157.013535
151.621699
135.774612
107.675791
85.031986
58.071613
41.117668
22.926927
14.790893
9.000897
6.704926
5.441904
5.527735
5.453825
5.540848
4.910827
5.252957
5.210638
5.190969
5.567670
5.482435
5.246997
5.394816
5.822778
5.659461
6.313920
6.524920
6.929636
7.024407
7.780790
7.807612
8.760691
8.794665
9.434819
9.299517
8.771420
8.421540
8.507967
7.981658
7.779598
8.023977
7.801652
7.448792
7.727742
7.790923
7.957816
8.167624
8.043647
8.092523
8.183718
8.494854
7.882714
8.018613
7.713437
##ZVALUE=280
0.927448
0.804663
0.874996
0.995994
1.091957
1.099706
1.022816
1.040697
1.177788
1.318455
1.131892
1.152754
1.176596
1.287460
1.403689
1.276731
1.340508
1.747608
1.684427
1.863837
2.342463
3.007650
14.795661
51.299930
149.833560
269.109607
487.992764
701.795816
981.222987
1015.710831
1015.710831
1015.710831
1015.710831
805.943012
584.341884
325.166583
191.833973
86.427927
51.226616
42.763948
56.030750
83.798766
106.684566
133.886933
147.715807
154.189467
149.461627
132.121444
112.085938
81.766844
59.847832
37.577748
24.787784
13.764501
8.961558
6.105900
6.083846
5.333424
4.965663
5.705953
5.233884
5.384684
5.683899
5.571842
5.538464
5.389452
5.373955
6.061792
6.142855
6.324649
6.850958
7.412434
7.524490
7.557869
7.507801
8.270741
8.319616
8.328557
8.399487
7.459521
7.759929
7.828474
7.848740
7.865429
7.591844
7.111430
7.780790
7.936954
7.902980
7.508993
7.177591
7.631779
7.858872
7.691979
7.503629
7.551908
##ZVALUE=285
0.706911
0.656843
0.878572
0.866652
0.770688
0.806451
0.974536
0.841618
0.766516
1.018643
0.918508
0.846982
0.986457
1.107454
1.083612
1.152754
1.249909
1.394749
1.366735
1.429915
1.611710
1.703501
2.003908
2.148747
7.591844
26.776791
90.251565
188.449621
393.296480
589.115620
807.991028
1015.648842
1015.648842
1015.648842
1015.648842
919.705033
708.999634
430.641770
265.062451
123.235583
62.443614
34.141541
34.384727
55.847764
75.742602
105.695724
124.480724
141.570568
149.179697
144.526958
133.356452
107.134581
87.503791
57.964921
40.739775
23.524761
14.452934
8.766651
6.797910
5.514622
5.526543
5.248785
5.344748
5.222559
5.115867
6.060600
5.792975
6.127954
6.196499
6.598830
7.151961
7.440448
6.874800
7.991791
7.932782
8.061528
8.013844
8.151531
8.428693
8.142591
7.384419
7.459521
7.974505
7.632971
7.875562
7.795691
7.563829
7.693768
7.801652
7.281899
7.700920
7.700920
7.634759
7.835627
7.481575
7.575750
##ZVALUE=290
0.844598
0.834465
0.854731
0.947714
0.931621
0.924468
1.064539
0.877976
1.029968
0.894666
0.882745
0.897646
1.080632
1.139641
1.214743
1.210570
1.152754
1.206994
1.204610
1.223683
1.271963
1.395941
1.550913
1.607537
1.895428
2.314448
2.916455
13.676882
42.538643
131.958723
250.701904
496.958494
723.007917
1003.082991
1015.710831
1015.710831
1015.710831
1013.780832
842.532516
554.671884
359.597802
179.727674
93.866587
38.015842
25.609732
35.618544
49.054623
73.991418
94.919801
120.989680
135.586858
144.210458
141.710639
126.678944
108.081698
78.434944
59.395432
37.385821
25.140643
14.451742
9.950995
6.770492
5.694628
5.415678
5.438924
5.498528
5.609989
6.063581
6.274581
6.951690
6.823540
7.682443
7.417798
7.822514
7.931590
8.154511
7.498860
7.846951
7.926822
7.419586
7.636547
7.987618
7.425547
7.857680
7.635951
7.696748
7.387996
7.537603
7.495880
7.612705
7.919669
7.639527
7.677674
7.473826
7.969737
8.168817
##ZVALUE=295
0.922680
0.839829
0.943542
0.983477
0.845790
0.882745
1.052618
0.865459
0.936985
1.005530
1.057982
0.991821
1.022816
1.002550
1.059771
1.201630
1.128912
1.167655
1.422763
1.119971
1.378655
1.236796
1.273751
1.336932
1.492500
1.654625
1.762509
2.213717
2.257824
5.064607
17.489791
71.521997
164.206624
380.463600
596.841574
920.333862
1015.781760
1015.781760
1015.781760
1015.781760
974.067450
682.590604
466.398001
248.143673
135.380626
49.957633
25.673509
21.731853
29.279590
48.101544
64.603686
93.431473
111.476779
130.097866
137.636662
133.608580
122.545958
101.677775
82.360506
56.774616
39.757490
24.358630
15.958548
9.498596
7.428527
6.046891
5.859733
5.827546
5.901456
6.248951
6.870627
7.093549
7.240772
7.207990
7.882714
7.695556
8.123517
7.423759
7.667542
7.781982
7.445812
7.807612
7.781982
7.702708
7.877946
7.844567
8.015633
8.332729
7.889867
7.794499
8.186698
7.834435
7.908940
7.818937
8.052588
7.956624
##ZVALUE=300
0.776649
0.793934
0.726581
0.918508
0.882745
0.826716
0.874996
0.912547
0.721812
0.802875
0.779629
0.831485
0.984669
0.964999
0.781417
0.960827
0.940561
1.056790
0.844598
1.004934
0.998974
1.056790
1.021624
1.168847
1.266599
1.316667
1.367927
1.561642
1.647472
1.986623
2.221465
2.553463
12.066960
40.047765
135.030746
260.758400
526.781678
776.281953
1015.710831
1015.710831
1015.710831
1015.710831
1015.710831
862.665772
555.631518
358.413458
174.855590
93.188882
34.215450
18.659830
18.648505
26.497841
43.571591
59.906840
84.283948
103.560686
122.886896
129.309893
127.463937
118.157864
98.643899
81.864595
55.882931
40.159822
24.274588
16.264915
9.945631
7.561445
6.566644
6.464720
6.628633
7.011890
7.245541
7.480979
7.510781
7.448792
7.604957
7.566810
7.659793
7.667542
7.848740
7.728934
7.486939
7.862449
7.825494
8.165836
7.967949
8.100867
7.724762
7.925630
8.248687
7.850528
7.870793
8.135438
7.814765
7.932782
##ZVALUE=305
0.779629
0.757575
0.730753
0.707507
0.661612
0.702739
0.831485
0.883937
0.742674
0.880957
0.762939
0.712872
0.729561
0.908971
1.017451
0.871420
0.933409
0.907779
0.794530
1.043677
1.101494
1.184940
1.021624
0.993609
1.246929
1.158714
1.462698
1.339912
1.558661
1.534820
1.727939
1.906753
2.206564
2.303720
5.583763
37.998557
99.794865
262.601972
456.978679
795.857906
1015.712023
1015.712023
1015.712023
1015.712023
1015.712023
964.290500
725.324750
443.639755
271.261930
121.532679
58.775544
21.192431
13.371706
17.151833
24.621487
40.526986
57.555437
79.692602
97.618699
116.354823
124.052763
121.826530
113.949776
94.731450
76.494813
53.620934
38.184524
23.879409
16.171932
10.352731
8.221865
7.426739
7.394552
7.446408
7.481575
7.500648
7.498860
7.193685
7.163882
7.512569
7.479787
7.657409
8.111000
7.651448
8.138418
7.819533
7.969737
8.272529
7.903576
8.153915
8.111000
7.904768
8.165836
8.136630
7.916689
7.833838
##ZVALUE=310
0.772476
0.685453
0.773668
0.844598
0.739694
0.744462
0.788569
0.814795
0.902414
0.822544
0.899434
0.676513
0.532866
0.810623
0.838637
0.868440
0.860691
0.879765
1.060963
1.094937
0.944734
0.871420
1.105666
1.118779
1.126528
1.322627
1.145601
1.109838
1.176596
1.445413
1.422763
1.514554
1.463890
1.524687
1.682639
2.032518
2.424717
12.013912
38.673878
126.460791
251.645446
526.881814
807.503462
1015.710831
1015.710831
1015.710831
1015.710831
1015.710831
990.614891
627.262592
398.766994
188.143849
97.804666
34.467578
15.170574
11.637807
14.710426
22.785664
33.439994
52.897930
69.172978
90.726614
105.323792
114.012957
118.068457
108.471513
95.282793
74.606538
56.494474
36.917925
25.606751
16.354918
12.157559
9.024739
7.815957
7.295609
7.367730
7.292628
7.102489
7.131696
7.278919
7.484555
7.496476
7.847548
7.821918
7.810593
7.855892
8.009672
8.167624
8.041859
8.015633
7.831454
8.192658
8.056760
7.992983
8.281469
##ZVALUE=315
0.584722
0.815988
0.777841
0.834465
0.700951
0.776649
0.794530
0.810623
0.727773
0.847578
0.775456
0.736713
0.617504
0.717640
0.652671
0.759959
0.942945
0.715852
0.863671
0.994802
1.004934
0.989437
0.946522
1.054406
0.783801
1.086593
1.017451
1.046658
1.241565
1.124740
1.285672
1.072884
1.391768
1.407862
1.614690
1.700521
1.682639
1.852512
2.184510
5.191565
17.739534
77.674985
178.452730
400.919914
638.625622
998.744965
1015.722752
1015.722752
1015.722752
1015.722752
1015.722752
774.949789
521.773696
262.234807
139.988661
51.732659
21.460652
10.124445
10.480881
14.183521
19.597411
32.881498
46.632886
66.680908
83.236694
102.760792
109.865665
110.508800
104.435682
87.407827
71.713924
51.744580
37.792921
24.169683
16.912818
11.392832
9.334683
7.712841
7.278919
7.484555
7.240772
7.472634
7.251501
7.379651
7.426739
7.548928
7.883906
7.530451
7.995963
7.833838
7.844567
8.124709
7.575750
7.832646
8.131862
8.106828
##ZVALUE=320
0.656843
0.609756
0.761747
0.689626
0.937581
0.755787
0.764728
0.883937
0.863671
1.026988
0.765920
0.799894
0.723600
0.851750
0.856519
0.886917
0.774860
0.915527
0.836849
0.885725
1.034737
0.845790
1.087785
0.914931
1.164675
1.233816
1.054406
1.098514
1.234412
1.200438
1.117587
1.393557
1.347661
1.376867
1.317859
1.327991
1.372695
1.580715
1.693964
1.749992
1.956820
5.681515
9.826422
75.401664
97.960830
240.740776
411.351919
699.772835
931.679606
1015.839577
1015.839577
1015.839577
875.465870
847.392678
385.815501
346.291661
173.162818
89.424849
18.963814
11.972785
8.870959
9.412766
12.419820
17.281771
36.896467
45.085549
60.704947
76.005459
95.582604
103.618503
104.819536
99.622607
85.403919
70.252419
50.795674
38.079619
23.338795
16.319752
10.606647
9.096861
7.762909
7.506609
7.799864
7.412434
7.544756
7.559657
7.583499
7.686615
7.429719
7.603765
7.728934
7.652640
7.736683
7.382631
7.614493
7.718801
##ZVALUE=325
0.842810
0.715852
0.721812
0.834465
0.717640
0.828505
0.643730
0.824928
0.705719
0.907779
0.668764
0.901818
0.771880
0.753999
0.763535
0.850558
0.983477
0.862479
0.840425
0.886917
0.851750
0.925660
0.967979
0.974536
0.982881
0.907779
0.991821
1.104474
1.136661
1.006722
1.146793
0.996590
1.256466
1.143813
1.150966
1.199841
1.287460
1.370907
1.403689
1.465678
1.616478
1.791716
1.919866
1.996756
5.358458
18.907785
70.844889
155.135989
356.600881
570.404530
890.047550
1015.846729
1015.846729
1015.846729
1015.846729
923.478007
615.786910
413.262844
212.932825
117.397904
42.960644
18.731952
8.889437
7.936954
8.849502
11.339784
18.105507
26.184916
43.309927
58.872700
77.920556
90.017915
97.558498
99.069476
90.874434
80.679655
63.625574
48.740506
32.241940
23.781657
14.614463
11.170506
8.685589
7.918477
7.429719
7.161498
7.199645
7.203817
7.202625
7.060766
7.245541
7.444620
7.223487
7.155538
7.329583
7.267594
##ZVALUE=330
0.535846
0.580549
0.613928
0.658631
0.629425
0.493526
0.699759
0.658631
0.671744
0.553727
0.629425
0.740886
0.638962
0.621676
0.535846
0.658631
0.526905
0.533462
0.760555
0.731945
0.689626
0.781417
0.784993
0.777841
0.768900
0.710487
0.761747
0.893474
0.930429
0.894666
0.961423
0.871420
0.863671
1.008511
0.901818
1.041889
0.865459
1.108646
1.160502
1.032948
1.296997
1.340508
1.476407
1.504421
1.704693
1.983643
2.603531
12.924671
39.065480
124.273896
237.675905
474.666953
701.496005
992.540717
1015.710831
1015.710831
1015.710831
1012.227535
827.602744
521.767735
326.190591
146.862864
72.464943
24.227500
11.097789
7.854700
7.396936
8.272529
11.022687
17.720461
25.592446
40.654540
53.946972
72.415471
82.606673
91.076493
92.764497
85.112453
75.302720
58.182478
45.212507
30.081868
23.050904
15.264750
11.807680
8.674860
7.403493
7.062554
6.796718
6.739497
7.101893
6.692410
6.827712
6.699562
6.638765
6.822944
##ZVALUE=335
0.530481
0.447631
0.552535
0.577569
0.626445
0.638962
0.605583
0.639558
0.527501
0.497699
0.599623
0.438690
0.590682
0.609756
0.663996
0.722408
0.516772
0.675917
0.784993
0.641942
0.602603
0.588894
0.763535
0.755787
0.598431
0.651479
0.696778
0.835657
0.807643
0.841618
1.006722
0.943542
0.879765
0.813603
0.900626
0.805855
0.994802
0.933409
1.113415
1.139641
1.131892
1.170635
1.135468
1.167655
1.392961
1.414418
1.472831
1.764894
1.921654
5.719662
21.414757
84.486604
178.209543
389.090776
612.850785
943.598747
1015.700698
1015.700698
1015.700698
1015.700698
1002.037525
694.906712
460.963845
233.328938
117.902756
37.481785
15.221834
7.910728
7.333755
7.524490
8.362532
10.992885
15.681982
25.665760
36.292672
53.094625
65.823793
78.324676
85.171461
85.464716
79.885721
67.912936
56.788921
42.547584
32.939911
22.154450
16.144514
11.061430
8.869767
7.588863
6.731749
6.675720
6.434917
6.397963
6.169677
6.497502
##ZVALUE=340
0.561476
0.519753
0.608563
0.439882
0.550747
0.574589
0.581741
0.428557
0.395775
0.538826
0.522733
0.589490
0.494719
0.584722
0.575781
0.611544
0.656843
0.630617
0.575781
0.477433
0.562668
0.753999
0.585914
0.591874
0.759959
0.624657
0.682473
0.670552
0.713468
0.727773
0.523925
0.580549
0.884533
0.753999
0.862479
0.894666
0.779629
0.942945
0.883937
0.965595
1.065731
1.085997
0.972748
1.223683
1.167655
1.232624
1.262426
1.148582
1.458526
1.596808
1.632571
2.727509
9.284616
47.075748
117.482543
293.519497
483.947992
777.207017
989.285707
1015.677452
1015.677452
1015.677452
1015.678048
803.349614
579.747558
310.596824
172.027946
68.253875
25.639534
8.878708
7.444620
7.246733
7.405877
8.333921
10.521412
16.424656
23.227930
35.385489
47.794580
63.353777
73.671937
80.109835
80.265999
75.882673
67.592859
54.273605
42.974949
30.252934
22.585988
14.958978
11.240840
8.074641
7.161498
6.403923
6.258488
6.091595
##ZVALUE=345
0.564456
0.540614
0.468493
0.474453
0.657439
0.513792
0.683665
0.565648
0.605583
0.684857
0.580549
0.708699
0.531673
0.470877
0.666976
0.660419
0.613928
0.581741
0.547767
0.664592
0.682473
0.492930
0.621676
0.713468
0.488758
0.547767
0.714660
0.667572
0.660419
0.529885
0.586510
0.742674
0.821948
0.668764
0.772476
0.704527
0.822544
0.876784
0.879765
0.729561
0.870824
0.878572
0.803471
1.074672
1.066923
0.919700
1.110435
1.160502
1.254678
1.345873
1.346469
1.497865
1.622438
1.872778
4.316568
25.304556
69.626570
191.093683
346.553922
624.985695
846.482515
1015.718579
1015.718579
1015.718579
1015.718579
867.354870
646.587014
378.323793
214.116573
82.887411
37.412643
12.703538
8.054972
6.952882
6.962419
6.901622
7.322431
10.115504
13.982654
22.334456
31.577945
45.690536
55.797696
65.946579
72.134733
74.609518
71.573853
63.025951
53.777695
41.449666
31.582713
21.340847
15.583634
10.572672
7.641912
6.920695
##ZVALUE=350
0.718832
0.654459
0.483990
0.611544
0.492930
0.516772
0.661612
0.673532
0.687838
0.653863
0.628829
0.695586
0.755787
0.702739
0.613928
0.574589
0.602603
0.650883
0.647902
0.674725
0.625849
0.550747
0.786781
0.752807
0.872612
0.715852
0.763535
0.580549
0.726581
0.930429
0.838637
0.874996
0.737906
0.750422
0.835657
0.854731
0.944734
0.941753
0.855923
1.016855
1.012683
0.839829
0.841618
1.011491
0.979900
1.148582
1.240969
1.294613
1.290441
1.210570
1.332760
1.341701
1.621842
1.773834
1.830459
2.080798
3.080964
14.413595
47.576427
169.504881
352.614522
736.238956
1010.075808
1015.756726
1015.756726
1015.756726
1015.756726
1015.756726
813.132524
470.686555
284.477472
127.274990
56.375861
15.794635
8.276701
7.249713
6.718636
6.191730
6.280541
7.253885
8.963943
13.896823
19.053817
28.283000
36.825538
49.617887
58.108568
66.283941
68.134665
65.539479
60.017705
49.791932
40.449500
29.033422
21.500587
14.780760
##ZVALUE=355
0.304580
0.461936
0.500679
0.501871
0.574589
0.437498
0.356436
0.401735
0.412464
0.512600
0.448823
0.553727
0.384450
0.572801
0.465512
0.464916
0.421405
0.367761
0.453591
0.463724
0.585914
0.578761
0.514984
0.374913
0.562668
0.614524
0.501871
0.497699
0.490546
0.518560
0.611544
0.678897
0.537634
0.704527
0.597835
0.654459
0.552535
0.670552
0.607967
0.676513
0.684857
0.913739
0.878572
0.703931
0.972748
0.888705
0.777841
0.883937
0.830889
0.930429
0.976920
0.899434
1.091957
1.264811
1.298785
1.317859
1.525879
1.702905
1.925826
6.959438
23.913980
91.807842
191.501975
414.146781
648.187995
972.321630
1015.579700
1015.579700
1015.579700
1015.579700
850.321054
558.560491
350.632668
161.292553
79.028606
26.232600
10.205507
6.387830
6.084442
5.902648
5.823970
5.980730
6.177425
7.843971
10.591745
16.669631
23.404956
33.485889
41.969419
51.958561
58.487654
61.437488
60.337782
53.962469
46.793818
36.360621
##ZVALUE=360
0.427961
0.307560
0.460744
0.440478
0.340939
0.373721
0.396967
0.342727
0.413656
0.445843
0.468493
0.380874
0.272989
0.430942
0.436902
0.506639
0.471473
0.399947
0.482798
0.409484
0.427961
0.274777
0.581741
0.529885
0.436902
0.398755
0.530481
0.569820
0.577569
0.652671
0.571609
0.439882
0.598431
0.475645
0.476837
0.527501
0.744462
0.520945
0.647902
0.697970
0.501871
0.530481
0.563860
0.605583
0.798702
0.567436
0.815988
0.771880
0.729561
0.859499
0.823736
0.948906
0.970960
1.136661
0.944734
0.906587
1.380444
1.331568
1.343489
1.633763
1.881719
2.712607
12.454987
40.465593
138.236880
270.051956
544.046760
798.237920
1015.496850
1015.496850
1015.496850
1015.496850
936.686993
704.796910
419.992805
254.863501
112.021565
48.469901
13.401508
7.187724
6.007552
5.777478
5.481839
5.123615
4.994869
5.470514
6.794930
8.812547
13.765693
18.657446
27.350783
35.737753
44.776797
50.672889
55.434704
54.985881
##ZVALUE=365
0.683665
0.624657
0.545979
0.458956
0.494719
0.556707
0.519753
0.479817
0.612736
0.660419
0.557899
0.520945
0.604987
0.558496
0.548959
0.578761
0.564456
0.655651
0.637770
0.659823
0.653863
0.547767
0.700951
0.742674
0.679493
0.781417
0.729561
0.583529
0.705719
0.729561
0.707507
0.768900
0.815988
0.874996
0.792742
0.814795
0.891685
0.767708
0.740886
0.868440
0.783801
0.888705
0.719428
0.644922
0.859499
0.805855
0.886917
0.881553
0.928640
0.950694
0.979900
1.143813
1.053810
1.195669
1.235604
1.197457
1.290441
1.372695
1.450777
1.538992
1.512766
1.921654
2.079606
2.592802
5.023479
26.735663
77.627897
221.406817
401.924849
712.266564
957.283974
1015.710831
1015.710831
1015.710831
1015.710831
765.359998
542.396903
305.159688
168.219805
61.957836
24.806857
7.669926
5.852580
5.664825
5.394816
4.984736
5.003810
4.831553
5.092621
6.015897
7.726550
11.415482
15.626550
23.333430
30.599833
38.936734
##ZVALUE=370
0.483990
0.568628
0.377893
0.598431
0.523925
0.518560
0.549555
0.589490
0.543594
0.537634
0.583529
0.550747
0.536442
0.586510
0.573993
0.550747
0.530481
0.576973
0.511408
0.653863
0.766516
0.725985
0.517964
0.746846
0.542998
0.486970
0.738502
0.765920
0.589490
0.676513
0.666976
0.555515
0.714660
0.767708
0.699759
0.598431
0.792742
0.701547
0.668764
0.703931
0.613928
0.709891
0.840425
0.773668
0.771880
0.876784
0.944734
0.811815
0.838637
0.857711
0.807643
0.831485
0.796914
0.980496
0.958443
1.003742
0.998974
1.057982
1.193881
1.178980
1.268983
1.452565
1.425743
1.674891
1.683831
1.869798
2.918839
14.158487
48.236847
169.049501
325.935483
616.299510
876.764655
1015.710831
1015.710831
1015.710831
1015.710831
837.818980
606.684685
330.742598
184.046626
71.232915
31.703711
10.945797
6.214976
5.344748
5.088449
4.623532
4.485846
4.432797
4.373789
4.459620
5.038977
6.805658
9.251833
14.330745
##ZVALUE=375
0.488758
0.580549
0.654459
0.570416
0.424981
0.386834
0.558496
0.518560
0.577569
0.535846
0.475645
0.630617
0.644922
0.535846
0.427961
0.528693
0.571609
0.652671
0.528693
0.442863
0.481606
0.621676
0.606775
0.598431
0.593662
0.683665
0.667572
0.637770
0.722408
0.640750
0.584722
0.744462
0.638962
0.677705
0.565648
0.644922
0.600815
0.794530
0.654459
0.574589
0.594854
0.792742
0.743866
0.698566
0.899434
0.909567
0.809431
0.867844
0.972748
0.793934
0.826716
0.726581
0.768900
0.750422
0.866652
0.922680
0.926852
0.862479
1.073480
1.061559
1.013875
1.120567
1.247525
1.360774
1.253486
1.555681
1.927614
1.958609
2.664924
6.460547
34.694672
90.462565
253.977776
463.861823
828.579664
1015.727520
1015.727520
1015.727520
1015.727520
1015.727520
744.301677
509.924889
277.248621
154.099464
56.669712
23.272634
7.253885
5.458593
4.940629
4.609823
4.183650
4.343987
4.024506
3.835559
3.978610
4.590750
##ZVALUE=380
0.478625
0.554919
0.586510
0.598431
0.627637
0.480413
0.508428
0.616908
0.460744
0.421405
0.543594
0.469685
0.607967
0.529885
0.569820
0.516772
0.712872
0.534654
0.648499
0.720620
0.549555
0.545979
0.588894
0.460744
0.627637
0.512600
0.505447
0.526905
0.566840
0.512600
0.585914
0.605583
0.606775
0.717640
0.703931
0.529885
0.611544
0.487566
0.545979
0.609756
0.574589
0.629425
0.644922
0.755787
0.689626
0.775456
0.741482
0.707507
0.648499
0.763535
0.790954
0.789762
0.796914
0.805855
0.649691
0.886917
0.771880
0.862479
0.883937
1.009703
0.937581
1.050830
1.052618
1.027584
1.148582
1.176000
1.326799
1.579523
1.711845
2.056956
2.308488
4.103780
14.080405
64.780712
155.736804
389.843583
643.609762
992.617011
1015.708447
1015.708447
1015.708447
1015.708447
1005.085707
696.383715
452.950597
208.875537
100.919604
32.172799
12.819767
5.568862
4.721880
4.419684
4.197955
4.114509
3.837943
3.834963
##ZVALUE=385
0.499487
0.449419
0.519753
0.550747
0.648499
0.509620
0.552535
0.449419
0.543594
0.550747
0.535846
0.491738
0.543594
0.565648
0.499487
0.619888
0.455976
0.620484
0.553727
0.583529
0.497699
0.587702
0.669956
0.528693
0.525713
0.647902
0.666976
0.516772
0.580549
0.597835
0.798702
0.594854
0.738502
0.419617
0.700951
0.665784
0.614524
0.748634
0.632405
0.708699
0.591874
0.796914
0.634789
0.701547
0.604987
0.616908
0.655651
0.756979
0.791550
0.676513
0.680685
0.729561
0.612736
0.817776
0.778437
0.856519
0.761747
0.794530
0.768900
0.678897
0.918508
0.917912
0.889897
0.898838
1.072884
1.122952
1.214743
1.321435
1.559854
1.647472
1.771450
2.092719
2.134442
2.560616
6.917715
36.007762
97.363591
262.250900
474.395752
856.617689
1015.740633
1015.740633
1015.740633
1015.740633
1015.740633
834.857821
572.972894
298.662782
162.975788
63.649416
23.754835
6.712675
4.671812
4.060864
4.017949
3.996491
##ZVALUE=390
0.590682
0.512600
0.421405
0.537634
0.426769
0.477433
0.316501
0.467896
0.386834
0.586510
0.578761
0.555515
0.613928
0.414848
0.550747
0.452995
0.452995
0.457764
0.438690
0.523925
0.545979
0.689626
0.557899
0.624657
0.781417
0.528693
0.498891
0.573993
0.552535
0.498891
0.426769
0.608563
0.599623
0.554919
0.617504
0.598431
0.538826
0.631809
0.454783
0.464916
0.525713
0.582933
0.573993
0.585914
0.682473
0.656843
0.623465
0.723600
0.687838
0.641942
0.679493
0.617504
0.571609
0.705719
0.824928
0.755787
0.718832
0.823736
0.841618
0.799894
0.775456
0.895858
0.993609
1.007915
0.977516
0.994802
1.074672
1.222491
1.138449
1.335740
1.506805
1.651645
1.636744
1.820922
1.720786
1.892447
3.482699
18.726587
56.543946
179.170966
347.930789
676.445961
946.808457
1015.710831
1015.710831
1015.710831
1015.710831
980.474949
738.070011
431.331992
241.121650
91.610551
41.054487
11.910796
5.266666
4.184842
##ZVALUE=395
0.458956
0.581741
0.432730
0.571609
0.505447
0.505447
0.396967
0.593662
0.534654
0.299811
0.348687
0.668764
0.392795
0.560880
0.419617
0.472665
0.428557
0.378489
0.413656
0.658631
0.470877
0.574589
0.753999
0.534654
0.366569
0.453591
0.628829
0.557899
0.370741
0.512600
0.522733
0.599623
0.507832
0.555515
0.608563
0.576973
0.564456
0.504851
0.592470
0.695586
0.621676
0.722408
0.551939
0.496507
0.554919
0.551939
0.670552
0.621676
0.668764
0.692606
0.762939
0.756979
0.683665
0.697970
0.727773
0.765920
0.650883
0.748634
0.798702
0.806451
0.872612
0.766516
0.931621
0.898838
0.900626
0.968575
1.087785
1.204610
1.410842
1.368523
1.309514
1.410842
1.580715
1.569986
1.582503
1.618862
1.631975
1.859665
2.370477
10.942817
39.384961
142.746568
278.340578
541.136861
810.064673
1015.710831
1015.710831
1015.710831
1015.710831
1015.710831
928.738713
554.764867
332.644582
136.735439
61.337948
18.035769
##ZVALUE=400
0.564456
0.392795
0.579953
0.474453
0.500679
0.525713
0.533462
0.424981
0.480413
0.484586
0.324845
0.500679
0.581741
0.562668
0.535846
0.373721
0.509620
0.463724
0.557899
0.492930
0.470877
0.427961
0.608563
0.630617
0.513792
0.674725
0.653863
0.515580
0.639558
0.423789
0.479817
0.574589
0.470877
0.533462
0.498891
0.422597
0.578761
0.721812
0.632405
0.589490
0.633597
0.544786
0.636578
0.625849
0.720620
0.527501
0.666976
0.698566
0.645518
0.516772
0.723600
0.586510
0.594854
0.719428
0.807643
0.641942
0.576973
0.707507
0.803471
0.751615
0.885725
0.925660
0.693798
0.980496
0.855923
0.938773
1.055598
0.958443
1.129508
1.031756
1.244545
1.329780
1.262426
1.288652
1.258850
1.375675
1.361966
1.640916
1.608729
1.665950
2.025962
5.698800
20.262599
78.897476
170.967579
384.081602
616.929531
954.184532
1015.710831
1015.710831
1015.710831
1015.710831
953.195691
638.907552
411.594510
199.491978
##END
