##TITLE=AAI0552
##FORMAT=SPECTACLE-ASCII V-1.2
##DATA TYPE=ULTRAVIOLET SPECTRUM
##SECOND TYPE=ULTRAVIOLET SPECTRUM
##DATE=02/28/18
##TIME=15:34:27
##SPECTROMETER/DATA SYSTEM=SPECTACLE
##XUNITS=NM EM
##YUNITS=ENERGY
##YFACTOR=1
##FIRSTX=220
##LASTX=410
##NPOINTS=96
##3DDATA=Equidistant
##ZUNITS=NM EX
##FIRSTZ=210
##LASTZ=400
##ZPOINTS=39
##XYDATA=(Y..Y)
##ZVALUE=210
4.134774
3.799796
5.019903
3.386736
4.498959
4.091859
3.577471
4.860759
3.825426
2.745986
2.946854
2.767444
2.195835
2.857447
2.857447
3.235936
3.022552
3.248453
3.426671
4.054904
4.260540
4.442930
3.659725
4.060864
4.578829
4.584789
4.801750
4.819632
5.500913
5.651712
6.054640
5.682707
6.346703
6.545782
5.938411
6.551743
5.798936
6.826520
6.574988
6.788969
7.044673
6.742477
7.815957
6.801486
7.645488
7.070899
6.726980
7.408857
7.655621
7.093549
8.176565
8.623600
8.369684
7.919669
8.466840
7.996559
8.738637
8.132458
7.860661
8.624792
7.239580
7.525682
8.049607
8.603930
9.018779
8.611679
10.348558
9.681582
10.493994
13.532639
15.867949
18.963814
20.179749
22.424459
24.232864
25.999546
27.455688
28.956532
28.104782
26.489496
26.055574
22.554994
22.371411
19.347668
16.969442
13.484955
12.339950
10.537505
10.122657
9.880662
9.804964
10.973811
9.527802
10.502934
10.563731
11.511445
##ZVALUE=215
10.313988
10.176897
9.770989
9.403825
7.540584
6.883740
6.956458
7.783771
7.730722
7.538795
7.306933
5.834699
5.019903
4.140735
3.183484
2.685785
2.532601
2.597570
2.763867
3.051758
3.000498
3.416538
3.439784
3.284812
3.493428
3.266931
3.880858
4.490614
3.884435
5.036592
4.303455
4.528761
5.066991
5.044937
5.647540
5.222559
5.326867
4.985929
4.548430
5.377531
5.442500
5.745888
6.691813
5.737543
5.733967
6.312728
6.170869
5.459785
6.172657
6.786585
7.004738
6.780624
6.064773
6.841421
6.768703
6.706715
7.328987
7.852912
7.849932
7.653832
8.100867
7.789731
7.746816
7.005930
8.529425
8.171797
8.970499
9.214878
11.157990
12.448430
13.151765
15.505552
18.773675
20.961761
22.405982
23.842454
23.795962
25.403500
24.311543
24.932623
22.560954
21.644831
21.325946
18.151999
17.325878
13.952851
14.063716
10.295510
10.095835
10.839701
10.219812
10.660887
10.061860
10.668635
11.007786
11.289716
##ZVALUE=220
35.946965
34.893751
37.604570
36.500692
33.806562
30.201674
24.292469
18.302798
16.103983
15.121698
16.123652
16.972423
14.894605
13.105869
11.021495
7.411838
7.397532
5.454421
4.585981
3.634691
3.881454
4.009604
4.871488
4.133582
4.365444
4.422665
5.131960
5.884767
5.960464
5.522966
7.112622
6.912947
6.498694
8.164644
6.733537
7.665753
7.788539
7.247925
7.407665
7.439852
8.009672
8.283854
7.526875
9.452701
8.621812
8.491874
9.365678
8.962750
10.156631
8.745790
9.382963
10.504723
9.858608
9.359717
9.851456
10.434985
10.145903
9.986758
10.932684
10.666847
10.212660
10.686517
11.686683
10.005832
11.306405
10.647774
11.412501
13.682842
15.003681
17.602444
19.622445
23.746490
27.744770
29.535890
32.737851
36.079884
34.799576
39.146543
38.290620
34.808517
36.008954
31.873584
31.517744
26.881695
25.674701
20.521879
17.556548
15.726686
13.577938
14.049411
14.030933
16.506910
14.783740
15.694499
14.622808
15.153885
##ZVALUE=225
63.447952
68.439841
85.569620
98.466873
96.861720
96.609592
88.094473
67.106485
47.642589
40.712953
32.054782
28.237700
29.652715
30.580759
30.030608
28.759837
22.439957
19.283891
15.602708
9.514689
6.349683
5.437732
4.944801
4.556775
5.004406
5.929470
5.769730
6.382465
5.807877
6.991625
7.350445
7.761717
8.136630
8.633733
8.412600
8.343458
9.012818
7.928610
9.313822
9.555817
9.170771
9.181499
9.042621
8.891821
9.343624
9.373426
9.547472
8.863807
9.297729
10.062456
10.222793
10.706782
9.366870
9.563565
9.953976
11.258721
10.449886
11.058450
10.015965
10.716915
10.236502
11.318922
10.862947
11.663437
11.030436
10.902882
12.681484
11.711717
12.911558
13.724566
17.592907
19.350648
20.775795
24.245977
25.617480
27.216673
29.000640
27.181506
26.157498
27.397871
23.903847
23.204684
21.742582
21.850467
19.920468
20.906925
19.611716
16.472936
17.043948
17.875433
15.687943
16.352534
17.081499
16.298890
15.975833
17.460585
##ZVALUE=230
40.262938
47.339797
81.298947
117.039680
166.080594
195.898414
210.957527
209.770799
182.361007
161.257982
110.488534
85.686445
61.233640
48.730969
48.164725
55.473447
55.872798
51.935911
46.594739
37.326813
29.470921
21.085739
14.301538
10.652542
7.326603
6.303787
6.906986
6.894469
7.503629
7.761717
7.544756
7.829666
8.529425
9.936690
10.566711
9.913445
9.657741
10.631680
11.605620
11.458993
11.996627
9.738803
11.341572
12.255907
11.284947
11.720657
12.013912
12.096763
11.902452
12.747645
11.915565
12.899637
13.722777
14.872551
13.516545
13.090968
13.206601
14.611483
13.989806
14.578700
15.241504
15.645623
15.820861
13.985634
15.039444
15.116930
14.205575
19.223690
19.065738
21.207929
24.476647
29.898882
31.045675
35.732985
34.051538
37.422776
38.502812
36.953688
36.093593
36.920905
38.160682
33.644438
32.420754
29.722452
27.654767
25.230646
25.560856
23.450851
24.815798
23.569465
23.240447
23.140907
22.856593
23.570657
22.829771
22.538900
##ZVALUE=235
13.318658
18.213987
35.008788
74.646473
124.444962
190.191865
255.970955
319.549441
351.009965
361.700654
316.967964
260.816813
177.429914
129.802823
92.092752
77.701807
75.095892
77.138543
84.687471
85.500479
76.400638
66.964626
50.725937
37.233829
25.971532
16.269684
12.563467
9.072423
8.452535
8.103848
8.580685
8.100867
9.188652
9.548664
9.902716
11.364818
10.514855
11.840463
11.942983
11.129975
10.727644
13.041496
12.633801
13.303757
11.474490
12.223721
12.975931
12.914538
12.638569
13.660789
11.667609
11.646748
11.968613
14.339685
14.867783
13.667941
13.500452
15.585423
15.162826
14.917850
16.022921
16.003847
17.717481
16.582608
16.551614
17.673969
17.976761
18.659830
21.512508
22.108555
23.873448
27.050972
29.960871
32.988787
32.537580
34.658909
34.676790
34.999847
36.418438
33.218861
30.291677
28.546453
30.919909
29.850602
28.408766
27.696490
27.610660
26.299953
26.713610
25.667548
26.471615
25.391579
26.984811
26.227832
25.161505
26.049614
##ZVALUE=240
2.170801
2.673864
5.973577
16.676784
52.657723
91.332793
182.382464
270.813704
407.449007
482.657552
544.260740
541.919470
492.843986
400.608778
304.032564
197.464824
144.211650
105.005503
97.215772
106.353760
115.230680
119.749904
111.680627
103.076696
85.225701
66.978931
47.262907
34.315586
22.458434
17.745495
13.992786
11.644959
10.104775
10.534525
10.091662
11.065602
10.795593
11.563897
13.117790
11.156797
12.046695
11.441708
10.959506
11.687875
13.839602
11.788607
12.080669
11.848807
12.139678
12.721419
12.227893
12.521744
13.816953
13.185740
12.369752
14.070868
15.384555
15.204549
15.264750
15.918612
13.958812
16.274452
15.132427
16.669631
16.268492
17.548800
18.214583
19.404888
21.131635
23.598671
24.899840
27.236938
28.212667
29.387474
31.307936
32.628775
31.768680
33.068657
32.214522
31.728745
30.739903
31.506419
29.940605
29.031634
29.766560
28.410554
26.964545
26.683807
27.669668
27.413964
24.370551
26.409626
26.716590
26.640892
25.227666
25.360584
##ZVALUE=245
1.522899
1.988411
1.689792
1.945496
4.754663
10.724664
40.570498
80.467463
187.547803
275.876522
433.040857
535.821915
608.616471
639.590025
616.089702
515.198708
416.450500
283.472538
202.144980
128.624439
104.904771
105.660558
121.283531
130.431652
137.634873
129.700899
116.564631
101.496577
73.024631
59.762597
40.766001
25.753975
18.593669
13.252497
11.326671
10.890961
10.728836
10.157824
10.443926
10.348558
10.332465
11.145473
9.767413
9.994507
10.244846
9.826422
9.890795
9.864569
9.279847
10.790825
10.507703
10.423660
10.606647
11.074543
11.692643
11.670589
11.534691
12.985468
11.989474
11.475682
14.086962
12.941957
13.555884
13.604760
13.939738
15.098453
14.992952
16.669631
17.433763
18.264651
21.107793
22.956729
25.261641
26.430488
28.126836
28.307438
27.263761
27.809739
28.473735
27.859807
27.472973
27.300715
26.366711
24.438500
25.496483
23.918748
22.049546
23.793578
24.538636
23.929477
23.820996
23.065805
21.883845
22.618771
23.182631
21.943450
##ZVALUE=250
1.527667
1.257658
1.327991
1.339912
1.740456
1.796484
2.341866
8.978844
28.271675
79.256892
151.283741
290.614963
416.607857
581.941605
667.046905
744.619966
740.381479
659.842491
543.742776
369.860530
261.785984
179.655552
113.625526
95.950961
109.817982
124.570727
139.663815
142.511725
141.297579
128.930807
107.146502
83.268881
64.642429
40.790439
26.017427
16.818643
12.423992
11.323690
8.839965
9.333491
8.717775
9.034872
8.475780
9.233952
8.842945
8.618832
8.236766
8.956790
8.631945
8.262992
9.184480
8.858442
8.508563
9.834766
9.263754
8.339882
8.553863
8.611679
9.553432
9.314418
8.889437
9.603500
9.532571
10.599494
9.376407
10.792613
11.063814
12.017488
14.117956
14.636517
15.998483
17.981529
19.977689
19.789934
22.693872
24.561882
21.670461
24.288893
22.251606
22.645593
22.232533
21.767616
19.352436
19.779801
19.552708
18.777847
19.249916
18.081665
18.740892
19.448996
18.659830
18.926859
18.011928
17.459989
18.984675
17.517805
##ZVALUE=255
1.326799
1.300573
1.343489
1.468658
1.575947
1.631975
1.766682
1.835823
2.159476
4.246831
22.010803
58.230758
121.310949
261.324644
404.995680
626.485944
767.982006
898.378491
927.554965
852.280855
729.171634
566.937923
349.906683
229.146481
129.432678
98.510981
95.824003
106.005669
131.797791
143.319964
150.969625
147.343874
132.258534
105.967522
86.134672
57.005882
39.640665
23.233891
15.718937
10.311604
8.903742
8.751750
8.068681
8.474588
8.268952
8.094907
8.060932
7.702708
8.115768
8.045435
8.195639
8.455515
9.088516
7.763505
7.477999
7.964969
8.657575
7.968545
8.431673
8.422732
9.121895
9.006858
9.417534
9.712577
9.994507
10.325909
10.433793
11.746883
11.902452
13.362765
15.508533
17.504692
18.508434
19.030571
19.581914
19.868612
21.695495
20.002723
20.073652
18.896461
19.733906
18.996000
18.539429
17.403960
16.369820
16.720891
16.098619
16.219616
15.924573
15.402436
15.825629
15.506744
15.201569
14.902949
15.373826
15.488863
##ZVALUE=260
1.035929
1.228452
1.116991
1.437664
1.434684
1.438856
1.211762
1.511574
1.661777
1.503825
2.081990
2.831817
11.890531
33.828616
99.512935
190.391541
384.091735
548.960567
709.151030
921.989679
1012.475491
1000.349522
913.600922
708.493590
520.148873
308.372974
198.790431
114.770532
86.997747
86.646676
101.823807
130.898952
146.601796
152.892470
148.909688
131.081939
114.245415
81.939697
59.803724
37.166476
24.862885
14.828444
10.832548
9.389520
8.135438
8.560419
8.178949
7.935762
7.343888
8.085966
8.666515
7.795691
7.622838
7.797480
8.539557
8.410811
8.238554
8.475780
8.446574
8.190870
8.395910
8.151531
8.254647
8.931756
8.791685
9.814501
9.284616
10.579824
10.760427
12.038946
12.207627
14.546514
14.022589
15.762448
16.700625
17.354488
17.715693
16.971827
17.390847
16.939640
16.296506
15.734434
15.067458
14.447570
14.803410
13.450980
13.619661
13.832450
14.128685
14.181733
13.835430
12.760758
13.671517
13.498664
13.648868
12.591481
##ZVALUE=265
1.156926
1.244545
1.115799
1.085997
1.232624
1.441836
1.423955
1.423955
1.522899
1.493692
1.591444
1.728535
1.796484
2.566576
5.667806
26.218891
65.703988
165.348649
288.494825
520.545840
718.854666
893.713832
1015.710831
1015.710831
1004.315019
873.094797
643.953681
446.000695
244.180560
153.937936
88.167787
72.768927
82.327724
110.459924
131.953955
150.292516
155.605674
147.530437
135.304928
108.253956
85.823536
55.580735
39.120913
22.900701
16.040802
10.437965
8.402467
8.254647
7.457733
8.430481
7.786751
7.760525
7.849932
7.924438
7.947683
8.723736
7.577538
7.401705
8.146763
7.728934
8.541942
8.145571
7.937551
8.820891
8.295774
8.695722
9.144545
9.647608
10.017753
11.109710
11.367798
12.461543
13.454556
15.064478
14.615655
14.561415
14.903545
14.760494
14.900565
13.843775
13.366938
13.496876
12.606978
13.245940
12.978911
12.643933
12.577772
12.656450
12.391806
12.459755
12.541413
12.304783
12.391806
12.089610
12.338758
12.103915
##ZVALUE=270
1.243949
1.195669
1.081824
0.968575
0.916719
1.118779
1.061559
1.174808
1.279712
1.334548
1.218915
1.627803
1.592636
1.356602
1.666546
1.902580
3.178716
10.133982
46.624541
114.973783
227.825642
448.748469
657.793880
910.100937
1015.710831
1015.710831
1015.710831
994.194746
832.191706
565.666556
384.217501
198.967457
116.788745
66.442490
63.166618
84.919930
107.541680
135.262609
149.551630
156.916976
152.937770
133.030415
112.450719
82.829595
61.238408
37.332773
25.098920
15.334487
12.220740
8.652806
8.256435
8.074641
8.878708
8.109808
8.324981
8.481741
7.966757
8.801818
8.280873
8.371472
8.323789
8.176565
7.993579
8.119941
8.295774
8.210540
8.187890
8.863807
9.239912
10.030866
11.175871
11.757612
11.681914
13.604760
13.558865
13.390779
14.197826
13.604760
13.609529
13.104677
13.373494
12.405515
12.400746
11.547804
12.136698
11.381507
11.731982
11.280775
11.946559
10.404587
11.560917
11.788607
11.525750
12.002587
10.970831
11.592507
##ZVALUE=275
0.968575
1.070499
0.870824
1.016855
0.996590
1.005530
1.083612
1.074672
1.186728
1.224875
1.284480
1.226664
1.436472
1.413822
1.239777
1.534820
1.636744
1.907945
1.962781
5.084872
18.544793
55.016875
168.151855
316.604972
589.171648
795.135498
1009.490490
1015.712023
1015.712023
1015.712023
969.062448
766.441822
541.936755
290.484428
168.776512
78.946948
55.255890
61.135888
81.519485
109.417439
130.162835
148.887634
154.195428
148.653984
134.513974
105.534792
86.469650
59.492588
41.269660
25.567412
17.441511
11.209846
9.685755
8.995533
7.944703
8.320808
8.105636
8.284450
8.220673
8.167624
8.338690
8.520484
8.164644
7.968545
7.854700
8.098483
8.787513
9.107590
9.335876
9.713769
11.055470
11.324883
12.103915
12.612939
13.709664
13.852715
14.123917
13.232827
13.520718
13.622642
12.876987
12.187958
12.542605
12.097955
11.944771
12.516975
11.985898
12.190938
11.934638
12.150407
12.696981
12.432933
12.086630
11.670589
11.601448
11.886954
##ZVALUE=280
1.003742
1.032948
1.023412
0.933409
0.950694
0.848770
1.017451
1.003742
0.973940
1.148582
1.132488
0.916719
1.147985
1.177788
1.136661
1.504421
1.618862
1.548529
1.380444
1.804829
1.825690
2.373457
11.822581
42.366982
133.003592
245.215893
454.467535
656.476617
924.099684
1015.710831
1015.710831
1015.710831
1015.710831
833.642483
611.308813
351.543427
213.818550
99.410415
55.385828
44.460893
55.912733
82.260966
104.432702
130.882859
147.020817
152.771473
147.519708
130.804777
111.776590
81.566572
61.094761
38.727522
27.082562
16.478896
11.882782
9.088516
8.600950
7.939935
8.372664
8.041859
8.139610
7.976890
7.994771
8.391738
8.317828
8.625984
8.423924
8.904934
9.434819
9.897947
10.998845
11.688471
12.162924
13.231635
13.179779
13.531446
14.125705
13.540983
13.429523
13.936758
13.873577
14.179945
14.184713
13.848543
13.429523
14.001727
14.224648
13.705492
14.277697
14.122725
14.255643
13.294816
13.277531
13.784766
13.031960
13.691783
##ZVALUE=285
0.740886
0.939965
0.720620
0.921488
0.846982
0.818968
0.832677
0.969768
1.036525
1.140833
0.934601
1.126528
0.864863
0.956655
1.148582
1.176000
1.172423
1.342893
1.355410
1.413822
1.491904
1.745820
1.701713
2.345443
6.069541
21.214485
75.144768
157.490969
334.080458
528.555512
750.218630
1011.728644
1015.710831
1015.710831
1015.710831
989.430547
780.032873
480.831861
299.112797
144.557953
76.361895
37.640929
36.221743
54.679513
75.356960
104.138851
122.982860
141.656995
149.202943
142.951608
132.162571
108.314753
88.109970
60.321689
41.895509
25.162697
17.776489
11.543632
9.228587
8.629560
8.263588
8.061528
8.268952
8.095503
8.189678
7.896423
8.258820
9.012818
9.321570
9.859800
10.664463
11.010766
11.459589
12.779832
13.095737
12.931824
13.703704
13.804436
14.374852
14.801621
14.216900
15.165806
15.693903
15.522838
16.263723
16.145706
15.725493
15.826821
16.339421
16.726851
16.001463
15.689731
15.909672
15.531778
15.341640
15.236735
##ZVALUE=290
0.848770
0.921488
0.820756
0.633597
0.789762
0.651479
0.843406
0.897646
0.931621
0.978708
1.024604
0.949502
0.890493
0.946522
1.062751
1.070499
1.106858
1.391768
1.166463
1.220703
1.274943
1.448989
1.512766
1.701713
1.975894
2.005696
2.696514
8.815527
44.714808
103.174448
247.788429
432.484746
672.791600
995.242596
1015.710831
1015.710831
1015.710831
1015.710831
954.761505
629.836917
409.911871
202.283859
102.905631
40.959716
27.514696
36.043525
49.956441
72.516799
91.673732
121.037960
134.283900
145.277977
141.547918
125.316978
108.825564
80.923438
60.265660
39.430857
26.620626
16.490817
12.047887
8.987784
8.152723
7.833838
7.996559
8.024573
7.721782
8.295774
8.889437
9.539723
10.229945
11.167526
12.130737
12.436509
12.685657
13.657808
13.756752
13.668537
14.370680
15.134811
15.397668
15.836954
16.011596
16.297698
17.484426
17.327666
17.586946
18.340945
18.215775
17.741919
17.480850
17.839670
17.854571
18.396974
17.085671
17.382503
##ZVALUE=295
0.759959
0.771880
0.841618
0.709891
0.777841
0.862479
0.875592
0.891685
0.866652
0.925660
0.743866
1.096725
1.021624
0.937581
0.917912
1.073480
0.878572
1.071692
1.141429
1.176596
1.290441
1.390576
1.371503
1.312494
1.562834
1.495481
1.775622
1.779795
2.388954
3.816485
14.504790
65.890551
156.941414
374.715924
605.371594
968.870521
1015.710831
1015.710831
1015.710831
1015.710831
1015.710831
803.563595
536.223650
274.719000
145.232677
52.820444
27.958751
23.219585
29.833913
48.255920
66.146851
92.026591
109.486580
130.253434
137.996674
133.416653
122.229457
100.326538
81.042647
55.435896
40.737987
25.306940
17.081499
11.094809
9.294748
8.015633
7.873774
8.242726
8.255839
8.843541
9.641647
10.275841
11.386871
11.920929
12.700558
12.325644
13.079643
13.834834
14.031529
14.570951
15.282631
15.717745
16.368628
17.176867
17.699599
17.918944
18.287897
18.775463
19.200444
18.384457
18.799901
18.088818
18.301606
18.023849
17.634630
17.487407
##ZVALUE=300
0.865459
0.882745
0.840425
0.819564
0.959635
0.774860
0.763535
0.762939
0.793934
0.932813
0.760555
0.705719
0.866652
0.943542
1.020432
0.958443
1.005530
1.014471
0.990629
1.000762
1.032948
1.152754
1.371503
1.212955
1.324415
1.492500
1.581907
1.405478
1.520514
1.899600
2.136827
2.393723
8.407831
33.514500
123.149753
247.488618
522.131920
799.250007
1015.710831
1015.710831
1015.710831
1015.710831
1015.710831
1015.710831
741.568804
475.643873
230.766535
115.424991
39.248466
20.329952
20.160675
26.954412
43.658614
59.736967
84.008574
103.517771
121.931434
127.701759
127.666593
118.355751
99.300742
80.666542
56.355596
40.785670
25.865436
17.463565
12.037754
9.493828
8.747578
8.822680
9.559989
9.550452
10.761619
11.397600
12.102723
12.765527
12.923479
12.742877
13.845563
14.524460
15.669465
15.724897
16.012788
16.785860
17.092824
17.602444
17.526746
18.067956
18.328428
18.115640
17.733574
17.942786
17.604828
17.711520
17.743707
17.336607
##ZVALUE=305
0.816584
0.744462
0.771880
0.775456
0.649691
0.825524
0.562668
0.852942
0.729561
0.788569
0.891685
0.950694
1.004934
0.778437
0.891685
0.762939
0.826716
1.123548
1.048446
1.062751
1.123548
1.001954
1.211762
1.176000
1.344681
1.441836
1.445413
1.438856
1.471639
1.571774
1.757741
1.757741
1.831651
2.146959
4.013777
24.538636
72.654486
210.088491
394.282937
753.620863
1015.710831
1015.710831
1015.710831
1015.710831
1015.710831
1015.710831
1011.654735
672.318935
416.516662
183.647871
85.446835
29.444695
16.906857
18.810630
25.603771
41.637421
57.755709
80.081820
97.818971
114.009976
121.446848
120.765567
112.283826
93.821883
77.232718
53.347945
39.341450
25.628805
17.932653
12.597442
10.718703
10.108948
10.871887
11.563897
11.840463
12.192726
12.232661
12.953877
13.945699
13.753772
14.867783
15.179515
15.308857
16.003847
16.424656
16.811490
16.487837
16.952753
16.680956
17.119646
17.178655
16.237497
16.499758
15.798807
16.413927
16.091466
##ZVALUE=310
0.823736
0.744462
0.758767
0.822544
0.937581
0.884533
0.847578
0.618696
0.808835
0.767708
0.982881
0.826716
0.925660
0.994802
1.082420
0.958443
0.807643
0.961423
0.891685
0.909567
1.075864
0.814795
1.123548
1.119971
1.126528
1.155734
1.191497
1.259446
1.249909
1.538992
1.541972
1.591444
1.807809
2.004504
2.033710
2.486706
2.688766
11.914968
42.038560
148.238540
303.719640
659.573674
984.617472
1015.710831
1015.710831
1015.710831
1015.710831
1015.710831
1015.710831
1005.649567
703.158975
345.634818
175.518990
52.929521
21.327734
13.537407
16.526580
24.304986
34.229755
53.163767
69.420934
91.747642
104.306936
115.869641
115.102530
107.528567
94.485879
73.410869
56.696534
38.935542
27.875900
18.648505
14.998913
12.723804
11.987686
11.502504
11.726618
11.748672
12.298822
12.290478
12.352467
12.928843
13.540983
13.863444
14.189482
13.986826
14.843941
14.832616
14.900565
14.670491
14.957786
15.048981
15.107989
14.508963
14.615655
14.278889
##ZVALUE=315
0.699759
0.678897
0.685453
0.825524
0.851750
0.765920
0.822544
0.777841
0.714660
0.783801
0.862479
0.876784
0.704527
0.822544
0.917912
0.905991
0.966787
0.943542
0.836849
0.923872
1.023412
1.071692
1.011491
0.961423
1.309514
1.139641
1.252890
1.356602
1.199841
1.562834
1.425743
1.431704
1.551509
1.659989
1.883507
1.960993
2.035499
2.280474
2.639890
5.614758
20.858645
89.211464
203.611851
484.998822
816.729665
1015.705466
1015.705466
1015.705466
1015.705466
1015.705466
1015.705466
1015.705466
1015.705466
608.997941
328.374505
106.167793
34.916401
13.098717
12.311935
15.882850
21.233559
33.741593
46.229959
66.714883
82.774758
99.957585
107.390881
109.317899
103.035569
87.588429
73.988438
53.817630
40.796995
26.452541
20.125508
14.920831
12.460947
11.481643
10.975599
11.009574
11.002421
11.142492
11.430979
11.596680
11.764765
12.059808
12.170672
12.686849
12.833476
12.459755
12.522936
12.694597
12.374520
11.968613
12.102723
12.289882
##ZVALUE=320
0.718832
0.810623
0.698566
0.871420
0.852942
0.705719
0.711679
0.682473
0.651479
0.754595
0.763535
0.966787
0.732541
0.871420
0.917912
0.784993
1.007915
0.844598
0.930429
0.972748
0.847578
0.918508
1.056790
0.965595
1.053810
1.152754
1.083612
0.971556
1.139641
1.189709
1.229644
1.190901
1.468658
1.554489
1.438856
1.608729
1.691580
1.815557
1.946688
2.260804
2.511740
3.375411
10.126829
55.714846
144.903660
395.886898
674.269795
1015.710831
1015.710831
1015.710831
1015.710831
1015.710831
1015.710831
1015.710831
1015.710831
902.850628
545.458794
233.261585
91.593862
19.270778
11.246800
11.801720
13.853908
19.907951
28.292537
43.754578
59.013963
79.351664
92.656612
103.108883
105.221868
97.867846
87.502599
67.787766
53.892732
37.191510
27.412772
19.054413
13.956428
11.483431
10.559559
10.246634
9.919405
10.408759
10.340810
10.806918
10.647774
10.485649
10.512471
11.001825
10.648966
10.615587
10.361671
10.741949
10.575652
10.536909
##ZVALUE=325
0.840425
0.885725
0.754595
0.796914
0.915527
0.715852
0.644922
0.823736
0.742674
0.841618
0.709891
0.777841
0.560880
0.718832
0.791550
0.957847
0.834465
0.834465
0.855923
0.814795
0.933409
0.891685
0.802875
0.940561
1.072884
0.912547
0.922680
1.069903
1.140833
1.212955
1.237988
1.234412
1.148582
1.338720
1.279712
1.365542
1.516938
1.609921
1.733899
1.587868
1.877546
2.289414
2.486706
3.033876
5.446672
36.500692
97.054839
263.760686
493.335724
962.567925
1015.705466
1015.705466
1015.705466
1015.705466
1015.705466
1015.705466
1015.705466
1015.705466
809.102654
415.601730
203.637481
46.544671
13.994575
10.374784
10.411739
13.530850
18.411875
29.076934
40.657520
60.576797
75.022578
90.015531
98.246932
98.599792
93.205571
78.438520
64.945817
48.731565
36.739707
23.772717
17.367601
12.795925
11.208653
9.675622
9.631515
9.976625
9.577870
9.705424
9.521842
9.456873
9.801984
9.448528
9.611845
9.455681
9.246469
9.546876
##ZVALUE=330
0.529885
0.600815
0.612736
0.551939
0.640750
0.587702
0.740886
0.642538
0.581741
0.697970
0.670552
0.850558
0.729561
0.756979
0.613928
0.763535
0.782609
0.706911
0.761747
0.781417
0.797510
0.826716
0.821948
0.936985
0.660419
0.702739
0.739694
0.818968
0.965595
0.997782
1.054406
0.997782
1.047850
1.217723
1.185536
1.158714
1.144409
1.384616
1.396537
1.546741
1.521707
1.806617
1.749992
1.995564
2.262592
2.626777
3.312826
18.332601
56.246519
176.267624
343.446732
717.197657
1015.644670
1015.644670
1015.644670
1015.644670
1015.644670
1015.644670
1015.644670
984.624624
636.340976
276.678801
130.845904
41.403770
16.562939
9.468794
9.287000
10.296702
12.506843
19.269586
26.635528
41.001439
53.266883
72.141886
82.931519
91.417432
91.988444
83.994865
75.591803
59.706569
46.913624
32.324791
23.962855
16.816854
13.341904
10.731816
9.673834
9.160638
8.792877
8.890629
8.429885
8.674860
8.249879
8.264780
9.125471
8.444786
##ZVALUE=335
0.610948
0.711679
0.668764
0.585914
0.853539
0.652671
0.669956
0.807643
0.748634
0.766516
0.673532
0.632405
0.802875
0.659823
0.699759
0.805855
0.675917
0.796914
0.974536
0.835657
0.908971
0.768900
0.967979
0.966787
0.893474
0.915527
0.944734
1.003742
0.874996
1.015663
0.998974
1.186728
0.913739
0.916719
0.900626
1.152754
1.108646
1.246929
1.349449
1.349449
1.378655
1.554489
1.591444
1.741648
1.835823
2.046824
2.218485
2.634525
3.004670
8.213520
32.533407
127.838850
273.757577
616.665483
979.830623
1015.717983
1015.717983
1015.717983
1015.717983
1015.717983
1015.717983
1015.717983
821.794868
391.723514
191.760659
59.192777
21.792650
10.482669
9.198785
9.616613
10.219812
12.880564
17.646551
27.152896
37.938952
52.983761
65.392852
78.682899
84.907413
85.293651
79.804659
67.981482
57.544708
44.541955
34.623742
23.059845
17.360449
12.437701
10.551810
9.076595
8.405447
8.052588
8.041859
8.044839
7.870793
7.488728
##ZVALUE=340
0.582933
0.601411
0.624657
0.565648
0.637770
0.688434
0.606775
0.675917
0.648499
0.763535
0.628829
0.633597
0.664592
0.599623
0.734925
0.675917
0.710487
0.798702
0.628829
0.630617
0.689626
0.835657
0.669956
0.865459
0.630617
0.819564
0.937581
0.979900
0.802875
0.752807
0.829697
0.877976
0.921488
1.018643
0.967979
1.109838
1.070499
1.184940
1.146793
1.110435
1.041889
1.012683
1.289845
1.325607
1.384616
1.569986
1.603961
1.859665
2.226830
2.252460
2.287626
3.929734
12.104511
64.774752
165.597796
429.382920
735.026598
1015.710831
1015.710831
1015.710831
1015.710831
1015.710831
1015.710831
1015.710831
929.892659
470.392704
254.689455
96.433759
35.509467
10.889769
8.721948
8.732677
8.884668
10.078549
12.169480
17.884970
24.076700
36.339760
47.770739
62.552691
72.477460
79.830885
80.357790
74.449778
67.330599
54.418445
44.353604
31.213760
23.397803
16.182661
12.381673
9.610653
8.338690
7.604957
7.630587
7.570982
##ZVALUE=345
0.607967
0.618696
0.570416
0.577569
0.684857
0.546575
0.586510
0.530481
0.659823
0.710487
0.687838
0.639558
0.741482
0.597835
0.670552
0.706911
0.654459
0.537634
0.546575
0.626445
0.652671
0.628829
0.605583
0.806451
0.755787
0.666976
0.758767
0.791550
0.759959
0.965595
0.867844
0.846982
0.973940
0.675917
0.851750
0.881553
0.894666
0.955462
0.886917
1.027584
0.790954
1.126528
1.059771
1.143813
1.235604
1.160502
1.396537
1.599789
1.749992
1.774430
1.607537
2.226830
2.228618
2.606511
5.350709
32.919645
93.339682
254.832506
464.650989
875.013471
1015.713811
1015.713811
1015.713811
1015.713811
1015.713811
1015.713811
999.572873
597.764850
331.102014
126.333833
52.676797
16.553998
9.481907
8.335710
8.400679
7.882714
8.760691
10.579824
14.360547
22.662878
31.554699
46.069622
55.453777
65.795779
70.776939
74.118972
71.642995
62.825680
54.220557
41.811466
32.176971
21.826625
15.864968
11.117458
9.037852
7.683635
##ZVALUE=350
0.611544
0.643730
0.441670
0.579953
0.542998
0.661612
0.642538
0.540614
0.719428
0.583529
0.614524
0.627637
0.597835
0.556707
0.519753
0.677705
0.744462
0.703931
0.773668
0.564456
0.657439
0.604987
0.583529
0.683665
0.601411
0.761747
0.739694
0.645518
0.843406
0.724792
0.679493
0.840425
0.923872
0.942945
0.811815
0.873804
0.905991
0.916719
0.831485
0.972748
1.036525
0.935793
1.080632
0.778437
1.161695
1.067519
1.117587
1.344681
1.404881
1.449585
1.501441
1.501441
1.713634
2.037883
1.946688
2.503991
3.229976
18.463731
62.950850
204.473734
385.704637
740.603805
1009.392738
1015.697718
1015.697718
1015.697718
1015.697718
1015.697718
1015.697718
701.568723
428.074598
192.109942
85.489750
24.532676
10.800958
8.078814
7.383823
7.150769
7.013679
7.874966
9.674430
14.350414
19.198656
27.857423
36.566854
48.980713
56.736469
64.823627
66.682696
64.514875
59.671998
49.009919
39.884448
28.974414
21.889806
14.931560
##ZVALUE=355
0.573993
0.597835
0.713468
0.599623
0.729561
0.754595
0.585914
0.658631
0.643730
0.752807
0.618696
0.605583
0.588894
0.467896
0.673532
0.563860
0.723600
0.534654
0.869632
0.866652
0.604987
0.723600
0.674725
0.761747
0.777841
0.835657
0.852942
0.792742
0.769496
0.774860
0.905991
0.801682
0.919700
0.786781
0.960827
0.914931
0.683665
0.846982
0.794530
0.877976
0.927448
0.989437
1.212955
1.091957
1.149774
1.250505
1.247525
1.268983
1.270771
1.287460
1.355410
1.621842
1.466870
1.891851
1.998544
1.692772
2.119541
2.310872
2.803802
12.397766
50.956607
179.682970
338.788629
646.652579
956.902504
1015.750766
1015.750766
1015.750766
1015.750766
1015.750766
1015.750766
868.572593
543.615818
227.741599
101.560950
27.414560
11.835694
7.900596
7.249713
6.806850
6.718636
6.591678
7.276535
8.891821
11.466742
17.329454
23.196936
33.446550
41.922927
51.446557
57.455897
60.257912
59.820414
53.731799
47.290921
37.202835
##ZVALUE=360
0.619888
0.643730
0.585914
0.567436
0.610948
0.587702
0.550747
0.611544
0.612736
0.672936
0.649691
0.605583
0.552535
0.610948
0.728965
0.684857
0.728965
0.702739
0.754595
0.760555
0.666976
0.804663
0.665784
0.710487
0.676513
0.797510
0.762939
0.780821
0.878572
0.834465
0.756979
0.688434
0.782609
0.885725
0.803471
0.804663
0.915527
0.979900
0.798702
0.976920
0.986457
1.098514
1.115799
1.055598
1.249909
1.106858
1.173615
1.157522
1.166463
1.217723
1.285672
1.462698
1.402497
1.535416
1.582503
1.677871
1.831651
2.145767
2.031922
2.388954
2.717972
4.238486
15.868545
95.561743
231.173635
529.536009
820.161700
1015.707850
1015.707850
1015.707850
1015.707850
1015.707850
1015.707850
988.098979
694.296956
355.834961
177.641511
52.057505
18.314719
7.741451
7.270575
6.747842
6.322861
6.208420
6.289482
6.596446
7.177591
9.782910
13.436675
19.792914
27.138591
37.562847
44.722557
52.106977
55.142641
55.094957
##ZVALUE=365
0.607967
0.433922
0.645518
0.617504
0.662804
0.728965
0.692606
0.637770
0.657439
0.605583
0.574589
0.678897
0.828505
0.629425
0.763535
0.665784
0.832677
0.618696
0.626445
0.604987
0.619888
0.892878
0.743866
0.727773
0.771880
0.570416
0.850558
0.846982
0.707507
0.877976
0.826716
0.773668
0.781417
0.906587
0.805855
0.774860
0.969768
0.924468
0.899434
0.935793
0.933409
1.090765
0.915527
0.896454
0.869632
0.988841
1.059771
0.987649
1.097918
1.231432
1.217723
1.314878
1.346469
1.364946
1.444817
1.587868
1.698732
1.737475
1.620650
1.926422
2.074838
2.327561
2.797842
2.959967
9.006858
31.562448
128.064752
282.318592
645.228028
977.876782
1015.712023
1015.712023
1015.712023
1015.712023
1015.712023
1015.712023
852.214694
531.827807
236.562490
107.945800
26.610494
10.805726
7.079840
6.646514
6.018877
5.911589
5.638599
5.717874
5.878806
6.377697
8.276701
11.255741
17.075539
22.572875
31.594634
38.467646
##ZVALUE=370
0.662804
0.560880
0.562668
0.646710
0.632405
0.542998
0.701547
0.812411
0.648499
0.680685
0.628829
0.703931
0.595450
0.592470
0.598431
0.659823
0.675917
0.619888
0.703931
0.750422
0.773668
0.850558
0.608563
0.618696
0.730753
0.598431
0.850558
0.854731
0.822544
0.845790
0.816584
0.749826
0.796914
0.836849
0.951886
0.802875
0.746846
0.823736
0.839829
0.884533
0.930429
0.873804
0.819564
0.994802
1.128912
0.886917
1.031756
0.912547
1.047850
0.984669
1.053810
1.128912
1.268983
1.222491
1.403689
1.435876
1.507998
1.585484
1.559854
1.715422
1.924634
1.932979
2.192855
2.415776
2.556443
3.000498
4.609823
29.538870
92.434883
270.034671
498.284698
942.614675
1015.710831
1015.710831
1015.710831
1015.710831
1015.710831
1015.710831
1015.710831
636.289716
355.767608
130.150914
52.029490
14.241934
7.751584
6.604791
6.559491
5.990863
5.545616
5.505681
5.334616
5.444884
6.065965
7.517934
9.848475
14.262795
##ZVALUE=375
0.588894
0.588894
0.715852
0.467896
0.671744
0.622869
0.637770
0.684857
0.621676
0.526905
0.562668
0.712872
0.718832
0.768900
0.546575
0.510812
0.620484
0.681877
0.600815
0.590682
0.478625
0.722408
0.692606
0.693798
0.739694
0.704527
0.727773
0.710487
0.660419
0.795722
0.830889
0.798702
0.844598
0.776649
0.799894
0.758767
0.857711
0.692606
0.790954
0.868440
0.931621
0.766516
1.009703
0.922680
0.745654
0.947714
1.187921
1.099706
1.056790
0.941753
1.176596
0.982881
1.044869
1.283884
1.151562
1.319647
1.499653
1.399517
1.403689
1.589656
1.645684
1.719594
1.881719
1.998544
2.207756
2.344847
2.675653
2.996922
3.913641
11.449456
72.786808
190.565586
483.911633
878.898501
1015.712023
1015.712023
1015.712023
1015.712023
1015.712023
1015.712023
1015.712023
1012.119651
602.487922
335.546732
125.128627
46.786666
11.786819
7.536411
6.715655
6.321669
5.815625
5.543828
5.552769
5.169511
5.244613
5.393624
##ZVALUE=380
0.692606
0.672936
0.656843
0.666976
0.567436
0.635982
0.655651
0.514984
0.818968
0.657439
0.660419
0.756979
0.800490
0.592470
0.613928
0.658631
0.796914
0.614524
0.680685
0.730753
0.722408
0.719428
0.801682
0.764728
0.704527
0.772476
0.788569
0.816584
0.773668
0.650883
1.022816
0.926852
0.827909
0.883937
0.764728
0.844598
0.702739
0.838637
0.903606
0.811815
0.912547
0.762939
0.767708
1.053810
1.030564
0.885725
1.016855
0.992417
1.073480
1.081824
1.013875
1.257658
1.219511
1.230836
1.192689
1.239777
1.297593
1.353621
1.409650
1.403689
1.549721
1.116991
1.475811
1.712441
1.722574
2.041459
2.209544
2.436638
2.751946
3.552437
4.020929
7.260442
30.539632
170.958638
399.779677
877.045989
1015.743613
1015.743613
1015.743613
1015.743613
1015.743613
1015.743613
1015.743613
1015.743613
969.470739
499.461889
254.364610
80.530643
27.236938
8.609891
6.959438
6.213784
5.901456
5.496740
5.269647
5.243421
##ZVALUE=385
0.593662
0.404716
0.583529
0.683665
0.658631
0.561476
0.586510
0.640750
0.589490
0.602603
0.792742
0.570416
0.610948
0.802875
0.747442
0.622869
0.801682
0.427961
0.655651
0.684857
0.625849
0.657439
0.600815
0.674725
0.686646
0.775456
0.723600
0.866652
0.673532
0.730753
0.784993
0.704527
0.643730
0.593662
0.762939
0.574589
0.713468
0.617504
0.661612
0.811815
0.795722
0.741482
0.967979
1.017451
0.811815
0.832677
1.003742
0.981688
0.894666
0.945926
0.950694
1.135468
1.091957
1.042485
1.231432
0.979900
1.185536
1.115799
1.200438
1.305938
1.202822
1.212955
1.409650
1.357794
1.620650
1.790524
1.836419
2.117753
2.501607
2.798438
3.034472
3.559589
3.611445
5.235672
20.532608
126.543641
322.102904
774.003863
1015.708447
1015.708447
1015.708447
1015.708447
1015.708447
1015.708447
1015.708447
1015.708447
1015.708447
586.141944
326.245427
124.414563
44.373870
10.200739
6.279945
5.664825
5.338788
4.990697
##ZVALUE=390
0.535846
0.530481
0.521541
0.368953
0.665784
0.609756
0.607967
0.610948
0.665784
0.610948
0.632405
0.579953
0.690818
0.734925
0.703931
0.604987
0.554919
0.635982
0.705719
0.590682
0.593662
0.543594
0.472665
0.670552
0.587702
0.812411
0.788569
0.637770
0.700951
0.686646
0.800490
0.797510
0.854731
0.650883
0.702739
0.871420
0.903606
0.781417
0.832677
0.807643
0.754595
0.866652
0.989437
0.942945
0.801682
0.902414
0.922680
0.983477
0.810623
0.988841
0.980496
0.999570
1.132488
1.015663
0.987649
1.118779
1.127720
1.064539
1.240969
1.229644
1.250505
1.309514
1.362562
1.445413
1.475811
1.616478
1.960993
2.174973
2.265573
2.684593
2.772808
3.046989
3.180504
3.305674
3.449917
4.084706
10.983944
87.333918
274.818540
798.376799
1015.712023
1015.712023
1015.712023
1015.712023
1015.712023
1015.712023
1015.712023
1015.712023
1015.712023
897.700787
513.025522
204.196572
88.184476
20.513535
7.831454
5.875826
##ZVALUE=395
0.521541
0.601411
0.625849
0.455976
0.594854
0.603795
0.570416
0.655651
0.777841
0.609756
0.619888
0.593662
0.791550
0.652671
0.714660
0.726581
0.602603
0.683665
0.526905
0.713468
0.768900
0.649691
0.621676
0.712872
0.630617
0.606775
0.651479
0.797510
0.838637
0.752807
0.731945
0.820756
0.797510
0.871420
0.980496
0.768900
0.930429
0.812411
0.824928
0.799894
0.866652
0.960827
0.868440
1.008511
0.895858
0.959635
1.058578
1.012683
1.018643
1.040697
0.975728
1.142621
1.198649
1.149774
1.193881
1.156926
1.140833
1.120567
1.241565
1.218915
1.300573
1.445413
1.470447
1.485944
1.672506
1.691580
1.899600
2.208948
2.320409
2.699494
2.832413
3.058910
2.968907
3.062487
2.946854
3.367662
3.577471
4.135966
6.224513
56.836009
213.661790
693.869591
1015.710831
1015.710831
1015.710831
1015.710831
1015.710831
1015.710831
1015.710831
1015.710831
1015.710831
1015.710831
681.068897
309.415460
140.545964
39.088726
##ZVALUE=400
0.749826
0.737906
0.710487
0.764728
0.639558
0.639558
0.893474
0.749826
0.842810
0.808835
0.703931
0.689626
0.770688
0.827909
0.807643
0.742674
0.819564
0.980496
0.687838
0.832677
0.849962
0.784993
0.738502
0.995994
0.780821
0.950694
0.826716
0.925660
0.932813
0.982881
0.946522
0.989437
0.899434
0.935793
1.074672
0.794530
0.883937
0.984669
0.741482
0.939965
0.933409
0.901818
1.068711
0.972748
1.123548
1.248717
1.167655
1.195669
1.170635
0.963807
1.094937
1.047850
1.094937
1.228452
1.105666
1.185536
1.236796
1.325607
1.213551
1.197457
1.246929
1.302958
1.578927
1.709461
1.666546
1.807809
1.895428
2.038479
2.255440
2.391934
2.557635
2.706647
2.638698
2.564788
2.704859
2.667904
2.841949
3.047585
3.429651
4.029870
4.785657
19.254684
83.624721
331.165791
719.084740
1015.838981
1015.838981
1015.838981
1015.838981
1015.838981
1015.838981
1015.838981
1015.838981
1015.838981
780.254602
365.221500
##END
