##TITLE=AAI0502
##FORMAT=SPECTACLE-ASCII V-1.2
##DATA TYPE=ULTRAVIOLET SPECTRUM
##SECOND TYPE=ULTRAVIOLET SPECTRUM
##DATE=02/28/18
##TIME=15:58:05
##SPECTROMETER/DATA SYSTEM=SPECTACLE
##XUNITS=NM EM
##YUNITS=ENERGY
##YFACTOR=1
##FIRSTX=220
##LASTX=410
##NPOINTS=96
##3DDATA=Equidistant
##ZUNITS=NM EX
##FIRSTZ=210
##LASTZ=400
##ZPOINTS=39
##XYDATA=(Y..Y)
##ZVALUE=210
6.126761
6.333590
4.910827
5.294681
4.610419
5.048513
5.468726
5.169511
4.548430
4.819632
3.634691
3.318787
4.461408
4.111528
3.836751
5.005598
5.247593
4.777908
5.641580
5.636811
5.872846
6.465912
6.664991
6.569624
6.779432
8.020997
8.095503
8.043647
9.438992
8.715987
9.938478
9.250641
9.559989
10.295510
10.542870
10.616779
11.864901
11.628866
11.669993
11.503696
11.285543
12.563467
12.075901
12.870431
13.412833
13.665557
14.047623
13.923645
14.562607
14.297962
13.917685
14.583468
15.756488
15.925765
15.223622
15.625954
14.894605
16.546845
15.614629
16.036630
17.380714
16.228557
17.168522
16.162992
17.836690
16.547441
18.573999
18.699765
23.836493
26.470423
32.059550
38.140416
45.597553
47.972798
54.476857
53.805709
59.809685
56.717992
53.827763
50.462484
45.681596
41.252971
37.518740
32.186508
28.324723
24.601817
19.543767
18.795729
16.633868
15.650988
15.839934
14.475584
14.845729
16.483665
15.893579
18.136501
##ZVALUE=215
22.093654
22.949576
19.282699
16.633868
13.674498
10.400414
8.856654
8.058548
7.940531
9.143949
8.384585
7.644892
6.758571
5.715489
4.970431
5.259514
5.005598
5.094409
5.767941
6.419420
6.996989
6.355643
7.686615
8.005500
8.212924
8.651614
8.628964
9.375811
8.979440
9.401441
9.451509
10.426641
10.277629
11.493564
10.497570
11.883974
12.487769
12.143850
11.668801
12.852550
13.189912
12.800694
13.372898
14.596581
13.453960
14.257431
15.407801
15.665889
16.576648
16.275644
16.326904
15.463829
16.181469
16.394854
16.034842
16.619563
18.494725
17.375946
17.527938
17.930865
17.882586
16.835928
19.437671
17.680526
18.508434
19.372702
21.080971
22.728443
25.181770
30.141473
33.885837
40.464997
47.735572
56.841969
62.156916
61.705709
65.031648
67.885518
57.777762
55.006742
51.689744
46.286583
39.938688
33.825636
29.977560
26.221871
22.183657
19.824505
17.198920
18.437505
16.844869
17.493963
16.771555
16.700625
15.965700
16.462803
##ZVALUE=220
67.325830
71.458817
78.203678
76.769590
72.132945
60.355663
41.385889
31.845570
20.628572
17.995834
17.920732
18.117428
18.218756
15.160441
13.507605
10.448694
8.898973
7.333755
6.778836
6.935596
7.038713
6.714463
6.601810
7.444620
6.859899
8.758903
9.084940
9.402633
8.671880
9.034872
9.455681
9.876490
10.938644
10.640621
10.209680
10.662675
12.367964
11.529922
10.979772
13.421774
11.968613
12.576580
13.902783
12.750626
14.061928
14.493465
14.077425
15.049577
15.016794
15.556812
15.304685
15.112758
16.595721
16.006827
16.943812
17.011762
17.323494
18.956661
18.792748
17.273426
17.329454
18.589497
18.509626
17.547607
18.473864
18.353462
21.099448
22.690892
25.931597
29.267669
34.811497
42.421818
47.107935
52.747726
54.039955
63.920617
61.074495
61.840415
59.168935
55.278540
49.563646
44.844747
40.640831
36.663413
29.574633
24.490952
21.346807
20.331740
18.678904
17.428994
18.897653
17.336607
16.038418
16.712546
16.865730
16.801953
##ZVALUE=225
85.378885
92.717409
115.406513
147.018433
157.272816
164.689422
154.910684
123.103857
95.277429
70.959926
44.262409
34.703612
31.909943
33.473969
34.292936
30.909777
25.198460
20.823479
14.783740
11.872649
9.334683
8.040667
8.120537
6.994605
7.962584
8.684993
9.818673
8.717775
9.574890
9.669662
9.718537
10.027885
11.344552
11.857748
9.829998
10.734797
11.254549
12.766719
12.584925
11.387467
14.245510
12.747645
12.826920
14.256835
12.848973
13.703704
14.344454
13.561845
14.958978
14.857650
14.054775
14.355779
14.453530
15.844703
15.457869
15.279651
16.265512
15.851855
15.142560
15.648603
15.830994
15.411973
16.145706
16.821623
17.359853
15.774965
18.325448
19.801855
21.310449
23.982525
26.808977
31.934977
37.261844
39.853454
42.302608
47.330856
42.651892
43.316483
41.345954
39.213896
34.255981
30.960441
27.640462
23.969412
22.130609
19.684434
19.100904
16.363859
16.867518
15.468597
15.769601
15.738606
16.426444
14.829636
16.161799
14.854670
##ZVALUE=230
64.592957
72.348714
112.398863
179.450512
225.694776
284.792781
301.853418
303.577781
271.009803
229.421854
162.147880
113.890767
72.066784
59.763789
53.697824
55.045485
56.473613
56.661963
49.978495
41.303635
30.629635
20.720959
15.509725
10.800958
10.359883
8.726716
9.170771
8.105636
8.946657
9.813905
9.109974
9.940863
9.971857
9.417534
9.939671
11.401772
10.680556
10.494590
11.132956
11.211634
11.122823
10.790825
11.366606
11.554956
12.072921
12.140870
12.071729
11.687875
11.632442
12.827516
12.458563
13.085604
12.135506
13.100505
13.304949
12.351871
12.675524
13.965964
13.106465
13.717413
13.610721
14.073849
15.629530
14.600754
16.398430
16.082525
16.452670
18.581748
18.788576
23.331642
24.710894
28.804541
31.540990
34.732819
34.445524
35.954714
34.858584
33.224821
31.677485
27.071834
27.401447
24.245977
21.289587
20.046830
20.136833
17.974973
15.820861
15.675426
14.691949
13.090968
14.848709
14.857650
15.875697
15.559793
14.995933
13.895631
##ZVALUE=235
20.987988
21.367669
51.683784
97.291470
174.890757
248.347521
343.022943
411.098003
447.025895
429.152846
381.718874
305.602551
231.791735
152.233839
108.197927
80.558658
79.914927
84.365606
87.545514
87.487698
83.695650
72.555542
55.085421
38.915873
25.806427
18.621683
13.497472
9.450912
9.153485
9.257793
9.382963
8.886456
8.724928
8.452535
10.481477
9.729862
9.831786
10.253787
11.203885
10.633469
10.138750
10.814667
10.410547
10.584593
11.654496
11.501908
11.438727
11.158586
13.587475
12.550950
12.054443
12.826920
12.394786
13.488531
14.187694
14.192462
14.682412
13.964772
15.938878
16.218424
15.056729
14.874935
15.327930
16.459823
16.559958
15.802979
16.945601
18.727779
20.310879
19.659996
25.230646
28.640628
30.836463
34.760833
35.591722
37.813783
35.791993
34.784675
32.966733
29.052496
30.447841
25.351644
23.670793
23.056865
19.534826
18.704534
19.172430
18.302798
16.243458
15.426874
17.619729
16.544461
15.082955
15.804768
16.193986
15.910864
##ZVALUE=240
2.979636
2.348423
7.900596
28.378963
58.262944
128.908753
211.078525
354.958773
475.880504
574.085712
666.425824
674.639940
598.472953
504.677892
370.571017
255.504847
155.996680
117.017627
106.668472
108.834505
113.323927
124.325752
121.460557
101.667643
90.577602
67.835450
49.137473
31.533837
24.115443
16.611814
12.227893
11.425614
10.368824
10.819435
9.789467
11.186600
10.515451
10.263920
10.659695
11.806488
10.196567
11.649728
10.960698
12.417436
10.998845
11.664629
12.520552
12.150407
12.856722
12.039542
11.829734
12.566447
13.682842
13.645887
13.962984
12.482405
13.549924
15.386939
15.102625
15.620589
14.855862
15.221834
16.196966
16.754866
16.376972
16.255975
16.740561
21.166801
20.652413
22.495985
25.700927
30.660629
32.817721
35.158992
36.249757
38.030744
38.735867
34.194589
33.419728
32.233000
27.647614
25.390983
24.519563
23.149848
22.494793
20.652413
20.100474
19.466877
19.975901
17.431974
18.997788
17.354488
17.288923
18.940568
17.623901
17.394423
##ZVALUE=245
1.691580
1.872778
2.322793
2.295971
5.570650
17.108917
56.729913
115.706921
246.978998
378.252864
565.635562
704.015493
806.829929
853.304863
823.830962
700.854659
562.164783
373.381972
256.659985
158.243775
118.781924
109.874606
120.009780
129.748583
134.067535
132.354498
117.974877
101.091862
76.186657
57.054758
41.947961
25.580525
18.414855
12.779832
11.835694
11.460781
10.056496
10.514855
10.776520
10.756850
9.593964
9.537935
9.833574
11.090636
10.335445
10.664463
10.256767
10.430813
10.462999
11.543632
10.903478
11.241436
11.622906
11.259913
12.304783
11.690855
12.698770
12.563467
11.565685
13.381839
11.850595
12.308955
12.641549
13.243556
13.557673
14.951825
16.125441
16.133785
17.534494
20.947456
22.249818
25.117993
27.883649
29.764771
30.006766
32.083988
31.405687
31.118989
29.870868
26.487708
25.364757
22.454858
21.938682
19.756556
20.257831
19.080639
18.738508
17.049909
16.156435
16.572475
16.906857
17.378926
17.690659
16.557574
16.059875
15.807748
##ZVALUE=250
1.413822
1.765490
1.989603
1.577735
1.948476
2.153516
2.843738
12.147427
35.256743
83.502531
196.408629
341.603756
550.143719
705.844760
872.291923
958.353877
955.670476
873.968601
755.856037
532.898903
361.068845
199.742913
140.608549
104.873776
111.261606
134.630799
145.331621
149.705410
142.889619
125.418901
110.406876
80.784559
61.089993
38.917661
25.838614
16.336441
13.110638
10.518432
9.112954
9.793639
9.439588
8.277893
9.245872
9.348989
9.473562
9.366870
9.307861
9.585619
9.611845
9.698868
8.835793
9.206533
9.918809
9.000897
10.511875
10.327697
10.791421
10.509491
10.173917
10.455847
9.715557
10.660887
10.490417
11.395812
11.395812
11.767745
13.315678
13.976693
14.739633
16.930699
18.229485
22.148490
22.780895
24.329424
26.180744
25.463700
24.963617
23.793578
23.791790
22.867918
20.306706
19.723773
18.328428
18.200874
17.123818
15.927553
16.323924
16.185641
14.402866
15.257597
15.482903
13.969541
14.996529
15.701652
15.005469
14.634728
##ZVALUE=255
1.472831
1.574755
1.627803
1.586676
1.731515
1.743436
1.894832
2.009869
2.111793
6.970763
22.583604
78.561902
160.237551
329.215527
486.127734
737.775564
907.744765
1015.702486
1015.702486
1015.702486
937.886834
782.971978
498.254895
320.916772
167.791843
117.808580
98.189712
109.279752
131.314993
148.319602
151.020885
148.266554
134.978890
110.087991
86.814761
56.899786
40.110946
23.884773
15.416741
10.955930
9.742975
8.351803
8.084774
8.084774
8.107424
8.387566
8.326769
8.921623
8.889437
8.831620
8.355975
9.119511
8.042455
9.187460
8.320808
7.891655
8.148551
9.206533
8.803606
9.071827
9.474754
9.458661
9.804964
10.464787
11.458993
10.793805
10.557771
11.656880
12.872815
15.105605
15.712976
17.071962
18.923879
20.253658
20.499825
21.058917
21.861792
20.414591
18.680692
17.657876
17.271638
16.385913
16.422868
14.688969
14.411807
13.496876
14.641881
13.622642
13.625622
13.758540
12.394786
13.196468
13.560653
12.643933
13.026595
13.279915
##ZVALUE=260
1.281500
1.309514
1.280904
1.769662
1.280904
1.571774
1.646876
2.105832
1.906753
2.042651
2.116561
3.543496
15.336871
45.343637
120.757818
236.798525
464.659929
670.041442
931.674838
1015.710831
1015.710831
1015.710831
1015.710831
927.625895
699.486732
426.820517
277.197957
143.963695
101.718903
92.421770
107.363462
135.057569
150.323510
160.687566
153.545737
135.377645
118.469596
84.545612
62.407851
40.415525
26.519895
15.955567
10.960698
8.838773
8.081794
7.621646
7.696748
8.430481
7.906556
8.807778
8.264780
8.359551
8.155704
7.964969
8.385777
8.340478
7.561445
8.612871
8.019805
8.245707
8.381605
8.498430
8.146763
8.410811
9.240508
9.166598
9.485483
10.246634
11.104941
12.503862
13.196468
15.290976
16.638637
16.936660
18.368959
17.146468
17.497540
16.186833
15.990734
15.785694
14.395714
13.978481
12.969971
12.817979
12.220740
11.227727
11.421442
11.657476
11.715889
11.948943
11.750460
12.167692
11.712909
11.815429
11.414886
11.872649
##ZVALUE=265
1.255870
1.385808
1.337528
1.426935
1.456738
1.524687
1.706481
1.628995
1.914501
1.673698
1.915693
1.924634
2.031922
2.502799
6.010532
31.267405
80.832839
205.667615
356.972814
661.492944
921.025872
1015.710831
1015.710831
1015.710831
1015.710831
1015.710831
808.451772
573.870540
326.858759
192.916989
117.043853
80.024004
85.335970
116.047859
137.395859
155.777931
161.313415
151.968598
138.750672
108.955503
86.814761
57.370663
39.909482
23.382902
14.804602
10.566711
8.543730
7.759929
7.759929
8.221865
7.966757
7.478595
8.169413
8.174777
7.974505
7.773638
7.626414
7.952452
8.106828
7.878542
8.223653
7.940531
8.337498
8.225441
8.235574
8.630753
9.045601
9.316802
10.019541
11.409521
12.332797
13.106465
14.055967
15.006661
15.652776
16.750693
15.030503
14.888644
14.568567
13.399720
13.035536
11.785626
11.429787
11.400580
10.836720
10.654926
12.057424
11.150837
10.733604
10.704994
11.236668
10.944605
10.821819
10.932684
11.460781
11.111498
##ZVALUE=270
1.311898
1.205802
1.324415
1.287460
1.526475
1.468658
1.440644
1.484752
1.450777
1.497865
1.668930
1.619458
1.811981
2.119541
2.310872
2.401471
3.042817
16.150475
51.440001
157.000422
307.820439
531.694889
905.504823
1015.793681
1015.793681
1015.793681
1015.793681
1015.793681
1015.793681
798.188448
534.414649
272.853971
148.517489
74.204803
67.750812
88.958740
113.007426
140.683651
156.188607
162.210464
159.457922
136.917830
115.807652
85.066557
62.302947
38.734674
26.477575
16.640425
11.802912
9.408593
9.311438
8.300543
8.368492
8.797646
8.600950
8.841753
8.853674
8.077621
7.811785
8.515716
8.975863
8.512735
8.475780
9.172559
8.742809
8.998513
8.651614
9.210706
9.905696
11.327863
12.231469
13.117790
14.079809
14.844537
14.832616
15.511513
14.432669
14.462471
14.409423
13.685822
12.551546
11.484623
10.685921
10.928512
11.098981
10.862947
10.284781
10.847449
10.863543
10.421872
10.251999
10.374784
10.244846
10.134578
10.381937
10.499954
##ZVALUE=275
1.069903
1.244545
1.160502
1.099706
1.144409
1.100898
1.239777
1.122952
1.411438
1.220703
1.498461
1.256466
1.576543
1.651645
1.643896
1.922846
1.985431
2.167821
2.800822
6.983876
28.838515
86.073875
250.993967
461.684465
855.821967
1015.710831
1015.710831
1015.710831
1015.710831
1015.710831
1015.710831
1014.248729
748.883486
389.696956
213.907957
90.936422
60.564876
65.190792
83.778501
114.783645
137.010813
153.362751
160.702467
153.617859
140.165687
110.001564
89.532733
61.948895
42.491555
26.523471
18.519759
12.033582
10.015965
9.134412
8.860826
9.080768
8.695722
8.549690
9.444952
9.246469
8.801818
8.981824
8.926988
9.747744
9.535551
9.206533
9.353757
10.175705
11.182427
11.638999
12.427568
13.184547
14.159679
14.829636
15.617609
14.624000
14.555454
13.976693
13.094544
12.450814
11.815429
11.156797
11.185408
10.617971
10.594726
10.083914
10.330677
9.609461
9.365678
9.922981
10.004640
10.286570
9.794831
9.853840
9.583831
9.606481
##ZVALUE=280
0.953674
0.962615
0.847578
0.911951
1.060963
0.958443
1.041889
1.073480
1.071692
1.069903
1.073480
1.215935
1.400709
1.530647
1.359582
1.400709
1.453757
1.484752
1.974702
2.076626
2.452731
3.530979
27.874708
87.504983
255.860686
454.549789
803.716779
1015.557647
1015.557647
1015.557647
1015.557647
1015.557647
1015.557647
1015.557647
913.975835
517.303944
303.559899
131.206512
67.467690
48.319697
60.637593
88.611841
109.508634
138.141513
152.549744
159.490705
153.670907
134.955645
114.790797
85.498691
63.480735
40.304661
28.954744
17.599463
13.624430
11.019707
10.232925
9.731650
9.828806
9.294748
9.634495
9.853840
9.633899
9.661913
9.360909
10.284781
10.435581
10.574460
10.805726
11.822581
12.455583
13.387799
14.155507
13.712645
13.857484
13.964772
13.547540
12.451410
12.655854
11.818409
11.957884
11.018515
10.500550
10.047555
9.918809
9.935498
9.617805
9.487867
9.558797
8.880496
9.081960
9.414554
9.325743
9.362698
9.078979
9.073615
##ZVALUE=285
1.035929
1.027584
1.018643
1.327991
1.282692
1.132488
1.130700
1.184940
1.099706
1.170635
1.161695
1.231432
1.319647
1.395941
1.438856
1.771450
1.768470
1.672506
1.736879
2.003908
2.244711
2.567768
2.531409
3.434420
8.098483
51.649809
134.803653
353.540778
610.584021
1010.845900
1015.710831
1015.710831
1015.710831
1015.710831
1015.710831
1015.710831
1015.710831
744.890571
466.302633
215.259790
107.522607
46.607852
40.684938
59.886575
78.450441
109.592676
129.509568
148.563981
154.094696
147.577524
138.519406
113.732815
91.197491
62.594414
44.917464
28.447509
19.094944
13.091564
11.689663
10.130405
10.099411
9.675622
10.336637
9.987950
10.057688
10.122657
10.358691
10.459423
10.709763
12.087822
12.714863
13.732910
13.123751
14.572740
13.657808
14.001727
13.304949
12.871623
12.136698
12.248755
10.590553
10.742545
10.608435
10.332465
9.680986
10.025501
10.033846
9.788871
9.473562
9.646416
8.983612
9.443760
9.423494
9.664893
9.114742
8.824468
##ZVALUE=290
1.082420
0.962615
1.025796
1.003742
1.038909
1.407862
1.046658
1.130700
1.145601
1.183748
1.238585
1.173615
1.184940
1.146793
1.455545
1.456738
1.534820
1.537800
1.720786
1.502633
1.820922
2.081990
2.319813
2.283454
2.661943
2.969503
4.294515
14.800429
71.848631
171.660781
418.039560
747.885704
1015.712023
1015.712023
1015.712023
1015.712023
1015.712023
1015.712023
1015.712023
996.150970
669.885874
318.620801
154.850483
54.330826
32.246709
39.574504
53.966641
77.627897
97.810626
123.049617
140.130520
148.169994
145.283937
132.062435
113.650560
84.592700
62.467456
41.424632
28.738976
18.520951
14.437437
10.676980
10.220408
9.068847
9.539723
9.671450
9.968877
10.413527
10.557771
11.667609
11.955500
11.918545
12.805462
12.979507
12.783408
13.001561
11.865497
11.739731
11.502504
10.778904
10.858774
10.136962
9.959936
10.082722
10.220408
9.526610
9.767413
9.810925
9.038448
9.259582
9.075999
8.757710
8.767843
8.829832
8.690953
8.806586
##ZVALUE=295
1.010895
0.952482
1.136661
0.887513
1.240969
0.915527
0.918508
0.979900
1.260638
1.074672
1.209974
1.184940
1.102686
1.150966
1.225471
1.274943
1.275539
1.371503
1.411438
1.497865
1.635551
1.573563
1.738667
1.985431
2.028942
2.199411
2.429485
2.763867
3.238916
6.478429
89.646578
110.286474
241.899490
574.374795
937.294960
1015.710831
1015.710831
1015.710831
1015.710831
1015.710831
1015.710831
1015.710831
976.638794
513.340831
276.904702
95.591545
40.845871
25.743842
33.353567
50.327778
68.662763
94.989538
113.589764
132.740736
139.318705
137.463808
127.163529
104.047656
86.511970
59.607625
42.578578
26.552677
18.747449
12.184978
10.245442
8.769631
9.013414
9.144545
9.478927
9.921789
10.554790
11.098981
11.716485
12.190938
12.329817
11.681914
11.110902
11.161566
10.452867
9.918809
10.113716
9.392500
9.572506
9.052753
8.911490
9.245872
9.426475
9.315610
8.740425
8.758903
8.553863
8.571744
8.837581
8.567572
8.575916
8.598566
##ZVALUE=300
1.054406
1.013875
1.029968
0.985861
1.057982
0.809431
0.993609
1.066923
1.043677
0.995994
0.960827
1.172423
1.060963
0.977516
0.897646
1.108646
1.328588
1.117587
1.170635
1.385808
1.448989
1.379848
1.441836
1.646876
1.550913
1.914501
2.006888
1.961589
2.262592
2.657771
2.945662
3.594756
16.739964
57.782531
191.638470
367.033482
737.229586
1015.712023
1015.712023
1015.712023
1015.712023
1015.712023
1015.712023
1015.712023
1015.711427
798.050761
396.474600
202.406645
65.663457
27.899742
21.887422
28.702617
46.176910
61.673522
87.267756
107.488632
127.135515
133.009553
130.801797
122.552514
101.766586
82.746744
58.924556
42.169690
26.471615
18.733740
12.208819
9.582639
8.875728
8.747578
9.674430
9.747744
10.444522
10.643601
10.364652
10.495782
9.759665
9.768605
9.471774
9.633899
8.766651
9.165406
8.545518
8.561611
8.660555
8.664727
8.863807
8.602738
8.456707
8.574724
8.253455
8.171797
8.465648
8.037686
7.762909
7.749796
##ZVALUE=305
0.787973
0.924468
0.855923
0.899434
0.972748
0.922680
0.851750
0.903606
0.861883
0.969768
0.901818
0.930429
1.172423
0.940561
1.011491
1.102686
1.031756
1.215935
1.283884
1.222491
1.244545
1.311898
1.469851
1.368523
1.578927
1.585484
1.651645
1.717806
1.952648
2.033710
2.299547
2.502799
2.600551
3.054738
6.504655
44.499636
123.673677
346.067548
605.428815
1015.705466
1015.705466
1015.705466
1015.705466
1015.705466
1015.705466
1015.705466
1015.705466
931.803584
594.376922
273.097754
127.462745
37.466884
18.117428
19.645691
27.730465
43.907762
59.620738
83.800554
100.554824
119.865537
125.111938
122.435689
113.910437
96.595883
77.904463
55.481791
39.754510
25.482774
17.902851
12.373924
10.378957
9.551644
9.394884
9.900928
9.737611
9.598732
9.064674
9.570718
9.302497
8.753538
8.887649
8.694530
8.692741
8.783937
8.342862
8.911490
8.251667
8.354783
8.096695
8.250475
8.101463
8.211732
7.983446
7.810593
7.902980
7.826686
##ZVALUE=310
0.891685
0.862479
0.757575
0.971556
0.977516
0.902414
0.720620
0.856519
0.891685
1.092553
0.799894
0.808835
1.144409
0.868440
0.916719
0.981688
1.193881
1.107454
0.976920
1.137853
0.984669
1.180768
1.345873
1.188517
1.412630
1.393557
1.526475
1.620650
1.552701
1.711845
2.030730
2.001524
1.962781
2.302527
2.542734
2.995729
3.625751
18.383861
64.155459
218.501687
436.047912
884.550810
1015.704870
1015.704870
1015.704870
1015.704870
1015.704870
1015.704870
1015.704870
1015.704870
724.290609
363.329649
192.678571
66.043735
25.504827
14.097691
17.158985
25.461912
35.835505
55.119991
71.215630
94.121695
107.414722
118.058920
118.423700
108.145475
95.077753
75.032711
57.904720
38.086772
28.185844
18.452406
14.386773
11.130571
10.290742
9.219646
9.025931
9.107590
8.949637
8.298755
8.431673
8.549690
8.557439
8.748770
8.578897
8.794665
8.249879
8.350611
8.598566
8.373857
8.273721
8.102655
8.165836
7.870793
7.514954
8.158684
##ZVALUE=315
0.485778
0.509620
0.365973
0.508428
0.585914
0.459552
0.555515
0.732541
0.685453
0.653863
0.744462
0.571609
0.917912
0.696778
0.654459
0.817776
0.860691
0.849962
0.712872
0.814795
0.868440
0.751615
0.830889
0.884533
1.100898
1.171827
0.976920
1.164675
1.182556
1.210570
1.260638
1.479983
1.467466
1.740456
1.913905
2.159476
2.205968
2.603531
3.326535
7.582903
30.554533
134.885907
305.065513
709.357858
1015.460491
1015.460491
1015.460491
1015.460491
1015.460491
1015.460491
1015.460491
1015.461087
952.360630
487.900972
259.347558
88.984966
33.716559
13.333559
12.497902
16.153455
21.597743
34.881830
47.718883
68.291426
83.172917
102.274418
110.780597
109.922886
105.333924
88.886619
73.309541
54.953694
40.861964
25.357604
18.316507
12.926459
10.228753
9.082556
8.516908
8.107424
8.245707
8.041859
8.242726
7.853508
8.053780
8.072853
8.176565
8.152723
8.502603
8.312464
7.913709
7.967949
7.739663
7.787943
8.154511
8.072853
##ZVALUE=320
0.816584
0.900626
0.705719
0.816584
0.822544
0.698566
0.899434
0.949502
0.927448
0.749826
0.752807
0.972748
0.890493
0.878572
0.909567
0.713468
0.844598
1.058578
0.984669
1.125932
1.037717
0.954866
1.100898
1.150966
1.064539
1.069903
1.262426
1.254678
1.340508
1.526475
1.392961
1.471639
1.582503
1.739860
1.835823
1.920462
2.158880
2.250671
2.402663
2.632737
3.003478
4.431605
14.343858
77.366829
200.244784
529.254675
897.773504
1015.710831
1015.710831
1015.710831
1015.710831
1015.710831
1015.710831
1015.710831
1015.710831
689.957738
387.625694
159.793496
68.723559
19.824505
12.014508
12.151003
14.387965
21.094680
29.606819
45.125484
60.618520
82.016587
94.830990
105.519891
107.262731
99.896789
89.164972
69.860816
54.415464
37.379861
27.342439
17.629862
13.640523
10.469556
9.138584
8.738637
8.664727
8.710623
8.506775
8.627772
8.341670
8.312464
8.635521
8.157492
8.040667
8.008480
7.994771
8.210540
8.027554
7.931590
##ZVALUE=325
0.884533
0.883937
0.815988
0.946522
0.849962
0.716448
0.940561
1.036525
0.912547
0.942945
1.081824
1.064539
0.959635
1.061559
0.973940
0.996590
1.059771
1.010895
1.017451
1.024604
1.007915
1.049638
1.140833
1.312494
1.220703
1.277924
1.243949
1.305938
1.306534
1.433492
1.570582
1.544952
1.634955
1.558661
1.806617
2.051592
1.930594
1.925826
2.169609
2.269745
2.570748
2.781749
3.315806
3.718734
7.909536
51.936507
136.552453
375.008583
679.342747
1015.839577
1015.839577
1015.839577
1015.839577
1015.839577
1015.839577
1015.839577
1015.839577
866.720676
527.626872
236.224532
108.154416
29.567480
13.394952
10.869503
11.104941
14.690757
19.003749
29.770732
42.826533
62.161684
75.912476
91.742873
101.096630
101.545453
95.535517
79.926848
66.619515
48.411489
35.983920
23.328662
16.666651
11.884570
10.133982
8.988976
8.489490
8.791685
8.592606
8.342862
8.247495
8.462667
8.472800
8.503795
8.062720
7.998943
7.905960
7.874966
##ZVALUE=330
0.517964
0.989437
0.672936
0.837445
0.727773
0.761747
0.657439
0.736713
0.801682
0.809431
0.759959
0.764728
0.744462
0.779629
0.883937
0.757575
0.893474
0.764728
0.820756
1.037717
0.853539
0.938773
0.934601
0.907779
1.011491
1.268983
1.015663
1.122952
0.984669
1.123548
1.211762
1.148582
1.159906
1.263618
1.329780
1.445413
1.642704
1.694560
1.556873
1.860857
2.112985
2.116561
2.361536
2.717972
3.026724
3.432631
4.741549
24.519563
79.498887
253.578424
493.083596
968.596935
1015.710831
1015.710831
1015.710831
1015.710831
1015.710831
1015.710831
1015.710831
1015.710831
705.214739
309.977531
148.869753
46.593547
17.616749
10.069609
10.181665
11.261702
13.598800
20.163655
28.091669
42.889714
56.753755
74.420571
85.683465
93.762875
93.879700
86.908937
76.804757
60.315728
47.241449
32.073855
23.418665
15.726686
12.542605
10.199547
9.332895
8.381605
8.224845
8.146763
7.879734
7.626414
7.744431
7.977486
7.736683
7.851720
##ZVALUE=335
0.645518
0.770688
0.701547
0.736713
0.708699
0.616908
0.811815
0.917912
0.868440
0.771880
0.571609
0.726581
0.746846
0.794530
0.679493
0.819564
0.949502
0.862479
0.984669
0.998974
1.002550
1.020432
0.839829
0.856519
1.005530
0.988841
1.026988
0.897646
1.254678
1.173615
1.393557
1.185536
1.188517
1.402497
1.339912
1.554489
1.295805
1.549721
1.588464
1.698732
1.627803
1.892447
1.874566
2.058744
2.406836
2.512932
2.869964
3.118515
3.821850
8.513927
53.336620
148.118734
420.155525
766.042471
1015.710831
1015.710831
1015.710831
1015.710831
1015.710831
1015.710831
1015.710831
1015.710831
843.055844
498.106480
202.932954
86.866617
24.465919
12.051463
10.022521
10.338426
11.714697
13.916492
19.641519
27.330518
40.522814
52.591562
68.305731
79.216957
87.900758
87.968707
81.176758
72.346926
57.468414
46.161413
32.655597
24.744868
16.609430
12.682676
9.901524
9.155869
8.429885
8.024573
7.645488
7.647872
7.516742
7.644892
##ZVALUE=340
0.628829
0.616908
0.777841
0.676513
0.648499
0.633597
0.777841
0.808835
0.742674
0.693798
0.771880
0.836849
0.727773
0.737906
0.803471
0.661612
0.859499
0.862479
0.925660
0.831485
0.853539
0.865459
0.913739
0.915527
0.803471
0.910759
0.982881
0.995994
0.950694
1.048446
1.061559
0.996590
1.181960
1.152754
1.246929
1.394749
1.191497
1.308918
1.336932
1.386404
1.379848
1.570582
1.799464
1.875758
1.948476
2.068877
2.120733
2.390742
2.746582
2.827644
3.466606
5.543828
22.033453
115.240812
278.520584
680.609941
1015.708447
1015.708447
1015.708447
1015.708447
1015.708447
1015.708447
1015.708447
1015.709043
1015.709043
616.940856
337.373018
126.958489
45.864582
13.474822
10.819435
10.271668
10.567904
11.601448
13.340712
18.756986
25.888681
38.350821
50.144792
65.436959
74.555874
82.358718
81.971884
77.170730
68.597794
55.117607
44.626594
31.648874
24.202466
16.561747
12.646914
9.312630
8.420944
7.914901
7.662773
7.464886
##ZVALUE=345
0.779629
0.584722
0.763535
0.695586
0.731945
0.766516
0.728965
0.725985
0.771880
0.583529
0.614524
0.782609
0.794530
0.715852
0.713468
0.866652
0.739694
0.802875
0.732541
0.787973
0.825524
0.864863
0.875592
0.951886
0.912547
0.949502
0.798702
0.708699
0.888705
0.984669
0.786781
1.014471
1.078844
1.065731
0.977516
1.106858
1.198649
1.268983
1.269579
1.287460
1.439452
1.519918
1.528859
1.571774
1.645684
1.803637
1.921654
1.803637
2.066493
2.305508
2.719760
2.852678
2.891421
3.930926
9.534955
66.401362
186.729431
490.404963
861.967802
1015.715003
1015.715003
1015.715003
1015.715003
1015.715003
1015.715003
1015.714407
1015.714407
805.483460
441.843867
162.851810
67.724586
20.426512
11.885762
10.679960
9.878874
9.631515
10.000467
12.068748
15.786886
24.321675
33.001900
47.251582
57.416558
67.680478
73.833466
75.530410
72.539449
64.150691
55.475831
42.603612
32.755733
23.114681
17.038584
12.121797
9.534955
8.386970
##ZVALUE=350
0.944734
0.882745
0.809431
0.931621
0.949502
0.820756
0.902414
0.891685
0.773668
0.834465
1.033545
0.963807
0.963807
0.943542
0.955462
0.885725
0.890493
1.036525
1.042485
1.039505
1.021624
0.987649
1.044869
1.114607
1.035929
0.933409
0.997782
1.076460
1.122952
1.031756
1.078844
1.043677
1.303554
1.101494
1.203418
1.298785
1.370907
1.113415
1.390576
1.470447
1.417994
1.481771
1.437664
1.455545
1.511574
1.790524
1.867414
1.867414
2.066493
2.132654
2.314448
2.593994
2.637506
2.725720
3.119707
3.873706
5.774498
38.357973
122.766495
368.621945
678.486824
1015.839577
1015.839577
1015.839577
1015.839577
1015.839577
1015.839577
1015.839577
1015.839577
952.149630
576.115847
251.519680
108.373761
26.927590
12.582541
10.230541
9.292960
8.579493
8.416772
9.438992
10.973811
15.446544
21.121502
29.764771
38.807988
51.267743
60.133934
67.065954
68.936944
66.580772
61.842799
50.090551
41.786432
30.848980
23.929477
16.919971
##ZVALUE=355
0.827909
0.703931
0.779629
0.774860
0.811815
0.875592
0.728965
0.664592
0.734925
0.824928
0.564456
0.945926
0.906587
0.780821
0.951886
0.812411
0.920892
0.844598
0.868440
1.031756
0.907779
0.955462
0.917912
0.746846
0.924468
1.030564
0.968575
0.922680
0.885725
0.952482
1.091957
0.978708
1.111627
1.131892
1.189709
1.200438
1.041889
1.207590
1.208782
1.288652
1.126528
1.266599
1.414418
1.319647
1.519918
1.311898
1.519918
1.774430
1.614690
1.958609
2.029538
2.105832
2.307892
2.453923
2.731681
2.772808
3.020763
3.534555
4.140735
15.307665
62.615871
241.261721
487.015843
952.406526
1015.710831
1015.710831
1015.710831
1015.710831
1015.710831
1015.710831
1015.710831
1015.710831
772.915483
329.756737
151.533484
42.653680
15.896559
9.518862
9.016991
8.243918
7.919669
8.189678
8.479953
10.554790
12.814999
18.822551
24.815798
34.316778
43.416619
54.679513
60.477853
62.986612
62.216520
55.365562
48.325658
38.855672
##ZVALUE=360
0.687838
0.667572
0.841618
0.820756
0.688434
0.767708
0.609756
0.848770
0.756979
0.831485
0.769496
0.840425
0.815988
0.718832
0.913739
0.980496
1.085997
0.812411
0.898838
0.921488
0.699759
0.920892
0.952482
0.979900
0.947714
0.966787
0.904799
1.034737
1.064539
1.062751
1.154542
1.157522
1.076460
1.307726
1.279712
1.176000
1.150966
1.169443
1.250505
1.390576
1.349449
1.194477
1.419783
1.427531
1.432896
1.553893
1.617670
1.663566
1.671910
1.762509
1.936555
1.972914
2.080798
1.990795
2.098680
2.332926
2.320409
2.714992
2.984405
3.557801
4.067421
7.139444
26.284456
131.796002
321.387649
765.093565
1015.710831
1015.710831
1015.710831
1015.710831
1015.710831
1015.710831
1015.710831
1015.710831
942.386389
469.973683
230.602026
68.115592
23.471713
10.003448
8.945465
8.217692
7.736683
7.576942
7.552505
7.908940
8.545518
11.530519
14.991760
21.639466
28.797984
39.165616
46.271682
53.899884
56.815743
56.546926
##ZVALUE=365
0.774860
0.564456
0.643730
0.773668
0.749826
0.708699
0.740886
0.776649
0.766516
0.707507
0.757575
0.817776
0.697970
0.754595
0.820756
0.782609
0.780821
0.913739
0.822544
0.897646
0.893474
0.925660
0.818968
0.820756
0.859499
0.843406
0.918508
0.967979
0.969768
0.820756
1.087785
1.087785
0.879765
0.898838
1.067519
1.087785
1.259446
1.074672
1.233816
1.179576
1.288652
1.151562
1.218915
1.298785
1.292825
1.355410
1.507998
1.561642
1.364946
1.602769
1.718998
1.638532
1.772642
1.866817
1.991987
1.905560
2.070665
2.225637
2.342463
2.711415
3.219843
3.447533
3.597736
4.486442
14.285445
56.231022
217.388868
471.530557
986.452699
1015.684605
1015.684605
1015.684605
1015.684605
1015.684605
1015.684605
1015.684605
1015.684605
713.219643
308.154821
135.737658
34.053922
12.878776
8.293986
7.730722
7.149577
6.770492
6.629825
6.362796
6.494522
7.120967
9.296536
12.095571
18.159747
23.700595
33.265948
39.674640
##ZVALUE=370
0.695586
0.803471
0.805855
0.781417
0.673532
0.707507
0.707507
0.788569
0.709891
0.820756
0.701547
0.716448
0.882745
0.835657
0.751615
0.867844
0.898838
0.958443
0.857711
0.983477
0.844598
0.954866
0.968575
0.984669
0.847578
0.805855
0.928640
0.792742
0.880957
1.045465
1.028776
1.119971
1.134872
1.152754
1.001954
1.015663
1.136661
1.091957
1.140833
1.021624
1.177788
1.164675
1.174808
1.003742
1.333952
1.296997
1.269579
1.412630
1.349449
1.360774
1.322627
1.515746
1.463890
1.677871
1.692772
1.783967
1.879930
1.951456
2.096891
2.108812
2.466440
2.703667
2.758503
3.091693
3.425479
4.121661
6.278753
39.344430
139.460564
449.486971
822.035670
1015.710831
1015.710831
1015.710831
1015.710831
1015.710831
1015.710831
1015.710831
1015.710831
768.312812
429.622531
165.691972
70.968866
20.116568
9.284616
7.655621
7.150769
6.422997
6.306767
5.915761
6.021857
6.123781
6.370544
8.032918
10.504723
15.487671
##ZVALUE=375
0.697970
0.720620
0.719428
0.802875
0.691414
0.682473
0.726581
0.799894
0.714660
0.755787
0.908971
0.794530
0.735521
0.891685
0.808835
0.843406
0.704527
0.678897
0.770688
0.805855
0.811815
0.792742
0.848770
0.859499
0.791550
0.822544
0.812411
0.866652
1.014471
0.911951
0.927448
0.973940
1.045465
0.896454
0.972748
1.024604
0.979900
1.034737
1.107454
1.104474
0.868440
1.083612
1.108646
1.072884
1.168847
1.085997
1.110435
1.150966
1.234412
1.337528
1.349449
1.397729
1.364946
1.414418
1.573563
1.582503
1.573563
1.767874
1.703501
1.844764
2.128482
2.186894
2.321601
2.264977
2.603531
3.051758
3.560781
4.064441
4.766583
17.674565
67.275763
268.230438
597.040653
1015.710831
1015.710831
1015.710831
1015.710831
1015.710831
1015.710831
1015.710831
1015.710831
969.386697
613.321662
292.053819
140.289664
39.006472
13.837814
7.710457
7.007718
6.261468
6.325841
5.974770
5.434752
5.587935
5.400777
5.823970
##ZVALUE=380
0.648499
0.781417
0.821948
0.598431
0.779629
0.698566
0.540614
0.635982
0.686646
0.681877
0.714660
0.688434
0.532866
0.703931
0.590682
0.708699
0.654459
0.742674
0.733733
0.828505
0.663996
0.738502
0.842810
0.799894
0.785589
0.798702
0.797510
0.823736
0.629425
0.758767
0.835657
0.774860
0.761747
0.780821
0.953674
0.742674
0.920892
0.904799
1.095533
1.071692
0.947714
0.955462
1.041889
1.139641
1.158714
0.941753
1.106858
0.975728
1.047850
1.152754
1.291633
1.158714
1.372695
1.249909
1.310706
1.303554
1.462698
1.448989
1.377463
1.635551
1.688600
1.812577
1.648664
1.837611
2.131462
2.462864
2.517700
3.114939
3.338456
4.093647
4.689693
9.642839
38.721561
177.632570
414.566994
957.881808
1015.712023
1015.712023
1015.712023
1015.712023
1015.712023
1015.712023
1015.712023
1015.712023
855.237842
404.125452
200.524926
64.753890
22.745728
8.305907
6.735921
6.090999
6.063581
5.650520
5.364418
5.107522
##ZVALUE=385
0.648499
0.648499
0.700951
0.633597
0.562668
0.678897
0.638962
0.683665
0.734925
0.614524
0.705719
0.610948
0.505447
0.610948
0.747442
0.714660
0.570416
0.683665
0.648499
0.733733
0.746846
0.712872
0.681877
0.831485
0.721812
0.727773
0.713468
0.724792
0.784993
0.826716
0.723600
0.841618
0.802875
0.769496
0.912547
0.813603
0.808835
0.940561
0.874996
0.759959
0.884533
0.940561
0.902414
0.887513
0.943542
0.965595
1.008511
0.914931
1.077652
1.079440
1.051426
1.168847
1.274943
1.294613
1.311898
1.130700
1.165867
1.158714
1.365542
1.523495
1.561642
1.426935
1.597404
1.749992
1.896620
2.052784
2.152920
2.447963
2.708435
3.149509
3.447533
3.880858
4.333854
4.978776
19.172430
73.908567
269.436836
575.606823
1015.710831
1015.710831
1015.710831
1015.710831
1015.710831
1015.710831
1015.710831
1015.710831
1015.710831
661.050677
278.885961
127.214789
37.466884
12.847781
6.772876
6.054640
5.723834
5.297661
##ZVALUE=390
0.594854
0.525713
0.663996
0.679493
0.435710
0.639558
0.626445
0.582933
0.747442
0.638962
0.582933
0.718832
0.709891
0.668764
0.646710
0.735521
0.606775
0.717640
0.532866
0.756979
0.749826
0.660419
0.592470
0.711679
0.519753
0.793934
0.640750
0.762939
0.794530
0.773668
0.870824
0.791550
0.720620
0.803471
0.728965
0.747442
0.820756
0.781417
0.949502
0.597835
1.005530
0.729561
0.820756
1.058578
0.965595
1.048446
0.918508
1.137853
1.045465
0.980496
0.943542
1.189709
0.987649
0.874996
1.277924
1.046658
1.213551
1.078844
1.428723
1.392961
1.333952
1.505613
1.620650
1.701713
1.775622
2.042651
2.047420
2.121925
2.515912
2.745986
3.065467
3.323555
3.494620
3.551841
3.664494
4.541874
7.477403
45.120716
146.475434
457.086563
872.801542
1015.710831
1015.710831
1015.710831
1015.710831
1015.710831
1015.710831
1015.710831
1015.710831
972.527862
560.367703
209.423900
84.998608
18.870831
7.862449
6.040931
##ZVALUE=395
0.647902
0.646710
0.656843
0.550747
0.702739
0.721812
0.594854
0.406504
0.562668
0.630617
0.525713
0.655651
0.544786
0.548959
0.630617
0.740886
0.624657
0.622869
0.500679
0.548959
0.602603
0.625849
0.833869
0.744462
0.647902
0.757575
0.678897
0.716448
0.653863
0.753999
0.725985
0.725985
0.701547
0.847578
0.727773
0.800490
0.829697
1.005530
0.966787
0.752807
0.791550
0.882745
0.914931
0.969768
0.915527
0.913739
0.928640
1.090765
1.081824
1.058578
1.173615
1.195669
1.169443
1.118779
1.078844
1.173615
1.155734
1.054406
1.197457
1.529455
1.401901
1.434684
1.571774
1.584888
1.628995
1.824498
1.982450
2.162457
2.471805
2.610683
2.915859
2.929568
3.123879
3.225803
3.283620
3.443956
3.619790
4.137754
5.342960
32.854676
117.339492
392.509699
740.894675
1015.712023
1015.712023
1015.712023
1015.712023
1015.712023
1015.712023
1015.712023
1015.712023
1015.712023
827.468634
342.443585
151.710510
40.664673
##ZVALUE=400
0.678897
0.491738
0.582933
0.452995
0.509620
0.574589
0.531673
0.555515
0.536442
0.644922
0.592470
0.606775
0.591874
0.733733
0.709891
0.629425
0.556707
0.728965
0.622869
0.643730
0.650883
0.709891
0.539422
0.623465
0.637770
0.605583
0.737906
0.778437
0.787973
0.692606
0.807643
0.906587
0.748634
0.886917
0.753999
0.791550
0.800490
0.819564
0.835657
0.753999
0.930429
0.891685
0.872612
0.782609
0.941753
0.982881
1.021624
1.057982
1.120567
1.042485
1.063943
0.907779
0.947714
1.212955
1.131892
1.118779
0.953674
1.256466
1.111627
1.295805
1.368523
1.406670
1.373887
1.587868
1.642704
1.783967
1.968741
1.877546
2.126694
2.584457
2.637506
2.766848
2.802610
2.674460
2.611876
3.002882
2.844930
3.121495
3.329515
3.806949
4.484653
15.034676
59.746504
228.439569
485.652685
999.437571
1015.707850
1015.707850
1015.707850
1015.707850
1015.707850
1015.707850
1015.707850
1015.707850
1015.622020
581.513643
##END
