##TITLE=FAAI0552
##FORMAT=SPECTACLE-ASCII V-1.2
##DATA TYPE=ULTRAVIOLET SPECTRUM
##SECOND TYPE=ULTRAVIOLET SPECTRUM
##DATE=02/28/18
##TIME=15:41:42
##SPECTROMETER/DATA SYSTEM=SPECTACLE
##XUNITS=NM EM
##YUNITS=ENERGY
##YFACTOR=1
##FIRSTX=220
##LASTX=410
##NPOINTS=96
##3DDATA=Equidistant
##ZUNITS=NM EX
##FIRSTZ=210
##LASTZ=400
##ZPOINTS=39
##XYDATA=(Y..Y)
##ZVALUE=210
7.353425
6.648898
6.516576
5.192757
4.536510
5.350709
5.344748
5.561709
6.277561
4.741549
5.501509
5.409718
6.055832
5.671978
6.042719
6.426573
7.457733
7.697940
9.148717
9.544492
8.940697
11.061430
12.019873
12.461543
12.149811
15.507936
17.056465
19.584894
20.954609
21.283627
24.369955
25.054812
26.683807
28.120875
27.768612
28.824806
29.849410
29.740930
29.956698
28.913617
29.752851
30.048490
30.180812
30.161738
28.504729
29.531717
30.697584
28.112531
28.048754
28.285980
29.242635
29.044747
27.486682
28.439760
27.400851
27.778745
30.542612
28.825998
27.700663
28.566718
28.464794
28.401613
27.358532
27.355552
28.795600
29.571652
31.166673
33.485889
40.020943
44.788718
55.193901
68.039894
80.776811
90.731978
106.723905
120.015740
130.854845
138.032436
145.844817
147.499442
137.882829
130.106807
111.099482
94.298720
69.878697
55.594444
40.126443
33.857822
28.708577
27.267933
24.358630
24.831891
25.615692
24.939775
27.321577
26.125908
##ZVALUE=215
24.693608
23.662448
20.756721
15.234947
14.619827
11.490583
8.621812
8.560419
9.173751
8.075833
8.158684
8.205771
7.624626
6.435513
5.903840
5.991459
6.214976
6.169677
6.290674
7.343888
6.755590
7.225871
8.757710
9.963512
10.745525
11.258721
12.061596
17.059445
18.253922
23.463964
24.986863
26.963949
28.258562
29.639602
32.301545
31.567812
32.168627
32.763481
31.548738
31.587481
30.780435
29.568672
28.742552
27.263761
26.662946
24.177432
26.005507
23.648739
22.377968
21.885633
21.564960
21.580458
21.240711
20.127892
20.179749
19.400716
17.871857
19.382834
19.327998
17.786622
17.912984
18.891692
19.978881
19.344687
19.566417
18.235445
18.851757
20.835996
23.036599
25.443435
28.581619
36.298633
39.928555
45.276880
52.724481
59.080720
63.117743
70.048571
75.274706
76.592565
73.074698
67.893863
65.074563
52.529573
44.352412
33.569932
28.634667
21.950603
20.895600
18.039942
17.115474
16.394854
17.067790
16.566515
17.113686
15.602708
##ZVALUE=220
57.838559
59.155822
63.064694
61.822534
56.311488
43.412447
36.585927
23.315549
19.472837
17.315745
15.710592
16.026497
16.674995
14.849901
12.286901
10.285974
7.262826
5.940795
6.667972
6.398559
5.873442
6.300807
6.474853
7.413626
9.975433
12.796521
14.601946
18.289685
21.743774
25.942922
30.250549
36.469698
35.955906
39.851665
43.164492
42.194724
43.020844
42.180419
42.261481
40.577650
39.965510
36.487579
35.518408
35.703778
33.406615
30.808449
29.193759
27.318001
28.583407
25.640726
26.230812
23.845434
21.925569
21.930933
21.165609
20.260811
19.826889
21.550655
18.492937
19.415617
20.620823
18.684864
19.553900
17.789602
19.556880
18.517971
18.537641
20.892620
20.014644
25.080442
26.622415
30.201674
33.613443
39.799809
44.983625
47.997832
52.307844
57.107806
63.750744
61.459541
61.144829
61.532855
56.660771
47.908425
39.554834
30.456781
26.002526
20.752549
19.455552
18.749833
17.192960
17.434955
16.954541
17.350912
16.761422
16.714931
##ZVALUE=225
100.073814
106.942654
142.141581
183.046460
200.552940
205.997825
193.140507
159.468651
120.532513
89.044571
55.592656
38.496852
32.116771
31.847954
30.862689
27.821660
24.588704
18.630624
12.565851
11.107922
8.889437
7.972717
8.571744
9.131432
10.532737
13.024807
16.298890
20.264983
25.721788
30.941963
35.168529
39.637685
41.295886
48.984885
46.431422
51.644444
48.749447
51.907897
48.356652
46.034455
47.470927
44.863820
41.568875
37.533641
36.905408
35.743713
35.056472
33.025742
30.382872
29.417872
27.975440
28.458834
25.663972
24.458766
25.882721
23.241639
23.397803
24.868846
22.438765
23.456812
20.342469
22.439957
22.442937
21.934509
21.703839
21.481514
20.852685
22.695661
23.049712
27.434826
28.576851
32.690763
37.715435
39.822459
45.756698
49.053431
55.999756
57.302713
56.473613
53.004622
53.599477
49.743652
47.822595
41.579604
35.474896
30.176640
26.777983
22.948980
22.056699
20.451546
19.523501
20.145774
18.556714
18.248558
18.765926
18.461943
##ZVALUE=230
81.163645
85.985661
132.066607
220.928788
288.558006
363.972783
405.730009
412.727594
365.488529
305.684805
196.709633
134.787560
80.092549
65.051913
55.359602
53.664446
57.681799
53.555965
49.453974
42.499900
35.166740
23.499727
15.019774
12.155771
11.510849
12.108684
14.215708
16.044974
19.805431
23.758411
27.229786
31.728745
34.145713
36.562681
36.681890
36.475658
39.769411
37.857890
38.512945
38.489699
37.312508
35.379529
34.959912
32.061934
31.243563
28.175712
28.482676
25.466681
26.396513
24.990439
22.579432
22.833943
22.350550
21.440983
21.716952
19.812584
20.857453
20.651817
19.909739
20.596981
19.113421
20.214915
18.801689
18.868446
17.548800
18.659830
18.386841
19.710660
21.113753
22.080541
23.247600
26.887655
29.836893
30.669570
31.655431
35.455823
35.336614
34.914613
35.406947
33.917427
31.550527
29.558539
32.378435
27.483702
26.884675
22.550821
21.145940
20.072460
20.267963
21.700859
19.432902
20.444989
18.764734
19.634962
18.092990
19.674897
##ZVALUE=235
17.615557
24.408698
50.448775
136.254430
226.078629
352.897644
467.773676
578.828454
607.550740
585.111976
479.155779
365.512967
232.190490
157.253742
100.067854
80.567598
77.100992
81.864595
90.092421
88.163614
81.700683
67.213774
56.168437
36.663413
26.891828
17.199516
14.191866
12.181997
14.105439
15.561581
15.929937
18.628836
19.729733
20.580888
22.079945
23.870468
23.103952
23.304820
25.274754
23.723841
22.742748
22.421479
22.196770
21.123886
19.514561
19.950867
19.346476
17.473698
17.354488
17.508864
16.046762
17.553568
16.193986
15.663505
16.550422
15.213490
16.217828
16.082525
16.082525
16.584992
15.923977
16.694665
15.694499
15.653968
16.089678
16.350746
17.078519
16.738772
17.137527
18.838644
18.928647
20.745993
21.561980
22.283792
24.195910
25.939941
26.632547
24.905801
24.131536
23.714900
23.460984
25.492907
25.676489
24.621487
23.895502
24.032593
22.707582
21.638870
23.159981
22.640824
22.662878
22.156835
21.950603
22.361875
21.324754
19.557476
##ZVALUE=240
2.178550
2.747774
5.572438
21.189451
48.402548
111.676455
189.434886
316.264629
434.047580
539.675951
617.403984
609.450936
520.197749
428.698659
293.215513
199.199915
126.164556
103.019476
95.633864
102.342963
112.542510
119.138956
115.629435
105.488896
86.562634
67.041516
51.144958
33.441782
27.252436
19.270778
16.940832
15.743971
15.106797
16.565919
16.431808
16.952753
19.245744
19.059777
19.328594
18.095970
18.279552
19.605756
20.527840
19.517541
17.583966
17.406940
18.819571
18.601418
18.054843
17.591715
15.834570
16.286969
15.602708
14.895797
15.482903
14.778972
14.838576
16.280413
15.598536
15.779734
14.995933
16.906857
14.630556
15.117526
15.256405
15.792847
16.283989
16.683936
18.742681
20.096898
18.829703
22.573471
24.070740
27.249455
26.853681
27.268529
27.709603
27.546883
28.165579
29.109716
29.895902
27.629733
28.489828
28.468966
26.775599
26.878715
27.138591
26.528835
27.904510
25.866628
25.871992
23.839474
24.470687
26.390553
25.709867
25.919676
##ZVALUE=245
1.911521
2.133846
2.207756
2.286434
5.593896
13.515949
52.865744
113.149881
255.331993
411.570668
624.958873
762.890577
860.643983
862.339735
796.860456
624.836683
476.219654
305.331945
200.461745
122.273564
103.319883
103.786588
117.156506
130.241513
138.350725
132.116675
116.128922
103.856921
76.926947
62.135458
43.181777
34.931898
27.159452
20.443797
19.245744
21.122694
20.833611
21.454692
21.553636
19.994974
21.591783
20.195842
19.596815
20.150542
19.505620
17.994642
19.918680
18.040538
17.547607
16.140938
15.763640
15.783906
16.022921
14.991760
14.691949
13.466477
14.484525
13.434887
13.717413
13.797879
13.042688
13.240576
13.825893
13.509989
15.368462
14.309883
14.704466
15.684962
16.604662
17.763972
19.152761
20.342469
20.984411
23.390651
24.482608
24.758577
27.246475
27.319789
26.882887
28.090477
27.717948
26.053786
25.843978
24.835467
23.531914
21.242499
22.701621
22.148490
22.637844
22.524595
22.296906
22.780895
22.140741
21.670461
23.023486
23.077726
##ZVALUE=250
1.652837
1.501441
1.583695
1.649857
1.618862
2.259612
2.696514
9.271502
24.092793
76.038837
153.789520
333.957672
502.175689
719.349980
850.918889
912.546515
877.120495
771.081448
578.244925
428.808928
251.904726
157.395601
102.025867
93.394518
111.152530
127.349496
140.960813
153.050423
147.695541
130.768418
116.159916
93.863606
74.615479
51.935911
42.747855
31.574965
28.648973
27.003884
25.403500
24.596453
25.323629
24.639964
23.754835
22.352934
21.871924
20.668507
20.785928
18.043518
18.902421
18.711686
17.548800
15.930533
16.601682
16.791821
15.103817
14.833808
14.663935
13.565421
13.926625
13.068914
13.621449
13.069510
13.364553
12.688637
13.717413
13.024807
13.823509
13.941526
12.962818
15.225410
15.589595
16.786456
17.404556
17.964840
17.923713
19.168854
19.071698
19.008517
18.910766
20.940900
18.840432
20.661950
19.990802
18.248558
18.446445
16.312599
17.264485
17.218590
17.554760
17.270446
16.919971
17.469525
16.944408
16.759634
16.696453
17.187595
##ZVALUE=255
1.266599
1.399517
1.253486
1.269579
1.598597
1.260638
1.523495
1.836419
2.397895
3.902912
19.534826
45.793653
89.991689
204.865932
323.504806
499.375463
622.659922
732.491612
749.717951
688.722730
590.967536
468.034744
289.297700
190.189481
110.393763
92.444420
95.268488
111.302733
138.473511
155.409575
164.429545
167.337656
155.748725
132.858753
110.333562
84.432960
65.931678
49.379468
42.016506
35.381913
32.923818
31.250715
30.542612
29.849410
27.957559
25.638938
24.664998
21.759868
22.521615
22.055507
19.990802
18.183589
17.354488
16.282797
16.375780
14.627576
14.418960
13.423562
13.876557
13.358593
12.622476
12.347698
11.716485
11.045933
11.675954
11.825562
11.629462
11.933446
11.610985
12.658834
12.890697
12.964606
13.078451
13.338923
13.829470
15.000701
14.479756
14.020801
14.323592
14.208555
13.310909
13.476610
13.584495
14.673471
14.146566
13.703704
14.185905
14.059544
14.394522
13.344884
13.787746
13.301969
13.025999
13.745427
12.585521
13.755560
##ZVALUE=260
1.057982
1.098514
1.041889
0.938773
1.201630
0.850558
1.120567
1.192689
1.338720
1.641512
1.665950
2.257824
7.553697
29.118657
64.724684
164.456964
284.944773
489.348769
660.185814
875.447989
951.166749
935.728550
774.538517
621.484518
393.075943
267.271996
158.277750
109.745860
93.476772
101.717710
66.101551
161.044002
175.204873
189.365745
189.245939
174.383521
150.144696
123.681426
101.805925
75.982809
63.159466
49.921870
43.197870
38.603544
36.273599
33.784509
32.542944
29.853582
28.442740
25.873780
25.122762
21.668673
21.707416
19.113421
18.926859
18.441677
16.938448
15.350580
14.868975
13.397932
14.506578
12.951493
13.481975
12.348890
12.148619
11.918545
11.371970
11.321902
12.351871
12.609959
12.171865
13.174415
13.111830
12.857914
12.853742
13.233423
12.755990
12.208819
12.675524
13.005733
12.318492
12.633801
12.554526
12.809634
13.199449
12.729764
12.135506
12.450814
12.056828
12.305975
11.488795
12.035966
11.641979
12.300611
11.365414
11.737943
##ZVALUE=265
1.073480
1.048446
1.155734
1.120567
1.144409
0.974536
1.161695
0.966787
1.362562
1.174808
1.345873
1.583695
1.280904
1.834631
3.921986
19.281507
45.718551
115.942955
207.924843
388.961434
543.473959
682.842731
801.087618
817.191601
732.747912
629.529953
461.999774
335.131884
199.516416
140.656829
109.043717
104.466677
121.390820
155.332685
179.487467
201.719999
207.054615
200.878978
182.587504
155.040622
131.659508
101.941824
80.051422
60.221553
52.269697
41.490793
37.972927
35.996437
33.099651
29.786825
29.393435
26.524663
23.310781
22.701621
21.915436
19.817948
18.314719
17.133951
16.387701
15.234947
14.678836
13.799667
13.702512
12.847781
12.576580
11.621714
11.939406
12.054443
11.900663
11.178851
11.570454
11.525750
11.925697
11.893511
12.547970
11.611581
11.608601
11.959672
12.477636
11.383891
11.768937
11.950731
11.308789
11.473894
12.542605
11.531711
12.073517
12.077689
11.050701
10.920763
10.835528
11.312962
11.679530
11.264682
11.589527
11.111498
##ZVALUE=270
1.093745
0.949502
1.190901
1.143813
1.215935
1.118779
1.105666
1.128912
1.170635
0.971556
1.214743
1.188517
1.481771
1.488924
1.646876
1.719594
2.122521
9.366870
26.110411
82.132816
162.594914
285.418630
495.641828
659.359694
810.157657
863.918662
831.170678
745.383501
586.956739
446.668863
322.697759
192.381740
130.564570
105.241537
110.510588
137.432814
159.682631
188.146830
203.315616
209.566951
202.279687
179.345608
157.542825
123.239756
99.347830
70.659518
57.298541
44.067502
37.835836
32.610893
29.377937
27.424693
25.677681
23.170710
22.361875
19.929409
19.925833
18.014908
16.630888
15.650988
14.487505
13.936758
13.630986
12.706518
12.965798
12.272596
12.150407
11.650920
11.363626
10.915995
11.337996
11.371970
11.951923
12.124777
12.311935
12.254715
12.202859
11.703968
11.744499
12.006760
11.536479
11.383891
11.510849
11.063814
11.216998
11.640787
11.154413
12.154579
11.985898
11.193752
11.290908
11.420846
11.697412
11.474490
11.040568
10.989904
##ZVALUE=275
0.733733
0.774860
1.030564
0.895858
0.934601
1.040697
0.888705
0.903606
0.826716
1.011491
0.945926
1.147985
1.238585
1.261830
1.380444
1.328588
1.289845
1.614690
1.870990
4.564524
16.009808
43.832660
129.029751
238.155723
444.995761
596.040487
763.616562
862.471461
889.315605
838.430524
740.938783
557.137728
400.384665
230.099559
152.026415
96.143484
84.991455
98.641515
115.628839
149.627924
166.544914
183.917880
190.362930
181.206465
165.012479
133.072734
110.626817
83.261728
63.661933
44.377446
35.094619
26.088953
22.825599
21.276474
18.813610
17.587543
17.542839
15.872717
15.564561
15.075803
13.919473
13.851523
13.072491
12.171865
12.131929
11.584759
10.697842
11.671782
11.737943
11.346936
11.245608
11.147857
11.401772
11.229515
11.528730
11.731982
12.026429
12.342930
12.349486
12.010932
12.541413
12.349486
12.333989
12.617707
12.316704
12.534857
11.908412
12.700558
12.583733
12.675524
12.243986
12.541413
12.551546
11.731982
11.814833
11.661649
##ZVALUE=280
0.794530
0.861883
0.927448
0.952482
1.103878
0.904799
1.050830
1.058578
1.128912
0.997782
1.251698
1.114607
1.037717
1.078844
1.034737
1.051426
1.333952
1.405478
1.337528
1.713634
1.720786
2.037883
10.275841
32.023787
101.987720
186.748505
349.869728
502.684712
707.117915
826.048851
901.398659
879.386663
791.843534
598.495603
445.787907
259.411931
162.280798
86.435676
60.593486
59.457421
73.152781
100.265741
120.908618
147.478580
161.150694
166.934729
161.256790
141.900778
122.566819
91.235638
69.807768
47.156811
35.002828
22.350550
18.029809
15.168786
13.281703
12.691617
12.595654
11.830926
11.866689
12.012720
11.605620
11.182427
10.957718
11.024475
10.335445
10.855794
10.690689
10.559559
10.769963
11.503696
10.767579
11.490583
11.776686
12.039542
12.470484
12.481809
12.702942
13.349652
13.222694
13.590455
13.474822
13.887882
14.334917
14.400482
15.017986
13.736486
14.520884
13.839602
13.151765
14.198422
14.079809
14.039874
13.926625
13.224483
##ZVALUE=285
0.838637
0.832677
0.850558
0.804663
0.959635
0.717640
0.765920
0.799894
0.787973
0.908971
0.958443
1.098514
0.916719
1.226664
1.061559
1.065731
1.111627
0.989437
1.001954
1.182556
1.416802
1.541972
1.525879
1.729727
4.961491
16.710758
56.149960
116.031766
249.494910
397.459865
556.515455
757.012963
863.984823
899.232030
842.890739
679.693818
533.767939
329.227448
210.518837
102.038980
57.845712
36.062598
39.460659
58.940649
80.260634
108.938813
128.507614
146.456957
154.493451
147.882700
137.512684
113.635659
90.356469
62.980652
46.356916
28.439760
19.719601
13.137460
11.384487
9.926558
9.595752
9.188652
10.067821
9.365678
9.762645
9.573698
10.022521
9.518862
10.917783
10.322928
10.379553
10.815859
11.836886
12.218952
11.631846
12.492537
12.903810
13.341904
13.712645
14.170408
14.581680
15.050769
15.119910
15.881658
16.393661
16.399622
16.158819
16.217828
16.595721
16.007423
16.274452
15.576482
16.334653
16.057491
15.890598
15.400648
##ZVALUE=290
0.692606
0.704527
0.774860
0.773668
0.722408
0.735521
0.725985
0.661612
0.749826
0.843406
0.802875
0.937581
0.843406
0.867844
0.975728
0.918508
0.874996
1.293421
1.033545
1.119971
1.178980
1.219511
1.423955
1.779795
1.457930
1.430511
2.229810
6.800890
30.960441
74.430704
144.817829
305.576921
465.386510
687.223673
815.730691
903.083682
886.389017
755.034685
617.778897
411.491990
273.693800
135.553479
73.141456
33.778548
25.966763
37.503839
50.572753
74.953437
96.131563
121.640563
137.103796
145.798922
143.024921
128.396749
111.789703
81.696510
62.150955
40.557981
28.102994
17.492771
12.630820
10.027885
8.981824
8.606911
8.802414
8.792877
9.017587
9.615421
9.669662
9.703636
10.567904
11.141896
11.084676
11.807680
12.373924
12.886524
13.308525
13.866425
14.187694
15.057921
15.794635
16.217828
17.214417
16.911626
17.821789
18.492937
18.287897
18.439889
18.804669
18.438697
17.626882
18.101931
18.264651
17.994642
17.678738
17.375946
##ZVALUE=295
0.670552
0.669956
0.533462
0.612736
0.572801
0.768900
0.601411
0.725985
0.694990
0.757575
0.820756
0.703931
0.809431
0.796914
0.764728
0.879765
0.888705
1.059771
1.049638
0.986457
1.131892
0.967979
1.064539
1.202822
1.257658
1.478791
1.173615
1.491904
1.578927
3.057718
16.135573
44.131875
103.119612
239.173770
382.130742
600.891709
756.745934
884.182453
907.343626
823.030472
702.945590
497.115850
339.367986
175.410509
99.255443
40.748715
23.542643
21.480918
29.431581
47.556758
65.175891
92.018843
110.782981
130.618811
137.918591
134.425759
123.084784
102.985501
81.961751
56.880713
41.806698
25.997758
17.627478
11.940598
9.671450
8.532405
8.300543
8.572936
8.699894
9.182692
9.834766
10.402799
10.671616
11.651516
12.392998
12.667775
13.330579
13.797879
14.742613
15.985966
16.111732
16.993880
17.468929
18.357635
18.448830
19.415617
19.343495
19.436479
19.540787
19.667745
19.759536
18.828511
18.813610
18.985868
18.409491
18.027425
##ZVALUE=300
0.713468
0.622869
0.576973
0.734925
0.649691
0.591874
0.637770
0.762939
0.605583
0.625849
0.750422
0.793934
0.583529
0.585914
0.879765
0.791550
0.793934
0.891685
0.958443
0.831485
0.809431
1.010895
1.033545
1.025796
1.023412
1.005530
1.221895
1.319647
1.373887
1.383424
1.649857
2.027750
4.967451
27.108788
67.887902
172.098875
291.612744
494.687557
650.093555
818.852782
881.642699
864.749551
768.700838
587.509871
422.809720
233.966708
140.170455
63.247681
31.204820
16.392469
17.553568
27.652979
40.057898
61.572790
81.029534
105.754733
119.394660
129.416585
130.115747
116.825700
101.919770
77.462792
59.379935
39.123893
27.092695
16.653538
12.032986
9.592772
8.734465
9.108782
9.103417
9.704828
9.658933
11.109710
11.494756
12.185574
13.046861
13.436675
14.398694
15.058517
15.646815
16.671419
17.807484
18.047690
18.380880
18.669963
19.382834
19.584894
19.316673
19.332767
18.829703
18.917918
18.709898
18.646717
18.319488
17.759800
##ZVALUE=305
0.583529
0.715852
0.663996
0.639558
0.768900
0.766516
0.710487
0.817776
0.805855
0.777841
0.742674
0.670552
0.688434
0.804663
0.650883
0.763535
0.893474
0.821948
0.639558
0.884533
0.845790
0.884533
0.854731
1.008511
0.948906
0.966787
1.206994
1.234412
1.065731
1.162887
1.221895
1.416802
1.588464
1.621842
2.640486
15.358925
44.140816
123.791695
225.894451
413.218737
570.462942
759.158731
857.411623
886.830688
817.384720
644.556880
499.025583
309.442878
189.816952
88.578463
44.431686
18.060803
12.589693
17.398000
24.263859
40.165782
57.048798
81.396699
98.146796
115.464926
123.001933
119.585991
112.866759
95.244646
76.567531
53.772926
39.780736
25.518537
17.945766
11.952519
10.067821
9.726882
9.671450
10.599494
10.926723
11.095405
11.608601
12.512803
12.966990
14.005899
14.636517
15.614629
16.240478
16.465783
17.017722
17.037988
17.127991
17.694831
18.028617
17.497540
17.697811
17.149448
16.982555
17.195940
16.952753
16.877651
##ZVALUE=310
0.577569
0.587702
0.627637
0.671744
0.561476
0.577569
0.566840
0.674725
0.660419
0.689626
0.660419
0.701547
0.653863
0.683665
0.614524
0.862479
0.689626
0.722408
0.650883
0.848770
0.934601
0.999570
0.986457
0.950694
0.863671
0.766516
0.771880
0.751615
0.863671
1.052618
1.193881
1.215935
1.303554
1.483560
1.372695
1.490712
1.890659
5.366802
27.359724
66.796541
163.701773
282.131433
487.495661
646.880865
821.219683
889.200568
867.829919
783.306956
607.996583
444.507599
251.151919
148.543715
62.555671
29.425621
12.884736
10.885000
15.027523
21.724701
35.851598
49.184561
70.239902
88.406801
105.152726
112.889409
115.134716
108.647943
92.559457
76.512694
54.255724
38.875937
25.449991
18.184781
12.999773
11.019707
10.691881
10.893941
10.725856
11.140704
11.583567
12.399554
13.003945
13.467669
13.665557
13.987422
14.567971
15.156865
15.551448
15.016794
15.310645
15.533566
15.221834
15.414953
14.645457
14.634728
14.671683
14.526844
##ZVALUE=315
0.656843
0.513792
0.781417
0.604987
0.673532
0.636578
0.467896
0.476837
0.571609
0.737906
0.790954
0.699759
0.601411
0.616908
0.484586
0.739694
0.673532
0.672936
0.660419
0.703931
0.637770
0.638962
0.717640
0.804663
0.756979
0.810623
0.798702
0.867844
1.017451
0.996590
0.834465
1.026988
1.071692
1.176000
1.252890
1.332760
1.423955
1.459718
1.647472
2.483726
13.322830
39.837956
115.533471
210.089684
397.222042
561.212897
746.544600
842.889547
872.234702
815.775990
657.473803
511.169434
312.384963
195.722580
89.972615
42.737722
14.655590
9.692907
10.249615
13.054609
20.154715
30.176640
47.882795
63.210726
85.429549
98.423958
108.883977
111.262798
101.686716
89.321733
69.423914
54.705739
37.311912
26.644468
17.889738
13.729930
11.131763
10.281801
10.137558
10.611415
11.072755
11.381507
11.952519
12.169480
12.417436
12.595654
12.976527
12.849569
12.778640
12.805462
13.134480
13.042688
12.666583
12.288690
12.219548
12.772679
##ZVALUE=320
0.591874
0.544786
0.529885
0.513792
0.554919
0.563860
0.585914
0.607967
0.625849
0.565648
0.608563
0.546575
0.665784
0.681877
0.671744
0.874996
0.708699
0.537634
0.764728
0.710487
0.700951
0.565648
0.653863
0.597835
0.816584
0.682473
0.925660
0.802875
0.872612
0.825524
0.971556
0.898838
0.887513
0.957847
0.997782
0.943542
1.129508
1.279712
1.228452
1.362562
1.542568
1.756549
4.971623
27.648807
67.964792
172.382593
288.065672
482.569933
636.153817
799.821615
862.922668
840.888619
752.393603
567.758679
411.627889
229.485631
129.574537
54.973960
25.826693
10.662675
8.437634
9.427667
12.006760
18.193722
26.603937
42.957664
58.114529
77.403784
92.206001
101.913810
103.397965
97.055435
87.019801
68.316460
52.369833
36.047697
25.861859
17.615557
13.638735
11.101961
10.281801
10.274649
10.395646
10.343790
10.323524
11.098981
11.010766
10.886788
11.080503
10.716915
10.759830
11.041760
11.150837
10.746717
10.885000
10.407567
##ZVALUE=325
0.549555
0.471473
0.506639
0.605583
0.599623
0.652671
0.553727
0.567436
0.504851
0.584722
0.623465
0.651479
0.505447
0.480413
0.731945
0.535846
0.698566
0.781417
0.611544
0.601411
0.766516
0.651479
0.515580
0.696778
0.748634
0.639558
0.721812
0.666976
0.767708
0.819564
0.757575
0.789762
0.881553
0.841618
0.883937
0.770688
0.909567
0.939965
0.902414
1.198649
1.101494
1.224875
1.518726
1.640916
2.815723
16.770959
44.824481
118.957758
214.792490
402.087569
556.690693
734.673738
827.323794
862.018466
803.270936
621.431470
464.569926
279.726982
168.643594
73.847771
36.342740
12.929440
8.382797
7.520914
8.204579
11.605620
16.855597
27.379990
39.389729
59.066415
73.106885
88.389516
97.113848
97.620487
92.914701
78.762770
64.680576
47.682524
35.344958
23.481846
17.114878
12.522936
10.683537
9.928942
9.868741
9.720922
9.683967
9.914637
9.491444
9.588599
9.400845
9.785891
9.677410
9.854436
9.536743
9.502769
##ZVALUE=330
0.478625
0.384450
0.563860
0.402927
0.436902
0.428557
0.581741
0.504851
0.543594
0.531673
0.459552
0.663996
0.547767
0.712872
0.577569
0.560880
0.618696
0.490546
0.558496
0.561476
0.787973
0.518560
0.736713
0.536442
0.613928
0.650883
0.642538
0.686646
0.719428
0.611544
0.700951
0.744462
0.864863
1.045465
0.717640
0.853539
0.863671
0.809431
0.860691
0.768900
1.060963
0.983477
0.994802
1.100898
1.272559
1.431704
1.895428
6.991625
23.227930
77.910423
153.201818
307.644606
451.366901
652.979016
775.825977
849.574804
816.089511
675.613880
538.023710
345.511436
220.521688
100.829601
51.902533
19.627810
9.895563
7.120967
7.226467
8.042455
10.627508
17.412901
24.940968
38.749576
52.208900
70.695877
80.803633
91.409683
91.667771
85.352659
75.351000
59.115887
45.838952
31.905770
23.971796
16.892552
13.506413
10.675788
9.598732
9.328723
8.902550
8.858442
9.006858
8.754730
8.682609
8.883476
8.471608
8.686781
##ZVALUE=335
0.558496
0.419617
0.541806
0.554919
0.560880
0.514984
0.439882
0.554919
0.482798
0.516772
0.590682
0.491738
0.486970
0.550747
0.554919
0.639558
0.636578
0.545979
0.539422
0.786781
0.602603
0.776649
0.642538
0.692606
0.627637
0.673532
0.628829
0.565648
0.665784
0.728965
0.661612
0.718832
0.791550
0.800490
0.590682
0.717640
0.719428
0.789762
0.645518
0.725985
0.901818
0.861883
0.920892
0.906587
1.022816
0.993609
1.131892
1.391768
1.474619
3.553629
11.894703
48.557520
105.536580
234.560966
373.956561
581.914783
716.494918
814.180970
818.758607
724.729896
602.826476
408.852696
276.098847
141.147971
74.317455
26.364923
12.508631
7.168651
6.551743
7.303953
8.293986
11.036992
15.071630
25.177598
36.294460
52.041411
65.396428
77.789426
84.134936
86.075664
81.021786
68.684816
58.727860
43.179989
33.462644
23.375750
17.784834
12.514591
10.715723
9.421706
8.557439
8.341670
8.069873
8.243918
8.114576
8.153915
##ZVALUE=340
0.534654
0.564456
0.426769
0.410676
0.517964
0.378489
0.508428
0.477433
0.566840
0.530481
0.483990
0.429749
0.414848
0.434518
0.537634
0.414848
0.535846
0.539422
0.421405
0.569820
0.525713
0.632405
0.610948
0.625849
0.655651
0.623465
0.623465
0.669956
0.516772
0.514984
0.612736
0.752807
0.702739
0.648499
0.669956
0.681877
0.806451
0.787973
0.828505
0.697970
0.891685
0.750422
0.858903
0.947714
0.673532
1.062751
0.950694
1.042485
1.178980
1.247525
1.442432
1.849532
5.561709
29.428005
71.984529
183.961987
305.044651
491.351485
634.302497
765.151978
799.991488
749.201775
643.346906
470.373631
327.374935
170.356631
95.103979
38.597584
16.897917
7.644892
7.012486
6.734729
6.871819
7.994771
10.380745
16.133785
22.845864
35.359859
46.880841
63.602924
72.466731
79.737902
80.100894
75.326562
67.655444
54.586530
44.513941
31.876564
23.977757
16.482472
12.622476
9.717941
8.487701
7.880926
7.788539
7.632971
##ZVALUE=345
0.457764
0.334978
0.424981
0.636578
0.605583
0.397563
0.513792
0.214577
0.488758
0.636578
0.464916
0.448823
0.373721
0.589490
0.525713
0.549555
0.510812
0.425577
0.448823
0.583529
0.584722
0.431538
0.570416
0.526905
0.464916
0.613928
0.545979
0.773668
0.655651
0.737906
0.685453
0.570416
0.590682
0.717640
0.619888
0.744462
0.647902
0.680685
0.667572
0.733733
0.713468
0.669956
0.780821
0.653863
0.761747
0.834465
0.760555
1.065731
0.880957
0.966787
1.062751
1.126528
1.296997
1.426935
2.500415
15.677810
44.809580
123.506784
220.322609
395.080447
536.617637
700.381994
772.136450
769.132972
694.745779
528.549552
390.037894
227.657557
128.286481
51.089525
23.997426
9.948611
7.139444
6.553531
6.262660
6.580949
7.155538
9.525418
13.460517
22.403598
31.246543
45.013428
54.301620
66.165924
71.176887
73.839426
71.860552
63.104630
54.829717
42.483807
32.722950
21.937490
16.189814
11.675954
9.561777
7.691979
##ZVALUE=350
0.355840
0.325441
0.497699
0.472665
0.494719
0.578761
0.387430
0.604987
0.535846
0.500679
0.424981
0.359416
0.426769
0.654459
0.285506
0.337958
0.538826
0.664592
0.492930
0.648499
0.448823
0.442863
0.595450
0.639558
0.582933
0.525713
0.627637
0.697970
0.589490
0.515580
0.521541
0.697970
0.643730
0.644922
0.626445
0.505447
0.711679
0.489950
0.692606
0.679493
0.620484
0.848770
0.795722
0.735521
0.796914
0.787973
0.762939
0.718832
0.887513
0.910759
0.843406
1.042485
1.068711
1.075864
1.043677
1.394749
1.590848
7.735491
25.401711
81.854463
158.572793
314.056873
452.247858
623.178482
717.577934
765.179992
719.558001
579.581857
443.232656
270.937681
161.732435
73.046684
34.728646
11.443496
7.096529
6.172657
6.062984
5.847812
5.939603
6.645918
8.547902
13.318658
18.258691
28.332472
37.305951
49.256682
57.710409
65.072775
67.871809
65.260530
59.558749
49.053431
40.503740
30.459762
23.128986
15.645623
##ZVALUE=355
0.429749
0.327826
0.424981
0.476837
0.489950
0.605583
0.477433
0.577569
0.582933
0.540614
0.543594
0.389814
0.608563
0.547767
0.613928
0.572801
0.467896
0.512600
0.374913
0.580549
0.442863
0.446439
0.514984
0.606775
0.750422
0.547767
0.458956
0.597835
0.625849
0.633597
0.519753
0.678897
0.519753
0.591874
0.633597
0.619888
0.559688
0.747442
0.589490
0.643730
0.684857
0.695586
0.893474
0.729561
0.729561
0.672936
0.779629
0.731945
0.757575
0.770688
0.940561
0.894666
0.815988
0.819564
1.026988
1.083612
1.047850
1.382828
1.331568
3.664494
13.359785
53.067803
110.703707
234.894753
366.693735
553.190708
666.792989
742.048621
730.113983
615.794659
493.317842
325.177908
203.466415
90.297461
44.489503
15.038848
7.853508
5.873442
5.782843
5.527735
5.474687
5.383492
6.268620
8.218884
10.648966
16.733408
22.619963
33.353567
41.808486
51.698685
57.581663
61.418414
59.870481
54.275990
48.030615
37.928820
##ZVALUE=360
0.229478
0.272989
0.366569
0.185966
0.380874
0.287890
0.375509
0.359416
0.262856
0.123978
0.330806
0.241995
0.469685
0.172853
0.315905
0.157952
0.295639
0.337958
0.343919
0.333786
0.249743
0.364780
0.455976
0.357628
0.415444
0.395775
0.519753
0.455976
0.391603
0.422597
0.357628
0.287890
0.512600
0.404716
0.597835
0.344515
0.399947
0.458956
0.584722
0.408888
0.461936
0.479817
0.259876
0.419617
0.457764
0.603795
0.593662
0.494719
0.527501
0.563860
0.558496
0.588894
0.668764
0.567436
0.793934
0.775456
0.894666
0.983477
0.834465
1.113415
1.343489
2.051592
5.703568
27.559996
69.530606
172.784925
286.545753
458.764434
591.552854
710.290670
730.977654
667.862892
556.783676
375.095010
246.660709
120.863914
62.885880
24.164915
10.496974
5.871654
5.191565
4.890561
4.842877
5.073547
5.071759
5.237460
6.339550
9.354949
12.732744
19.208789
25.938749
36.361814
43.418407
51.355958
54.365993
55.149794
##ZVALUE=365
0.551939
0.540614
0.503659
0.457764
0.454783
0.377893
0.410676
0.483990
0.576973
0.491738
0.493526
0.498891
0.618696
0.579953
0.529885
0.490546
0.525713
0.425577
0.431538
0.392795
0.632405
0.431538
0.590682
0.652671
0.402927
0.373721
0.407696
0.689626
0.773668
0.596642
0.496507
0.580549
0.656843
0.725985
0.643730
0.579953
0.609756
0.646710
0.596642
0.679493
0.701547
0.647902
0.635982
0.783801
0.556707
0.617504
0.774860
0.693798
0.702739
0.649691
0.741482
0.680685
0.735521
0.929832
0.869632
0.798702
0.774860
0.867844
1.008511
1.098514
1.160502
1.327991
1.371503
1.607537
2.796650
14.648438
41.535497
112.569928
211.414695
383.929610
515.763760
658.848882
712.651014
678.545833
594.802499
440.837741
309.062004
162.797570
88.717937
33.029914
14.074445
5.947948
5.086660
5.097985
4.933476
4.770756
4.540682
4.634857
4.799962
5.611777
7.531643
10.972619
15.532970
23.678541
30.687451
38.845539
##ZVALUE=370
0.403523
0.533462
0.471473
0.513792
0.391603
0.533462
0.452995
0.335574
0.521541
0.489950
0.470877
0.463724
0.451803
0.481606
0.465512
0.590682
0.494719
0.452995
0.405908
0.455976
0.468493
0.377893
0.512600
0.602603
0.350475
0.331998
0.644922
0.482798
0.549555
0.428557
0.544786
0.438690
0.534654
0.566840
0.531673
0.553727
0.578761
0.600815
0.451803
0.664592
0.508428
0.431538
0.534654
0.552535
0.579953
0.602603
0.569820
0.665784
0.617504
0.664592
0.787973
0.596642
0.690818
0.636578
0.725985
0.654459
0.841618
0.805855
0.685453
0.856519
0.988841
0.995994
1.064539
1.183748
1.124740
1.138449
1.877546
5.759597
31.348467
79.058409
186.425447
297.277570
465.779901
588.822961
691.589713
701.547861
621.762872
508.565903
334.545970
216.858983
101.304650
52.424669
20.798445
9.287596
5.049706
4.696846
4.535913
4.366636
4.432797
4.286766
4.187822
4.418492
5.337596
6.405711
9.648800
13.635755
##ZVALUE=375
0.402927
0.479817
0.414848
0.475645
0.277758
0.345707
0.555515
0.529885
0.358820
0.547767
0.441670
0.391603
0.486970
0.354648
0.388622
0.558496
0.437498
0.523925
0.480413
0.481606
0.442863
0.596642
0.368953
0.385642
0.336766
0.374913
0.485778
0.635982
0.409484
0.414848
0.630617
0.757575
0.524521
0.533462
0.577569
0.676513
0.553727
0.530481
0.537634
0.734925
0.626445
0.618696
0.555515
0.561476
0.596642
0.597835
0.435710
0.579953
0.463724
0.563860
0.650883
0.584722
0.647902
0.617504
0.714660
0.709891
0.754595
0.746846
0.610948
0.813603
0.694990
0.765920
0.708699
0.914931
0.707507
0.962615
1.095533
1.270771
1.577735
4.019737
14.338493
53.804517
117.625594
254.599452
382.618904
542.271733
643.775463
701.680779
671.311021
548.671484
420.084596
256.122947
161.513686
80.157518
40.393472
13.597608
6.498694
4.733801
4.334450
4.366636
4.202724
4.053712
3.935695
3.849864
3.982782
4.556775
##ZVALUE=380
0.444651
0.487566
0.416636
0.457764
0.384450
0.537634
0.445843
0.471473
0.475645
0.451803
0.508428
0.526905
0.353456
0.310540
0.373721
0.487566
0.521541
0.429749
0.417829
0.446439
0.517964
0.512600
0.408888
0.552535
0.515580
0.549555
0.490546
0.542998
0.354648
0.507832
0.556707
0.399947
0.631809
0.594854
0.556707
0.562668
0.686646
0.747442
0.627637
0.569820
0.602603
0.612736
0.552535
0.483990
0.724792
0.602603
0.518560
0.602603
0.602603
0.618696
0.608563
0.609756
0.553727
0.623465
0.678897
0.688434
0.770688
0.811815
0.724792
0.692606
0.760555
0.612736
0.782609
0.750422
1.011491
0.918508
0.927448
1.002550
0.983477
1.387596
1.450777
2.141595
7.315874
36.391616
84.606409
198.843479
317.854881
487.015843
606.205463
693.808794
687.673688
586.158633
477.664471
329.445601
219.647884
108.698010
56.065917
20.427704
8.898973
4.836917
4.396439
4.014969
4.021525
3.931522
3.811717
3.417730
##ZVALUE=385
0.413656
0.364780
0.294447
0.494719
0.441670
0.387430
0.419617
0.536442
0.480413
0.322461
0.477433
0.439882
0.299811
0.539422
0.445843
0.315905
0.302792
0.556707
0.213981
0.477433
0.428557
0.485778
0.359416
0.400543
0.299811
0.508428
0.654459
0.601411
0.543594
0.504851
0.631809
0.641942
0.731945
0.597835
0.703931
0.714660
0.605583
0.728965
0.731945
0.650883
0.568628
0.698566
0.630617
0.620484
0.555515
0.655651
0.636578
0.690818
0.636578
0.558496
0.660419
0.690818
0.578761
0.536442
0.565648
0.748634
0.570416
0.586510
0.644922
0.650883
0.649691
0.659823
0.527501
0.568628
0.727773
0.798702
0.851750
0.938773
0.932813
1.192689
1.195669
1.204610
1.313686
1.482964
3.533959
20.262599
53.203702
137.073994
241.080523
417.895913
548.404455
664.958954
692.040920
646.807551
561.071634
405.967832
285.895467
153.195858
87.375641
36.058426
15.225410
5.415678
4.002452
3.684759
3.542900
3.686547
##ZVALUE=390
0.381470
0.438690
0.386834
0.359416
0.292659
0.394583
0.332594
0.412464
0.450611
0.501871
0.389814
0.421405
0.500679
0.353456
0.450611
0.531673
0.344515
0.486970
0.513792
0.404716
0.327826
0.422597
0.460744
0.412464
0.412464
0.439882
0.541806
0.715852
0.532866
0.688434
0.909567
0.960827
0.969768
0.725985
0.747442
0.867844
0.867844
0.839829
0.817776
0.807643
0.749826
0.758767
0.805855
0.767708
0.586510
0.651479
0.630617
0.720620
0.639558
0.576973
0.702739
0.532866
0.615716
0.575781
0.595450
0.658631
0.776649
0.760555
0.658631
0.773668
0.767708
0.686646
0.662804
0.713468
0.684857
0.810623
0.897646
0.751615
0.768900
1.024604
1.098514
1.134872
1.071692
0.968575
1.122952
1.429915
1.997948
10.425448
33.442974
104.367733
195.646882
361.889005
483.276844
617.176890
685.162544
692.190528
629.487634
491.044521
371.109843
222.363472
129.181743
53.204894
25.132895
8.272529
4.228950
3.840923
##ZVALUE=395
0.134706
0.198483
0.334978
0.273585
0.250936
0.369549
0.302792
0.261664
0.306964
0.147820
0.066757
0.188947
0.113845
0.193715
0.288486
0.184774
0.257492
0.263453
0.248551
0.218749
0.106692
0.257492
0.298619
0.223517
0.284910
0.274777
0.404716
0.429749
0.553727
0.601411
0.650883
0.668764
0.752807
1.017451
0.840425
0.861883
0.771880
0.817776
0.701547
0.831485
0.657439
0.694990
0.567436
0.594854
0.585914
0.634789
0.604987
0.470877
0.585914
0.329614
0.602603
0.495911
0.569820
0.313520
0.492930
0.657439
0.534654
0.314713
0.468493
0.462532
0.405908
0.386834
0.408888
0.419617
0.470877
0.533462
0.570416
0.655651
0.660419
0.747442
0.799894
0.807643
0.499487
0.733733
0.794530
0.731945
0.802875
0.820756
1.104474
5.478859
21.168590
76.259971
145.089626
275.805593
404.971838
576.480627
675.097704
727.058649
695.745945
580.333471
448.907614
275.923610
169.940591
75.221658
36.250949
12.087822
##ZVALUE=400
0.170469
0.234842
0.066757
0.098944
0.039935
0.109673
0.178814
0.160933
0.150800
0.113845
0.197887
0.054836
0.162721
0.178814
0.145435
0.151992
0.090599
0.195503
0.241995
0.138879
0.232458
0.251532
0.204444
0.175834
0.248551
0.170469
0.296831
0.257492
0.460744
0.716448
0.558496
0.787973
0.829697
0.990629
0.932813
1.018643
0.907779
0.848770
0.718832
0.795722
0.671744
0.541806
0.738502
0.600815
0.549555
0.560880
0.321865
0.472665
0.441670
0.500679
0.450611
0.526905
0.440478
0.396967
0.321865
0.452995
0.350475
0.438690
0.371933
0.317693
0.277758
0.304580
0.301600
0.357628
0.346899
0.502467
0.373721
0.506639
0.579953
0.634789
0.626445
0.648499
0.763535
0.676513
0.683665
0.628829
0.681877
0.778437
0.752807
0.858903
1.041889
2.881885
10.821819
41.960478
92.938542
211.273432
334.447622
509.900451
621.576905
705.337524
705.025792
611.114502
495.193005
325.692892
212.802887
107.801557
##END
