##TITLE=FAAI0501
##FORMAT=SPECTACLE-ASCII V-1.2
##DATA TYPE=ULTRAVIOLET SPECTRUM
##SECOND TYPE=ULTRAVIOLET SPECTRUM
##DATE=02/28/18
##TIME=16:01:58
##SPECTROMETER/DATA SYSTEM=SPECTACLE
##XUNITS=NM EM
##YUNITS=ENERGY
##YFACTOR=1
##FIRSTX=220
##LASTX=410
##NPOINTS=96
##3DDATA=Equidistant
##ZUNITS=NM EX
##FIRSTZ=210
##LASTZ=400
##ZPOINTS=39
##XYDATA=(Y..Y)
##ZVALUE=210
4.999638
4.823804
4.534721
4.528761
4.391670
4.942417
4.743934
4.651546
3.921986
4.435778
3.905892
3.993511
3.641844
3.811717
3.416538
3.861785
3.752708
4.705787
4.757643
5.046725
5.963445
5.774498
6.250739
7.149577
7.007718
7.175803
8.266568
7.409453
8.059740
8.881688
8.073449
8.165836
8.222461
9.173751
8.990765
10.587573
9.718537
9.607673
9.526610
9.902716
10.921955
10.225773
9.658933
11.281967
10.406971
10.050535
10.738969
13.630986
12.212992
11.701584
11.809468
12.469888
11.057854
10.705590
12.030602
12.955666
12.163520
13.428926
13.611913
13.358593
11.678934
13.495684
13.877749
13.365746
13.946891
14.816523
15.080571
18.647909
18.283725
22.723675
26.490688
32.562613
36.335588
45.309663
51.572919
58.818460
61.366558
60.944557
66.917539
65.995455
59.490800
53.898692
50.223470
42.063594
34.788847
25.624633
20.782948
18.440485
16.744733
15.825629
14.012456
13.731718
13.649464
16.404986
15.597939
16.325712
##ZVALUE=215
22.648573
22.052526
20.154715
14.504790
12.480617
10.451674
9.781718
8.068681
8.599758
8.755922
8.008480
7.488728
6.832480
6.326437
5.322695
4.780889
5.411506
5.139709
6.108880
5.807877
6.364584
6.211996
7.031560
7.706881
7.368922
7.467866
8.817911
9.287000
9.761453
9.555817
10.671616
10.927916
10.778904
10.714531
11.154413
10.503531
11.854768
11.357665
11.733770
11.396408
12.369752
11.720657
12.140870
12.865663
12.623668
12.901425
12.439489
13.521910
13.879538
13.421774
12.921691
13.872981
13.158917
14.749765
14.009476
16.264915
12.972951
14.897585
13.525486
15.560985
14.511943
15.019774
14.768839
15.916824
14.322996
15.745759
16.738772
17.129779
20.849705
23.554564
27.530789
30.791759
34.379959
40.346980
45.465827
49.980879
50.427914
55.966973
54.908991
49.218535
50.273538
46.726465
40.024519
31.802654
26.973486
20.567775
17.964840
15.307665
13.596416
13.696551
13.034940
11.624694
13.569593
13.655424
12.511611
13.662577
##ZVALUE=220
63.579679
75.539947
72.727799
73.136687
64.285994
51.256418
35.680532
25.406480
18.400550
17.299652
16.074777
16.940832
15.168786
15.543699
12.690425
9.374619
8.461475
7.398725
6.430745
5.760789
6.284714
6.284714
7.969737
7.214546
7.561445
8.481741
8.098483
9.096861
8.057952
9.332895
10.399818
10.931492
11.542439
11.520982
10.743737
11.755824
11.637807
11.838675
11.756420
13.509989
12.474656
12.621880
13.018847
12.844801
14.333725
13.165474
13.642907
13.818741
14.151931
13.530850
13.213754
12.915730
14.311671
14.516711
15.296936
15.917420
14.587641
14.494658
14.286637
14.330745
14.369488
14.873743
15.297532
16.582608
16.067624
14.923811
17.800927
17.587543
20.691752
25.726557
30.766726
31.770468
40.432811
44.933558
46.613812
50.622821
53.101778
53.255558
56.137443
54.571629
54.510832
51.479936
45.976639
37.136674
32.658577
25.071502
18.470883
17.057657
16.333461
14.813542
14.143586
13.509989
14.545918
13.721585
13.529658
14.193654
##ZVALUE=225
127.770901
131.051540
170.291662
218.998790
229.844451
216.989517
187.457800
136.909485
91.331601
63.527822
38.729906
33.719540
33.920407
34.605861
34.645796
31.530857
27.386546
21.952987
18.995404
13.221502
10.654926
9.566545
9.704828
9.369850
9.732842
10.456443
10.904670
11.976957
12.190938
12.667775
12.553930
13.852715
13.696551
15.380979
15.363693
14.723539
15.235543
14.712811
15.166998
14.488697
14.510751
14.619827
14.039874
14.336705
14.791489
14.891624
15.527606
15.733838
12.963414
14.609694
13.801455
14.893413
14.035702
14.587641
14.319420
12.683868
14.078617
14.776587
15.051961
16.374588
14.231801
15.503764
15.154481
15.900731
14.807582
15.716553
15.723705
17.345548
18.381476
21.526814
24.158955
27.194619
30.795932
34.462810
34.874678
36.479831
38.942695
36.350489
35.581589
34.539700
34.457445
30.349493
26.560426
24.646521
22.939444
18.255711
17.429590
15.480518
14.209747
14.325976
14.496446
14.359951
13.508797
12.956858
13.285875
14.003515
##ZVALUE=230
87.389946
102.894902
164.187551
268.765688
349.250436
409.598947
416.086912
374.910831
318.435431
244.259834
146.487951
95.419884
60.379505
52.417517
52.787662
54.890513
57.925582
54.177642
49.181581
41.039586
31.135678
20.300746
15.360713
11.146665
9.025931
8.448958
8.136630
10.568500
9.207726
9.688735
11.350513
11.054873
12.336969
13.124943
12.257695
12.346506
12.754798
12.830496
11.825562
13.058782
13.041496
12.277961
13.171434
12.071729
12.230873
11.692643
12.976527
12.595654
11.017919
11.609793
11.502504
12.056828
11.963844
12.692809
13.149977
12.344718
12.772679
12.716651
12.702942
12.973547
12.746453
13.262630
12.855530
12.961626
13.295412
14.485717
14.813542
14.625788
14.270544
16.883612
20.172596
22.110939
23.839474
28.078556
26.149750
30.167699
28.712749
28.600693
28.184652
26.822686
26.680827
23.785830
20.462871
18.658638
15.285611
15.520453
13.440847
13.513565
13.375878
12.523532
12.465715
10.659695
11.434555
12.075901
11.207461
11.085868
##ZVALUE=235
27.400851
31.138659
61.249733
127.353668
208.101869
314.472914
396.767855
472.936630
487.159491
469.449759
380.802751
289.226770
188.205838
133.519769
90.257525
76.289773
74.996948
83.992481
88.947415
88.263750
80.950856
67.900419
56.115985
38.064718
27.468801
16.418695
12.040734
9.379983
8.916855
8.690953
8.901954
9.695888
9.648800
8.047819
9.193420
9.522438
9.256601
9.248853
10.310411
8.794665
9.351969
9.324551
8.580685
8.818507
8.727908
9.473562
9.547472
9.287596
7.749796
8.929968
9.386539
9.672642
9.598732
9.538531
10.090470
10.701418
9.534955
9.496808
9.916425
10.821819
11.083484
10.959506
11.692643
10.691881
11.294484
11.398792
11.638999
12.302995
13.593435
15.552640
16.320944
18.744469
18.959641
24.541616
23.041964
23.794770
25.308728
24.474859
25.356412
23.132563
22.230744
19.967556
17.630458
16.591549
16.602874
15.226603
14.901757
13.703704
13.822913
13.058782
12.340546
13.216734
12.555718
13.646483
11.724830
12.497902
##ZVALUE=240
3.516674
3.822446
13.796687
36.993623
89.728832
162.892938
301.172733
447.570682
616.123676
726.809502
772.543550
725.393891
622.686744
447.537899
319.441557
190.294981
133.697987
104.415417
96.774697
108.591914
114.843845
120.363832
117.055774
109.190941
87.985992
69.312453
50.060749
35.781860
22.139549
15.562773
11.429787
10.057688
9.714961
8.960962
8.997917
9.252429
8.423924
9.400845
8.684993
9.418726
8.993745
8.429885
9.566545
10.032654
9.271502
9.168983
9.582639
9.403825
10.295510
9.615421
10.860562
9.803772
10.324717
10.071993
10.136962
11.290908
10.917783
11.487603
11.240840
9.413958
10.882616
10.908842
10.704994
11.782646
12.387633
13.652444
13.676882
14.236569
14.268756
15.056729
16.601682
19.289851
19.234419
20.875931
21.523833
20.707846
21.371841
21.240711
19.605756
19.635558
18.985868
17.775893
16.449690
16.162992
14.945865
16.335845
14.004707
14.577508
15.004873
14.248490
13.789535
14.361739
13.020635
13.511777
13.371706
13.238788
##ZVALUE=245
1.685619
1.745820
1.698732
2.082586
4.284978
10.607839
35.343766
73.507428
160.084963
235.970616
357.794762
446.841717
502.250791
517.095923
485.832691
404.725671
329.545736
225.385427
161.499977
112.587810
94.767809
102.278590
119.909644
131.071806
133.262873
133.953691
115.664601
101.194978
74.995756
56.889653
41.759610
25.712848
16.734600
10.146499
8.958578
8.161664
7.342696
7.179976
6.763935
6.978512
7.400513
6.959438
6.551743
6.195903
6.215572
6.605983
7.180572
5.682707
6.164908
6.481409
5.578995
5.827546
6.454587
5.853772
6.773472
6.187558
6.013513
6.280541
6.901622
6.964803
6.742477
6.610751
6.528497
7.227659
8.089542
7.207990
7.562637
7.564425
7.625818
10.172725
8.822680
10.173917
11.100769
11.486411
12.628436
11.763573
13.001561
11.280775
13.283491
11.922717
12.298822
11.945963
12.102723
11.939406
12.352467
10.981560
11.623502
11.264682
11.944771
11.113882
11.844635
11.571646
11.275411
11.457801
11.899471
11.801720
##ZVALUE=250
1.680851
1.375675
1.789927
1.469851
1.709461
1.544952
2.090931
7.507801
18.507838
54.359436
99.550486
195.515752
292.368531
413.116813
487.529635
549.347997
541.893840
484.216809
413.062572
290.351510
205.848813
131.630898
98.267794
95.542669
112.252831
128.861666
142.052770
148.612857
141.014457
128.040910
103.565454
81.311464
56.513548
37.759542
21.717548
16.094446
10.739565
8.745790
7.060766
7.011890
8.277893
6.206632
6.714463
6.672740
6.948709
6.712675
6.497502
5.797744
6.363988
5.431771
6.669760
6.474853
6.388426
5.447865
5.972981
5.808473
6.137490
6.224513
5.900860
5.832911
5.057454
5.747676
5.385876
6.322861
6.538630
6.456971
7.080436
7.427931
7.715821
9.118915
8.743405
9.848475
9.896755
10.046959
10.452867
11.125803
10.652542
11.396408
11.364818
11.261702
10.570884
10.483861
11.178851
10.679960
10.834932
10.824800
10.608435
10.790825
11.325479
10.377765
11.468530
11.001825
10.609627
10.538697
10.601878
10.587573
##ZVALUE=255
1.289845
1.657605
1.448989
1.554489
1.454949
1.543760
1.471639
1.528859
1.816750
3.597736
14.670491
38.671494
74.273944
161.985755
252.631903
395.896435
490.658879
575.040579
614.405870
577.919483
500.477552
401.935577
257.845521
170.830488
103.533864
87.254643
91.395974
107.092857
127.984881
146.594644
151.930451
149.013996
135.154724
108.629465
84.296465
56.784749
39.328933
22.325516
14.509559
8.931756
8.304715
7.769465
6.862879
6.753802
6.845593
5.972981
6.835461
6.213784
6.569624
5.830526
5.734563
5.555749
5.420446
5.527735
5.465746
5.405545
5.092621
5.280972
5.504489
5.331635
5.408525
5.294681
6.146431
5.396605
5.978942
6.213784
5.466938
6.657839
6.497502
7.503629
7.304549
8.765459
8.773804
8.310676
9.557605
9.608865
9.834766
10.008812
10.169744
9.731650
9.854436
10.045767
9.362698
9.379983
10.183454
9.534955
9.460449
10.006428
9.642839
10.241866
9.608865
10.077953
9.647608
10.154843
10.658503
9.905696
##ZVALUE=260
1.058578
0.943542
1.150966
1.132488
1.229644
1.399517
1.325607
1.380444
1.449585
1.642704
1.690984
2.387762
6.227493
24.867654
53.776503
129.781961
212.740898
354.962945
460.556746
603.074431
661.078691
670.367479
591.356754
491.563678
325.828791
226.414800
137.381554
91.173649
75.901747
84.998608
102.675557
131.860971
147.887468
155.438781
149.717927
136.232972
115.812421
82.712770
61.658621
37.854910
25.469661
14.410615
9.471774
7.549524
7.175803
6.908774
6.375909
6.335974
6.068945
5.958676
5.883574
6.757975
5.968809
5.745888
5.462766
5.527735
5.497932
5.524755
5.461574
5.125999
4.737973
5.428791
5.815625
5.639791
5.587935
6.018877
6.183982
5.964637
7.093549
7.183552
7.117987
8.133650
7.448792
8.384585
9.151697
8.872747
8.970499
9.076595
9.085536
9.006858
9.293556
9.295940
8.948445
8.805990
8.635521
9.017587
8.614659
9.091496
9.035468
8.922815
9.598732
9.432435
9.426475
9.198785
9.670854
9.416938
##ZVALUE=265
1.111627
1.014471
0.929832
1.290441
0.968575
1.049638
1.110435
1.117587
1.400709
1.537800
1.483560
1.264811
1.500845
1.892447
3.959537
16.973615
39.446950
101.301670
178.396702
331.972837
463.019609
551.333427
705.150962
729.016662
672.712922
578.133464
426.884890
299.374461
167.600513
109.088421
70.902705
67.860484
86.276531
110.132694
138.783455
152.984858
161.562562
154.079795
133.235455
113.781691
83.595514
59.811473
38.207769
24.005771
14.288425
9.194613
7.273555
6.910563
6.487966
6.412864
6.216764
6.672740
6.761551
6.384850
5.882978
6.203651
6.218553
6.341934
5.991459
5.412698
5.676746
5.956888
5.456805
5.967617
5.774498
6.541610
5.966425
6.544590
7.132888
7.472634
7.667542
7.477999
8.069873
8.341670
7.854700
8.552670
8.957982
8.715987
8.887649
8.361936
8.648634
8.092523
8.961558
8.610487
9.274483
8.863807
8.351803
8.376837
8.827448
8.670688
8.140802
9.499788
8.474588
8.498430
9.144545
8.723736
##ZVALUE=270
0.907779
1.139641
1.020432
0.999570
0.993609
1.178980
0.940561
1.331568
1.114607
1.083612
1.203418
1.060963
1.298785
1.235604
1.409650
1.477599
2.336502
6.238818
27.102828
65.592527
132.880807
274.460912
406.413674
582.041740
696.056485
763.891935
749.060512
654.871464
542.747974
377.148986
257.961750
135.928988
83.750486
56.690574
60.482621
87.328553
110.418797
140.549541
153.103471
161.050558
155.291557
135.929585
115.498900
86.081624
61.437488
37.874579
24.812818
14.343858
10.450482
7.764697
7.668734
6.683469
6.506443
6.744862
6.395578
6.443858
6.481409
6.611943
6.533861
6.406903
5.695820
6.252527
6.379485
5.783439
6.244779
6.318688
6.201863
6.736517
6.626844
6.939769
6.970763
7.938743
7.872581
7.876754
8.071661
8.262992
7.829666
8.239746
8.507967
7.971525
8.556843
8.054972
7.913709
8.471608
8.443594
7.980466
8.179545
7.724762
8.566976
8.340478
8.920431
8.478761
8.368492
8.113980
8.316636
8.400679
##ZVALUE=275
0.937581
1.064539
0.879765
0.990629
0.916719
0.903606
0.810623
1.024604
0.913739
1.090765
1.051426
1.073480
1.039505
0.913739
1.176000
1.178980
1.537800
1.542568
1.559854
4.159808
12.890697
38.254857
109.750628
202.294588
372.970700
504.466891
662.565827
754.025578
794.775486
744.972825
651.164651
482.734442
341.003537
183.445811
108.766556
57.397485
47.054887
61.584711
83.014965
109.990835
133.748651
152.467489
158.282518
152.187943
139.341950
110.328794
87.027550
59.838891
40.817857
24.351478
16.229749
10.155439
8.169413
7.184744
6.388426
6.955862
6.376505
6.943941
6.515980
6.474853
6.614923
7.121563
6.415844
6.676912
6.272793
6.994605
6.634593
6.963611
6.706715
6.780624
7.476807
7.615685
7.951856
8.038878
8.119941
8.140802
7.826686
8.256435
7.874966
7.961988
8.136630
8.002520
7.934570
7.747412
7.787943
8.383989
8.048415
7.971525
7.659793
8.427501
7.994771
7.600784
8.197427
7.663965
8.243918
8.583665
##ZVALUE=280
0.901818
0.601411
0.897646
0.813603
1.017451
0.831485
0.973940
0.943542
0.741482
0.992417
0.770688
1.020432
0.939965
0.906587
1.086593
1.225471
1.211762
1.421571
1.301765
1.520514
1.633763
1.776814
8.420944
27.322769
84.208846
154.567957
289.392471
427.424908
602.751970
723.409653
787.769556
793.017745
720.551014
548.752546
405.026674
231.338739
138.845444
64.912438
43.168664
42.503476
56.048632
84.462762
108.935833
134.547949
151.028633
155.900717
151.105523
131.698847
111.217499
82.136989
60.713887
37.664771
25.461912
15.312433
10.319948
7.448792
7.156730
6.885529
6.482601
6.401539
6.672740
6.968975
6.526709
6.682873
6.607771
6.532669
6.673932
7.145405
7.254481
7.084608
7.195473
7.634759
7.600784
7.432699
7.884502
7.771850
8.015633
7.980466
8.115768
7.836819
7.903576
8.017421
8.098483
7.764697
7.908940
7.941723
7.522702
8.255839
8.101463
7.655621
7.750988
7.813573
7.640719
7.577538
7.601976
7.866621
##ZVALUE=285
0.691414
0.822544
0.809431
0.956655
0.879765
0.786781
0.826716
0.983477
0.744462
0.873804
0.920892
0.930429
1.035929
1.072884
1.025796
1.172423
0.999570
1.218915
1.347661
1.266599
1.304746
1.433492
1.569986
1.585484
4.490614
14.339685
39.662719
109.151602
191.997886
345.294476
485.290885
666.899681
773.818493
827.990770
795.992017
652.364492
508.407950
307.625532
197.582841
93.379617
50.344467
30.868649
34.831762
54.687858
75.966716
106.650591
126.260519
144.877434
150.006413
144.816637
133.735538
108.094811
86.499453
60.502887
42.849779
24.096966
15.927553
9.722710
7.824898
6.746650
6.726980
6.085634
6.658435
6.180406
6.374717
6.499887
6.627440
7.124543
7.259846
7.575750
7.300973
7.612705
7.449985
8.131862
7.891655
7.561445
7.987618
8.031726
7.894635
8.319616
7.971525
8.038878
8.225441
7.850528
7.595420
7.439852
7.958412
7.887483
7.257462
7.770658
7.879734
8.247495
7.653832
7.693768
7.285476
7.112622
##ZVALUE=290
0.943542
0.809431
0.654459
0.887513
0.706911
0.881553
0.778437
0.818968
0.804663
0.701547
0.811815
0.845790
0.704527
0.772476
0.803471
0.694990
1.008511
0.921488
1.013875
0.953674
1.031756
1.036525
1.231432
1.287460
1.359582
1.584888
2.174973
5.795956
27.565956
65.022707
125.366449
263.253450
400.725007
603.608489
721.879601
813.378692
801.555514
690.353513
561.001897
376.697779
247.481465
124.358535
66.728592
30.618906
23.529530
34.826994
49.621463
74.088573
92.897415
120.969415
137.195587
145.406723
141.249895
126.903653
108.493567
79.485774
58.547854
37.862659
25.711656
14.570951
9.979606
7.116795
6.703734
6.173849
6.040931
6.383657
6.278753
6.282926
6.429553
6.848574
7.121563
7.366538
7.377863
7.629991
7.921457
8.212924
7.675886
7.504821
7.909536
7.480979
7.309914
7.716417
7.662773
7.902980
7.300973
7.702708
7.873774
7.730722
7.906556
7.732511
7.348657
7.076859
7.360578
7.412434
7.172823
7.233620
##ZVALUE=295
0.696778
0.600815
0.574589
0.618696
0.561476
0.656843
0.708699
0.620484
0.646710
0.732541
0.770688
0.675917
0.707507
0.883937
0.896454
1.025796
0.912547
1.059771
0.954866
0.855923
0.957847
0.981688
0.919700
1.024604
0.931621
1.176596
1.303554
1.517534
1.681447
2.630949
9.404421
39.702654
91.261864
212.469697
344.024897
540.518761
670.788884
791.006684
810.749531
737.597942
625.025630
445.712805
309.349895
165.149570
90.906620
36.723614
21.641850
20.707846
28.628707
47.151446
65.670609
91.602802
110.324621
130.400658
137.245655
134.185553
123.452544
102.086663
81.178546
55.964589
39.718747
23.601651
15.974641
9.931922
7.355809
6.322861
5.799532
6.392598
6.520748
6.365776
6.817579
7.022619
7.275939
7.329583
7.266998
7.221699
7.348657
7.341504
7.280707
7.527471
7.841587
7.612705
7.409453
7.670522
7.478595
7.569790
7.464886
7.304549
7.642508
7.576942
7.577538
7.260442
7.443428
7.484555
7.444620
7.345676
##ZVALUE=300
0.581741
0.764728
0.674725
0.738502
0.780821
0.720620
0.581741
0.735521
0.618696
0.697970
0.563860
0.668764
0.690818
0.693798
0.754595
0.701547
0.718832
0.725985
0.909567
0.954866
0.886917
0.949502
0.897646
0.913739
1.174808
0.956655
1.142621
1.202822
1.317859
1.311898
1.459718
1.832843
5.500913
20.243526
70.689917
137.607455
282.955766
425.350666
622.176528
731.014013
812.122822
800.502896
681.861639
553.110838
363.323689
236.710906
120.071769
63.560605
25.062561
15.043616
17.839670
25.221705
41.917562
58.736801
83.563924
102.435946
122.705698
129.326582
128.162503
120.434761
100.355744
80.367923
55.018663
40.495992
24.311543
16.824603
9.592772
7.279515
6.946921
6.420612
6.454587
6.462932
6.741881
6.804466
7.310510
6.992817
7.021427
7.246733
7.651448
7.515550
7.651448
7.828474
7.855892
7.700920
7.338524
7.250905
7.823706
7.648468
7.945895
7.481575
7.638931
7.649660
7.575750
7.137656
7.448792
7.809997
##ZVALUE=305
0.797510
0.915527
0.942945
0.917912
0.912547
0.937581
0.922680
1.155734
0.923872
0.891685
1.001954
0.926852
1.039505
0.905991
1.007915
0.883937
0.828505
0.932813
0.896454
1.169443
1.049638
1.107454
1.017451
1.064539
1.042485
1.265407
1.012683
1.170635
1.389980
1.361966
1.649857
1.546741
1.591444
1.654625
2.696514
14.256835
39.391518
112.514496
207.816958
385.944843
539.721847
730.996728
838.242769
855.618715
786.560774
607.576966
471.156836
292.918682
180.377960
82.485676
42.071939
17.013550
12.013912
16.815662
24.219751
40.202737
58.097839
80.432892
114.269853
116.893649
123.054981
121.229887
113.050938
94.474554
78.573823
54.171681
39.538741
24.499893
15.740991
10.253787
7.916689
7.336736
7.180572
7.091761
7.246733
7.391572
7.263422
7.505417
7.553697
7.546544
7.986426
8.199811
8.218884
7.915497
7.735491
8.512735
7.890463
7.776618
8.059740
7.397532
7.754564
7.627606
7.979870
7.751584
7.598996
7.714629
##ZVALUE=310
0.828505
0.857711
0.767708
0.801682
0.905991
0.882745
0.829697
0.958443
0.810623
0.901818
0.919700
0.892878
0.729561
0.866652
0.852942
1.037717
0.829697
0.945926
0.968575
1.002550
1.168847
1.029968
1.203418
1.090765
1.199841
1.137853
1.204610
1.133680
1.095533
1.032948
1.241565
1.220703
1.371503
1.547933
1.709461
1.829863
2.098680
6.303787
20.274520
67.258477
141.377449
315.544605
496.857762
758.775473
933.199525
1015.934944
1010.774970
854.704976
681.658983
444.268584
288.657546
140.260458
73.552728
26.800632
13.717413
11.052489
14.153719
22.802949
33.298731
52.083731
69.177747
92.519522
104.923844
116.041899
118.685961
107.830763
94.550848
74.699521
56.892633
36.502481
25.854707
16.705990
11.977553
8.525848
7.823706
7.384419
7.569790
7.176995
7.286668
7.165670
7.434487
7.382631
7.887483
8.226633
8.048415
7.916689
7.777810
8.091927
8.001924
7.895827
7.934570
7.865429
7.881522
7.954836
7.636547
7.963777
##ZVALUE=315
0.683665
0.660419
0.498891
0.547767
0.483990
0.681877
0.640750
0.743866
0.641942
0.617504
0.765920
0.715852
0.759959
0.487566
0.645518
0.773668
0.643730
0.570416
0.769496
0.827909
0.567436
0.779629
0.800490
0.834465
0.721812
0.929832
0.798702
0.723600
0.866652
0.891685
1.000762
1.015663
1.111627
1.120567
1.114607
1.168847
1.290441
1.476407
1.355410
3.018975
9.951591
41.401982
92.612505
222.703815
383.376479
657.600760
842.921734
1006.733775
1015.710831
947.982669
789.188743
531.231761
350.474715
174.642801
91.831684
34.149885
16.371608
9.179711
9.731650
13.470650
19.253492
32.571554
45.424700
66.511631
82.538724
100.015998
110.115409
110.147595
104.077458
89.042783
72.832704
52.232742
38.343668
23.907423
16.483665
10.715723
8.692741
7.783771
7.384419
7.235408
7.298589
7.562637
7.827878
7.625818
7.678866
7.643700
7.900596
7.817745
8.331537
7.856488
7.786751
7.490516
7.620454
7.644892
7.659793
7.651448
##ZVALUE=320
0.534654
0.623465
0.511408
0.485778
0.723600
0.625849
0.531673
0.465512
0.489950
0.593662
0.565648
0.656843
0.626445
0.646710
0.611544
0.455976
0.545979
0.491738
0.650883
0.519753
0.557899
0.731945
0.736713
0.783801
0.810623
0.720620
0.794530
0.734925
0.742674
0.834465
1.008511
0.820756
0.883937
1.028776
0.956655
0.912547
0.990629
1.105666
1.114607
1.219511
1.381636
1.693964
4.589558
24.430752
58.413744
151.707530
252.434611
415.416956
546.756983
693.298578
753.087997
740.274787
667.373538
509.852767
372.058749
207.470655
116.959810
47.730803
23.585558
9.825826
8.052588
9.019971
11.605620
17.967820
27.158856
43.599606
58.380961
78.984499
91.152787
103.951693
104.946494
97.186565
85.802674
65.124631
51.345825
35.538673
25.162697
15.938878
11.194944
8.724928
8.253455
7.881522
7.587671
7.408857
7.573962
7.512569
7.795691
7.758737
7.620454
7.742643
7.637739
7.301569
7.312894
7.428527
7.687807
7.427931
##ZVALUE=325
0.539422
0.560880
0.476837
0.467896
0.484586
0.574589
0.757575
0.538826
0.483990
0.619888
0.647902
0.516772
0.520945
0.624657
0.670552
0.568628
0.665784
0.698566
0.679493
0.580549
0.591874
0.454783
0.503659
0.720620
0.727773
0.793934
0.642538
0.657439
0.765920
0.676513
0.837445
0.748634
0.878572
0.887513
0.817776
0.731945
0.846982
0.883937
0.959635
0.929832
1.045465
1.204610
1.149774
1.494884
2.645850
14.237761
37.815571
100.656748
183.355808
340.851545
472.609997
635.531545
720.231533
750.186443
700.687766
556.902885
426.274538
261.890888
159.702897
70.954561
33.568740
12.175441
7.846951
7.177591
8.238554
11.850595
16.666651
27.531981
39.609671
60.161948
73.868632
89.409947
96.688867
98.516941
92.519522
77.814460
64.101815
46.298504
34.809709
21.886826
15.317798
10.727644
9.034872
8.166432
7.815957
7.738471
7.904768
7.562637
7.401705
7.406473
7.340908
7.703900
7.429719
7.561445
7.357597
7.434487
##ZVALUE=330
0.566840
0.447631
0.553727
0.683665
0.520945
0.440478
0.391603
0.512600
0.536442
0.578761
0.574589
0.590682
0.627637
0.471473
0.470877
0.605583
0.576973
0.736713
0.536442
0.695586
0.630617
0.609756
0.575781
0.774860
0.705719
0.616908
0.527501
0.711679
0.622869
0.607967
0.729561
0.752807
0.592470
0.611544
0.580549
0.879765
0.938773
0.809431
0.972748
0.853539
0.875592
0.871420
0.897646
0.938773
1.000762
1.238585
1.610518
6.359816
19.996762
65.630674
128.776431
260.368586
383.996964
555.001497
665.185452
736.508965
711.249709
595.853925
482.448936
317.505002
202.100873
95.365644
48.878789
18.378496
8.851886
7.141829
7.186532
8.118749
10.490417
17.747879
25.359988
38.988590
52.473545
70.772767
82.095861
91.851950
91.990829
85.723996
75.031519
58.496594
45.123696
30.079484
22.742748
16.207695
12.173653
9.327531
8.334517
7.421970
7.171631
7.374883
7.331967
7.346869
7.098913
7.306933
7.064939
7.178783
##ZVALUE=335
0.416636
0.651479
0.496507
0.472665
0.435710
0.474453
0.580549
0.498891
0.555515
0.488758
0.490546
0.435710
0.387430
0.481606
0.471473
0.348687
0.757575
0.545979
0.566840
0.456572
0.490546
0.521541
0.482798
0.583529
0.533462
0.680685
0.567436
0.562668
0.629425
0.752807
0.645518
0.769496
0.697970
0.725985
0.785589
0.752807
0.763535
0.803471
0.735521
0.763535
0.755787
0.766516
0.863671
0.998974
0.948906
1.028776
1.064539
1.136661
1.213551
2.922416
10.312796
40.350556
85.488558
193.827748
309.309959
495.987535
615.057945
714.845657
726.599693
646.847486
544.462800
370.861888
249.261856
128.257871
66.911578
24.123788
11.454821
7.135868
6.585717
6.951690
7.438660
10.556579
14.764667
25.484562
35.431981
52.190423
63.901544
78.279972
85.050464
85.693002
79.942942
68.492889
58.292747
43.770671
33.753514
22.545457
16.422868
11.677742
9.341836
7.799864
7.615685
7.092953
7.354617
7.101893
6.982684
6.975532
##ZVALUE=340
0.354648
0.249743
0.315905
0.470877
0.405908
0.374913
0.407696
0.406504
0.367761
0.314713
0.450611
0.317693
0.501871
0.422597
0.418425
0.475645
0.406504
0.390410
0.444651
0.378489
0.518560
0.352859
0.467896
0.397563
0.526905
0.545979
0.344515
0.386834
0.600815
0.304580
0.543594
0.620484
0.678897
0.573993
0.650883
0.614524
0.726581
0.678897
0.586510
0.650883
0.725985
0.756979
0.720620
0.839829
0.774860
0.843406
0.873804
0.905991
1.002550
0.935793
1.062751
1.486540
4.804730
24.917722
59.855580
150.894523
254.718661
422.930717
554.747581
699.035525
754.854679
719.447732
627.804995
455.000997
314.042568
161.602497
88.540912
34.718513
15.982985
7.021427
6.415844
6.492734
6.636977
7.871985
10.221601
16.593933
23.826957
35.476685
47.570467
64.085722
74.070692
79.750419
81.363916
74.664950
68.051815
53.922534
43.724775
30.541420
23.080707
15.749931
11.812449
8.689761
7.622838
7.052422
6.813407
6.869435
##ZVALUE=345
0.403523
0.405908
0.522733
0.270605
0.425577
0.413656
0.376701
0.540614
0.327826
0.525713
0.396967
0.528693
0.565648
0.522733
0.480413
0.556707
0.673532
0.546575
0.369549
0.506639
0.566840
0.503659
0.526905
0.480413
0.569820
0.655651
0.428557
0.497699
0.439882
0.518560
0.570416
0.546575
0.634789
0.596642
0.616908
0.581741
0.795722
0.715852
0.600815
0.750422
0.611544
0.717640
0.572801
0.642538
0.602603
0.678897
0.783801
0.729561
0.843406
0.915527
1.010895
0.902414
1.026988
1.359582
2.782941
11.125803
45.318007
91.214776
193.526745
298.475027
451.899767
554.565787
637.474656
637.996793
559.194684
459.286571
309.138894
201.892853
93.196630
45.859814
17.213821
9.487867
6.609559
6.334782
6.140471
6.190538
7.305741
9.246469
14.514923
21.150708
33.124685
43.175817
55.429935
64.728856
72.611570
74.416995
70.348978
64.707994
52.542686
43.029785
30.975938
23.155808
15.352964
11.787415
8.540750
7.644892
##ZVALUE=350
0.439882
0.541806
0.456572
0.385642
0.494719
0.541806
0.450611
0.350475
0.492930
0.372529
0.451803
0.437498
0.322461
0.565648
0.459552
0.486970
0.558496
0.457764
0.428557
0.573993
0.608563
0.535846
0.478625
0.518560
0.688434
0.591874
0.453591
0.570416
0.364780
0.577569
0.690818
0.395775
0.488758
0.612736
0.660419
0.541806
0.621676
0.661612
0.640750
0.557899
0.736713
0.649691
0.595450
0.678897
0.597835
0.719428
0.626445
0.754595
0.753999
0.815988
0.793934
0.807643
0.976920
0.935793
1.048446
1.269579
1.568794
6.952882
22.398829
69.825649
131.660700
259.391665
370.884538
511.668921
592.621565
627.322793
592.681766
482.167602
368.921757
218.997002
135.361552
62.756538
29.664636
10.329485
6.957650
6.351471
5.960464
5.867481
5.722642
7.014871
8.925796
13.626814
19.100904
28.606653
37.160516
49.516559
58.431625
66.319704
68.771839
66.021681
60.900450
49.430728
40.424466
29.321909
21.854639
15.080571
##ZVALUE=355
0.418425
0.469685
0.469685
0.461936
0.540614
0.332594
0.508428
0.562668
0.550747
0.401735
0.559688
0.440478
0.435710
0.454783
0.484586
0.563860
0.439882
0.554919
0.539422
0.537634
0.555515
0.466704
0.374913
0.575781
0.429749
0.404716
0.470877
0.562668
0.458956
0.547767
0.594854
0.384450
0.624657
0.537634
0.606775
0.560880
0.691414
0.567436
0.579953
0.608563
0.533462
0.627637
0.796914
0.669956
0.711679
0.538826
0.848770
0.791550
0.734925
0.749826
0.710487
0.895858
0.868440
0.855923
0.981688
1.000762
1.033545
1.198649
1.255870
3.288984
11.533499
44.611692
91.599822
191.613436
302.590728
458.582640
554.143786
624.910593
617.735982
520.814657
417.463779
266.463757
166.292787
73.850751
38.017631
14.560819
7.578731
6.016493
5.667806
5.335808
5.639791
5.625486
6.086826
8.242726
10.794997
17.012954
23.180842
34.281611
41.738749
52.793622
58.973432
62.491894
60.267448
54.920912
48.014522
37.573576
##ZVALUE=360
0.458956
0.323653
0.540614
0.536442
0.264645
0.457764
0.526905
0.552535
0.525713
0.576973
0.530481
0.588894
0.351667
0.449419
0.439882
0.480413
0.476837
0.424981
0.633597
0.605583
0.503659
0.485778
0.525713
0.415444
0.556707
0.421405
0.549555
0.440478
0.442863
0.543594
0.537634
0.707507
0.641942
0.567436
0.575781
0.625849
0.667572
0.615716
0.590682
0.783801
0.620484
0.626445
0.495911
0.519753
0.566840
0.719428
0.580549
0.602603
0.766516
0.648499
0.844598
0.709891
0.731945
0.829697
0.844598
0.875592
0.911951
0.950694
0.912547
1.179576
0.983477
1.636744
4.977584
22.750497
55.877566
137.207508
226.451755
369.136930
478.829741
586.974621
609.504580
565.367937
477.954745
329.988599
221.094489
110.069513
58.805943
22.471547
10.227561
5.669594
5.335808
4.861951
5.106926
5.262494
5.207658
5.783439
7.024407
9.553432
13.023615
19.703507
26.653409
37.174821
45.068860
52.793622
55.628419
55.474639
##ZVALUE=365
0.373721
0.604987
0.509620
0.537634
0.389814
0.473857
0.408888
0.464916
0.396967
0.505447
0.399947
0.455976
0.532866
0.529885
0.458956
0.494719
0.431538
0.566840
0.587702
0.571609
0.512600
0.569820
0.506639
0.363588
0.534654
0.541806
0.458956
0.466704
0.492930
0.565648
0.541806
0.420809
0.570416
0.498891
0.544786
0.644922
0.730753
0.509620
0.586510
0.715852
0.634789
0.496507
0.567436
0.623465
0.643730
0.629425
0.642538
0.751615
0.725985
0.742674
0.713468
0.583529
0.689626
0.819564
0.812411
0.817776
0.756979
0.816584
0.887513
0.885725
1.029968
1.151562
1.285672
1.333952
2.463460
11.576414
33.612847
94.728470
174.290538
311.013460
426.121950
550.369620
597.960949
574.624538
496.465564
358.747840
252.581835
139.387846
77.116489
30.927658
14.016628
6.283522
5.122423
4.714727
4.861951
4.748702
4.755855
4.572868
4.963875
5.610585
7.260442
11.390448
15.665889
23.710728
30.067563
39.286613
##ZVALUE=370
0.468493
0.538826
0.385642
0.470877
0.383854
0.516772
0.409484
0.517964
0.537634
0.493526
0.348687
0.470877
0.458956
0.461936
0.535846
0.484586
0.293851
0.485778
0.537634
0.428557
0.340939
0.373721
0.504851
0.468493
0.458956
0.615716
0.395775
0.565648
0.451803
0.434518
0.530481
0.354648
0.563860
0.463724
0.357628
0.357628
0.454783
0.559688
0.515580
0.536442
0.578761
0.731945
0.624657
0.634789
0.591874
0.661612
0.503659
0.549555
0.625849
0.634789
0.639558
0.626445
0.518560
0.535846
0.586510
0.757575
0.676513
0.708699
0.739694
0.847578
0.858903
0.892878
1.011491
1.068711
1.093745
1.363754
1.610518
6.731749
21.861792
69.351792
130.871534
251.173973
368.783474
520.542860
592.646003
604.120493
544.688702
416.756868
299.371481
160.728693
88.769794
35.829544
17.311573
7.535815
5.128980
4.589558
4.573464
4.395843
4.240870
4.225969
4.243851
4.409552
5.099773
6.705523
8.965731
14.094710
##ZVALUE=375
0.312924
0.234842
0.273585
0.303984
0.400543
0.283718
0.294447
0.422597
0.374913
0.210404
0.234842
0.335574
0.316501
0.400543
0.323653
0.458956
0.277758
0.264645
0.313520
0.376701
0.375509
0.364780
0.283718
0.237823
0.464916
0.306964
0.352859
0.418425
0.461936
0.295639
0.337958
0.429749
0.427961
0.320673
0.400543
0.334978
0.359416
0.322461
0.445843
0.389814
0.475645
0.404716
0.409484
0.521541
0.575781
0.550747
0.395775
0.387430
0.386834
0.421405
0.270605
0.374913
0.487566
0.472665
0.642538
0.540614
0.484586
0.726581
0.554919
0.460744
0.539422
0.626445
0.565648
0.624657
0.736713
0.742674
0.954866
1.028776
1.101494
3.321767
12.102723
43.457747
92.985630
204.843879
318.070650
481.861830
581.277013
644.759536
628.851652
512.538552
385.704637
224.441886
136.586428
64.685941
32.334924
11.258721
5.704761
4.405975
4.248619
4.044771
4.111528
3.935695
3.682971
3.562570
3.877878
4.417896
##ZVALUE=380
0.398755
0.468493
0.366569
0.507832
0.595450
0.444651
0.477433
0.445843
0.545979
0.468493
0.590682
0.346899
0.341535
0.372529
0.482798
0.244975
0.569820
0.523925
0.665784
0.436902
0.358820
0.567436
0.537634
0.575781
0.462532
0.403523
0.643730
0.584722
0.384450
0.390410
0.438690
0.510812
0.467896
0.509620
0.467896
0.431538
0.314713
0.598431
0.488758
0.454783
0.491738
0.596642
0.634789
0.639558
0.470877
0.674725
0.499487
0.502467
0.606775
0.528693
0.457764
0.499487
0.571609
0.599623
0.560880
0.659823
0.655651
0.639558
0.658631
0.725985
0.667572
0.661612
0.684857
0.755787
0.803471
0.691414
0.693798
1.011491
0.916719
1.145601
1.317859
1.777411
6.571412
31.599998
73.720813
174.246430
279.278755
439.229012
564.454794
681.889653
696.620941
612.222552
497.568846
333.296657
212.008953
95.557570
47.011971
16.647577
7.822514
4.577637
4.068613
3.950000
3.793836
3.711581
3.681779
3.765821
##ZVALUE=385
0.574589
0.554919
0.429749
0.459552
0.517964
0.474453
0.580549
0.488758
0.485778
0.471473
0.632405
0.738502
0.578761
0.593662
0.570416
0.650883
0.507832
0.619888
0.581741
0.488758
0.546575
0.522733
0.547767
0.584722
0.730753
0.765920
0.522733
0.390410
0.541806
0.647902
0.724792
0.572801
0.599623
0.650883
0.500679
0.578761
0.491738
0.716448
0.598431
0.634789
0.673532
0.748634
0.589490
0.740886
0.447631
0.662804
0.605583
0.589490
0.685453
0.652671
0.683665
0.674725
0.709891
0.669956
0.692606
0.712872
0.760555
0.710487
0.677705
0.745654
0.721812
0.693798
0.846982
0.695586
0.826716
0.824928
0.919700
1.076460
0.888705
1.299977
1.062751
1.287460
1.303554
1.484752
3.221631
17.277598
45.485497
118.301511
209.834576
365.020633
483.393669
604.788661
638.628006
606.818795
526.664853
377.915502
259.434581
133.968592
73.895454
29.283762
12.701750
5.071759
4.231930
3.936887
3.864765
3.612638
##ZVALUE=390
0.341535
0.364780
0.514984
0.443459
0.525713
0.498891
0.434518
0.412464
0.348687
0.435710
0.476837
0.372529
0.370741
0.422597
0.388622
0.206828
0.475645
0.424981
0.493526
0.420809
0.566840
0.681877
0.516772
0.348687
0.465512
0.374913
0.482798
0.570416
0.487566
0.496507
0.441670
0.501871
0.459552
0.398755
0.558496
0.493526
0.444651
0.426769
0.415444
0.634789
0.385642
0.409484
0.509620
0.466704
0.490546
0.444651
0.456572
0.571609
0.541806
0.550747
0.396967
0.638962
0.573993
0.521541
0.579953
0.613928
0.797510
0.632405
0.514984
0.673532
0.532866
0.613928
0.761747
0.663996
0.787973
0.648499
0.813603
0.982881
0.724792
0.957847
0.935793
1.193881
1.108646
1.034737
1.170635
1.160502
1.723766
8.715987
27.724504
85.859895
162.580609
301.764607
410.633683
533.064008
603.298545
623.974800
571.362972
444.114804
334.168673
196.879506
110.427737
43.814778
19.618869
6.639957
4.099607
3.736615
##ZVALUE=395
0.416636
0.394583
0.391603
0.327826
0.371933
0.418425
0.495911
0.322461
0.510812
0.396967
0.357628
0.294447
0.424981
0.434518
0.452995
0.452995
0.476837
0.342727
0.456572
0.446439
0.400543
0.357628
0.549555
0.392795
0.286698
0.455976
0.478625
0.474453
0.557899
0.477433
0.350475
0.573993
0.515580
0.359416
0.503659
0.430942
0.317693
0.444651
0.605583
0.429749
0.595450
0.583529
0.596642
0.595450
0.628829
0.710487
0.576973
0.529885
0.604987
0.378489
0.533462
0.278950
0.490546
0.499487
0.551939
0.547767
0.435710
0.489950
0.594854
0.565648
0.614524
0.709891
0.630617
0.670552
0.569820
0.580549
0.608563
0.719428
0.757575
0.776649
0.891685
0.829697
0.878572
0.896454
0.922680
1.104474
1.035929
1.154542
1.410842
4.263520
23.140907
56.400895
128.247738
214.950442
358.116627
468.604565
586.412549
629.878640
601.732731
527.628660
385.536551
266.317725
138.926506
72.677732
26.628971
12.078881
##ZVALUE=400
0.325441
0.419617
0.336766
0.466704
0.356436
0.407696
0.575781
0.471473
0.366569
0.444651
0.483990
0.477433
0.418425
0.381470
0.383854
0.377893
0.300407
0.382662
0.367761
0.435710
0.454783
0.511408
0.451803
0.437498
0.556707
0.502467
0.562668
0.497699
0.481606
0.525713
0.381470
0.466704
0.523925
0.339746
0.500679
0.372529
0.444651
0.469685
0.449419
0.509620
0.468493
0.445843
0.633597
0.696778
0.547767
0.611544
0.651479
0.515580
0.563860
0.368953
0.557899
0.500679
0.525713
0.444651
0.479817
0.627637
0.467896
0.655651
0.515580
0.688434
0.706911
0.542998
0.648499
0.644922
0.789762
0.677705
0.773668
0.851750
0.855923
0.792742
0.810623
0.686646
0.946522
0.901818
0.860691
0.731945
0.997782
0.873804
1.003742
1.076460
1.264811
2.731681
9.281635
38.273931
82.122684
179.613829
282.691717
431.686640
531.057715
611.887574
623.731017
548.727512
455.135703
309.849977
201.041698
98.720789
##END
