##TITLE=FAAI0852
##FORMAT=SPECTACLE-ASCII V-1.2
##DATA TYPE=ULTRAVIOLET SPECTRUM
##SECOND TYPE=ULTRAVIOLET SPECTRUM
##DATE=02/28/18
##TIME=17:57:38
##SPECTROMETER/DATA SYSTEM=SPECTACLE
##XUNITS=NM EM
##YUNITS=ENERGY
##YFACTOR=1
##FIRSTX=220
##LASTX=410
##NPOINTS=96
##3DDATA=Equidistant
##ZUNITS=NM EX
##FIRSTZ=210
##LASTZ=400
##ZPOINTS=39
##XYDATA=(Y..Y)
##ZVALUE=210
6.232858
6.361604
4.794598
5.545616
4.759431
4.776716
3.825426
4.111528
4.404783
4.007816
4.068613
4.092455
3.584623
4.544854
4.193783
3.626943
3.836751
5.032420
5.279779
4.310608
5.085468
5.199909
5.915761
6.313920
6.987453
8.070469
11.672974
12.590885
16.312599
18.402934
19.753575
23.228526
25.986433
28.131604
26.468635
28.503537
27.903914
27.808547
25.889874
25.912523
26.485920
23.789406
23.185611
22.163987
21.386743
20.112991
19.580722
20.031929
19.661784
16.446710
17.717481
15.764832
15.286803
14.925599
15.506744
14.140606
13.947487
12.885928
14.189482
12.439489
11.912584
13.158917
12.710690
12.836456
12.671947
12.257695
14.199615
14.443994
17.235875
19.359589
22.985935
27.005672
30.019879
37.176609
41.946769
46.498775
49.655437
53.176880
53.348541
53.258538
51.934719
47.019720
39.631724
32.690763
27.295947
22.462606
18.314719
13.571978
13.466477
11.806488
12.807846
11.910796
12.837648
13.625622
14.960766
15.376806
##ZVALUE=215
24.473667
22.698641
19.788742
14.802814
12.648702
8.776784
9.194613
8.417964
8.225441
9.504557
9.331703
7.501841
6.071925
5.309582
4.865527
4.605651
4.827976
4.682541
4.980564
5.587935
5.376935
6.231666
6.436706
7.484555
8.207560
11.028647
13.670921
19.138455
21.556616
27.281642
30.842423
34.940839
39.009452
40.468574
42.089820
43.955445
44.580698
41.922927
40.425658
42.118430
38.381815
35.759807
33.227801
32.000542
29.757619
29.354692
28.554797
26.241541
25.288463
24.257898
22.454858
22.140741
20.531416
19.930601
19.795895
17.410517
16.806722
16.935468
15.917420
15.761852
16.635656
15.501976
13.884902
16.744733
15.213490
16.312599
15.936494
16.764998
18.759966
21.503568
24.449825
28.553605
34.557581
39.537549
45.042634
48.604608
54.748654
58.020949
54.377913
55.310726
52.886605
50.621629
42.669773
35.865903
29.765964
23.490787
19.380450
16.481876
14.216900
12.746453
12.630820
11.801720
12.241602
11.563897
13.419986
13.020635
##ZVALUE=220
81.485510
79.571605
83.655715
79.097748
72.352886
50.569773
40.503740
26.196837
20.736456
18.271804
18.823743
17.823577
16.492605
15.818477
14.095902
11.351705
8.851886
7.617474
6.486773
6.150603
6.459951
7.188916
8.353591
7.983446
10.838509
14.247894
17.969608
24.219751
30.474663
36.442876
45.295954
48.475862
55.891871
60.960650
65.444708
67.109466
63.005686
63.221455
61.479807
60.586929
58.391690
55.064559
50.943494
50.642490
45.037866
41.477680
38.391948
37.655830
36.468506
32.229424
32.477975
30.432940
28.253794
26.979446
27.967691
25.534630
24.758577
24.608970
20.011663
21.618605
21.534562
19.478798
18.938780
19.771457
19.491911
19.740462
19.551516
19.266605
22.326708
24.585724
28.329492
32.104850
39.814711
41.228533
43.992996
50.374866
46.696663
49.896836
47.224760
49.757957
45.252442
42.413473
40.174723
34.906864
27.120709
24.050474
19.355416
17.663836
14.981627
15.037656
14.681816
14.216900
13.127923
13.134480
13.018847
13.055801
##ZVALUE=225
128.594637
132.062435
164.317489
196.998715
196.648836
185.107589
159.800649
115.662813
83.436966
57.333708
36.497712
32.942891
32.082796
34.360886
34.099817
29.621720
23.283958
21.264553
16.195774
11.992455
10.008812
7.731915
7.847548
10.145903
10.922551
13.738871
18.735528
25.840998
32.082796
39.356947
48.896670
53.507686
60.666800
65.382719
65.978765
67.981482
69.999695
68.935752
67.213774
64.343810
61.951876
59.602857
55.703521
51.912665
49.507618
45.301914
41.821599
39.093494
34.855604
34.623742
31.686425
29.341578
29.101968
26.275516
24.886727
24.473667
23.091435
21.163821
21.058917
21.047592
20.537972
20.094514
18.432736
18.152595
18.774867
17.799735
17.743707
19.329786
20.260811
23.668408
24.638772
29.277802
33.160448
35.444498
39.007664
39.596558
37.335753
39.981604
38.718581
37.261844
34.323931
30.464530
28.806925
25.346875
22.520423
19.291639
15.678406
13.267994
14.222860
12.730956
13.697743
12.482405
11.292696
12.766719
12.774467
12.091994
##ZVALUE=230
107.951760
118.833780
181.508660
295.531750
382.259488
463.025570
474.357605
448.554754
383.298993
277.860761
189.325809
123.525858
76.880455
59.268475
56.377649
58.135986
59.132576
55.384636
48.085451
39.616823
29.924512
23.004413
16.290545
11.925697
11.862516
11.427999
16.861558
21.824837
24.489760
29.853582
35.310984
41.383505
40.750504
45.807958
48.214793
48.574805
50.646663
48.652887
49.529672
49.266815
46.945810
42.298436
41.700602
39.960742
37.736893
33.480525
35.894513
32.619834
30.078888
27.840734
26.519895
24.730563
25.311708
23.388863
21.768808
20.956993
21.749735
21.105409
19.045472
18.494725
19.091964
18.008947
19.563437
17.627478
18.026829
16.760826
18.049479
18.210411
19.572973
20.674467
23.371577
25.730729
28.369427
32.682419
35.915971
36.626458
36.523938
40.348768
37.504435
36.085844
31.707883
28.122663
26.293993
22.061467
20.777583
18.061996
16.445518
14.228821
15.034676
13.201833
12.967587
12.889504
13.695955
11.745691
14.063716
12.377501
##ZVALUE=235
31.950474
35.401583
78.381896
178.775787
290.646553
470.114946
614.273548
785.938501
851.717591
863.834620
766.209960
622.204542
416.218638
285.763741
166.533589
111.175776
84.139705
85.101724
91.179609
86.080432
83.228946
74.379444
57.685971
41.608810
30.602813
21.827817
19.097924
17.191768
18.793941
21.299720
21.617413
25.585890
26.723742
29.510856
30.736923
31.598806
31.820536
31.355619
31.842589
31.163692
31.986833
30.246973
28.253794
28.459430
27.956963
25.649667
25.714636
24.972558
23.468733
22.848845
22.133589
22.586584
22.880435
22.450686
22.211671
19.271970
21.468997
19.401908
20.827651
19.386411
17.536879
18.553734
18.381476
17.412901
18.182993
17.951727
17.466545
20.234585
21.672845
23.738742
27.174950
29.859543
33.567548
35.874844
39.038658
41.456819
40.728450
39.601922
39.747953
35.535693
34.807920
33.827424
28.862953
24.824739
22.065639
18.208623
18.726587
15.228987
15.304685
14.493465
14.968514
14.214516
14.685988
14.773607
14.914870
13.451576
##ZVALUE=240
3.086925
3.319979
13.027787
38.462877
128.311515
236.420631
472.670794
723.797679
1015.710831
1015.710831
1015.710831
1015.710831
1015.710831
818.089843
585.536957
324.177742
205.294490
126.596689
108.459592
111.618638
121.479630
126.030445
119.795799
110.856891
92.999935
75.128675
53.265691
42.290688
29.591918
25.389791
23.531914
23.428798
21.032691
23.140907
25.643706
25.524497
25.138855
26.173592
27.550459
27.015805
28.169751
26.136637
26.014447
24.525523
23.478866
26.277900
22.897720
24.820566
25.738478
24.284720
22.592545
21.646619
22.001863
20.219684
19.758940
20.176768
19.584894
19.245744
19.517541
19.143820
19.643903
17.993450
18.108487
17.742515
17.389655
17.708540
19.202828
17.997622
20.369887
22.872686
24.315715
28.585792
29.340982
29.842854
31.781793
34.254789
32.564998
31.597614
30.203462
30.389428
27.539730
27.118921
21.335483
19.328594
17.156601
16.426444
15.339851
14.630556
15.218854
14.310479
13.042688
13.325810
13.704896
12.838840
15.137792
13.747811
##ZVALUE=245
1.693964
2.125502
2.228618
2.187490
4.810691
14.459491
60.440898
138.660669
320.846438
491.173863
767.592788
920.716524
1014.817953
1010.329723
911.755562
709.896684
541.698933
348.373652
239.473581
148.760676
121.260881
111.394525
120.696425
135.936737
141.166449
131.788850
120.007992
107.097626
81.837773
64.435601
52.225590
37.166476
30.859709
27.693510
26.306510
27.143955
27.823448
27.488470
26.590824
27.197599
26.959777
25.635958
25.150776
25.014877
24.886727
24.216771
23.106933
22.839904
21.730661
21.023750
20.137429
18.877983
19.710660
17.952919
17.810464
15.317798
15.341640
15.971661
16.584992
14.975667
14.519691
14.583468
13.527870
14.864802
14.664531
13.505816
13.552904
15.277863
15.236735
16.888976
18.870831
19.204617
21.364689
22.148490
24.195910
23.336411
24.568439
23.814440
23.382902
22.603869
21.342635
19.556880
18.467903
17.096996
15.560985
13.240576
13.238788
11.502504
11.107922
10.697842
11.313558
11.169910
11.001825
10.421872
9.906888
10.320544
##ZVALUE=250
1.616478
1.966953
1.458526
1.857877
1.724958
1.691580
2.601743
8.902550
30.568838
76.997876
187.306404
314.844847
511.545539
633.471608
761.936903
817.693472
782.842636
702.268481
588.806868
394.500494
273.411870
158.212781
113.917589
96.109509
111.835599
133.777857
145.092607
155.415535
151.363611
142.921805
118.841529
102.513433
79.987645
62.450767
47.577620
44.029951
38.735867
36.804676
34.757853
35.136938
36.459565
34.001470
33.449531
31.496882
30.623674
29.014945
26.546717
26.084781
25.093555
23.705959
21.270514
20.869970
19.876957
17.623901
18.009543
16.431808
16.477704
14.447570
13.636947
13.390779
12.578964
12.180805
10.700822
11.148453
10.710955
10.649562
9.726882
10.500550
10.968447
11.900663
12.847781
11.242628
12.792945
12.829900
13.321638
14.065504
13.521910
14.457703
13.412833
12.471676
12.596846
11.573434
11.733770
10.228753
10.422468
9.523630
8.644462
8.737445
8.871555
8.352995
7.703900
9.192824
8.210540
7.678866
8.783937
8.904934
##ZVALUE=255
0.997782
0.876784
1.080632
1.208782
1.086593
1.196861
1.107454
1.435876
1.367927
3.633499
15.393496
39.546490
77.567697
168.116689
268.293619
420.517921
514.410734
613.441467
650.007725
604.076982
529.381633
422.515869
269.754529
175.930858
108.312964
90.374947
97.910762
117.146969
146.893859
163.139701
178.111792
181.366801
171.518922
145.646930
127.058625
101.628900
80.227852
64.824820
59.681535
53.047538
48.291683
45.558810
44.689775
41.173697
39.715767
34.930706
35.652518
31.613708
29.705763
28.025508
26.963949
23.673773
22.132993
21.433830
18.495917
17.948747
16.305447
14.332533
14.102459
13.374686
12.956858
11.836886
11.607409
10.302663
10.016561
10.440946
9.389520
8.557439
8.370876
8.656979
8.525848
9.415746
9.020567
8.808970
8.990765
9.384751
9.137988
8.769631
7.970929
8.303523
7.939935
7.593632
7.711649
7.259846
7.150769
6.757975
6.969571
7.502437
6.672740
6.702542
6.629825
6.623864
7.176995
6.422997
7.432699
7.028580
##ZVALUE=260
1.022816
1.136661
0.952482
1.370907
1.507998
1.240969
1.241565
1.233816
1.396537
1.369715
1.683831
2.071857
8.181930
23.591518
63.925982
124.629736
250.500441
370.193720
498.305559
653.555989
736.202598
734.413862
660.135746
505.203605
372.554660
225.697756
152.185559
105.906725
99.766850
118.082762
144.662857
181.274414
198.367834
213.844776
213.915706
201.343894
180.012584
146.782994
123.380423
97.136497
82.900524
70.404410
63.329935
55.298805
52.454472
47.671795
45.416951
41.449666
38.536787
34.837723
32.667518
30.116439
27.693510
24.853945
24.310946
21.431446
19.752979
18.280745
15.879869
14.414787
13.461709
13.116598
11.510849
10.990500
11.709929
10.531545
9.905696
10.241866
9.315610
8.993745
9.163618
9.261966
9.259582
8.919835
9.953976
9.090900
8.993745
8.468628
9.290576
8.433461
8.130670
8.146763
7.685423
7.718801
7.247925
6.921887
7.053614
6.881952
6.495714
6.704926
6.938577
6.233454
6.908774
6.081462
6.304979
6.921887
##ZVALUE=265
0.770688
0.888705
0.825524
0.845790
1.023412
0.938773
0.988841
1.129508
1.271963
1.337528
1.182556
1.173615
1.226664
1.329780
3.609657
16.481876
41.385889
105.495453
186.509490
349.797606
496.056676
642.556548
766.000748
799.129605
726.390481
625.076890
466.643572
338.320732
204.603672
149.657726
124.994516
128.776431
151.659846
185.991526
213.985443
233.681798
239.349604
231.319666
214.059949
180.367827
155.506730
126.594901
103.701949
81.263781
67.375898
57.054758
52.736998
48.231483
43.905973
40.092468
37.168860
33.041835
31.286478
28.082728
25.544763
23.425817
20.931959
19.865632
17.238855
16.435981
14.638901
14.110804
12.224913
12.639761
11.022687
10.815859
9.974837
9.071827
9.553432
8.541942
9.434819
8.682609
8.683801
8.337498
8.516908
8.265972
8.824468
8.825660
8.201599
7.784963
7.745624
6.763935
6.776452
6.070733
6.815791
6.060600
5.652905
6.102920
5.960464
5.889535
5.840659
5.636811
5.673766
5.670786
5.842447
5.586743
##ZVALUE=270
0.832677
0.887513
0.890493
0.850558
0.931621
0.820756
1.113415
0.963807
1.186728
1.040697
1.309514
1.163483
1.210570
1.309514
1.335740
1.346469
2.366900
6.539822
27.099848
63.590407
155.347586
262.866616
457.433462
598.724484
743.559599
801.342726
789.947510
696.305633
590.245724
432.150960
311.132669
199.124813
151.763558
133.885741
141.359568
168.833733
191.977620
218.750834
233.741999
234.956741
229.008794
206.849575
180.689692
141.256452
116.876960
87.906718
69.472790
54.436922
47.469735
41.597486
37.421584
33.335686
31.162500
27.155876
25.893450
22.732615
21.467805
19.235611
17.328858
15.109777
14.443994
13.577938
12.426972
12.083650
10.906458
9.948611
9.712577
9.247661
9.100437
8.090734
8.405447
7.743835
8.589625
8.169413
7.453561
7.564425
7.632971
6.634593
6.835461
6.720424
6.590486
6.605983
6.177425
5.890727
6.129742
5.112886
5.675554
5.591512
5.567670
5.400777
5.350709
5.275607
5.324483
5.636811
5.550981
5.327463
##ZVALUE=275
0.963807
0.990629
0.879765
0.824928
0.835657
0.924468
0.809431
1.003742
0.829697
0.953674
1.037717
1.042485
0.912547
1.283884
1.160502
1.204610
1.468658
1.598597
1.489520
3.646612
12.714863
38.257837
112.638474
205.760598
380.975604
523.389578
683.830976
775.450468
821.204782
779.442787
695.032477
523.693562
391.973853
239.114761
165.432692
115.124583
107.504725
119.208694
138.989687
167.809725
185.366869
202.402472
203.364491
193.257928
173.971653
142.849684
119.576454
89.531541
69.367886
48.483610
37.297606
29.438734
26.114583
22.108555
20.135641
18.118620
16.457438
15.714765
15.372634
13.087988
12.594461
11.652708
11.100769
10.350943
10.521412
8.940697
8.704662
8.684993
8.379817
7.812977
7.523894
7.232428
7.495880
7.225871
7.661581
7.438660
6.795526
6.298423
6.068945
6.095767
5.841851
5.999804
6.036758
5.867481
5.401969
5.154610
5.117655
5.213618
5.259514
5.220771
4.824996
5.127788
5.005598
5.011559
5.128980
4.845858
##ZVALUE=280
0.512600
0.330806
0.603795
0.695586
0.559688
0.543594
0.504851
0.701547
0.506639
0.432730
0.679493
0.583529
0.620484
0.840425
0.833869
1.004934
0.894666
1.067519
1.005530
1.083612
1.082420
1.664758
8.747578
27.815700
88.634491
162.497759
302.593708
439.219475
625.042915
738.486648
808.451772
801.319480
726.389885
560.261011
422.311425
251.668692
160.704851
88.744760
65.600872
63.804984
77.790618
106.146932
127.149820
154.191852
165.644884
170.526505
162.612796
144.319534
123.233795
91.327429
70.427656
45.718551
32.467842
20.122528
16.068816
12.235641
10.999441
9.367466
9.247661
8.878708
8.496642
8.201599
8.193851
7.551908
7.307529
6.965995
7.499456
6.589890
6.809831
6.656647
6.875992
6.175637
6.313920
6.780624
6.570816
6.416440
6.613731
6.086826
5.825758
5.624890
5.511642
5.156994
4.867911
5.235672
5.008578
4.813671
4.963875
4.626513
4.624724
4.609823
4.638433
4.571676
4.486442
4.301667
4.303455
4.323721
##ZVALUE=285
0.679493
0.727773
0.522733
0.595450
0.734925
0.797510
0.857711
0.795722
0.663996
0.661612
0.897646
0.998974
0.860691
0.834465
0.900626
0.776649
1.039505
0.859499
0.772476
1.095533
1.150966
1.258850
1.400709
1.428723
3.485680
17.931461
44.451952
114.869475
201.451778
360.071659
500.928760
674.740672
769.573450
813.188553
763.638020
626.886487
491.907001
300.034881
190.577507
94.094872
52.812696
34.421682
39.481521
59.453845
77.834725
107.572675
127.571821
148.030519
153.042674
148.528814
135.536790
109.706521
89.362860
60.643554
42.583942
25.180578
16.785860
10.152459
8.013844
7.385612
6.764531
6.425977
6.535649
6.572604
6.431937
6.296635
6.638765
6.223917
6.580949
6.185770
6.185770
6.349683
6.390810
6.381869
6.436706
6.073713
6.385446
6.011724
5.612969
5.327463
5.414486
5.494952
5.503893
5.410910
4.984736
4.895926
4.928708
5.119443
4.744530
4.687905
4.707575
4.471540
4.080534
4.904866
4.432797
4.524589
##ZVALUE=290
0.581741
0.658631
0.609756
0.621676
0.511408
0.629425
0.666976
0.684857
0.728965
0.668764
0.737906
0.686646
0.830889
0.771880
0.774860
0.735521
0.675917
0.837445
0.933409
1.056790
0.956655
1.043677
0.994802
1.234412
0.954866
1.410842
2.072453
6.150603
27.301908
62.874556
147.912502
252.028704
432.717800
578.950644
735.625625
801.573992
786.768794
701.916814
534.135699
397.403836
232.654810
136.103630
60.903430
32.967925
25.623441
32.576919
51.957965
69.733858
98.377466
117.565989
137.715936
144.580603
141.189694
130.690932
106.623769
85.212588
56.552887
41.086674
23.951530
15.844703
10.227561
7.808805
6.642938
6.061792
5.838871
5.829930
6.653666
6.305575
5.957484
6.336570
6.161928
6.488562
6.573796
6.380677
6.346703
6.165504
6.283522
6.270409
5.857944
6.033778
5.430579
5.504489
5.217791
5.183816
4.968643
5.226731
5.232692
4.942417
4.859567
4.654527
4.685521
4.799962
4.353523
4.585981
4.462600
4.544854
##ZVALUE=295
0.533462
0.570416
0.644922
0.599623
0.538826
0.574589
0.608563
0.635982
0.609756
0.607967
0.602603
0.677705
0.801682
0.641942
0.726581
0.761747
0.755787
0.972748
0.821948
0.806451
0.943542
0.763535
1.035929
0.899434
0.867844
1.000762
1.206994
1.216531
1.505613
2.768636
8.579493
38.737655
88.643432
207.211971
335.227847
526.265502
658.868551
777.804852
798.950791
731.862783
623.544455
448.116660
311.890841
168.227553
91.379881
36.395788
22.229552
21.806955
29.281974
48.893690
66.669583
93.528628
112.056732
129.735470
137.371421
134.535432
123.137832
100.103617
81.221461
56.061745
39.352775
24.240613
16.300678
10.379553
8.012652
6.378889
6.276965
5.987883
6.179810
6.513000
6.231666
6.207824
6.541610
6.140471
6.774664
6.157756
6.416440
6.314516
6.078482
5.726814
5.592704
5.518794
5.380511
5.630851
5.126595
4.709959
5.032420
5.197525
4.939437
4.726648
4.524589
4.829764
4.290938
4.146695
4.207492
4.374981
##ZVALUE=300
0.694990
0.651479
0.524521
0.569820
0.639558
0.556707
0.547767
0.637770
0.626445
0.648499
0.699759
0.586510
0.567436
0.626445
0.630617
0.506639
0.698566
0.600815
0.642538
0.809431
0.864863
0.779629
0.850558
0.917912
0.959635
1.011491
1.000762
1.034737
1.277924
1.441836
1.517534
1.626611
5.880594
19.987822
66.929460
133.771896
269.414783
410.843492
597.596765
714.541674
796.246529
786.024928
677.912831
553.987622
362.266898
235.958695
118.000507
62.961578
25.086999
15.977621
18.363595
26.307702
42.262673
58.941841
85.050464
102.982521
124.568939
131.002665
129.152536
121.339560
98.830462
80.390573
57.195425
40.883422
25.013685
16.506910
10.808706
8.034706
6.779432
6.332994
6.208420
6.064773
6.263852
6.126761
5.901456
6.255507
6.372929
5.895495
5.852580
5.608797
5.350709
5.338788
5.475879
5.320907
5.354881
5.068779
4.894733
4.856586
4.984736
4.902482
4.749894
4.673600
4.331470
4.517436
4.370809
4.426837
##ZVALUE=305
0.644922
0.529885
0.555515
0.428557
0.603795
0.437498
0.586510
0.493526
0.597835
0.563860
0.520945
0.596642
0.632405
0.632405
0.659823
0.613928
0.686646
0.696778
0.677705
0.660419
0.610948
0.698566
0.813603
0.969768
0.634789
0.854731
0.717640
0.948906
0.855923
1.034737
1.021624
1.036525
1.298785
1.698732
2.775788
13.605952
37.673712
108.214617
193.679929
356.797576
497.658849
669.446588
754.693747
780.581832
729.205608
572.589636
443.099737
276.581645
172.512531
79.602003
40.274858
16.486645
12.421608
16.705990
24.449825
41.367412
57.543516
82.177520
99.911690
117.548704
123.307705
122.871995
113.181472
94.503760
77.434778
52.655935
38.475990
23.537874
15.716553
9.713769
7.588863
6.366968
5.969405
6.095767
5.552769
5.816817
5.674958
5.749464
5.456805
5.192757
5.069971
5.283952
5.378723
5.175471
5.189776
4.870892
5.014539
4.543662
4.711747
4.713535
4.333854
4.243851
4.398823
4.356503
4.131794
4.262924
##ZVALUE=310
0.494719
0.396967
0.531673
0.475645
0.628829
0.592470
0.505447
0.422597
0.455976
0.545979
0.406504
0.602603
0.495911
0.587702
0.687838
0.599623
0.674725
0.683665
0.477433
0.610948
0.700951
0.715852
0.592470
0.638962
0.703931
0.595450
0.712872
0.775456
0.756979
0.869632
0.968575
0.970960
1.110435
1.149774
1.271963
1.339912
1.640916
5.815625
19.399524
64.543486
127.890706
262.105465
398.485661
585.370660
699.032545
770.593882
753.955841
650.215745
532.927513
355.743766
231.316686
117.362738
63.219666
24.199486
12.388825
11.230707
14.391541
23.724437
33.889413
53.318739
69.017410
91.212988
105.460882
116.089582
116.429925
106.664896
93.567967
72.235465
56.187510
35.441518
24.382472
15.032887
10.208488
6.816983
5.967617
5.415678
5.380511
5.034804
4.842877
4.875660
5.141497
4.997849
5.010962
4.875660
4.837513
4.946589
4.533529
4.478693
4.939437
4.569888
4.497766
4.164577
4.300475
4.076958
4.143715
4.118681
##ZVALUE=315
0.590682
0.627637
0.754595
0.641942
0.593662
0.490546
0.456572
0.487566
0.408888
0.431538
0.553727
0.496507
0.599623
0.426769
0.586510
0.586510
0.512600
0.670552
0.423789
0.476837
0.665784
0.554919
0.608563
0.511408
0.597835
0.568628
0.705719
0.672936
0.832677
0.801682
0.807643
0.792742
1.059771
0.978708
0.876784
1.235604
0.954866
1.270771
1.351833
2.935529
10.211468
40.793419
91.642737
207.898617
329.778790
513.935685
634.606481
737.208724
761.605501
692.548752
590.490699
422.761440
297.524929
156.768560
86.440444
32.749772
15.242696
9.067655
9.735823
13.848543
19.734502
33.274889
45.950413
66.677928
83.167553
101.979971
108.387470
108.580589
102.703571
85.573792
70.225596
50.369501
36.038756
21.593571
14.503598
8.793473
6.522536
5.417466
5.147457
4.555583
4.446507
4.706979
4.445910
4.501939
4.426837
4.482865
4.501939
4.275441
4.363656
4.407763
4.220605
3.811717
4.230738
4.062653
3.836751
4.080534
##ZVALUE=320
0.451803
0.440478
0.459552
0.534654
0.452995
0.475645
0.528693
0.480413
0.459552
0.548959
0.557899
0.563860
0.414848
0.489950
0.522733
0.510812
0.536442
0.513792
0.596642
0.625849
0.785589
0.638962
0.469685
0.720620
0.523925
0.650883
0.649691
0.693798
0.836849
0.705719
0.757575
0.843406
0.688434
0.704527
0.738502
0.980496
1.079440
0.898838
1.055598
1.064539
1.348853
1.605749
4.563928
23.163557
59.070587
152.091980
252.077579
410.878658
542.947650
687.474608
743.550658
728.198886
651.684999
496.739745
358.236432
198.496580
114.207864
49.221516
22.732615
9.489655
7.931590
8.956790
11.228919
18.080473
26.332736
42.969584
58.098435
78.159571
93.058944
101.594925
103.935003
95.697641
84.345937
63.428879
49.822927
32.028556
22.008419
13.383627
8.712411
5.977750
4.998446
4.394650
4.200935
4.248619
4.299879
4.319549
4.140735
4.085898
3.825426
4.016757
3.886819
3.807545
3.840923
3.795624
3.940463
3.955960
##ZVALUE=325
0.446439
0.492930
0.418425
0.493526
0.444651
0.429749
0.455976
0.581741
0.441670
0.646710
0.635982
0.447631
0.579953
0.544786
0.461936
0.362992
0.553727
0.657439
0.508428
0.644922
0.397563
0.612736
0.706911
0.530481
0.580549
0.633597
0.509620
0.554919
0.585914
0.581741
0.681877
0.720620
0.795722
0.786781
0.831485
0.739694
0.828505
0.797510
0.931621
0.975728
1.017451
1.194477
1.146793
1.331568
2.568960
15.028715
39.507747
102.493763
183.226466
334.988832
463.726521
620.298982
705.560446
730.944872
677.662492
534.069538
398.353934
234.844685
144.370794
65.712929
31.982660
11.862516
7.552505
6.864667
7.535815
11.040568
15.904903
26.711822
38.904548
57.533979
72.563887
88.333488
95.117688
95.722675
90.629458
75.079799
61.667562
43.938756
31.184554
18.951893
12.340546
7.754564
5.792975
4.687905
4.309416
3.826618
3.614426
3.694892
3.828406
3.610849
3.631711
3.686547
3.440976
3.533959
3.814697
3.670454
##ZVALUE=330
0.372529
0.500679
0.507832
0.446439
0.276566
0.339746
0.457764
0.329614
0.357628
0.502467
0.430942
0.503659
0.493526
0.350475
0.384450
0.399947
0.473857
0.380874
0.371933
0.477433
0.583529
0.670552
0.645518
0.557899
0.570416
0.534654
0.535846
0.578761
0.434518
0.543594
0.624657
0.758767
0.647902
0.775456
0.711679
0.797510
0.846982
0.747442
0.722408
0.886917
0.757575
0.770688
0.838637
0.972748
0.956655
1.125932
1.508594
6.707907
21.270514
69.247484
132.727623
262.152553
385.818481
552.624464
651.570559
709.344745
683.043599
570.730567
454.221964
291.115642
186.723471
87.878704
45.724511
16.869903
8.188486
5.930662
6.042719
7.068515
9.596944
16.134977
23.876429
37.347674
50.940514
69.386959
81.341863
88.637471
89.286566
81.516504
71.977973
54.872632
42.093992
26.583672
19.258857
12.223721
8.432865
5.441904
4.662871
4.077554
3.856421
3.801584
3.582835
3.690720
3.688931
3.426671
3.501773
3.377795
##ZVALUE=335
0.415444
0.406504
0.388622
0.333786
0.393987
0.407696
0.403523
0.407696
0.407696
0.445843
0.384450
0.346899
0.376701
0.371933
0.563860
0.483990
0.580549
0.632405
0.412464
0.410676
0.405908
0.513792
0.622869
0.477433
0.489950
0.406504
0.455976
0.518560
0.386834
0.520945
0.481606
0.514984
0.514984
0.528693
0.603795
0.537634
0.718832
0.607967
0.733733
0.762939
0.723600
0.853539
0.595450
0.858903
0.900626
0.787973
0.908971
1.061559
1.350641
2.568960
13.227463
36.421418
100.425482
177.200437
320.172906
448.285937
602.359772
664.466023
671.157837
617.069006
485.706925
368.112922
218.942761
133.156776
56.990981
26.842952
10.227561
6.181598
5.606413
5.774498
6.996989
8.898973
14.841557
22.479892
36.204457
48.041940
64.122677
74.744821
82.188845
83.525777
75.621605
68.288445
53.581595
42.408705
28.984547
20.513535
12.169480
8.724928
5.866885
4.402995
4.105568
3.858805
3.486872
3.646612
3.589988
3.375411
##ZVALUE=340
0.350475
0.425577
0.458956
0.513792
0.490546
0.333786
0.373721
0.318885
0.325441
0.302792
0.396967
0.342727
0.433922
0.462532
0.348687
0.436902
0.518560
0.336766
0.423789
0.458956
0.538826
0.404716
0.596642
0.324845
0.606775
0.351667
0.454783
0.426769
0.564456
0.434518
0.463724
0.428557
0.554919
0.654459
0.568628
0.851750
0.584722
0.544786
0.613928
0.688434
0.717640
0.628829
0.820756
0.759959
0.815988
0.793934
0.901818
0.714660
0.830889
1.029968
1.146793
1.678467
5.186796
24.912953
60.844421
150.936842
249.869823
406.518579
519.949794
634.018779
662.689805
618.491769
538.036823
391.650796
275.135636
142.358541
78.938603
32.248497
14.132857
6.511807
5.573630
5.553961
5.560517
6.578565
8.564591
14.675856
21.187663
33.288598
45.672655
60.906410
70.534945
78.099966
78.073740
73.232651
64.511895
51.427484
40.216446
27.534962
20.058751
12.302995
8.523464
5.553961
4.244447
3.718734
3.505945
3.485680
##ZVALUE=345
0.367761
0.324845
0.410676
0.384450
0.109673
0.399947
0.272989
0.428557
0.445843
0.404716
0.467896
0.321865
0.414848
0.368953
0.407696
0.295639
0.399947
0.524521
0.447631
0.526905
0.513792
0.642538
0.584722
0.371933
0.381470
0.573993
0.543594
0.505447
0.370741
0.447631
0.479817
0.468493
0.563860
0.502467
0.513792
0.587702
0.696778
0.530481
0.669956
0.607967
0.686646
0.601411
0.499487
0.585914
0.675917
0.703931
0.704527
0.795722
0.752807
0.739694
0.868440
0.923872
0.995994
1.047850
2.437830
14.035702
40.355921
107.591748
184.610486
326.936841
443.171859
576.730967
639.869571
639.668703
579.291582
442.014933
326.060653
190.815926
107.940435
42.709708
19.539595
7.642508
5.728602
5.418658
5.072951
5.048513
5.671978
8.271933
11.956692
20.463467
29.019713
43.735504
53.987503
64.633489
69.822669
71.976781
69.242716
59.975982
51.915646
38.808584
29.403567
18.258691
13.036728
7.945895
5.739927
4.296899
##ZVALUE=350
0.248551
0.370741
0.258684
0.296831
0.194907
0.215769
0.139475
0.323653
0.210404
0.273585
0.332594
0.315905
0.196695
0.343919
0.180602
0.271797
0.189543
0.331998
0.229478
0.210404
0.209808
0.231862
0.241995
0.387430
0.346899
0.309944
0.482798
0.301600
0.319481
0.484586
0.411868
0.300407
0.573993
0.388622
0.366569
0.397563
0.434518
0.493526
0.372529
0.443459
0.378489
0.369549
0.499487
0.359416
0.457764
0.373721
0.596642
0.494719
0.564456
0.489950
0.683665
0.756979
0.745654
0.980496
0.869632
0.906587
1.323819
6.857514
21.852851
67.727566
127.559900
251.496434
360.238552
495.157838
578.573942
619.950891
584.501624
477.819443
365.518928
218.386650
132.381916
60.426593
28.030872
9.436607
5.821586
4.880428
4.863739
4.576445
4.648566
5.298853
7.221699
11.546612
16.851425
26.499629
35.000443
47.538877
56.554675
63.379407
66.106915
63.537955
57.684779
46.393871
37.525892
26.274920
19.061565
12.195706
##ZVALUE=355
0.387430
0.409484
0.413656
0.217557
0.402927
0.319481
0.363588
0.424981
0.416636
0.470877
0.413656
0.436902
0.285506
0.394583
0.293851
0.408888
0.421405
0.369549
0.502467
0.473857
0.391603
0.530481
0.520945
0.389814
0.536442
0.431538
0.298619
0.449419
0.280738
0.527501
0.391603
0.580549
0.484586
0.496507
0.646710
0.572801
0.565648
0.721812
0.467896
0.445843
0.436902
0.500679
0.494719
0.496507
0.431538
0.676513
0.570416
0.686646
0.770688
0.786781
0.764728
0.751615
0.603795
0.604987
0.675917
0.885725
0.781417
1.116991
1.214743
3.409982
12.199879
44.929981
90.236664
187.232494
292.293429
440.924764
528.017879
590.826869
583.535433
491.402745
397.948623
259.994864
164.453983
73.959827
36.570430
12.202859
6.514788
4.835725
4.524589
4.430413
4.241467
4.391670
4.972816
6.690621
9.219646
15.457869
21.798611
31.979680
40.089488
50.288439
55.754781
59.741735
58.488846
51.905513
44.859648
34.898520
##ZVALUE=360
0.388622
0.279546
0.496507
0.404716
0.283718
0.409484
0.391603
0.382662
0.377893
0.395775
0.398755
0.351667
0.448823
0.434518
0.253916
0.411868
0.368953
0.396967
0.407696
0.493526
0.365973
0.420809
0.523925
0.357628
0.427961
0.384450
0.315905
0.396967
0.347495
0.419617
0.663996
0.503659
0.489950
0.442863
0.557899
0.480413
0.542998
0.517964
0.491738
0.615716
0.641942
0.515580
0.522733
0.460744
0.565648
0.406504
0.646710
0.709891
0.453591
0.543594
0.667572
0.670552
0.797510
0.858903
0.622869
0.769496
0.803471
0.923872
0.800490
1.001954
1.026988
1.620650
5.210638
22.903681
55.402517
135.197639
221.379399
353.892446
460.336804
555.917621
572.780967
527.919531
441.985726
299.989581
199.064612
97.859502
50.648451
19.264817
8.632541
4.907846
4.549623
4.106760
4.176497
4.073977
4.022717
4.098415
5.311966
8.223653
11.299849
18.353462
25.123954
35.887957
42.966604
50.278902
53.335428
53.619742
##ZVALUE=365
0.319481
0.270605
0.303984
0.325441
0.318885
0.437498
0.390410
0.428557
0.373721
0.358820
0.455976
0.521541
0.445843
0.446439
0.447631
0.330806
0.291467
0.451803
0.277758
0.396967
0.273585
0.477433
0.399947
0.445843
0.422597
0.567436
0.441670
0.564456
0.461936
0.635982
0.606775
0.529885
0.533462
0.390410
0.454783
0.470877
0.497699
0.550747
0.340939
0.443459
0.494719
0.576973
0.504851
0.633597
0.550747
0.620484
0.532866
0.588894
0.635982
0.678897
0.696778
0.683665
0.608563
0.435710
0.692606
0.684857
0.765920
0.649691
0.817776
0.739694
0.859499
0.989437
1.118779
1.220703
2.314448
12.155771
33.754706
92.454553
165.251493
291.131735
394.825935
503.212810
546.149611
529.596806
462.422967
337.256789
237.890482
130.825639
71.740746
27.125478
11.776686
5.364418
4.154444
3.944635
4.003644
3.795624
3.523827
3.495812
3.688931
4.608631
5.984902
10.215640
14.309883
21.304488
28.317571
37.009716
##ZVALUE=370
0.429749
0.329614
0.288486
0.348687
0.333786
0.253916
0.263453
0.321865
0.358820
0.387430
0.282526
0.318885
0.257492
0.298619
0.300407
0.304580
0.413656
0.280738
0.362992
0.405908
0.437498
0.601411
0.423789
0.437498
0.355840
0.558496
0.387430
0.459552
0.468493
0.429749
0.383854
0.402927
0.501871
0.623465
0.487566
0.506639
0.484586
0.445843
0.476837
0.404716
0.445843
0.371933
0.392795
0.434518
0.472665
0.485778
0.512600
0.607967
0.483990
0.498891
0.492930
0.443459
0.571609
0.504851
0.515580
0.527501
0.582933
0.527501
0.714660
0.738502
0.590682
0.622869
0.884533
0.848770
0.858903
0.968575
1.600981
4.985929
25.880933
61.375499
144.378543
223.984718
350.158811
444.819927
525.511503
541.525483
481.047630
393.805504
260.848999
167.931914
78.967810
41.538477
16.582608
7.341504
4.147887
3.843904
3.670454
3.285408
3.320575
2.915859
3.069639
3.176928
3.855824
5.323887
8.666515
11.922717
##ZVALUE=375
0.349879
0.412464
0.282526
0.448823
0.260472
0.372529
0.339746
0.195503
0.305772
0.251532
0.469685
0.269413
0.335574
0.480413
0.365973
0.439882
0.387430
0.372529
0.266433
0.452995
0.323653
0.357628
0.352859
0.221729
0.370741
0.526905
0.442863
0.461936
0.423789
0.266433
0.373721
0.628829
0.619888
0.384450
0.478625
0.480413
0.531673
0.621676
0.648499
0.515580
0.544786
0.485778
0.362992
0.423789
0.366569
0.457764
0.404716
0.579953
0.549555
0.459552
0.461936
0.478625
0.374913
0.547767
0.421405
0.554919
0.498891
0.603795
0.504851
0.538826
0.593662
0.659823
0.711679
0.724792
0.759959
0.867844
0.908971
0.889897
1.167655
3.339648
11.208653
40.030479
83.747506
184.390545
280.319452
411.229730
487.012863
528.947711
510.298014
415.472984
320.773721
193.863511
121.346712
60.197711
30.202866
10.565519
5.255938
3.777742
3.630519
3.391504
3.086925
3.111959
2.929568
2.730489
3.051758
3.238916
##ZVALUE=380
0.417829
0.271797
0.335574
0.281930
0.435710
0.354648
0.257492
0.455976
0.224710
0.343919
0.392795
0.501871
0.497699
0.347495
0.395775
0.447631
0.320673
0.208616
0.255704
0.290871
0.415444
0.435710
0.340939
0.298619
0.345707
0.369549
0.395775
0.404716
0.493526
0.426769
0.581741
0.617504
0.586510
0.514984
0.448823
0.593662
0.550747
0.504851
0.543594
0.624657
0.531673
0.557899
0.428557
0.497699
0.376701
0.471473
0.384450
0.482798
0.576973
0.600815
0.495911
0.584722
0.539422
0.409484
0.525713
0.539422
0.563860
0.471473
0.518560
0.465512
0.492930
0.598431
0.574589
0.530481
0.649691
0.555515
0.700951
0.551939
0.729561
0.932813
1.112819
1.763701
6.275773
28.390884
65.056682
147.343874
232.601762
358.849764
448.293686
517.807603
516.336560
441.226959
360.887647
251.175761
167.477727
82.287788
42.400956
15.496612
7.025599
3.760457
3.402829
3.160834
2.929568
2.759695
2.605915
2.718568
##ZVALUE=385
0.413656
0.400543
0.292659
0.370741
0.304580
0.171661
0.410676
0.250936
0.182986
0.273585
0.285506
0.378489
0.406504
0.368953
0.318885
0.326633
0.369549
0.431538
0.435710
0.104904
0.451803
0.313520
0.238419
0.310540
0.450611
0.335574
0.356436
0.418425
0.606775
0.551939
0.580549
0.675917
0.588894
0.707507
0.757575
0.709891
0.660419
0.703931
0.651479
0.616908
0.781417
0.630617
0.578761
0.595450
0.704527
0.618696
0.613928
0.371933
0.628829
0.460744
0.381470
0.556707
0.465512
0.545979
0.518560
0.576973
0.402927
0.368953
0.524521
0.592470
0.610948
0.507832
0.382662
0.535846
0.579953
0.696778
0.769496
0.709891
0.642538
0.844598
0.873804
0.880957
0.861883
1.131892
3.007650
16.858578
43.141842
106.165409
181.849003
310.703516
405.008793
495.687723
514.544845
482.347608
419.316888
306.314826
216.200948
117.015839
66.253543
27.415752
11.872649
4.382730
3.268719
3.033876
2.952814
2.727509
##ZVALUE=390
0.186563
0.231862
0.372529
0.241995
0.223517
0.283718
0.283718
0.250936
0.207424
0.284910
0.447631
0.378489
0.293851
0.389814
0.280738
0.191927
0.362992
0.254512
0.260472
0.283718
0.346899
0.355840
0.361800
0.287890
0.370741
0.449419
0.430942
0.619888
0.690818
0.771880
0.690818
0.782609
0.906587
0.984669
1.053810
1.036525
1.069903
1.023412
1.139641
0.936985
0.942945
0.895858
0.831485
0.839829
0.725985
0.939965
0.695586
0.596642
0.533462
0.637770
0.709891
0.680685
0.564456
0.645518
0.454783
0.453591
0.674725
0.480413
0.629425
0.566840
0.665784
0.599623
0.438690
0.640750
0.586510
0.573993
0.621676
0.616908
0.556707
0.717640
0.754595
0.807643
0.807643
0.826716
0.915527
1.053810
1.451969
9.176731
27.187467
79.147816
143.957734
264.372826
355.750918
460.102558
507.387519
509.923697
464.105010
360.585451
272.942781
164.546967
96.076727
39.101839
18.838644
6.572604
3.790855
2.911687
##ZVALUE=395
0.332594
0.350475
0.213981
0.350475
0.302792
0.225902
0.278950
0.408888
0.387430
0.326633
0.230670
0.354648
0.239611
0.407696
0.376701
0.330806
0.298619
0.331998
0.321865
0.270605
0.319481
0.456572
0.363588
0.301600
0.364780
0.378489
0.651479
0.582933
0.891685
1.064539
1.117587
1.094937
1.159906
1.275539
1.449585
1.375675
1.311898
1.447797
1.370907
1.321435
1.256466
1.211762
1.071692
0.974536
0.929832
0.913739
0.938773
0.880957
0.841618
0.772476
0.709891
0.695586
0.655651
0.740886
0.664592
0.576973
0.510812
0.457764
0.515580
0.539422
0.621676
0.585914
0.489950
0.560880
0.697970
0.646710
0.531673
0.549555
0.708699
0.771880
0.963807
0.775456
0.772476
0.741482
0.710487
0.687838
0.856519
0.927448
1.258850
4.594922
16.700625
55.275559
104.063749
196.979642
289.214849
416.428447
488.110781
529.268980
509.710908
424.616933
331.577659
203.164816
126.297474
55.145621
26.569963
9.067655
##ZVALUE=400
0.323653
0.317693
0.338554
0.234842
0.272989
0.283718
0.200868
0.328422
0.296831
0.304580
0.319481
0.212789
0.423789
0.294447
0.355840
0.534654
0.277758
0.257492
0.467896
0.318885
0.300407
0.386834
0.584722
0.432730
0.603795
0.520945
0.714660
0.721812
0.855923
1.208782
1.233816
1.252890
1.494884
1.432896
1.462698
1.490712
1.656413
1.499653
1.756549
1.409650
1.433492
1.260638
1.269579
1.102686
1.089573
0.942945
1.032948
0.918508
1.078844
1.069903
0.855923
0.764728
0.729561
0.708699
0.612736
0.705719
0.635982
0.622869
0.622869
0.630617
0.805855
0.656843
0.648499
0.439882
0.493526
0.590682
0.625849
0.659823
0.688434
0.682473
0.582933
0.795722
0.715852
0.749826
0.736713
0.662804
0.537634
0.875592
0.659823
0.935793
0.971556
2.522469
8.706450
31.840801
67.427754
148.836970
235.866904
359.367728
443.979502
502.054691
507.567525
443.100929
360.131860
238.415003
156.769753
79.384446
##END
