##TITLE=FAAI0502
##FORMAT=SPECTACLE-ASCII V-1.2
##DATA TYPE=ULTRAVIOLET SPECTRUM
##SECOND TYPE=ULTRAVIOLET SPECTRUM
##DATE=02/28/18
##TIME=16:04:59
##SPECTROMETER/DATA SYSTEM=SPECTACLE
##XUNITS=NM EM
##YUNITS=ENERGY
##YFACTOR=1
##FIRSTX=220
##LASTX=410
##NPOINTS=96
##3DDATA=Equidistant
##ZUNITS=NM EX
##FIRSTZ=210
##LASTZ=400
##ZPOINTS=39
##XYDATA=(Y..Y)
##ZVALUE=210
6.989837
5.340576
5.794764
4.549623
4.322529
4.633665
4.697442
4.519820
4.904866
5.043745
3.767610
4.223585
4.610419
4.327893
4.004836
4.282594
5.464554
4.933476
5.076528
5.762577
6.154776
6.880760
7.478595
7.682443
9.059906
8.952618
10.545850
11.413693
15.383959
13.594627
17.670989
16.943812
18.801689
19.882917
21.255612
21.278858
21.579862
20.676851
21.165609
21.140575
19.167662
20.468831
19.563437
20.122528
19.587874
19.355416
18.250942
18.420815
18.850565
16.863942
17.820597
16.286969
17.262697
17.012954
16.091466
16.209483
16.452670
15.773773
16.765594
15.485883
16.091466
17.392635
16.502738
16.890764
16.255975
17.646551
18.963814
20.384789
24.360418
26.936531
33.501983
38.493872
46.773553
54.136515
63.992739
68.610907
73.498487
76.437593
75.788498
76.111555
72.633624
64.360499
56.230426
46.214461
36.637783
29.986501
22.569895
19.573569
16.689897
17.398596
15.765429
17.107725
16.908646
17.359853
18.835664
20.575523
##ZVALUE=215
29.719472
30.003786
24.534464
18.755794
14.005899
11.465549
9.924769
8.574724
8.634925
8.173585
8.774996
7.037520
6.205440
5.429983
6.062984
5.304813
5.393624
6.799698
6.518960
7.654428
7.728934
7.418990
8.687973
8.563995
10.066628
10.547638
13.431907
15.799999
17.989874
21.608472
24.930835
27.635694
28.004646
30.436516
29.353499
31.034946
31.993985
30.385852
29.394627
29.770732
29.406548
28.613806
27.495623
26.598573
26.587844
24.805665
24.403930
24.903417
24.429560
22.833943
21.684766
21.375418
21.052957
21.025538
20.708442
20.292997
19.394755
20.229816
19.405484
18.826723
18.757582
19.992590
19.150972
19.390583
19.604564
20.888448
20.048618
21.956563
24.928451
27.044415
33.848882
38.653612
46.833754
51.997900
65.397620
67.801476
73.931813
79.038739
80.304742
77.511668
71.981549
65.112710
57.353973
50.166845
39.113760
31.328797
25.372505
23.827553
20.566583
18.443465
17.796755
16.498566
15.951991
18.232465
17.873645
18.855929
##ZVALUE=220
102.664828
106.465816
114.984512
107.505918
94.046593
75.459480
53.487420
36.005974
25.503635
19.196868
18.338561
19.149780
17.435551
15.724897
13.498664
12.530684
10.235906
9.394884
8.210540
8.138418
8.102655
9.220839
8.908510
11.027455
11.813641
13.777614
17.384887
20.487905
23.036599
27.455688
32.662749
37.209988
43.425560
43.726563
43.943524
45.478940
42.995811
45.235753
44.256449
43.930411
40.550828
41.161776
40.529966
36.699772
35.763979
33.151507
33.322573
30.332804
30.192733
28.943419
30.412674
28.247833
28.797984
24.673939
27.516484
24.370551
24.533868
23.489594
24.512410
23.016930
23.838878
20.880699
22.728443
21.896958
22.013783
22.015572
22.694468
24.142861
27.037859
30.605793
33.670664
38.369894
43.973923
52.790642
56.701899
62.914491
66.674948
73.641539
76.110959
73.781610
70.682764
62.791705
58.217645
47.229528
40.670633
31.445622
27.439594
21.849871
19.503832
18.313527
17.925501
16.358495
15.721917
16.115904
16.178489
15.132427
##ZVALUE=225
156.826973
156.974792
218.551755
247.584581
264.591575
250.871778
218.395591
171.183944
103.889704
71.688890
42.997599
33.626556
34.272671
34.748912
32.079816
30.852556
25.773644
22.136569
17.748475
12.470484
10.498762
8.946657
9.953976
10.096431
12.020469
13.702512
16.044974
17.673969
25.408864
26.880503
31.062961
34.064651
37.656426
44.227839
45.126677
46.948791
47.861934
45.024753
45.102835
40.731430
40.514469
39.130449
39.259791
37.528872
33.656955
31.638741
31.325817
30.470490
29.098988
28.376579
26.132464
26.989579
25.276542
23.939610
23.177862
21.663904
21.579862
20.308495
22.086501
19.813776
21.129847
19.192696
17.713904
19.019842
19.035935
17.987490
17.213821
21.432638
20.483732
24.730563
26.602745
31.007528
32.825470
39.377809
40.188432
43.175817
44.381618
42.930841
43.871999
40.022731
39.083958
35.097599
32.172799
27.422905
24.570823
20.110607
20.353794
16.874671
15.682578
15.784502
16.492605
15.687943
15.539527
15.428662
14.238954
14.335513
##ZVALUE=230
112.425685
125.000477
197.896957
325.176716
426.664948
515.109897
553.642511
554.884672
506.967902
431.796908
303.325653
206.863880
118.665695
77.296495
59.710741
56.666732
58.643818
57.912469
49.756765
42.439699
34.824610
24.167895
19.494891
14.424920
15.272498
15.195608
17.313957
20.942688
22.853613
26.944876
28.909445
31.724572
33.706427
35.930872
36.136508
39.836764
38.888454
39.412975
38.272738
42.567849
36.096573
35.952926
34.931898
35.287738
33.405423
32.787919
31.890869
29.407740
31.090975
29.382706
27.709603
26.877522
27.942657
25.792718
26.533604
25.709867
24.708509
25.186539
24.947524
23.120642
23.415685
23.011565
23.059845
22.847652
22.083521
22.858977
22.869706
26.131868
25.072694
30.990839
34.104586
41.062832
45.339465
52.037835
53.276420
61.413646
58.874488
61.122775
58.576465
56.319833
55.483580
48.839450
43.349862
39.444566
34.771562
31.058788
26.143789
24.368763
20.349622
23.852587
21.146536
20.912886
20.394921
18.606782
18.277764
20.061731
##ZVALUE=235
29.615760
33.526421
74.312687
178.370476
288.889408
474.909544
625.219941
806.089640
882.580876
874.775648
736.687779
577.909946
359.140635
229.806900
130.524635
94.500780
80.625415
82.180500
86.349845
90.197921
84.976554
69.737434
57.991743
40.768981
29.659867
20.566583
17.678738
15.220642
14.549494
16.196966
18.175840
18.843412
18.329620
21.023750
22.204518
22.396445
22.855997
22.333860
21.788478
23.802519
22.146702
24.017692
22.704601
24.224520
22.081733
22.175908
21.833777
22.150874
22.358894
21.350980
21.202564
19.851923
20.353794
21.185875
20.155907
21.735430
19.946694
21.098852
20.779967
21.589994
19.471645
20.599961
19.988418
20.971894
20.453930
19.662976
21.841526
23.263693
25.235415
26.229620
29.851794
34.664869
37.492514
40.750504
43.418407
46.468973
45.646429
47.223568
45.521855
42.513609
42.038560
37.579536
34.565926
29.952526
29.036999
22.733808
21.305680
19.558668
20.396709
17.687678
19.426942
18.903613
18.858910
16.996861
18.344522
16.479492
##ZVALUE=240
2.929568
3.053546
14.139414
36.178827
95.039010
176.989436
334.407687
484.870672
694.130659
820.190907
914.606452
881.035924
799.854994
633.938909
489.675999
312.026739
214.618444
136.147738
112.722516
110.620856
120.613575
126.081705
122.767687
113.820434
87.105632
71.310997
51.574707
39.608479
24.623871
20.017624
19.475818
16.097426
16.726851
16.975999
16.270876
17.214417
17.915964
18.567443
19.121766
18.421412
17.371774
18.887520
17.724633
18.844604
19.307733
18.676519
18.383861
17.832518
17.679930
16.807914
16.422868
16.339421
16.988516
16.759634
16.659498
16.447902
15.258789
16.260743
15.828609
15.767813
17.029643
14.739633
15.172958
15.421510
15.324950
15.405416
16.394854
17.039776
17.517805
19.808412
20.142794
23.372769
25.803447
25.938749
29.328465
32.202601
29.925704
31.895638
30.999780
30.299425
27.694702
25.827885
23.751855
23.124814
20.800829
19.499660
17.758608
17.784834
17.343760
16.174912
17.650723
18.036962
18.307567
16.287565
16.155839
15.150905
##ZVALUE=245
2.313852
1.946688
2.296567
2.685785
3.745556
17.307997
50.087571
152.847767
278.534889
459.951758
740.651488
945.305824
1015.710831
1015.710831
1001.808643
852.110982
587.998629
407.970548
281.088948
158.390999
118.128657
110.579729
121.750832
137.027502
139.293671
135.721564
125.500560
105.663538
83.114505
62.229633
50.085783
32.784939
27.206540
22.106767
19.945502
21.400452
22.447705
19.248724
21.091700
20.718575
20.307899
20.662546
21.529794
18.968582
21.222830
18.878579
19.275546
18.496513
18.685460
17.834902
19.447803
17.459989
17.454624
16.794801
16.805530
15.441775
15.686750
16.810894
15.804768
15.126467
16.153455
15.176535
16.034842
16.020536
15.715957
15.071630
16.186833
17.610788
19.667745
19.440651
20.490885
23.855567
24.303794
26.696920
26.140809
27.825832
26.614666
26.866794
27.011633
24.050474
22.929907
21.675825
20.209551
19.505620
18.934608
16.777515
18.183589
17.304420
17.393827
16.109943
17.070770
16.413927
16.755462
17.245412
18.283725
17.590523
##ZVALUE=250
2.394915
2.324581
2.327561
2.065897
2.688766
2.553463
4.030466
9.517670
47.562718
140.298605
401.725769
691.600442
992.611647
1015.712023
1015.712023
1015.712023
1015.712023
1015.712023
1015.711427
700.799823
439.511538
249.459743
132.914782
108.085871
115.887523
134.284496
150.661469
153.046846
149.276853
142.019987
118.044615
99.561810
77.588558
56.363940
44.211745
35.390854
29.978752
28.774738
25.681853
27.242899
26.215911
25.980473
25.266409
23.912787
23.713708
23.406744
24.080873
21.683574
21.114945
21.395683
19.808412
20.091534
19.255877
17.996430
17.367601
16.545653
17.085671
15.943646
15.775561
15.371442
14.932752
14.279485
14.279485
14.223456
14.454722
13.641715
13.713837
15.762448
16.150475
16.253591
17.709732
18.489957
20.156503
21.127462
20.715594
23.799539
22.802949
22.536516
21.750927
21.611452
22.102594
19.740462
18.166900
18.099546
16.487837
15.453696
15.060902
15.469790
14.246702
15.910864
14.357567
13.585687
13.851523
14.105439
12.944937
13.445616
##ZVALUE=255
1.287460
1.398921
1.400709
1.297593
1.383424
1.483560
1.606941
1.721978
1.999736
3.994703
18.466711
47.521591
97.981691
216.384530
324.377418
486.700535
592.832565
662.137866
673.063993
618.078709
526.331663
417.509675
261.353850
173.174739
104.823709
87.470412
94.174743
111.995935
138.697624
157.274604
167.478919
162.844658
155.139565
132.543445
111.271739
80.495477
64.313412
47.592521
39.659739
34.623742
30.999780
29.399991
29.318929
27.368665
26.417971
26.347637
24.182796
23.344755
21.381974
20.339489
19.994974
17.029643
17.310977
15.951991
15.444756
13.939738
11.964440
13.628602
12.064576
11.992455
10.835528
10.566711
10.352731
10.664463
10.525584
10.331869
10.057688
10.748506
11.025667
10.640621
10.950565
10.811687
11.933446
11.136532
11.754632
11.610985
11.263490
10.797977
10.910630
11.642575
10.890961
11.246800
10.693669
10.734797
11.345744
10.265708
11.379719
10.891557
11.437535
10.739565
11.421442
11.433959
11.437535
10.760427
11.422634
11.186600
##ZVALUE=260
1.115799
1.086593
1.497865
1.391768
1.179576
1.555681
1.316667
1.168847
1.679659
1.544952
1.422763
2.337694
6.364584
25.085807
55.483580
133.007765
217.220783
361.208916
469.321012
614.493489
675.187707
681.837797
600.440502
491.812825
329.573750
232.210755
141.284466
103.183985
90.413690
101.622939
124.516487
159.220695
179.781914
190.647840
189.468861
173.518658
154.128671
121.694803
100.110769
75.904727
60.290694
48.478842
43.989420
38.150549
35.432577
34.658909
31.023622
30.619502
28.938651
26.066899
24.159551
23.217797
22.245646
19.896626
18.169880
17.225742
15.919805
15.184879
14.325976
12.690425
13.155937
11.390448
10.833740
11.460781
11.013746
10.212660
10.520816
10.311604
10.731816
9.419918
10.955930
10.086894
10.811687
11.306405
10.999441
10.665655
11.028647
10.880828
10.931492
11.761785
10.761619
10.409951
10.564923
10.325909
10.436773
10.348558
10.997653
10.757446
9.831786
10.701418
10.516644
9.932518
10.595918
10.073781
10.300875
10.693669
##ZVALUE=265
1.134872
1.240969
1.023412
1.031756
1.284480
1.023412
1.288652
1.247525
1.389980
1.531839
1.702905
1.514554
1.410842
1.694560
4.149675
17.708540
41.601658
104.192495
180.541873
333.191752
468.090773
592.225790
716.562867
736.644864
670.015812
571.457744
427.839756
315.249562
190.517902
134.070516
103.687644
103.579760
122.938752
158.741474
183.089972
204.212666
212.653875
200.167894
186.909437
157.935619
131.574869
100.525618
82.488656
62.273741
52.440763
42.549968
39.187670
36.289692
33.244491
31.854510
28.768778
27.569532
25.377870
22.214651
20.958781
19.855499
18.158555
17.383695
15.875697
15.174747
14.301538
13.310909
12.603998
11.250973
11.815429
11.583567
10.729432
10.980964
10.738969
10.607839
10.652542
9.992719
10.763407
10.828972
10.628700
10.463595
10.990500
10.925531
10.695457
10.334849
9.324551
10.993481
10.523796
9.617805
10.166764
9.704828
9.426475
10.092854
9.619594
10.519624
9.186864
9.577870
10.180473
9.799600
10.618567
10.410547
##ZVALUE=270
1.032948
0.926852
1.103878
1.069903
1.062751
0.998974
1.059771
1.147985
1.035929
1.258850
1.195669
1.254678
1.234412
1.493692
1.583695
1.478791
2.339482
8.869767
24.856925
73.642731
144.418478
249.377489
433.401465
574.649572
723.162889
777.902007
758.901834
689.254999
543.886423
415.837765
299.729705
179.902911
125.433803
103.171468
108.903646
136.630535
163.078904
188.137889
205.104947
209.955573
202.243924
184.015632
161.194801
127.877593
100.767612
72.013736
56.406856
44.775605
38.626790
32.823682
29.978752
26.996732
25.128722
24.149418
21.441579
20.675659
19.316673
17.338991
16.766787
15.090704
15.020967
14.761686
13.240576
12.774467
11.640787
11.735559
10.879636
10.940433
10.805726
10.376573
11.044741
10.861754
9.926558
11.079907
10.799766
10.850430
10.431409
10.127425
10.499954
9.708405
9.460449
9.342432
10.126829
9.447932
9.475946
9.708405
9.929538
9.787679
9.354949
9.551644
9.283423
9.684563
9.554625
9.188652
9.495616
9.063482
##ZVALUE=275
0.992417
0.936985
0.933409
0.822544
0.933409
1.009703
1.071692
1.018643
1.037717
1.070499
1.178980
1.170635
1.176000
1.125932
1.310706
1.319647
1.374483
1.519918
1.651645
3.215671
17.115474
44.238567
123.623610
216.656923
388.648510
519.222617
677.587986
769.210458
799.952745
764.776468
706.210732
511.617661
370.059609
217.302442
145.104527
93.078613
85.068941
99.043846
119.431615
152.202845
170.036554
190.129876
193.854570
183.874965
169.363618
137.862563
113.589764
85.729957
64.331889
45.502782
35.447478
27.774572
24.148822
21.274686
19.709468
18.108487
16.635656
16.201735
15.627742
14.286637
13.645887
13.069510
12.511611
12.138486
11.823773
11.524558
10.585785
10.489821
10.655522
10.400414
10.500550
10.898709
10.650754
10.474920
10.375977
10.351539
10.684729
10.133982
9.661913
10.295510
10.212660
10.520816
9.013414
9.512901
9.736419
9.869933
9.673834
9.708405
9.667873
9.235740
9.288788
9.096861
9.064674
9.132624
9.519458
9.320974
##ZVALUE=280
0.877976
0.805855
0.680685
0.865459
0.880957
0.921488
0.966787
1.063943
1.011491
0.812411
1.081824
1.094937
1.136661
1.080632
1.033545
1.046658
0.984669
1.121759
1.200438
1.569986
1.406670
2.441406
8.349419
35.847425
82.757473
185.694695
294.621587
473.070741
598.023534
749.537945
806.445479
794.016719
714.482665
548.521876
411.185622
243.883729
153.610706
81.298947
60.577989
59.740543
75.388551
99.606514
124.603510
149.215460
165.171623
170.210600
164.012909
143.834949
125.389695
94.189644
71.091652
48.430562
34.736991
22.760630
17.949939
15.046000
13.178587
12.628436
12.061596
11.914968
10.762811
10.497570
10.718703
10.877848
10.072589
10.250807
9.626746
9.973645
9.577870
9.932518
10.067821
9.972453
10.251999
9.831786
9.613633
10.256767
9.862781
9.923577
9.625554
9.776950
9.391904
9.478927
9.249449
9.120703
9.475946
9.111762
9.475946
9.127855
8.914471
9.277463
8.813739
8.588433
8.929968
8.928776
9.149909
8.648634
##ZVALUE=285
0.853539
0.751615
0.714660
0.843406
0.928640
0.825524
0.902414
0.896454
0.848770
0.807643
0.947714
0.859499
0.951886
0.798702
1.015663
1.158714
0.981688
1.085997
1.292825
1.434684
1.292825
1.468658
1.435876
1.601577
5.250573
17.227530
53.974986
105.797648
225.686431
348.414779
487.765670
663.964748
770.034790
807.176828
759.519935
616.033673
484.243631
302.357674
193.240643
94.513893
54.406524
36.327839
40.839911
60.535669
82.010627
110.754967
131.385922
148.856640
157.040954
148.316622
138.279796
114.817619
90.576410
64.091682
45.728683
26.966929
19.000769
13.077855
11.018515
9.627938
9.587407
9.432435
9.560585
9.598732
8.891821
9.540915
8.851886
9.473562
9.234548
9.402633
9.797812
9.528995
9.000897
9.646416
9.721518
9.679794
9.434819
9.726882
9.165406
9.254813
8.940697
9.190440
9.873509
9.422898
9.179711
9.432435
9.250641
8.798838
9.190440
9.013414
8.801818
8.777976
8.484721
8.957982
8.905530
8.764863
##ZVALUE=290
0.687838
0.773668
0.755787
0.615716
0.796914
0.578761
0.679493
0.780821
0.800490
0.776649
0.784993
0.882745
1.000762
0.882745
0.952482
0.873804
1.036525
0.921488
0.960827
1.036525
1.083612
1.033545
1.327991
1.340508
1.416802
1.591444
2.179742
6.454587
30.972958
71.382523
136.517882
278.100967
412.819982
607.743859
725.900531
812.890530
795.817971
679.116845
555.170774
373.917818
247.978568
124.687552
69.367886
32.516718
26.083589
36.735535
51.487684
75.471997
96.899867
123.926997
137.009621
149.476528
145.329833
129.803419
112.140775
83.993673
62.125921
40.188432
27.793646
16.870499
12.645721
9.565949
8.817911
8.487701
8.415580
8.062720
8.300543
8.868575
8.552670
8.684993
8.760691
9.074807
9.522438
10.165572
9.671450
9.445548
9.138584
9.317994
9.525418
9.560585
9.353757
9.553432
9.682775
9.525418
9.058714
9.063482
9.359717
9.678602
9.410977
9.110570
9.044409
8.954406
9.094477
8.540750
8.410811
8.531809
##ZVALUE=295
0.748634
0.650883
0.593662
0.783801
0.588894
0.821948
0.741482
0.711679
0.713468
0.623465
0.762939
0.819564
0.739694
0.792742
0.868440
0.852942
0.815988
0.794530
0.901818
0.969768
0.983477
0.959635
1.211762
1.038909
1.192689
1.318455
1.345873
1.432896
1.677871
2.992749
10.905862
45.717955
100.466609
224.286914
354.538560
540.016890
669.417977
785.159469
807.681680
733.778477
625.614524
444.121957
306.220651
163.832903
92.564821
37.160516
22.353530
22.309422
30.171871
49.750805
65.650940
93.472600
112.507939
132.590532
139.591694
135.016441
126.439929
102.067590
83.585978
57.640672
41.085482
24.991632
17.094612
11.587739
8.950830
7.678866
7.859468
7.779598
7.732511
7.924438
7.923841
8.641481
8.486509
9.058714
9.013414
8.857846
8.853674
9.122491
9.020567
9.272695
9.227991
9.650588
9.988546
9.417534
9.216666
9.161830
9.365678
9.073615
9.416938
9.123683
8.737445
9.005666
8.798838
8.385777
8.892417
8.723736
##ZVALUE=300
0.649691
0.732541
0.659823
0.661612
0.763535
0.533462
0.891685
0.564456
0.739694
0.506639
0.699759
0.740886
0.685453
0.796914
0.732541
0.732541
0.745654
0.768900
0.820756
0.856519
0.871420
0.861883
0.915527
0.935793
0.998974
1.183748
1.158714
1.174808
1.159906
1.396537
1.571774
1.765490
5.005598
27.929544
67.078471
160.730481
265.340805
441.855788
582.527518
727.633834
786.356926
767.007470
683.254600
514.463782
379.935503
212.609768
127.103925
57.493448
29.661655
15.882850
17.814636
27.616620
40.113926
62.468648
83.683729
106.898546
123.554468
133.265853
131.453872
118.206739
102.302432
77.463984
60.391426
39.908886
27.065873
16.348958
11.475682
9.130836
7.656813
7.763505
7.958412
7.816553
8.027554
8.075833
8.371472
8.510947
8.774996
8.536577
8.992553
9.054542
9.045601
8.936524
8.983612
8.946657
9.414554
9.285808
9.273887
9.271502
9.136796
8.494854
9.006858
8.701682
8.634925
8.618832
8.748770
8.611679
##ZVALUE=305
0.692606
0.684857
0.571609
0.672936
0.666976
0.746846
0.727773
0.681877
0.681877
0.616908
0.580549
0.640750
0.561476
0.646710
0.592470
0.586510
0.708699
0.727773
0.662804
0.857711
0.825524
0.916719
0.803471
0.933409
0.905991
0.895858
0.928640
1.001954
1.154542
1.133680
1.352429
1.263618
1.365542
1.687407
2.739429
14.106631
39.528608
111.199617
198.708773
452.870727
509.098768
663.684011
756.287575
733.196735
712.888837
603.433847
427.132845
302.555561
162.022710
89.162588
34.546852
17.701983
12.826920
15.914440
25.915504
37.904978
59.230924
77.946782
102.191567
114.466548
124.961734
124.284625
112.992525
98.859668
74.640512
57.773590
37.511587
26.229620
15.598536
11.567473
8.937716
8.154511
7.678866
7.948875
7.934570
8.221865
8.607507
8.500814
8.399487
8.813739
9.009838
8.850694
8.736849
9.473562
10.115504
9.016991
8.972883
9.393692
8.840561
8.944869
8.841753
8.747578
8.546710
8.292794
9.040833
8.884668
##ZVALUE=310
0.526905
0.587702
0.719428
0.502467
0.587702
0.553727
0.610948
0.600815
0.452995
0.664592
0.406504
0.547767
0.536442
0.519753
0.605583
0.607967
0.688434
0.668764
0.688434
0.646710
0.768900
0.706911
0.668764
0.663996
0.655651
0.688434
0.851750
0.928640
0.831485
0.851750
1.162887
0.890493
0.921488
1.160502
1.349449
1.611710
1.649857
6.390810
21.648407
72.142482
139.183998
282.994509
423.526764
619.408488
731.664896
806.041956
783.646703
669.652820
546.679497
360.885859
238.542557
119.203925
63.723922
25.046468
12.849569
10.991693
14.031529
23.111701
33.113956
51.019788
69.612861
91.286898
104.801655
115.094781
116.024613
107.967854
95.031857
74.473619
58.340430
38.133860
26.081800
16.694665
12.465715
9.312630
8.214712
8.271933
8.181930
8.134842
8.423924
8.526444
8.945465
8.894801
9.324551
9.357929
8.996725
9.139776
9.196997
9.718537
9.415746
9.380579
8.941889
8.642673
8.496642
8.834600
8.779764
8.490682
##ZVALUE=315
0.848770
0.746846
0.637770
0.758767
0.783801
0.707507
0.803471
0.699759
0.851750
0.786781
0.839829
0.871420
0.771880
0.722408
0.796914
0.877976
0.910759
0.893474
1.081824
1.024604
0.918508
1.086593
0.970960
0.932813
0.742674
0.825524
1.040697
1.012683
1.137853
1.025796
1.027584
1.128912
1.087785
1.080632
1.285672
1.261830
1.513958
1.553893
1.712441
3.323555
11.353493
45.200586
98.316669
220.757723
352.149606
557.191968
688.216686
806.666613
831.829906
753.462911
636.529922
443.134904
305.096507
159.741640
87.998509
33.949614
15.979409
9.310842
9.862781
14.003515
19.142628
32.512546
46.714544
65.441728
84.105730
101.727843
108.054876
110.834837
104.723573
88.018775
72.389841
52.413940
38.455725
24.595857
17.537475
12.734532
10.214448
9.593964
9.054542
8.723736
8.804798
8.896589
9.257793
8.981824
9.215474
9.496808
9.669662
9.745955
9.631515
9.282827
9.825826
9.606481
8.982420
9.260774
9.688735
8.937716
##ZVALUE=320
0.547767
0.619888
0.489950
0.698566
0.503659
0.590682
0.566840
0.462532
0.619888
0.574589
0.596642
0.641942
0.612736
0.550747
0.548959
0.582933
0.534654
0.723600
0.687838
0.827909
0.739694
0.774860
0.635982
0.853539
0.709891
0.657439
0.738502
0.711679
0.727773
0.716448
0.742674
0.906587
0.810623
1.001954
0.829697
1.020432
0.988841
1.061559
1.198649
1.273751
1.615882
1.757741
4.854798
25.280714
63.039660
157.126784
256.095529
421.428680
560.979843
711.334944
772.240758
752.467513
673.501492
509.643555
370.668769
204.439759
116.989613
50.849915
24.008751
10.114908
8.250475
9.138584
11.558533
18.521547
27.347803
43.749809
59.803724
77.974796
91.732740
103.800893
106.089711
98.493695
88.611841
67.917705
53.168535
35.850406
25.944710
17.516613
12.813807
9.960532
9.152889
9.051561
9.229779
8.901954
9.009838
9.200573
8.997917
9.139776
9.079576
9.008646
9.069443
9.107590
9.060502
8.886456
8.871555
8.820891
##ZVALUE=325
0.554919
0.540614
0.461936
0.615716
0.470877
0.445843
0.520945
0.595450
0.410676
0.564456
0.445843
0.627637
0.604987
0.628829
0.575781
0.585914
0.497699
0.606775
0.614524
0.602603
0.522733
0.699759
0.689626
0.593662
0.715852
0.642538
0.706911
0.795722
0.736713
0.806451
0.836849
0.781417
0.873804
0.717640
0.680685
0.967979
1.056790
1.063943
0.971556
1.046658
1.201630
1.176596
1.348853
1.445413
2.654791
16.150475
42.090416
110.038519
194.397569
350.450873
482.957959
641.804934
722.333789
748.257637
693.509579
543.613434
407.810807
239.311457
147.414804
66.968799
32.779574
12.056828
7.969737
7.200837
8.140802
11.760592
17.010570
27.142763
40.236712
59.186816
75.021982
90.845823
97.739697
98.151565
92.884898
78.859925
65.645576
47.300458
35.513639
23.167729
17.165542
12.356639
10.564923
9.574890
9.078979
9.398460
9.083748
8.989573
8.837581
9.183884
8.787513
8.707643
9.010434
9.117723
8.731484
8.739829
##ZVALUE=330
0.481606
0.444651
0.501871
0.374913
0.389814
0.539422
0.571609
0.527501
0.408888
0.581741
0.449419
0.594854
0.543594
0.575781
0.523925
0.618696
0.603795
0.579953
0.489950
0.606775
0.468493
0.507832
0.602603
0.677705
0.607967
0.680685
0.784993
0.714660
0.657439
0.744462
0.765920
0.577569
0.706911
0.850558
0.730753
0.695586
0.757575
0.859499
0.781417
0.858903
0.918508
1.036525
1.194477
1.181960
1.158714
1.337528
1.543760
6.970763
22.298694
72.860718
137.846470
269.621611
393.211842
562.033653
664.969683
725.656748
698.858500
582.800508
462.401509
296.279788
190.494657
89.708567
46.361685
17.906427
9.410977
6.911755
7.100701
8.494854
10.899901
17.548800
25.462508
39.058924
53.575635
72.107911
83.643794
91.866851
92.655420
86.363554
77.053905
60.017705
46.506524
31.701922
24.324656
16.778708
13.386607
10.541677
9.630919
9.066463
8.778572
8.827448
8.722544
8.792877
8.488894
8.717775
8.579493
8.773804
##ZVALUE=335
0.448823
0.453591
0.446439
0.423789
0.446439
0.521541
0.504851
0.511408
0.511408
0.450611
0.543594
0.473857
0.535846
0.346899
0.520945
0.563860
0.476837
0.619888
0.577569
0.631809
0.659823
0.644922
0.626445
0.599623
0.561476
0.499487
0.544786
0.574589
0.566840
0.707507
0.688434
0.593662
0.673532
0.640750
0.681877
0.803471
0.779629
0.762939
0.810623
0.882745
0.869632
0.745654
0.825524
0.913739
1.006722
1.041889
1.210570
1.208782
1.387596
3.183484
10.864735
44.720769
92.822909
201.169848
317.363739
490.894914
599.882603
687.265992
693.763494
614.913702
512.679815
350.279808
236.151814
123.236775
66.203475
25.619864
11.602640
7.241964
6.699562
7.193685
7.906556
11.060834
15.595555
26.309490
36.680698
53.376555
65.751672
78.870654
85.936785
86.766481
82.554817
69.612861
58.053732
43.806434
34.485459
23.369789
17.610788
13.077855
10.828972
9.153485
8.724928
8.607507
8.467436
8.506775
8.270741
8.347631
##ZVALUE=340
0.463724
0.399947
0.468493
0.550747
0.437498
0.419617
0.551939
0.517964
0.512600
0.426769
0.392795
0.619888
0.493526
0.507832
0.550747
0.467896
0.456572
0.460744
0.514984
0.603795
0.552535
0.427961
0.573993
0.424981
0.638962
0.680685
0.531673
0.643730
0.662804
0.755787
0.574589
0.687838
0.626445
0.561476
0.742674
0.726581
0.847578
0.664592
0.774860
0.856519
0.739694
0.754595
0.788569
0.871420
0.851750
0.889897
0.882745
0.932813
1.096725
1.052618
1.083612
1.854897
5.309582
26.844740
65.370798
157.743692
259.255767
413.743854
530.102849
644.454956
677.818656
636.344552
551.107526
404.653549
281.948447
146.643519
82.247853
33.352971
15.240908
7.683635
6.930828
6.757975
6.949902
7.981658
10.136962
16.170740
23.505688
35.971403
48.275590
63.977838
73.330998
80.671906
80.863833
76.029897
69.308877
56.286454
44.576526
32.043457
24.574995
16.978979
13.155937
9.989738
9.016991
8.269548
8.079410
8.139610
##ZVALUE=345
0.470877
0.446439
0.489950
0.564456
0.487566
0.589490
0.615716
0.491738
0.555515
0.526905
0.508428
0.465512
0.397563
0.591874
0.648499
0.564456
0.610948
0.447631
0.435710
0.510812
0.461936
0.563860
0.574589
0.490546
0.506639
0.689626
0.540614
0.459552
0.659823
0.583529
0.592470
0.618696
0.666976
0.578761
0.626445
0.756979
0.790954
0.576973
0.737906
0.741482
0.612736
0.751615
0.716448
0.642538
0.900626
0.828505
0.928640
0.957847
0.959635
1.062751
1.007915
1.013875
1.169443
1.332760
2.364516
14.441609
41.633844
107.312799
188.996792
332.491994
448.722839
586.752892
646.711588
646.178722
586.843491
446.944833
330.862999
195.240974
111.040473
45.041442
21.645427
9.054542
7.028580
6.724596
6.718636
6.930828
8.129478
10.004640
14.231801
22.869706
32.210946
45.792460
56.302547
67.392588
72.751641
75.741410
73.392987
64.106584
55.407882
42.845607
32.828450
22.707582
17.477870
12.027621
10.058880
8.388758
##ZVALUE=350
0.516772
0.507832
0.500679
0.551939
0.503659
0.505447
0.497699
0.571609
0.722408
0.569820
0.529885
0.467896
0.617504
0.584722
0.552535
0.609756
0.636578
0.532866
0.612736
0.478625
0.677705
0.601411
0.513792
0.705719
0.689626
0.607967
0.620484
0.662804
0.668764
0.708699
0.605583
0.665784
0.595450
0.543594
0.698566
0.617504
0.634789
0.720620
0.626445
0.781417
0.666976
0.835657
0.742674
0.791550
0.827909
0.865459
0.870824
0.661612
0.824928
0.804663
0.793934
1.048446
1.074672
1.013875
1.056790
1.216531
1.766682
7.382631
23.710728
72.458982
135.965943
263.457894
377.195477
519.677997
605.010986
645.815730
607.727766
496.046543
377.591848
223.987699
137.602687
64.033866
29.889941
10.752678
7.666945
6.484985
6.234646
6.279945
6.324649
7.390976
9.590983
14.461875
19.438863
28.941631
38.152933
49.830675
58.715940
66.698790
69.105625
66.573620
60.678720
50.655603
41.605830
29.926896
22.724867
16.128421
##ZVALUE=355
0.446439
0.473857
0.381470
0.415444
0.472665
0.531673
0.363588
0.445843
0.418425
0.382662
0.507832
0.492930
0.518560
0.387430
0.585914
0.473857
0.568628
0.476837
0.454783
0.503659
0.465512
0.339746
0.558496
0.495911
0.491738
0.443459
0.515580
0.551939
0.544786
0.510812
0.694990
0.560880
0.538826
0.641942
0.616908
0.717640
0.611544
0.520945
0.553727
0.551939
0.587702
0.740886
0.642538
0.745654
0.626445
0.743866
0.538826
0.774860
0.646710
0.570416
0.818968
0.867844
0.858903
0.831485
1.030564
1.090765
0.961423
1.075864
1.315475
3.632903
12.492537
48.052669
96.922517
199.122429
310.186744
469.779968
567.978621
638.401508
627.745986
530.737638
424.930453
277.322531
172.766447
77.412724
38.005710
13.541579
7.523894
6.017685
6.056428
5.809665
5.953908
6.021857
6.902814
8.589625
10.976791
17.034411
23.836493
33.817887
42.712688
53.422451
59.407949
63.084960
61.302781
54.543614
48.683882
38.639903
##ZVALUE=360
0.412464
0.493526
0.472665
0.572801
0.462532
0.520945
0.439882
0.453591
0.523925
0.531673
0.498891
0.493526
0.600815
0.455976
0.464916
0.465512
0.497699
0.458956
0.572801
0.562668
0.567436
0.441670
0.576973
0.594854
0.681877
0.504851
0.584722
0.556707
0.428557
0.310540
0.588894
0.435710
0.464916
0.516772
0.537634
0.660419
0.701547
0.609756
0.501871
0.432730
0.662804
0.588894
0.592470
0.692606
0.743866
0.660419
0.819564
0.828505
0.684857
0.623465
0.749826
0.707507
0.842810
0.655651
0.735521
1.038909
1.015663
0.937581
0.992417
1.230836
1.292825
1.608729
5.578399
25.516748
58.701634
141.730905
234.808922
381.673574
486.739874
579.174757
599.235892
550.190806
463.604927
312.817693
208.384991
101.518631
53.534508
20.465851
9.722710
6.145835
5.626678
5.642772
5.537868
5.524755
5.422831
6.039739
6.864667
9.700656
13.111830
20.268559
26.954412
38.454533
45.094490
52.347779
55.850744
56.325793
##ZVALUE=365
0.501871
0.514984
0.377893
0.534654
0.523925
0.460744
0.480413
0.391603
0.486970
0.361800
0.421405
0.498891
0.428557
0.507832
0.562668
0.624657
0.477433
0.369549
0.581741
0.482798
0.542998
0.601411
0.480413
0.558496
0.433922
0.512600
0.617504
0.439882
0.479817
0.657439
0.539422
0.501871
0.512600
0.589490
0.599623
0.490546
0.656843
0.588894
0.470877
0.587702
0.645518
0.520945
0.574589
0.649691
0.851750
0.640750
0.661612
0.760555
0.687838
0.641942
0.548959
0.839829
0.721812
0.723600
0.705719
0.873804
0.780821
0.832677
0.748634
0.949502
1.050830
1.040697
1.168847
1.269579
2.465844
13.930798
37.651658
96.737742
174.553990
313.349962
416.073799
526.897907
579.334497
560.234785
492.708683
359.360576
253.511667
140.231848
76.771975
28.697848
13.024807
6.129742
5.206466
5.204678
5.048513
4.882812
5.033612
4.762411
5.408525
6.281734
7.784963
11.769533
16.162992
24.123788
30.871630
40.342808
##ZVALUE=370
0.488758
0.496507
0.379682
0.381470
0.458956
0.613928
0.466704
0.445843
0.600815
0.363588
0.540614
0.519753
0.588894
0.545979
0.611544
0.460744
0.561476
0.568628
0.535846
0.489950
0.501871
0.523925
0.463724
0.473857
0.623465
0.618696
0.474453
0.524521
0.536442
0.563860
0.603795
0.351667
0.322461
0.602603
0.548959
0.408888
0.630617
0.773668
0.595450
0.490546
0.429749
0.680685
0.588894
0.683665
0.510812
0.569820
0.656843
0.554919
0.554919
0.475645
0.600815
0.631809
0.633597
0.763535
0.537634
0.817776
0.828505
0.702739
0.815988
0.911951
0.890493
0.942945
0.914931
0.978708
0.862479
1.140833
1.665950
7.058978
22.745728
73.726773
134.626627
248.627663
355.449915
485.223532
544.231534
555.966496
508.325696
396.451950
291.803479
162.352920
92.630982
37.172437
17.697811
7.719994
5.510449
4.907846
4.804730
4.506707
4.449487
4.368424
4.526973
4.926920
5.443692
7.244945
9.653568
14.739633
##ZVALUE=375
0.410676
0.336766
0.416636
0.377893
0.443459
0.367761
0.410676
0.428557
0.237823
0.466704
0.465512
0.270605
0.379682
0.492930
0.451803
0.424981
0.413656
0.206828
0.397563
0.467896
0.420809
0.468493
0.348687
0.457764
0.501871
0.416636
0.628829
0.478625
0.593662
0.555515
0.476837
0.518560
0.300407
0.426769
0.334978
0.463724
0.361800
0.597835
0.571609
0.476837
0.604987
0.631809
0.570416
0.724792
0.700951
0.465512
0.466704
0.492930
0.662804
0.501871
0.618696
0.471473
0.530481
0.651479
0.682473
0.736713
0.561476
0.681877
0.657439
0.816584
0.723600
0.641942
0.807643
0.803471
0.746846
0.802875
1.140833
1.062751
1.126528
3.579855
12.231469
44.383407
93.594790
199.632645
300.266743
436.288714
512.459874
553.741455
535.577536
436.506867
336.526632
204.835534
128.694773
64.327717
32.821894
11.610985
5.793571
4.480481
4.524589
4.370809
4.270673
4.227757
4.139543
4.002452
4.317760
4.797578
##ZVALUE=380
0.329614
0.348687
0.449419
0.325441
0.484586
0.468493
0.428557
0.512600
0.519753
0.502467
0.493526
0.312924
0.318885
0.420809
0.400543
0.449419
0.448823
0.442863
0.523925
0.370741
0.318885
0.314713
0.521541
0.406504
0.482798
0.435710
0.608563
0.423789
0.434518
0.477433
0.373721
0.479817
0.570416
0.555515
0.555515
0.399947
0.554919
0.564456
0.575781
0.505447
0.442863
0.540614
0.621676
0.611544
0.610948
0.446439
0.602603
0.555515
0.567436
0.557899
0.487566
0.654459
0.659823
0.588894
0.659823
0.582933
0.580549
0.502467
0.630617
0.659823
0.718832
0.637770
0.640750
0.647902
0.661612
0.839829
0.785589
0.965595
1.107454
1.127720
1.107454
2.000928
6.474853
31.569600
70.997477
161.398649
251.032710
382.156968
474.079847
548.684001
543.695688
469.175577
383.925438
265.501738
177.440643
88.430643
45.522451
16.674995
7.900000
4.516840
4.190803
3.851652
3.784895
3.818870
3.808737
3.710985
##ZVALUE=385
0.345707
0.419617
0.430942
0.369549
0.461936
0.327826
0.411868
0.485778
0.462532
0.425577
0.568628
0.429749
0.173450
0.374913
0.400543
0.278950
0.392795
0.377893
0.428557
0.287890
0.303984
0.483990
0.489950
0.546575
0.533462
0.568628
0.427961
0.418425
0.384450
0.613928
0.610948
0.562668
0.605583
0.514984
0.576973
0.669956
0.577569
0.802875
0.655651
0.742674
0.621676
0.530481
0.560880
0.591874
0.588894
0.568628
0.427961
0.512600
0.527501
0.473857
0.449419
0.418425
0.541806
0.620484
0.583529
0.563860
0.556707
0.610948
0.496507
0.582933
0.571609
0.688434
0.737906
0.701547
0.642538
0.683665
0.649691
0.698566
0.891685
1.020432
1.037717
0.927448
1.103878
1.404881
3.322959
17.913580
46.381950
113.066435
191.767812
323.190689
422.291756
515.019894
538.405776
501.175523
437.414646
317.285657
226.972699
131.616592
74.616671
28.667450
12.232661
4.876852
3.791451
3.878474
3.694892
3.597736
##ZVALUE=390
0.423789
0.463724
0.330806
0.407696
0.424981
0.480413
0.322461
0.370741
0.321865
0.426769
0.417829
0.524521
0.397563
0.431538
0.333786
0.367761
0.383854
0.283718
0.353456
0.430942
0.415444
0.463724
0.442863
0.387430
0.410676
0.590682
0.567436
0.599623
0.573993
0.672936
0.707507
0.633597
0.772476
0.860691
0.759959
0.847578
0.864863
0.846982
0.825524
0.746846
0.753999
0.653863
0.720620
0.775456
0.717640
0.478625
0.629425
0.729561
0.656843
0.711679
0.646710
0.493526
0.515580
0.644922
0.509620
0.484586
0.485778
0.656843
0.451803
0.630617
0.499487
0.520945
0.761747
0.677705
0.560880
0.783801
0.803471
0.956655
0.776649
0.845790
0.900626
0.939965
0.961423
1.056790
1.217723
1.129508
1.769662
9.160638
28.239489
85.587502
155.992508
281.216502
374.101996
476.608872
528.777838
536.770821
490.701795
383.814573
290.017724
175.529718
102.578998
43.012500
19.785762
6.603599
4.126430
3.614426
##ZVALUE=395
0.390410
0.334978
0.326633
0.340939
0.498891
0.359416
0.312924
0.429749
0.401735
0.407696
0.408888
0.386834
0.313520
0.346899
0.392795
0.404716
0.456572
0.449419
0.473857
0.300407
0.387430
0.370741
0.537634
0.373721
0.541806
0.579953
0.561476
0.755787
0.825524
0.960827
0.833869
0.908971
1.009703
0.948906
1.011491
1.039505
1.105666
1.052618
0.993609
0.930429
1.097918
0.977516
0.814795
0.837445
0.825524
0.719428
0.611544
0.699759
0.722408
0.646710
0.720620
0.750422
0.735521
0.612736
0.732541
0.650883
0.639558
0.721812
0.506639
0.491738
0.625849
0.579953
0.696778
0.714660
0.659823
0.683665
0.740886
0.756979
0.822544
0.905991
0.805855
0.875592
0.795722
0.904799
0.848770
0.758767
0.930429
0.891685
1.392961
3.877878
21.791458
53.134561
121.713877
200.719833
329.408646
427.089930
523.945689
554.338694
524.628758
456.852913
333.336592
233.697891
123.393536
67.575574
25.548935
11.684895
##ZVALUE=400
0.478625
0.422597
0.329614
0.352859
0.300407
0.353456
0.289679
0.312924
0.462532
0.438690
0.320673
0.446439
0.391603
0.315905
0.289679
0.349879
0.457764
0.513792
0.209808
0.418425
0.434518
0.294447
0.254512
0.475645
0.614524
0.549555
0.521541
0.719428
0.932813
0.845790
0.898838
0.918508
1.062751
1.093745
1.159906
1.118779
1.147985
1.196861
0.918508
0.833869
0.970960
0.897646
0.832677
0.851750
0.886917
0.964999
0.970960
0.823736
0.645518
0.698566
0.592470
0.563860
0.649691
0.495911
0.627637
0.575781
0.622869
0.584722
0.510812
0.555515
0.592470
0.600815
0.697970
0.524521
0.625849
0.611544
0.584722
0.807643
0.797510
0.789762
0.896454
0.785589
0.870824
0.849962
0.740886
0.831485
0.942945
0.836849
0.839829
1.046658
1.281500
2.616644
9.571910
35.687685
75.768828
166.922808
259.032845
388.839841
472.684503
537.595749
541.461706
471.323729
383.109450
254.686475
168.830752
85.138679
##END
