##TITLE=FAAI0551
##FORMAT=SPECTACLE-ASCII V-1.2
##DATA TYPE=ULTRAVIOLET SPECTRUM
##SECOND TYPE=ULTRAVIOLET SPECTRUM
##DATE=02/28/18
##TIME=15:38:39
##SPECTROMETER/DATA SYSTEM=SPECTACLE
##XUNITS=NM EM
##YUNITS=ENERGY
##YFACTOR=1
##FIRSTX=220
##LASTX=410
##NPOINTS=96
##3DDATA=Equidistant
##ZUNITS=NM EX
##FIRSTZ=210
##LASTZ=400
##ZPOINTS=39
##XYDATA=(Y..Y)
##ZVALUE=210
8.228421
7.671714
5.205870
5.930662
6.246567
4.933476
4.632473
4.952550
4.213452
5.557537
4.595518
4.792809
4.196763
4.208684
4.950762
5.602837
5.499721
4.902482
6.072521
7.239580
6.879568
7.391572
8.644462
8.800626
8.660555
9.269714
9.995699
10.243654
10.198951
10.313988
10.980964
11.655688
11.823773
12.797713
12.789965
12.701750
12.698770
12.113452
11.885762
13.283491
14.450550
13.583899
14.743805
12.255907
14.538765
15.332699
14.402866
14.826655
14.484525
15.925765
15.454888
16.197562
17.921925
17.998815
16.017556
17.718673
16.463995
17.040968
15.608668
15.524626
16.750693
16.692877
17.798543
17.178655
18.465519
18.944740
19.740462
21.785498
27.364492
31.519532
37.193894
41.129589
51.556826
56.998730
68.770647
71.183443
78.110695
83.747506
83.782673
80.581903
73.514581
68.195462
59.240460
52.486658
38.503408
33.700466
23.735762
21.533966
18.765926
18.211603
17.903447
17.775893
18.480420
18.682480
18.609762
18.062592
##ZVALUE=215
29.883981
28.741956
27.161837
18.219948
16.118884
10.780692
9.106994
9.840727
8.969903
8.568764
8.455515
8.284450
6.563663
6.145835
5.041957
4.914999
5.404949
4.869699
5.742908
7.179976
5.855560
7.752776
7.700920
7.466674
8.724928
8.387566
9.273887
9.879470
9.016991
11.215806
11.233687
11.156797
12.669563
11.442900
11.337996
11.563897
11.680722
12.878776
12.679696
13.059974
12.965798
13.540983
12.412667
12.883544
13.713837
12.098551
13.590455
13.978481
13.605952
14.082789
13.760924
13.501644
14.019608
14.318824
13.218522
12.272000
13.615489
13.841987
13.768673
13.221502
13.799667
13.981462
14.156699
13.416409
13.567805
14.007688
15.016794
15.816689
17.851591
23.287535
25.423765
29.973984
35.882592
40.449500
44.782758
49.227476
54.685473
56.552887
55.265427
52.141547
46.351552
41.346550
36.388636
31.553507
24.174452
23.423433
20.762682
16.332865
15.957952
14.103651
13.350844
14.856458
14.559627
14.503598
14.449954
14.523864
##ZVALUE=220
65.015554
66.600442
68.309903
66.370964
56.527853
43.581724
34.741759
26.261806
20.316839
16.266704
15.931726
15.828609
16.418695
12.835860
12.016892
11.383891
8.097887
6.387830
6.930828
5.480647
5.912781
6.829500
6.912947
7.404685
6.435513
8.441806
8.927584
8.743405
10.012984
10.455847
10.172725
11.012554
9.753704
11.707544
12.171865
13.014674
12.337565
11.152625
11.447668
12.430549
10.670424
12.070537
11.550784
11.445880
11.975765
11.151433
11.700988
11.459589
12.332797
11.739731
11.834502
12.427568
11.748672
10.400414
11.492968
11.338592
10.687709
11.429787
12.033582
10.462999
11.317730
13.056993
13.341904
12.626648
12.554526
12.299418
13.393760
14.456511
14.797449
17.024875
20.319819
22.737980
25.140643
29.642582
35.158992
35.422444
35.502911
35.638809
34.701824
36.229491
33.337474
29.951930
28.396845
25.182962
23.348927
18.561482
17.253757
15.205741
14.101863
13.278723
13.534427
12.568831
12.058616
12.852550
11.871457
12.581944
##ZVALUE=225
97.119808
98.416805
126.069784
154.256821
157.419443
151.918530
135.827661
100.117922
74.502826
55.730939
35.099983
30.361414
31.631589
32.179952
31.796694
30.365586
24.040937
19.258857
16.430616
11.257529
9.030700
7.421970
7.414818
6.872416
7.022619
7.904768
8.193851
9.700656
10.375977
11.166930
11.141896
11.850595
14.733672
13.699532
13.894439
13.164878
15.044808
13.412833
13.781786
15.214682
14.385581
15.502572
13.532639
12.889504
13.311505
12.735724
13.029575
12.843609
12.849569
11.645555
12.748837
12.882948
13.384819
13.462901
13.651848
13.319850
13.883710
13.621449
14.092922
13.732910
13.767481
14.186502
13.455749
13.810992
13.290644
14.382601
13.265610
14.941692
16.815662
18.752813
21.351576
21.141768
24.055839
27.629733
30.920506
32.887459
33.656955
32.962561
35.318732
34.673810
33.822656
32.432675
29.274821
27.107596
26.656985
24.142861
20.552874
19.144416
18.507838
17.898679
16.117692
16.778708
17.190576
17.063618
15.058517
15.362501
##ZVALUE=230
58.928728
69.434643
106.181502
183.538795
239.735842
291.031599
305.087566
311.800838
282.341838
231.585503
159.669518
112.311840
72.665811
54.286718
51.961541
55.248737
55.086613
51.434636
45.447946
38.658977
31.157732
20.534992
14.804602
10.868907
8.945465
8.573532
8.192658
9.585619
10.836720
12.477636
10.902882
12.075901
14.605522
13.140440
14.488697
15.029907
15.292764
16.306639
16.389489
17.472506
15.944839
16.367435
15.211701
14.375448
16.296506
14.573932
16.542673
13.423562
13.612509
12.933612
14.637709
14.114976
14.710426
14.970899
14.389753
13.452768
14.408827
14.101863
15.838742
15.805960
14.439821
15.062690
14.479756
16.114712
14.581680
15.609860
14.686584
15.799999
17.478466
19.034743
18.297434
23.017526
23.255944
28.789639
29.031634
30.796528
30.482411
33.674836
33.978820
32.554865
32.945871
28.889775
26.553869
26.961565
25.586486
21.996498
19.955635
21.243691
18.959641
16.632676
19.367933
17.802715
16.845465
17.145872
16.362667
17.848611
##ZVALUE=235
16.633868
20.259619
42.632818
100.434422
157.933831
252.873898
324.132442
401.898623
442.226529
426.480770
369.332433
303.063989
209.400654
153.054595
104.710460
83.316565
73.567629
79.592466
86.459517
87.348819
84.608793
68.055987
55.373907
39.487481
26.457906
17.231703
12.945533
10.740757
11.112690
11.191964
11.000633
11.821985
13.320446
12.248755
13.817549
14.299750
13.346672
12.833476
14.654994
14.442801
14.679432
15.468597
14.369488
14.240742
14.741421
14.458895
13.966560
13.379455
13.792515
12.999773
13.150573
13.214946
12.796521
11.705756
12.662411
13.646483
12.759566
12.764931
12.542605
13.034940
13.322830
12.333989
13.624430
13.280511
12.441874
14.602542
13.360977
14.951825
16.520619
15.908480
17.559528
20.054579
20.535588
21.499991
22.919774
28.285980
27.730465
26.712418
27.102828
27.352571
27.293563
26.848912
24.423599
26.360750
26.993752
24.205446
21.404624
22.150874
24.091601
21.548867
22.076964
21.293759
21.373630
22.507906
23.077726
21.621585
##ZVALUE=240
2.474785
2.618432
11.685491
30.318499
81.250668
144.150853
265.646577
386.741757
544.916987
631.449819
687.896013
657.243729
585.237741
454.556942
340.994000
227.696896
162.699819
112.726688
102.748871
105.963945
116.692781
118.943453
119.140744
109.136701
85.460544
69.255829
51.015615
36.212802
23.140907
18.457770
13.939738
11.716485
12.538433
12.636781
13.698936
13.887882
12.534857
13.414621
14.252663
14.967918
14.375448
14.889836
13.149977
12.968779
13.412833
14.341474
14.098883
12.891889
12.503862
11.734962
13.101697
12.326837
11.366606
11.562705
12.353659
12.025833
11.395812
11.516809
12.361407
11.438727
11.969805
13.017654
12.102723
13.137460
12.628436
14.009476
13.688803
14.225841
15.819669
16.218424
17.285943
20.470619
21.676421
24.689436
24.238825
26.466846
27.125478
28.755665
26.919842
28.011799
28.119683
27.738810
26.271939
28.181672
26.074648
25.512576
25.311708
23.689866
24.161935
23.635626
22.689700
25.048852
24.912953
23.955703
24.796724
21.977425
##ZVALUE=245
1.831651
1.743436
1.710653
2.468824
5.046725
26.820898
68.088770
161.460638
274.488926
452.498794
596.681833
691.568851
760.203600
753.611922
659.301877
559.854507
385.356545
279.388428
176.811814
129.408836
100.883842
103.715658
122.622848
131.599903
137.614608
129.359961
121.090412
97.239614
80.349445
56.096911
42.523742
25.534630
18.851757
15.015602
12.683868
11.527538
11.637807
11.680722
12.260675
11.852980
11.173487
11.162758
10.924935
10.192990
9.985566
10.085702
10.584593
10.455847
10.931492
9.310842
9.630919
10.904670
10.028481
9.898543
9.527802
11.385679
9.695888
11.139512
10.060668
9.867549
10.586977
10.716915
10.643601
11.469722
11.290908
10.973811
12.589693
13.738871
12.753606
14.501810
16.068816
17.119646
18.230677
21.358728
23.177862
23.514628
22.270679
23.963451
23.595691
23.622513
24.760962
24.248958
23.886561
21.740794
23.375750
21.670461
21.828413
21.932721
21.641850
21.872520
20.953417
21.234751
21.696687
22.543669
20.806789
21.323562
##ZVALUE=250
1.435876
1.636744
1.600981
1.713634
1.643896
1.922846
3.060699
8.365512
36.891699
81.291795
190.543532
303.975940
444.227457
611.552596
714.705586
783.615708
766.356587
656.944513
535.877943
367.734432
243.817568
161.524415
106.704831
96.425414
109.694600
126.549602
140.607953
143.352747
143.611431
129.735470
110.422969
83.884597
62.555671
39.191842
26.024580
17.559528
12.469888
9.673834
10.053515
9.602904
8.876920
8.818507
9.763837
8.886456
8.055568
7.705688
8.274913
9.133816
8.613467
8.655787
8.313656
8.538961
8.459687
7.346869
7.982850
8.181930
7.876754
7.774830
8.699894
8.094907
8.371472
8.581877
9.462833
9.128451
9.248853
9.658933
10.313988
10.377765
11.076927
11.761785
11.825562
12.926459
14.145970
14.640689
15.629530
17.736554
17.023683
16.320944
17.060637
16.529560
16.397834
16.330481
16.113520
15.956759
15.890598
15.886426
17.433763
16.222000
15.874505
17.456412
16.764998
16.206503
14.790893
15.369654
15.855432
16.302466
##ZVALUE=255
1.445413
1.332760
1.585484
1.767874
1.425743
1.543760
1.663566
1.691580
1.831651
3.988743
19.663572
53.262711
107.678771
233.408809
359.048843
544.826984
673.111677
788.633823
822.247863
761.005878
647.801757
513.402820
319.676995
207.612514
122.222900
95.992684
92.680454
108.435750
132.044554
142.889619
150.039792
146.623850
131.397843
106.643438
85.756779
57.259798
39.444566
24.254918
16.244650
10.821819
9.830594
8.251667
7.918477
8.406639
7.693768
7.837415
7.833838
7.753968
7.505417
7.509589
7.646680
6.725788
7.489920
7.141829
7.573962
7.505417
8.132458
7.945895
7.487535
7.522702
7.651448
7.876754
8.276701
8.410811
8.495450
8.311868
8.960962
9.758472
9.394884
10.002851
9.968877
11.181831
11.549592
12.980700
13.241768
13.900995
13.820529
13.452768
14.603734
13.475418
13.584495
13.338923
13.569593
12.664795
13.764501
12.532473
13.024807
13.276935
13.500452
12.911558
12.974739
13.386607
12.820959
12.097955
12.447834
12.751818
##ZVALUE=260
1.005530
1.106858
1.006722
1.116991
1.191497
1.039505
1.086593
1.661777
1.402497
1.740456
1.842976
2.403855
6.849766
32.467842
75.287819
181.055665
299.731493
486.788750
639.963746
823.620558
886.906981
871.356726
751.926899
605.434775
397.239923
270.703435
156.656504
104.754567
80.930591
85.868835
103.162527
129.736662
147.723556
153.819919
151.738524
133.028626
113.726854
82.590580
62.089562
39.196610
26.349425
14.436841
11.228919
8.573532
7.649660
7.473826
7.792711
6.975532
7.061958
7.162690
7.278919
7.115602
7.001758
6.755590
6.990433
6.404519
6.767511
6.987453
7.113814
7.643700
7.096529
7.135868
7.267594
7.211566
7.276535
7.124543
8.470416
7.893443
9.043813
9.526610
9.735823
10.184646
10.492802
11.427999
11.243820
11.562705
11.986494
11.835694
11.338592
11.740923
11.484623
11.457801
10.783672
11.611581
10.826588
10.804534
11.024475
11.121631
10.579824
10.624528
11.535883
10.932684
10.980964
11.027455
11.264682
11.056662
##ZVALUE=265
1.068711
1.049638
1.061559
1.269579
1.150966
0.957847
1.056790
1.084805
1.500845
1.401901
1.421571
1.447797
1.595616
2.007484
3.851652
21.496415
53.114891
137.925744
243.980885
450.672507
625.090003
793.899894
927.400589
941.110849
842.577815
713.891983
518.575907
364.882946
201.340914
128.097534
79.494715
71.179867
81.796646
112.375617
130.842924
154.417753
157.670975
153.687596
137.505531
107.486844
84.690452
57.676435
40.513873
23.422837
15.423894
10.486841
8.475780
8.303523
7.390976
7.414818
6.815791
6.895661
7.128716
7.422566
7.252693
7.232428
7.045865
6.623864
6.777644
6.978512
6.888509
7.286668
7.021427
6.947517
6.923676
7.088780
7.117987
7.957816
7.932782
8.579493
9.262562
9.405613
9.682775
9.955764
10.186434
10.381937
10.012984
10.373592
10.831952
10.441542
10.043979
10.226965
10.321736
10.840893
10.336637
10.125637
10.926723
10.703802
10.309815
10.230541
10.596514
9.774566
10.286570
9.659529
10.422468
10.515451
##ZVALUE=270
0.982881
0.868440
1.051426
1.338720
0.948906
0.914931
1.194477
1.154542
1.135468
1.078844
1.106858
1.402497
1.414418
1.544952
1.463890
1.786947
2.653599
8.370876
27.339458
91.075897
183.180571
377.179980
558.089018
786.170959
923.358798
1003.576517
962.928534
814.856887
670.425892
451.525450
306.260586
161.269903
95.743537
60.960650
63.741803
86.433887
111.142993
138.583779
151.939988
158.774853
154.661536
135.117769
115.024447
82.897544
61.302781
37.438869
25.313497
14.679432
11.432767
8.476973
7.938743
7.811785
6.904602
7.150769
7.088780
6.838441
6.805658
6.860495
7.101893
6.831884
6.779432
6.395578
7.134676
6.567836
6.631613
6.776452
7.414818
7.281899
7.708669
7.873774
7.856488
8.589625
8.574724
9.215474
9.517670
9.413958
9.530783
9.291768
9.820461
9.797812
9.536743
10.034442
10.109544
10.258555
10.278821
10.091662
10.458827
10.408759
10.305643
10.336637
9.693503
10.329485
10.327697
10.231733
10.408759
10.012984
##ZVALUE=275
0.832677
0.949502
0.920892
1.070499
0.784993
0.904799
1.042485
1.116991
0.903606
0.992417
1.018643
1.110435
1.136661
1.322627
1.442432
1.483560
1.640916
1.584888
1.624823
4.418492
17.552972
52.763820
151.946545
280.085802
508.837700
680.779815
876.252651
977.110863
1007.106900
938.921571
816.217661
585.116744
409.719944
217.890739
126.390457
63.396692
50.416589
61.794519
79.669952
110.392570
130.686760
150.563717
156.125426
150.095820
134.681463
107.469559
84.921718
59.249997
41.338801
24.404526
16.384721
10.995865
8.592606
7.354617
7.531643
6.980896
6.915927
6.789565
6.739497
6.700754
6.984472
6.666780
7.185936
6.880760
7.490516
6.791949
6.821752
7.156730
7.285476
7.281899
7.965565
8.377433
8.593798
9.176731
9.597540
9.702444
9.373426
9.811521
10.111928
10.135770
9.809732
10.932684
10.508895
10.871887
11.157990
11.341572
11.346936
10.852814
10.963678
11.115670
10.979772
11.574626
10.934472
11.011958
11.000633
10.733604
##ZVALUE=280
0.869632
0.847578
0.918508
0.993609
0.952482
0.893474
1.082420
1.070499
1.006722
1.190901
1.068711
0.895858
1.019835
1.055598
1.062751
1.053810
1.520514
1.455545
1.441836
1.439452
1.889467
2.718568
9.986758
48.569441
111.225843
259.720683
403.347015
639.492869
801.490545
977.043509
1015.710831
996.409655
878.528953
662.617683
487.891436
280.761719
164.578557
74.421763
45.873523
43.227673
55.869818
84.108710
104.735494
131.713748
146.643519
154.301524
146.597624
127.193928
110.678673
85.043907
61.031580
38.365722
26.797652
15.043616
10.641813
7.782578
7.361770
6.895661
6.925464
6.781816
6.528497
6.901622
6.756783
6.908774
6.746650
6.900430
7.172823
6.867647
7.640719
7.908940
7.639527
8.272529
8.792877
9.220839
9.661913
10.327697
10.019541
10.238886
10.862947
10.961890
11.617541
11.647940
12.183785
12.181997
12.416840
12.915730
12.469888
12.930632
13.395548
13.394952
13.031960
12.658834
12.546778
12.406707
12.873411
11.960864
##ZVALUE=285
0.903606
0.876784
0.908971
0.946522
0.870824
0.778437
0.899434
0.947714
1.085997
0.966787
0.874996
1.060963
0.761747
1.113415
1.183748
0.967979
1.169443
1.178980
1.213551
1.484752
1.527667
1.287460
1.713634
1.902580
6.012917
20.504594
74.991584
152.762532
324.016809
499.778986
688.813925
917.762518
1015.710831
1015.710831
980.255008
782.949924
604.038835
371.563435
231.615901
109.310746
58.032870
32.999516
35.909414
54.601431
75.104833
105.405450
124.484897
141.656995
147.877932
143.655539
130.542517
106.655955
86.509585
59.230924
41.501522
24.510622
16.307831
10.128617
7.807612
7.071495
6.475449
6.360412
6.593466
6.857514
7.121563
6.724596
7.049441
6.871819
7.309914
8.077621
8.117557
8.299947
9.055734
9.727478
9.887815
10.381937
10.980964
11.166930
11.444688
11.998415
12.445450
13.114810
13.196468
14.303923
14.349818
14.700890
14.707446
14.830828
14.943480
14.619827
14.363527
14.992952
15.155673
14.285445
14.409423
14.344454
##ZVALUE=290
0.856519
0.732541
0.963807
0.996590
0.724792
0.753999
0.881553
0.773668
0.942945
0.940561
1.011491
0.864863
1.002550
0.957847
0.962615
1.018643
0.912547
0.999570
1.272559
1.176000
1.132488
1.137853
1.302958
1.544952
1.671910
2.144575
2.597570
8.445978
40.141940
98.407865
194.570422
401.413441
603.441596
873.230696
1009.185910
1015.716791
1015.716791
884.665847
717.211962
471.433997
309.222937
153.201818
81.189871
33.814907
25.326610
33.464432
48.169494
72.176456
93.994737
119.378567
132.442713
140.779614
139.412880
125.675797
107.906461
77.864528
59.403777
37.896633
25.700927
14.923811
10.633469
7.753968
6.567836
6.869435
6.267428
6.525517
6.984472
7.168651
7.582903
7.924438
8.713603
8.969903
8.950830
10.120869
10.923743
10.852814
11.350513
12.419820
13.102889
13.306737
14.142990
14.871955
15.239716
16.191602
16.245842
16.252995
17.245412
16.313791
17.888546
17.054677
16.901493
17.182827
16.574860
16.582608
16.697645
16.197562
##ZVALUE=295
0.710487
0.676513
0.811815
0.838637
0.802875
0.752807
0.723600
0.778437
0.679493
0.865459
0.815988
0.704527
0.836849
0.882745
0.856519
0.856519
1.012683
1.026988
1.049638
1.096725
1.247525
1.148582
1.044869
1.297593
1.356602
1.422763
1.560450
1.658797
1.816750
4.719496
16.992688
64.638853
138.199925
309.494734
485.222936
746.636987
925.807953
1015.710831
1015.710831
961.522460
810.227990
570.802689
390.359759
205.694437
113.817453
43.204427
23.478866
21.440983
28.858781
45.892000
63.796639
90.806484
108.232498
127.473474
135.335922
133.032799
121.934414
99.889636
80.708861
56.742430
39.232969
23.476481
15.550852
10.200739
7.770658
6.501675
6.700754
6.686449
7.102489
7.611513
8.033514
8.730888
9.589791
10.036826
10.211468
11.170506
11.570454
12.775660
13.356805
13.852715
14.428496
15.573502
16.014576
16.629696
17.317533
17.970800
17.973781
18.454790
18.095970
18.028617
18.122792
17.529726
17.377734
17.965436
18.107891
16.992688
##ZVALUE=300
0.768900
0.711679
0.687838
0.734925
0.697970
0.789762
0.861883
0.761747
0.618696
0.772476
0.864863
0.853539
0.885725
0.744462
0.811815
0.900626
1.012683
0.808835
0.872612
0.782609
0.927448
0.848770
1.004934
0.887513
1.174808
1.117587
1.139641
1.330972
1.382828
1.645684
1.653433
2.023578
8.907914
28.898716
95.703602
188.568830
382.551551
571.189523
817.934871
958.714485
1015.710831
1011.451483
866.211653
704.856515
462.608933
301.204920
148.755908
80.800653
31.413436
16.903877
17.612576
24.923682
41.972995
57.834983
81.870556
101.274848
121.283531
128.525496
126.301646
118.115544
97.400546
79.470873
55.574775
40.486455
24.299622
16.292930
10.717511
8.130670
7.200837
7.227659
7.766485
8.007884
8.934736
9.007454
10.515451
10.545850
11.567473
12.372732
13.224483
13.738871
14.419556
15.503764
16.402602
16.948581
17.181635
17.040968
17.820597
18.000603
17.941594
17.803907
17.271638
17.442703
17.963648
17.285943
17.096996
16.992688
##ZVALUE=305
0.607967
0.658631
0.652671
0.646710
0.522733
0.537634
0.746846
0.684857
0.802875
0.879765
0.840425
0.822544
0.851750
0.689626
0.751615
0.817776
0.742674
0.875592
0.782609
0.806451
0.770688
0.892878
0.932813
0.979900
1.000762
0.904799
1.169443
1.311898
1.178980
1.332760
1.387596
1.411438
1.571774
1.798868
3.466606
19.352436
51.109791
142.668486
256.874561
469.450951
650.450587
871.383548
982.409716
1009.173989
932.656527
730.746984
563.242435
352.467895
218.349695
99.461675
49.035549
18.464923
12.955666
16.415715
24.074912
40.210485
55.842996
79.344511
96.308589
114.276409
120.209455
119.014978
111.597776
93.121529
76.986551
53.960681
37.791729
23.692846
16.545653
11.020899
8.972883
8.281469
8.621812
8.980632
9.276867
10.020733
10.578632
11.554956
11.941791
12.796521
13.443828
13.738871
14.550686
14.745593
16.181469
16.030669
16.404986
16.695857
16.586781
16.352534
16.866922
16.678572
16.231537
16.196966
15.998483
15.425682
##ZVALUE=310
0.694990
0.680685
0.704527
0.713468
0.621676
0.697970
0.671744
0.795722
0.530481
0.826716
0.706911
0.715852
0.749826
0.803471
0.917912
0.799894
0.709891
0.705719
0.715852
0.754595
0.832677
0.951886
0.790954
0.950694
0.890493
0.939965
1.081824
0.886917
1.096725
0.961423
0.986457
1.163483
1.216531
1.350641
1.438856
1.764894
1.968741
8.751750
27.517676
87.584853
171.682835
350.240469
533.128977
781.072974
923.407674
1015.712023
996.674895
855.762959
695.681572
461.576581
303.877592
150.261521
79.391599
29.058456
13.724566
10.818839
14.147758
22.720695
32.675862
51.411986
67.099929
89.881420
104.097724
115.082860
115.363002
107.431412
93.515515
73.256493
55.875778
36.617517
26.247501
17.303824
12.766719
9.771585
9.303689
9.156466
9.289980
10.317564
10.301471
11.337996
11.779666
12.370944
12.369752
12.701750
13.237000
14.155507
13.754964
14.183521
13.910532
14.217496
14.150739
14.034510
13.892651
13.966560
13.500452
13.424754
##ZVALUE=315
0.740886
0.619888
0.507832
0.626445
0.594854
0.545979
0.470877
0.506639
0.528693
0.667572
0.727773
0.687838
0.619888
0.678897
0.691414
0.625849
0.796914
0.844598
0.559688
0.901818
0.907779
0.782609
0.788569
0.537634
0.731945
0.706911
0.870824
0.881553
0.977516
0.956655
1.031756
0.868440
1.038909
1.168847
1.151562
1.395941
1.349449
1.328588
1.745820
4.105568
14.188886
56.500435
121.975541
272.572637
441.345572
702.241659
867.675543
1011.405587
1015.710831
963.772535
821.751952
582.863688
403.116941
205.943584
111.059546
40.954947
17.865896
9.474754
9.833574
13.071895
19.224882
31.852722
44.989586
64.140558
80.848932
99.247694
107.067823
107.757449
101.283789
85.213780
70.629716
52.091479
38.924813
24.474859
17.071962
12.024641
10.241866
9.336472
9.374619
9.671450
9.824634
10.533929
10.735989
11.203885
11.555552
11.557937
11.751652
11.878610
11.937618
12.197495
12.286901
11.455417
12.035966
11.693835
11.550784
11.312962
##ZVALUE=320
0.552535
0.517964
0.556707
0.444651
0.508428
0.529885
0.711679
0.668764
0.570416
0.371933
0.599623
0.669956
0.704527
0.629425
0.746846
0.790954
0.760555
0.815988
0.662804
0.683665
0.781417
0.832677
0.743866
0.828505
0.747442
0.871420
0.800490
0.962615
0.821948
0.963807
0.812411
1.014471
1.005530
0.888705
0.957847
0.996590
1.461506
1.337528
1.392961
1.380444
1.630783
2.252460
6.582737
32.835603
79.636574
201.937556
337.179899
566.642880
749.889612
950.356722
1015.710831
1003.239751
897.206664
678.038001
487.989783
268.183947
147.139430
59.559941
27.852654
10.881424
8.068681
8.825660
11.451840
17.992854
26.516914
43.254495
57.743788
76.826811
90.229511
101.337433
102.507472
95.685720
84.367990
66.301823
52.112937
35.606623
25.704503
16.888976
13.010502
10.415912
9.526610
9.260774
9.475946
9.456873
9.460449
9.401441
9.742975
10.232925
9.874701
10.498762
10.082722
10.355711
9.851456
10.301471
10.201931
9.591579
##ZVALUE=325
0.601411
0.564456
0.609756
0.544786
0.577569
0.505447
0.675917
0.499487
0.671744
0.664592
0.603795
0.618696
0.747442
0.565648
0.391603
0.605583
0.635982
0.643730
0.647902
0.624657
0.740886
0.707507
0.880957
0.880957
0.812411
0.682473
0.734925
1.026988
0.916719
0.861883
0.999570
1.198649
0.925660
1.072884
1.007915
0.930429
1.077652
1.276731
1.179576
1.059771
1.255870
1.191497
1.620650
1.607537
3.381968
20.585656
53.415895
139.663815
252.393484
469.363928
654.640794
880.399942
993.228555
1015.712023
959.532857
747.596025
563.336611
335.426927
199.573636
88.121891
41.402578
14.300942
8.942485
7.583499
8.261800
11.781454
16.837716
27.167797
39.138794
58.117509
72.435737
87.457895
94.850659
97.132921
91.130733
78.158975
63.524842
47.001839
34.754872
22.609830
16.638637
11.950731
10.337830
9.509921
9.039640
9.176731
9.272695
9.338856
9.011626
8.699894
8.715987
8.843541
9.095669
8.868575
8.908510
8.822680
##ZVALUE=330
0.596642
0.535846
0.560880
0.547767
0.514984
0.530481
0.398755
0.612736
0.542998
0.536442
0.589490
0.642538
0.868440
0.674725
0.656843
0.650883
0.671744
0.700951
0.519753
0.757575
0.681877
0.711679
0.647902
0.708699
0.653863
0.820756
0.843406
0.760555
0.630617
0.713468
0.833869
0.934601
0.852942
0.732541
0.778437
0.888705
0.861883
0.977516
0.916719
0.935793
1.056790
1.115799
1.206994
1.174808
1.364946
1.610518
2.056956
8.917451
29.166937
95.954537
187.274814
371.520519
548.702478
786.337852
925.051570
1002.328992
955.019593
790.038705
627.999902
397.405624
254.137516
116.449594
59.453845
21.582842
10.120869
7.427931
7.293820
7.984638
10.940433
17.795563
25.349855
38.721561
51.552653
71.038604
82.431436
90.566874
90.578794
84.330440
74.776411
57.670474
44.981837
30.887723
23.153424
16.171932
12.688637
10.029674
9.247661
8.330941
8.476973
8.145571
8.125901
8.030534
8.068681
7.941723
8.063912
8.062720
##ZVALUE=335
0.519753
0.405908
0.582933
0.634789
0.519753
0.470877
0.329614
0.460744
0.616908
0.516772
0.573993
0.441670
0.560880
0.615716
0.510812
0.537634
0.503659
0.548959
0.561476
0.638962
0.571609
0.654459
0.525713
0.553727
0.562668
0.630617
0.622869
0.682473
0.841618
0.753999
0.743866
0.887513
0.927448
0.761747
0.933409
0.799894
0.856519
0.837445
0.905991
0.960827
0.791550
1.004934
1.019835
0.998974
0.976920
1.154542
1.247525
1.328588
1.668930
4.037619
14.300942
56.940913
121.179819
272.079706
435.936451
683.209896
849.992633
979.242921
982.779860
868.141651
721.758008
485.474467
323.472619
164.812803
85.435510
29.253960
13.065934
7.414818
6.652474
7.031560
8.037686
10.682940
15.559793
25.420785
35.794973
51.781535
63.929558
77.063441
83.370805
85.223913
79.410672
68.250895
57.660937
43.619871
33.273697
22.604465
16.778708
12.130737
9.714961
8.254647
7.638931
7.644892
7.664561
7.612705
7.430911
7.521510
##ZVALUE=340
0.445843
0.428557
0.597835
0.429749
0.554919
0.469685
0.477433
0.411868
0.511408
0.515580
0.497699
0.614524
0.456572
0.573993
0.578761
0.569820
0.523925
0.605583
0.539422
0.579953
0.698566
0.666976
0.797510
0.655651
0.578761
0.676513
0.583529
0.671744
0.716448
0.655651
0.531673
0.799894
0.699759
0.841618
0.750422
0.781417
0.842810
0.866652
0.720620
0.941753
0.864863
0.871420
0.943542
0.949502
0.877976
1.077652
1.197457
1.282692
1.078844
1.278520
1.509786
2.208948
7.183552
33.988953
84.705949
215.123892
363.439918
596.174002
769.734979
940.264463
986.284018
914.297700
784.685016
565.586686
391.001701
199.844837
109.869838
44.696927
18.540621
7.987618
6.954670
6.695986
6.824732
8.023977
10.287762
16.122460
22.996664
34.885406
45.700669
62.026978
70.622563
78.811646
79.013705
74.888468
67.027807
53.653717
43.208599
31.028986
23.204684
16.129613
11.835694
9.065866
8.026958
7.145405
7.026792
7.018447
##ZVALUE=345
0.486970
0.505447
0.370741
0.479817
0.306964
0.504851
0.445843
0.522733
0.490546
0.508428
0.435710
0.491738
0.654459
0.407696
0.456572
0.528693
0.532866
0.631809
0.576973
0.590682
0.612736
0.523925
0.579953
0.517964
0.571609
0.661612
0.523925
0.566840
0.708699
0.578761
0.667572
0.645518
0.629425
0.846982
0.810623
0.688434
0.717640
0.782609
0.829697
0.681877
0.800490
0.841618
0.904799
0.897646
0.923872
0.871420
0.985861
1.013875
1.121759
1.182556
1.259446
1.191497
1.456738
1.636744
3.243685
19.236803
53.573847
146.572590
267.469883
491.276979
677.611828
893.117785
980.082750
967.303514
863.963962
650.077462
473.670959
273.998976
154.052973
60.265660
27.225614
10.435581
7.161498
6.597638
6.339550
6.775856
7.466674
9.302497
13.442636
22.055507
30.139685
44.305921
54.344535
65.268874
71.385503
73.458552
71.578622
61.507821
53.082705
41.960478
31.655431
21.132827
15.741587
10.866523
8.773804
7.402897
##ZVALUE=350
0.583529
0.589490
0.482798
0.644922
0.480413
0.520945
0.450611
0.529885
0.452995
0.491738
0.472665
0.665784
0.671744
0.498891
0.592470
0.598431
0.649691
0.582933
0.635982
0.456572
0.523925
0.659823
0.612736
0.642538
0.705719
0.779629
0.581741
0.540614
0.669956
0.601411
0.747442
0.735521
0.717640
0.759959
0.674725
0.804663
0.719428
0.852942
0.723600
0.687838
0.689626
0.738502
0.782609
0.885725
0.885725
0.766516
0.970960
0.977516
0.911951
1.068711
1.101494
1.019835
1.257658
1.306534
1.257658
1.546741
1.957417
9.491444
30.071735
96.024871
188.093781
394.675732
581.986904
826.147795
974.575877
1015.710831
968.090892
782.464743
595.696568
355.969667
218.175650
100.506544
45.522451
13.200641
7.312894
6.233454
6.000996
5.942583
5.955696
6.943941
8.821487
13.432503
18.729568
27.499795
36.419630
48.708916
57.330728
64.479709
67.032576
64.336658
58.998466
48.326850
39.909482
28.188825
21.703839
14.723539
##ZVALUE=355
0.583529
0.527501
0.564456
0.628829
0.576973
0.413656
0.554919
0.332594
0.551939
0.626445
0.585914
0.615716
0.495911
0.511408
0.587702
0.465512
0.534654
0.492930
0.460744
0.646710
0.538826
0.574589
0.430942
0.706911
0.578761
0.560880
0.741482
0.736713
0.598431
0.725985
0.732541
0.636578
0.621676
0.504851
0.633597
0.721812
0.613928
0.666976
0.787973
0.809431
0.824928
0.925660
0.885725
0.805855
0.785589
1.074672
0.808835
0.896454
0.892878
0.857711
1.035929
0.942945
1.007915
1.213551
1.173615
1.292825
1.436472
1.645684
1.747608
4.923940
16.336441
63.050985
130.618811
290.601850
469.363928
745.660663
934.399962
1015.703678
1015.703678
856.145620
669.858456
421.648622
262.561440
116.379857
56.171417
17.719865
8.718967
6.274581
6.009936
5.608797
5.626678
5.611777
6.100535
7.999539
10.772943
16.670823
23.058653
33.133626
41.262507
51.087737
56.733489
60.554743
60.051680
53.467751
47.290921
37.964582
##ZVALUE=360
0.517964
0.443459
0.540614
0.450611
0.552535
0.627637
0.664592
0.599623
0.497699
0.463724
0.704527
0.490546
0.619888
0.602603
0.641942
0.549555
0.556707
0.644922
0.580549
0.549555
0.563860
0.579953
0.579953
0.772476
0.582933
0.623465
0.743866
0.558496
0.806451
0.523925
0.556707
0.500679
0.691414
0.444651
0.654459
0.580549
0.669956
0.737906
0.726581
0.820756
0.711679
0.671744
0.855923
0.648499
0.934601
0.805855
0.832677
0.723600
0.766516
0.875592
0.854731
0.939965
0.944734
1.100898
1.051426
1.135468
1.360774
1.442432
1.321435
1.517534
1.701713
2.482533
7.399917
33.014417
79.835653
204.525590
350.130796
595.890880
803.239942
997.573733
1015.710831
933.179855
768.565536
496.761799
317.730904
149.789453
78.339577
29.228926
12.164712
6.124973
5.615950
5.377531
5.338788
5.316734
5.153418
5.561709
6.589890
9.033680
12.192726
19.037724
25.979877
36.358833
43.851733
50.994754
54.240823
54.515600
##ZVALUE=365
0.426769
0.408888
0.412464
0.504851
0.443459
0.575781
0.466704
0.508428
0.688434
0.610948
0.580549
0.448823
0.431538
0.606775
0.469685
0.540614
0.431538
0.470877
0.503659
0.522733
0.429749
0.450611
0.442863
0.437498
0.507832
0.492930
0.544786
0.440478
0.598431
0.535846
0.261664
0.526905
0.481606
0.473857
0.596642
0.530481
0.727773
0.714660
0.673532
0.772476
0.730753
0.763535
0.609756
0.789762
0.686646
0.765920
0.644922
0.688434
0.726581
0.698566
0.721812
0.718832
0.813603
0.869632
0.835657
1.063943
0.957847
1.163483
1.005530
1.271963
1.250505
1.487732
1.509786
1.723766
3.353953
18.432736
48.469901
132.392645
253.947973
492.147803
684.210658
907.410979
1009.877920
1007.166505
889.962912
659.428835
469.623804
253.701806
135.736465
47.214627
17.953515
6.765723
5.577803
5.200505
5.124807
4.820824
4.780889
4.815459
4.735589
5.682707
7.432699
10.789633
15.688539
23.557544
29.909611
38.904548
##ZVALUE=370
0.595450
0.473857
0.479817
0.670552
0.585914
0.526905
0.572801
0.514984
0.581741
0.563860
0.628829
0.402927
0.426769
0.597835
0.562668
0.676513
0.523925
0.585914
0.509620
0.544786
0.724792
0.509620
0.426769
0.616908
0.602603
0.609756
0.493526
0.590682
0.669956
0.732541
0.540614
0.562668
0.681877
0.549555
0.669956
0.433922
0.631809
0.451803
0.694990
0.584722
0.676513
0.666976
0.605583
0.709891
0.696778
0.718832
0.614524
0.726581
0.824928
0.724792
0.740886
0.662804
0.880957
0.835657
0.789762
0.814795
0.938773
0.915527
0.984669
1.065731
1.142621
1.068711
1.269579
1.341701
1.636744
1.697540
2.189875
9.205937
29.786825
98.642707
189.483762
370.801687
555.046797
814.744830
960.975885
1015.712023
997.951031
844.824910
663.954020
392.284989
227.163434
85.656643
35.846829
10.568500
5.855560
5.044937
4.713535
4.427433
4.346967
4.356503
4.188418
4.444718
5.022883
6.751418
9.137988
13.967752
##ZVALUE=375
0.489950
0.508428
0.353456
0.453591
0.455976
0.509620
0.442863
0.316501
0.370741
0.591874
0.507832
0.332594
0.439882
0.549555
0.554919
0.684857
0.500679
0.370741
0.541806
0.499487
0.499487
0.442863
0.514984
0.595450
0.526905
0.522733
0.668764
0.516772
0.508428
0.589490
0.576973
0.581741
0.568628
0.568628
0.528693
0.584722
0.633597
0.563860
0.530481
0.516772
0.550747
0.631809
0.578761
0.528693
0.666976
0.569820
0.506639
0.604987
0.660419
0.604987
0.661612
0.758767
0.662804
0.784993
0.629425
0.805855
0.756979
0.688434
0.788569
0.729561
0.873804
0.934601
0.776649
1.036525
0.907779
1.101494
1.227856
1.215935
1.688600
4.869699
16.696453
59.695840
130.609870
296.296477
462.839007
703.765750
852.961540
954.784751
934.983492
769.012570
583.674908
339.425802
206.970572
97.836852
47.422647
15.098453
7.138848
4.635453
4.411936
4.274845
4.266500
3.911853
3.696680
4.004836
3.904700
4.482865
##ZVALUE=380
0.338554
0.414848
0.563860
0.542998
0.568628
0.474453
0.656843
0.491738
0.470877
0.411868
0.522733
0.584722
0.448823
0.565648
0.443459
0.401735
0.559688
0.455976
0.519753
0.576973
0.524521
0.533462
0.695586
0.545979
0.403523
0.516772
0.551939
0.620484
0.550747
0.461936
0.486970
0.595450
0.454783
0.560880
0.592470
0.458956
0.710487
0.562668
0.530481
0.662804
0.523925
0.626445
0.586510
0.583529
0.534654
0.521541
0.604987
0.625849
0.549555
0.673532
0.491738
0.726581
0.632405
0.699759
0.698566
0.648499
0.670552
0.889897
0.628829
0.673532
0.793934
0.843406
0.912547
0.934601
0.982881
0.986457
0.947714
1.204610
1.280904
1.585484
1.542568
2.832413
10.447502
44.965744
101.995468
232.136846
387.716889
630.314946
798.754692
939.212441
946.967006
817.154646
668.385029
456.797481
301.904678
142.406821
70.399642
23.630857
10.011792
4.853606
4.389882
4.152656
3.874898
3.757477
3.715754
3.566742
##ZVALUE=385
0.282526
0.393987
0.380874
0.385642
0.405908
0.297427
0.519753
0.468493
0.703931
0.528693
0.534654
0.468493
0.516772
0.441670
0.425577
0.351667
0.514984
0.341535
0.482798
0.486970
0.502467
0.438690
0.524521
0.408888
0.537634
0.401735
0.639558
0.482798
0.540614
0.562668
0.447631
0.437498
0.511408
0.538826
0.590682
0.422597
0.419617
0.420809
0.577569
0.549555
0.575781
0.662804
0.754595
0.641942
0.713468
0.499487
0.407696
0.548959
0.517964
0.658631
0.524521
0.528693
0.624657
0.693798
0.672936
0.764728
0.717640
0.655651
0.662804
0.607967
0.671744
0.852942
0.757575
0.752807
0.821948
0.875592
0.910759
1.069903
1.018643
1.198649
1.178980
1.152754
1.574755
1.842976
4.688501
24.401546
62.771440
165.427923
298.435688
527.184606
704.590678
875.491500
924.952030
881.249905
779.094696
574.901700
405.097604
217.245817
120.950937
47.170520
18.300414
5.822778
4.252791
3.913641
4.061460
3.657937
##ZVALUE=390
0.469685
0.429749
0.498891
0.440478
0.324845
0.414848
0.545979
0.327826
0.400543
0.433922
0.595450
0.340939
0.381470
0.523925
0.509620
0.477433
0.411868
0.534654
0.310540
0.418425
0.490546
0.416636
0.550747
0.624657
0.466704
0.446439
0.598431
0.375509
0.529885
0.596642
0.465512
0.584722
0.544786
0.536442
0.489950
0.585914
0.627637
0.468493
0.612736
0.561476
0.510812
0.539422
0.620484
0.628829
0.530481
0.609756
0.508428
0.548959
0.618696
0.609756
0.645518
0.621676
0.544786
0.609756
0.440478
0.608563
0.649691
0.764728
0.684857
0.707507
0.667572
0.807643
0.670552
0.806451
0.760555
0.694990
0.983477
1.109838
0.958443
1.052618
1.181960
1.328588
1.438856
1.321435
1.549721
1.620650
2.499819
12.648702
40.533543
131.792426
252.432823
481.988788
657.069683
851.853490
958.883762
983.468890
915.203691
734.861493
566.116571
351.279974
207.594633
82.783699
35.353899
8.864999
4.845858
3.933907
##ZVALUE=395
0.416636
0.428557
0.405908
0.517964
0.370741
0.409484
0.388622
0.482798
0.380874
0.303984
0.343919
0.379682
0.482798
0.416636
0.349879
0.403523
0.511408
0.360608
0.507832
0.514984
0.510812
0.497699
0.434518
0.434518
0.412464
0.555515
0.598431
0.488758
0.558496
0.533462
0.608563
0.609756
0.742674
0.562668
0.552535
0.567436
0.598431
0.556707
0.557899
0.368953
0.556707
0.616908
0.692606
0.631809
0.687838
0.492930
0.664592
0.682473
0.444651
0.509620
0.558496
0.671744
0.605583
0.604987
0.541806
0.586510
0.606775
0.521541
0.722408
0.608563
0.735521
0.701547
0.766516
0.787973
0.857711
0.922680
0.971556
0.874996
0.824928
1.243949
1.140833
1.099706
1.120567
1.267791
1.192689
1.280904
1.544952
1.589656
1.747608
7.699728
28.157830
98.447800
191.144943
370.040536
555.315614
813.907981
964.472890
1015.705466
1007.889509
850.817561
664.213896
402.180552
248.197913
111.055970
53.021908
16.580820
##ZVALUE=400
0.472665
0.424981
0.534654
0.548959
0.459552
0.472665
0.497699
0.395775
0.415444
0.602603
0.476837
0.643730
0.418425
0.462532
0.489950
0.437498
0.429749
0.464916
0.595450
0.520945
0.500679
0.592470
0.499487
0.503659
0.485778
0.466704
0.620484
0.523925
0.596642
0.592470
0.655651
0.518560
0.502467
0.604987
0.617504
0.517964
0.625849
0.578761
0.641942
0.630617
0.510812
0.733733
0.507832
0.589490
0.564456
0.701547
0.586510
0.668764
0.620484
0.630617
0.696778
0.641942
0.586510
0.566840
0.532866
0.699759
0.682473
0.610948
0.663996
0.689626
0.743866
0.753999
0.666976
0.801682
0.875592
0.786781
0.826716
0.908971
1.036525
0.922680
1.100898
1.141429
1.235604
1.166463
1.270771
1.001954
1.122952
1.210570
1.366735
1.572967
1.730919
3.914833
14.379621
53.256750
118.582845
272.717476
441.866517
687.820911
853.769779
976.877809
979.591012
840.130448
680.502653
442.293882
285.845995
138.658881
##END
