##TITLE=FAAI0851
##FORMAT=SPECTACLE-ASCII V-1.2
##DATA TYPE=ULTRAVIOLET SPECTRUM
##SECOND TYPE=ULTRAVIOLET SPECTRUM
##DATE=02/28/18
##TIME=17:52:30
##SPECTROMETER/DATA SYSTEM=SPECTACLE
##XUNITS=NM EM
##YUNITS=ENERGY
##YFACTOR=1
##FIRSTX=220
##LASTX=410
##NPOINTS=96
##3DDATA=Equidistant
##ZUNITS=NM EX
##FIRSTZ=210
##LASTZ=400
##ZPOINTS=39
##XYDATA=(Y..Y)
##ZVALUE=210
9.908676
8.731484
7.208586
5.761981
5.312562
5.202889
5.223751
5.870461
5.295873
5.277991
5.091429
5.505681
5.396605
5.431771
5.869865
6.134510
6.802678
6.914735
6.854534
7.471442
8.134842
8.736849
8.794665
10.228753
10.088682
11.425614
12.691617
13.448000
13.633966
14.392734
15.811920
17.204881
16.237497
17.303824
18.542409
19.109845
19.606948
20.096898
19.318461
17.359853
18.564463
20.676851
19.467473
19.704700
20.577908
20.782948
19.519925
21.374822
20.185709
19.145608
21.158457
20.242929
20.294785
20.912886
18.672943
20.060539
20.375848
19.945502
20.244718
19.508600
19.544959
21.173954
17.794967
20.935535
21.825433
22.334456
23.480654
26.474595
29.947758
36.195517
41.199923
52.694678
57.561994
68.044662
75.781941
85.056424
86.408854
90.815425
91.191530
92.048645
89.609623
77.461600
67.620873
54.233670
42.811632
27.812719
25.442839
20.892620
20.135641
17.826557
19.032955
18.870831
19.461513
18.210411
21.161437
21.249652
##ZVALUE=215
38.959980
40.508509
36.832690
32.166839
21.172762
17.938614
11.307597
9.921789
10.372996
9.734631
8.595586
7.785559
7.083416
7.131696
6.310940
5.383492
5.571842
7.062554
6.969571
7.699728
8.683801
8.426905
8.626580
9.349585
10.947585
10.631680
11.637807
12.166500
13.048649
15.823841
15.974641
16.876459
16.847849
19.518733
19.321442
19.796491
19.630790
20.415783
19.530654
19.618869
20.213723
18.557906
19.077659
18.044710
17.357469
17.394423
18.263459
19.172430
18.433928
17.198920
17.674565
17.919540
18.839836
19.878745
18.674731
18.127561
18.556714
18.999577
18.027425
17.837882
18.670559
19.171834
18.758774
19.018650
18.767715
20.708442
21.751523
23.334622
25.226474
30.481815
35.975575
47.323704
51.814914
58.368444
61.539412
73.487759
75.612664
75.417757
75.365901
71.310997
63.145757
60.389638
54.925680
43.536425
39.656758
29.788613
26.334524
19.783974
19.102693
17.732978
15.416741
16.029477
16.133785
15.340447
17.793775
18.363595
##ZVALUE=220
78.177452
81.765652
79.318881
79.287887
70.099831
53.522587
40.797591
25.955439
19.285679
18.067956
18.876791
18.691421
17.391443
16.259551
12.708902
10.714531
8.820891
8.188486
6.573796
6.447434
6.644726
6.636977
6.056428
8.310676
9.047985
9.627938
10.790825
13.546944
14.189482
16.593933
17.731786
18.965602
19.208789
19.440651
22.780895
23.146868
21.525621
22.628903
21.124482
22.137761
19.182563
20.237565
20.098686
18.420815
16.986728
16.068816
14.792681
16.504526
14.877915
14.644861
14.329553
15.084743
13.855696
13.757944
10.836720
12.732744
11.597872
10.851622
10.070801
11.164546
10.843873
11.070967
11.895895
10.561943
9.768605
9.973645
10.849833
11.688471
13.561845
13.026595
17.204881
19.273758
22.482872
24.913549
27.549863
29.167533
29.576421
29.621720
29.730797
27.197599
25.675893
23.969412
22.620559
18.921494
14.849901
13.250709
10.257959
9.704828
7.775426
8.419752
7.244945
7.997751
7.957816
7.648468
8.156896
6.842613
##ZVALUE=225
58.533549
65.409541
73.783994
89.026690
90.418458
84.750652
76.479912
55.378675
41.781664
36.841631
31.537414
28.232932
31.125546
32.871962
30.459762
27.978420
23.709536
19.117594
14.145970
9.033680
6.546974
5.310774
4.250407
4.572868
5.372763
5.825758
6.882548
9.200573
9.690523
12.009740
14.380813
17.475486
17.037988
18.440485
17.433763
18.439889
19.959807
17.347932
17.433763
14.760494
16.825795
14.840961
14.757514
14.487505
13.672709
11.943579
12.149811
11.029840
11.543632
9.864569
9.393692
8.575916
8.071661
7.967949
8.637905
7.926822
7.986426
6.154776
7.643700
7.619858
7.182956
6.981492
7.376671
6.970763
8.261800
6.727576
7.191896
6.790757
7.529855
7.420778
8.720756
8.393526
9.079576
9.345412
9.596944
9.585619
9.875894
8.989573
10.159612
7.981658
8.303523
7.867813
7.034540
6.100535
6.219745
6.294847
5.520582
5.140901
4.955530
5.481839
5.128980
5.909801
5.734563
5.225539
5.116463
5.766749
##ZVALUE=230
52.063465
56.991577
90.432763
139.683485
177.601576
223.135948
240.892768
250.708461
227.035880
182.265639
136.810541
95.258951
62.699914
52.073598
51.792860
54.623485
57.079792
51.898956
46.544671
40.153861
29.261708
21.588802
12.492537
9.453893
7.878542
8.468628
7.295609
8.929968
9.984970
11.172891
13.691783
14.781952
15.663505
16.297698
16.379952
17.664433
17.412901
16.436577
16.334653
16.025901
15.576482
13.255477
15.454888
14.197826
13.633966
13.408661
12.808442
11.170506
11.424422
11.099577
11.918545
10.345578
10.296702
12.725592
10.135770
9.725690
9.713769
9.784698
10.818839
10.684729
10.001659
8.969903
9.808540
8.700490
8.977652
9.343624
10.238886
10.600686
11.115670
13.054609
14.054775
15.260577
16.389489
15.731454
18.900633
18.793941
16.700625
17.755628
14.747977
14.621615
12.080669
11.528730
11.524558
10.676980
10.146499
9.535551
8.430481
8.313656
8.099675
8.182526
7.626414
7.074475
7.359982
8.111596
7.764697
7.301569
##ZVALUE=235
36.680698
41.539669
76.421499
152.083635
221.876502
309.605598
364.862680
422.428846
431.516767
401.261449
322.833657
254.985690
166.067481
119.361877
83.926916
77.038407
79.873800
84.667802
85.273981
84.954500
82.390904
62.172413
53.187609
37.023425
25.324821
16.794801
11.221766
9.787679
8.862615
9.324551
10.420680
10.582805
9.866953
11.151433
12.323856
11.263490
11.052489
12.353659
11.120439
11.173487
11.395812
11.112690
10.978580
10.761619
10.079741
10.906458
10.339618
9.915829
9.452701
9.183884
9.425879
9.946823
9.914637
10.024905
8.691549
8.673668
8.373857
9.761453
9.050965
9.437799
8.454919
8.373857
8.983612
9.756684
8.472800
9.736419
9.757876
10.296702
10.568500
12.027621
11.980534
12.155771
14.125705
12.773871
14.530420
14.138818
13.348460
13.693571
12.985468
11.866689
11.533499
11.030436
10.072589
9.109974
9.155869
8.413792
8.706450
8.581877
7.322431
7.566810
7.871985
7.860661
7.698536
7.076859
7.331967
7.026792
##ZVALUE=240
2.560616
2.505779
8.404851
20.542741
54.510832
99.841952
177.000761
250.701904
353.375673
406.726599
443.825722
436.235666
399.804711
314.182639
246.209502
168.253779
123.203993
95.312595
93.477964
105.857849
119.151473
120.772719
118.118525
109.644532
88.690519
66.504478
48.958659
34.396648
21.096468
14.317632
12.478828
8.929968
9.372830
9.440780
9.494424
9.152889
10.692477
9.322762
9.306669
9.805560
10.121465
10.363460
9.864569
10.108948
8.953810
10.695457
9.131432
8.491874
10.187626
8.957982
9.316802
7.895827
8.348823
8.835793
8.423924
8.126497
9.238720
8.584857
9.722710
8.338690
7.742643
8.856654
7.930994
7.939935
9.008646
7.774830
8.812547
8.804798
9.469986
9.916425
10.429621
11.356473
10.946989
11.472702
12.574792
13.297796
12.208819
12.255907
11.568666
11.279583
10.735989
9.863973
10.089874
9.533763
8.225441
8.509755
7.517934
8.150935
8.731484
7.498860
8.164644
8.159876
8.409619
8.090734
7.878542
7.705688
##ZVALUE=245
1.859665
1.712441
1.864433
1.889467
4.985929
14.849901
41.055679
79.717636
169.735551
250.026584
368.515849
448.365808
498.235822
511.700511
486.968756
401.987433
327.102542
224.049687
160.594583
114.308596
97.818971
101.099610
120.313764
128.448606
135.116577
133.722425
120.067000
100.284815
74.177980
54.667592
40.238500
26.021600
17.832518
13.119578
11.469722
10.202527
10.796785
11.393428
10.879636
11.828542
10.511875
10.703802
9.941459
10.823607
9.268522
9.258986
9.374619
9.353757
9.300709
9.903908
9.360909
8.924603
8.924603
8.285642
7.867813
7.678866
7.762909
8.192658
8.385777
8.098483
7.111430
7.660985
7.533431
7.639527
7.011890
7.470846
7.527471
7.877946
8.794665
8.058548
8.904934
9.738803
9.899735
10.618567
10.683537
10.490417
10.501742
10.031462
10.280609
10.338426
10.369420
8.994937
8.817911
9.307861
7.789731
9.408593
8.130670
7.576942
8.316636
7.734895
7.415414
6.844997
8.426905
8.159876
8.277893
7.087588
##ZVALUE=250
1.251698
1.518726
1.642704
1.824498
2.014637
1.757741
2.536774
8.142591
31.588674
66.595674
147.534609
234.205723
327.633619
453.902483
533.663630
573.796630
564.312935
504.825711
423.548818
293.776989
207.969546
143.375993
101.760626
95.611811
108.950734
123.685598
139.280558
147.059560
142.650604
127.439499
112.231970
85.706711
64.295530
41.816831
29.665828
17.943978
15.073419
14.028549
13.444424
12.193918
11.905432
11.990666
12.567639
11.758804
11.397600
11.776686
10.450482
10.662675
10.394454
9.709597
8.518696
9.093881
9.829998
8.176565
7.869601
8.169413
7.692575
7.136464
7.202625
6.906986
7.516742
7.425547
6.015897
6.482601
6.861687
6.982684
6.951690
6.490946
7.968545
7.771850
7.707477
8.312464
8.956790
8.927584
8.994937
10.203719
9.312630
9.150505
8.360744
8.876920
8.297563
8.524656
7.560849
7.729530
7.617474
7.359982
6.854534
6.938577
6.691813
6.439686
7.188916
6.451607
7.069707
6.998777
6.543994
7.233620
##ZVALUE=255
1.240969
1.246929
1.809597
1.436472
1.281500
1.311898
1.571774
1.622438
1.910925
4.666448
20.562410
51.341653
100.923777
203.938484
305.565000
449.813604
530.968904
624.348521
646.683574
603.981018
526.948571
428.789854
270.682573
181.993842
110.823512
90.524554
93.082786
106.305480
134.347677
146.229863
153.594613
151.636600
143.443942
113.744736
92.594624
63.267946
49.394965
30.175447
23.641586
17.208457
15.599728
15.012622
14.084578
13.628602
13.353825
13.216734
12.352467
11.697412
10.629892
11.115670
10.690689
9.454489
9.292960
7.620454
8.633733
7.744431
7.665753
7.800460
6.845593
6.703734
6.688833
6.105900
6.202459
5.582571
6.306767
6.185770
6.190538
5.699992
6.037951
7.492900
7.064939
7.209778
7.489920
8.060932
7.768869
8.144975
7.720590
7.447600
7.842779
7.641912
7.077456
6.261468
6.557703
6.474853
6.289482
6.819963
6.516576
6.680489
6.309748
6.297827
6.587505
6.644726
5.657673
6.223917
6.392598
5.444884
##ZVALUE=260
1.096725
1.027584
1.293421
1.084805
1.172423
1.211762
1.450777
1.295805
1.487732
1.240969
1.779795
2.234578
7.802844
33.281446
73.645711
169.121623
262.429714
411.293507
522.590876
657.392740
707.859993
708.328485
619.719625
517.645478
345.880985
240.859985
147.505999
103.541613
81.059933
89.854598
114.781857
136.669874
156.605840
166.235566
163.711905
144.809484
125.147700
96.073747
73.284507
49.760938
35.831928
23.720860
18.942952
16.800761
14.932752
14.096498
13.474822
12.962818
12.506843
11.809468
10.593534
10.394454
10.521412
8.623600
8.637905
8.450747
8.711815
7.733703
6.822944
6.397963
6.402731
6.632805
6.170869
5.529523
5.822778
5.460978
5.242825
5.690455
5.984902
5.845428
5.594492
6.429553
7.126927
6.733537
7.488728
7.152557
6.645918
6.705523
7.065535
6.246567
5.956888
6.152987
6.225705
5.968809
5.907416
5.805492
5.971789
5.998611
5.632639
5.467534
5.370975
5.612969
5.835891
5.864501
5.766749
5.628467
##ZVALUE=265
0.794530
1.099706
1.025796
0.887513
1.117587
1.072884
1.269579
1.124740
1.234412
1.256466
1.483560
1.529455
1.650453
1.797676
5.458593
18.163919
64.317584
121.464729
243.893862
373.258591
507.137775
668.825507
740.789771
769.194961
713.290572
579.852462
459.143519
301.354527
199.271441
115.777850
84.132552
79.892874
97.347498
128.236413
149.764419
169.978738
172.044635
164.877772
150.391459
122.100711
99.352002
67.563653
49.542785
32.686591
23.652911
18.115640
14.608502
13.318658
12.952685
12.105703
11.733770
10.562539
10.255575
9.381771
8.881688
8.391738
7.593632
7.529855
7.340908
6.879568
6.533861
6.562471
6.038547
5.459785
4.855990
5.620718
5.320907
5.943775
5.429983
5.337596
5.151629
6.134510
5.993843
6.144643
6.044507
6.031990
6.383657
5.974770
6.097555
5.762577
5.645752
5.056858
5.400777
5.195737
5.355477
4.957914
5.289912
5.343556
5.032420
5.035996
5.184412
4.817843
5.045533
4.993677
4.702806
5.367994
##ZVALUE=270
1.011491
1.189709
1.081824
1.016855
1.100898
1.124740
1.174808
1.158714
1.194477
1.093745
1.185536
1.346469
1.340508
1.306534
1.571774
1.903772
2.279878
10.582805
30.693412
93.086958
178.140998
294.317603
487.091541
624.225736
768.436790
810.902715
795.361996
714.069009
556.850433
420.616865
327.178836
164.023638
101.124644
70.663691
74.311495
100.744963
126.430988
150.826573
165.957808
173.854828
167.469978
146.987438
127.365589
91.947913
71.065426
45.781732
31.904578
21.160841
16.158819
12.338758
11.492968
10.601878
10.038614
9.097457
8.511543
7.959604
7.855892
7.356405
7.310510
6.519556
6.276965
6.381869
5.728602
5.071759
5.461574
5.245805
5.645752
5.086660
5.162954
5.282760
5.674958
5.355477
5.896688
5.998611
6.394982
5.827546
5.748868
5.741715
5.581975
5.350709
5.333424
5.031824
5.058646
5.110502
5.231500
4.584789
4.877448
4.739761
4.863739
4.531741
4.781485
4.789829
4.823804
4.890561
4.844666
4.591942
##ZVALUE=275
1.028776
0.862479
0.881553
1.147985
0.902414
0.852942
0.872612
0.738502
0.698566
1.049638
0.979900
1.164675
1.301765
1.193881
1.166463
1.369715
1.370907
1.461506
1.461506
4.396439
17.166734
49.472451
138.950944
251.407623
437.110662
572.935939
729.967952
813.492537
849.507451
796.492696
697.820783
515.490770
364.612937
199.268460
121.715665
67.063570
57.069659
70.118904
90.060830
119.637847
140.400529
159.969926
168.151855
156.418681
141.880512
113.772750
92.444420
64.063668
44.695735
27.314425
18.630624
12.020469
9.159446
7.661581
7.778406
6.681681
6.801486
6.296635
6.554723
6.224513
6.003976
5.596876
5.751848
5.065799
5.117655
4.929900
4.475713
4.523993
5.222559
5.161762
5.129576
5.384684
5.462766
5.460978
5.327463
5.050898
5.205870
4.775524
5.063415
4.893541
4.547834
4.955530
4.816651
4.498959
4.476905
4.360676
3.989935
4.352927
4.217625
4.482865
4.423857
4.304647
4.263520
4.427433
4.505515
4.159808
##ZVALUE=280
0.766516
0.695586
0.831485
0.671744
0.742674
0.766516
0.908971
0.717640
0.859499
0.903606
0.923872
0.819564
0.881553
0.881553
0.917912
1.130700
1.153946
1.370907
1.545548
1.583695
1.457930
2.151728
10.911822
35.135746
110.207796
194.941759
349.379778
496.476889
683.134794
790.895820
860.523582
843.749642
760.214925
574.293733
421.640873
242.984891
146.271586
70.800781
46.872497
45.241714
58.536530
85.503459
108.232498
137.645602
149.599910
155.394673
152.118802
132.354498
111.162663
81.727505
62.567592
37.699938
25.470853
14.516711
9.566545
6.458759
5.529523
5.281568
4.917979
5.301833
5.082488
4.742742
5.039573
4.553795
4.630685
4.550815
4.633665
4.244447
4.873872
4.725456
4.580617
4.915595
4.624724
5.019903
5.087852
4.841685
4.962683
5.014539
4.954934
4.665852
4.397631
4.471540
4.436970
4.323721
4.294515
4.584789
4.140735
3.868937
4.215837
3.828406
3.866553
4.314780
3.877878
3.930926
3.859997
3.885627
##ZVALUE=285
0.673532
0.919700
0.687838
0.902414
0.954866
0.921488
0.833869
0.878572
0.881553
0.935793
0.901818
1.070499
0.962615
0.847578
0.936985
0.986457
1.064539
0.957847
1.122952
1.133680
1.417994
1.495481
1.689792
1.894832
5.196929
17.643571
63.352585
127.975941
263.691545
397.796631
585.197806
722.155571
849.399567
879.215598
815.056562
698.705912
503.841639
346.429944
184.842944
107.216835
49.031973
32.572746
36.772490
51.658750
78.835487
99.828839
126.151443
141.006708
148.973465
146.605968
128.773451
113.477707
82.478523
62.360764
38.412809
25.624633
13.061762
9.021759
5.906820
4.985929
4.894733
4.595518
4.145503
4.523993
4.484653
4.564524
4.936457
4.361868
4.596710
4.676580
4.781485
5.331635
4.866719
5.022883
5.096793
5.065799
4.937649
5.154610
4.405975
4.404783
4.620552
4.659891
4.163980
4.038811
4.223585
4.206896
4.391670
4.411936
3.990531
3.780723
4.134774
3.826618
3.832579
3.930926
3.879666
3.703833
##ZVALUE=290
0.713468
0.707507
0.703931
0.565648
0.605583
0.558496
0.669956
0.472665
0.524521
0.721812
0.761747
0.849962
0.889897
0.632405
0.897646
0.661612
0.794530
1.031756
0.904799
0.855923
1.049638
1.138449
1.260638
1.442432
1.381636
1.836419
1.941919
10.224581
29.682517
91.136694
166.875720
328.618884
481.384993
683.981776
810.600519
898.956656
885.278583
758.544803
622.968674
413.549542
272.376537
137.623549
74.415803
31.770468
24.313927
34.694672
49.239993
74.572563
94.109774
120.500922
136.283636
144.582987
142.198801
127.179623
107.384920
78.893900
57.356954
36.502481
24.509430
13.653636
8.545518
5.616546
4.841685
4.012585
4.250407
4.058480
4.285574
4.303455
4.175901
4.615784
4.836917
4.820824
4.874468
4.540682
4.956722
4.894733
4.732609
4.186630
4.181862
4.150867
4.174709
3.962517
3.941655
3.904700
4.046559
4.072785
3.932714
3.908873
3.961921
3.957748
3.759861
3.677607
3.543496
3.778934
3.610849
3.623962
##ZVALUE=295
0.782609
0.731945
0.566840
0.777841
0.632405
0.483990
0.582933
0.616908
0.628829
0.523925
0.832677
0.620484
0.699759
0.979900
0.891685
0.760555
0.913739
0.875592
0.947714
0.811815
0.910759
0.893474
1.070499
0.992417
1.194477
1.238585
1.300573
1.368523
1.527667
3.170967
17.392635
49.966574
109.728575
247.710943
394.893885
615.117550
765.687823
905.385613
932.126641
850.618482
719.679594
510.972738
350.350738
180.393457
100.490451
39.753914
22.140741
20.995736
29.228926
47.186613
64.645410
91.728568
109.663606
130.410790
137.789845
132.815838
124.174953
100.030899
80.861449
54.456592
38.033724
22.321939
13.934970
8.246899
5.642772
4.393458
4.227757
4.093647
4.314780
4.377961
4.410744
4.361868
4.517436
4.440546
4.743934
4.849434
4.451871
4.179478
4.269481
4.406571
4.309416
4.192591
3.927946
4.101992
3.874898
4.107952
3.679991
3.467798
3.992915
3.691912
3.572702
3.501773
3.645420
3.627539
3.371835
3.623962
##ZVALUE=300
0.492930
0.572801
0.549555
0.621676
0.608563
0.688434
0.677705
0.640750
0.718832
0.699759
0.638962
0.658631
0.510812
0.635982
0.639558
0.753999
0.652671
0.658631
0.835657
0.770688
0.892878
0.720620
0.823736
1.060963
0.994802
1.152754
1.199841
1.191497
1.535416
1.120567
1.493692
1.669526
7.343888
25.984645
84.133744
161.580443
325.261950
490.429997
712.482929
841.440558
940.905809
921.836495
790.253878
638.525486
419.745445
271.200538
135.848522
75.177550
28.700829
16.145706
18.393993
25.361776
41.291714
58.456659
83.556771
103.806853
122.143626
129.265785
127.820969
118.829608
99.158883
79.833865
54.796934
39.084554
23.664832
15.310645
8.337498
5.854964
4.615784
4.190803
4.200935
4.158616
4.507899
4.227757
4.292727
4.415512
4.118681
4.285574
4.354715
3.923774
4.089475
3.769994
4.275441
4.054904
3.989935
3.859997
3.680587
4.005432
3.515482
3.673434
3.587604
3.732443
3.410578
3.634691
3.555417
3.490448
##ZVALUE=305
0.632405
0.579953
0.646710
0.574589
0.653863
0.576973
0.550747
0.607967
0.535846
0.745654
0.626445
0.642538
0.738502
0.716448
0.675917
0.626445
0.633597
0.821948
0.729561
0.769496
0.851750
0.821948
0.686646
0.966787
0.830889
0.850558
0.827909
0.929832
1.055598
1.094937
1.178980
1.262426
1.503825
1.702905
3.576875
13.574958
55.581927
117.506981
256.589651
394.886732
601.985455
745.148659
870.840549
892.238617
802.333951
674.811602
475.308895
334.580541
180.769563
99.177957
38.101673
18.445849
12.351871
15.323758
25.282502
37.888885
58.789849
77.349544
99.862814
113.941431
121.655464
121.727586
108.960867
94.628930
73.334575
54.888725
34.311414
22.781491
12.403727
7.866621
5.307794
4.790425
4.209876
4.088879
4.222989
4.040599
3.627539
3.854632
3.718734
3.698468
3.632903
3.915429
3.847480
3.713965
3.825426
3.607869
3.815889
3.812909
3.395677
3.547668
3.407598
3.714561
3.215671
3.458858
3.231764
3.286600
##ZVALUE=310
0.449419
0.472665
0.531673
0.551939
0.473857
0.533462
0.449419
0.620484
0.433922
0.757575
0.742674
0.700951
0.464916
0.534654
0.548959
0.463724
0.585914
0.562668
0.529885
0.747442
0.717640
0.693798
0.646710
0.833869
0.834465
0.664592
0.782609
0.897646
0.889897
0.981688
0.906587
1.012683
1.195669
1.152754
1.153946
1.248717
1.952648
5.593896
29.100776
68.712831
164.705515
279.026628
465.734601
610.714555
768.425465
829.082727
807.175636
727.960467
565.774441
417.573452
240.182877
145.142674
62.756538
29.114485
11.396408
9.627938
14.130473
20.339489
33.364892
48.152804
70.411563
87.716579
106.609464
113.210678
114.611983
108.695626
91.452599
74.906945
50.524473
36.118627
20.805597
14.384985
8.192658
6.243587
4.528761
4.004836
3.848672
3.780723
3.716946
3.568530
3.560781
3.403425
3.489852
3.457665
3.576875
3.619790
3.462434
3.653765
3.676414
3.687739
3.503561
3.585815
3.417730
3.541708
3.357530
3.063679
##ZVALUE=315
0.404716
0.579953
0.524521
0.528693
0.514984
0.428557
0.574589
0.592470
0.484586
0.490546
0.541806
0.587702
0.512600
0.486970
0.546575
0.537634
0.524521
0.498891
0.627637
0.607967
0.624657
0.600815
0.735521
0.798702
0.724792
0.669956
0.634789
0.591874
0.619888
0.851750
0.829697
0.796914
1.024604
1.011491
0.859499
1.165867
1.400709
1.215935
1.571774
2.592802
14.897585
41.233897
117.525458
210.917592
391.180515
539.834499
712.019801
799.492002
841.189623
788.827538
641.924739
504.441857
315.638781
194.635987
88.455677
41.904449
13.801455
9.024739
9.400845
12.080669
19.952655
29.149652
47.154427
62.268972
84.333420
97.309947
108.535886
107.417703
99.052787
85.699558
65.027475
50.064921
33.041835
21.934509
13.340712
8.816719
5.642772
4.496574
4.225969
3.948808
3.440976
3.391504
3.602505
3.402829
3.487468
3.404617
3.477931
3.450513
3.262758
3.546476
3.298521
3.426671
3.267527
3.492832
3.281832
2.899766
##ZVALUE=320
0.637770
0.493526
0.520945
0.620484
0.474453
0.585914
0.452995
0.356436
0.482798
0.474453
0.477433
0.533462
0.343919
0.499487
0.476837
0.589490
0.486970
0.407696
0.546575
0.540614
0.568628
0.510812
0.701547
0.505447
0.586510
0.664592
0.658631
0.725985
0.665784
0.709891
0.815988
0.553727
0.812411
0.666976
0.983477
0.972748
0.867844
1.070499
1.018643
1.140833
1.568794
1.549721
6.712675
22.203922
76.851845
150.171518
293.217897
434.104800
619.637966
735.190511
816.372633
803.975463
694.708824
570.845008
378.348827
244.415998
114.128590
59.539676
22.302866
10.542870
7.105470
7.845759
11.335611
16.482472
28.110743
40.277839
59.507489
75.275898
94.083548
101.550817
101.163983
96.149445
82.472563
66.919923
47.553778
34.570694
20.761490
13.381839
7.723570
5.535483
4.083514
3.622770
3.612638
3.365874
3.305674
3.520846
3.194809
3.297925
3.159642
3.159642
3.153682
3.132820
3.370643
3.164411
3.196597
3.228784
##ZVALUE=325
0.437498
0.417829
0.398755
0.425577
0.403523
0.496507
0.492930
0.522733
0.349879
0.584722
0.514984
0.502467
0.482798
0.437498
0.356436
0.622869
0.601411
0.513792
0.589490
0.611544
0.572801
0.548959
0.540614
0.620484
0.540614
0.543594
0.719428
0.684857
0.611544
0.738502
0.706911
0.600815
0.729561
0.848770
0.793934
0.749826
0.919700
0.853539
0.923872
0.938773
1.095533
1.111627
1.230836
1.418591
2.715588
17.007589
45.853853
120.150447
211.445689
382.614732
523.425937
692.607760
778.812766
808.771849
755.671859
602.800846
460.873842
279.197693
170.566440
75.977445
36.041737
11.920929
7.261634
6.667972
7.403493
10.539889
15.576482
26.650429
39.501786
57.471991
72.104931
87.132454
95.284581
95.277429
90.345740
74.874759
61.262846
43.955445
31.273961
19.186735
12.235641
7.132888
5.054474
4.090667
3.823638
3.372431
3.452897
3.488660
3.228784
3.211498
3.009439
2.930760
3.134608
3.289580
3.028512
2.946854
##ZVALUE=330
0.426769
0.322461
0.536442
0.373721
0.378489
0.464916
0.407696
0.581741
0.537634
0.514984
0.458956
0.417829
0.514984
0.477433
0.373721
0.577569
0.351667
0.559688
0.521541
0.490546
0.617504
0.719428
0.308752
0.475645
0.548959
0.611544
0.630617
0.680685
0.669956
0.424981
0.754595
0.667572
0.621676
0.658631
0.653863
0.836849
0.750422
0.786781
0.781417
0.696778
0.789762
0.797510
0.798702
1.008511
1.184940
1.320839
1.718998
7.419586
24.458766
79.144835
152.850747
295.815468
427.144766
608.327985
718.699694
785.212517
759.946704
639.913678
513.397455
333.102942
214.836001
99.044442
49.467683
17.465949
8.351803
5.915761
5.971789
7.128716
9.482503
16.203523
23.878813
37.698746
51.521659
69.113970
80.707669
89.716911
89.572668
82.792640
71.906447
55.372715
42.114854
26.948452
18.808842
11.933446
8.075833
5.302429
4.058480
3.466606
3.310442
3.224611
3.037453
3.003478
2.988577
2.995729
3.103614
2.848506
##ZVALUE=335
0.451803
0.452995
0.300407
0.537634
0.489950
0.355840
0.431538
0.487566
0.420809
0.428557
0.448823
0.535846
0.450611
0.364780
0.348687
0.484586
0.508428
0.452995
0.404716
0.429749
0.550747
0.540614
0.457764
0.627637
0.549555
0.474453
0.654459
0.573993
0.684857
0.553727
0.600815
0.591874
0.521541
0.703931
0.641942
0.604987
0.566840
0.736713
0.832677
0.579953
0.743866
0.870824
0.834465
1.084805
0.991821
0.841618
1.180768
1.162887
1.465678
3.299713
12.468696
49.280524
102.185011
222.733617
350.107551
538.995862
666.169524
775.903463
797.323585
727.708936
616.126657
419.985652
284.131765
146.282911
75.296760
25.745630
11.156797
6.244779
5.592704
5.748868
6.529689
9.258986
13.727546
24.084449
34.726858
51.186681
62.792897
75.883865
82.038641
83.099604
77.572465
65.498948
53.807497
39.127469
29.258728
18.425584
12.784600
7.685423
5.599856
4.325509
3.614426
3.306866
2.909899
3.181696
2.978444
2.722740
##ZVALUE=340
0.384450
0.561476
0.233650
0.335574
0.345707
0.280738
0.479817
0.193715
0.345707
0.388622
0.287890
0.476837
0.588894
0.552535
0.513792
0.535846
0.398755
0.474453
0.460744
0.474453
0.369549
0.381470
0.449419
0.485778
0.372529
0.609756
0.553727
0.523925
0.616908
0.480413
0.374913
0.709891
0.519753
0.630617
0.684857
0.508428
0.506639
0.554919
0.624657
0.554919
0.731945
0.795722
0.680685
0.757575
0.875592
0.819564
0.908971
0.942945
1.064539
1.140833
1.229644
1.847744
5.993843
29.122829
72.928667
175.983906
293.321609
468.072891
599.340796
727.723837
779.537559
749.444962
660.110712
494.205952
347.714424
180.724859
98.534822
38.285851
15.543699
6.631613
5.831718
5.361438
5.580783
6.439686
8.807778
14.420748
22.033453
33.866763
45.122504
60.743690
70.825815
78.179836
77.789426
72.804689
65.051913
51.662922
40.410757
27.397871
19.929409
12.533665
8.107424
5.080700
4.129410
3.161430
3.158450
2.923608
##ZVALUE=345
0.370741
0.420809
0.456572
0.354648
0.520945
0.397563
0.392795
0.420809
0.422597
0.416636
0.363588
0.539422
0.307560
0.412464
0.428557
0.260472
0.380874
0.321865
0.330806
0.306964
0.401735
0.386834
0.330806
0.373721
0.460744
0.401735
0.452995
0.444651
0.533462
0.619888
0.480413
0.539422
0.553727
0.607967
0.509620
0.351667
0.644922
0.524521
0.636578
0.554919
0.661612
0.671744
0.740886
0.578761
0.621676
0.760555
0.699759
0.902414
0.702739
0.965595
1.028776
1.149774
1.178980
1.379848
3.098845
44.163465
48.462749
196.324587
219.745636
495.533943
504.069924
640.259981
715.078712
726.512671
540.895462
526.082516
240.339637
228.349566
91.495514
53.422451
21.453500
8.056760
6.179810
5.285740
4.921556
5.401969
5.559921
11.730790
12.518764
18.877983
33.382773
42.446852
52.198768
62.917471
69.084764
71.847439
68.958998
59.726834
51.312447
38.917661
28.570890
18.062592
12.686849
7.523894
5.577803
3.857613
##ZVALUE=350
0.323653
0.379682
0.328422
0.427961
0.320673
0.324845
0.442863
0.297427
0.371933
0.370741
0.331998
0.262856
0.443459
0.282526
0.369549
0.474453
0.398755
0.467896
0.511408
0.415444
0.571609
0.480413
0.423789
0.503659
0.530481
0.500679
0.430942
0.349879
0.561476
0.476837
0.588894
0.542998
0.514984
0.451803
0.516772
0.467896
0.589490
0.519753
0.343919
0.521541
0.601411
0.645518
0.586510
0.700951
0.577569
0.671744
0.591874
0.680685
0.717640
0.802875
0.844598
0.776649
0.887513
0.965595
1.118779
1.208782
1.633763
8.169413
26.000738
80.324411
151.332617
291.710496
415.898561
573.358536
670.471787
720.182657
683.690906
566.839576
432.704687
256.140828
155.047774
70.953965
33.042431
9.971857
6.117821
5.025864
4.725456
4.440546
4.592538
5.169511
6.940961
11.877418
17.371774
26.316643
34.403801
46.816468
55.558681
63.627958
65.576434
63.620806
57.353973
46.411753
37.564635
26.134849
18.851757
11.936426
##ZVALUE=355
0.402927
0.401735
0.449419
0.416636
0.240803
0.491738
0.265837
0.466704
0.365973
0.374913
0.302792
0.414848
0.548959
0.321865
0.475645
0.556707
0.488758
0.399947
0.357628
0.398755
0.491738
0.584722
0.360608
0.332594
0.383854
0.458956
0.558496
0.561476
0.508428
0.500679
0.449419
0.432730
0.440478
0.536442
0.425577
0.293851
0.401735
0.440478
0.468493
0.532866
0.573993
0.663996
0.661612
0.649691
0.563860
0.477433
0.537634
0.641942
0.610948
0.567436
0.752807
0.696778
0.736713
0.829697
0.990629
0.921488
0.951886
1.078844
1.291633
3.840923
13.426542
52.510500
106.343627
219.552517
335.422754
503.401756
601.728559
674.632788
671.846867
573.892593
463.666916
308.839679
194.206834
85.266829
40.806532
13.082623
6.814599
4.700422
4.660487
4.626513
4.015565
4.223585
4.781485
6.453991
9.095669
14.995933
21.263957
31.947494
40.040612
50.478578
55.870414
59.479475
58.582425
51.932931
45.086741
34.813881
##ZVALUE=360
0.384450
0.458956
0.344515
0.359416
0.462532
0.286698
0.483990
0.422597
0.284910
0.434518
0.469685
0.364780
0.348687
0.388622
0.258684
0.392795
0.279546
0.277758
0.426769
0.439882
0.551939
0.368953
0.515580
0.691414
0.326633
0.509620
0.385642
0.403523
0.415444
0.441670
0.511408
0.602603
0.314713
0.373721
0.549555
0.475645
0.414848
0.546575
0.485778
0.631809
0.630617
0.530481
0.642538
0.592470
0.488758
0.689626
0.488758
0.571609
0.554919
0.545979
0.802875
0.695586
0.681877
0.830889
0.786781
0.775456
1.004934
1.008511
0.874996
1.005530
1.281500
1.953840
6.061792
27.538538
66.716671
159.781575
256.153941
403.897762
518.102646
625.211000
646.319985
593.189597
503.275990
342.167616
228.353739
112.205744
58.588982
21.996498
9.255409
5.028844
4.614592
4.138947
3.970861
3.815889
3.756881
4.155636
4.958510
7.912517
11.343956
18.453598
24.945736
35.437942
42.921901
50.424933
53.530931
52.780509
##ZVALUE=365
0.348687
0.538826
0.475645
0.335574
0.549555
0.354648
0.391603
0.554919
0.308752
0.325441
0.386834
0.425577
0.478625
0.452995
0.408888
0.303984
0.279546
0.403523
0.350475
0.497699
0.496507
0.303984
0.468493
0.340939
0.528693
0.412464
0.486970
0.352859
0.310540
0.361800
0.333786
0.437498
0.434518
0.482798
0.522733
0.599623
0.510812
0.436902
0.534654
0.521541
0.538826
0.485778
0.583529
0.529885
0.618696
0.526905
0.464916
0.504851
0.573993
0.455976
0.643730
0.654459
0.544786
0.702739
0.656843
0.662804
0.810623
0.820756
0.841618
0.826716
1.069903
0.980496
0.985861
1.317859
2.661943
14.126897
40.366650
110.359788
193.589926
333.555937
447.362661
567.559600
614.350438
595.939755
521.595478
377.861857
267.108679
146.480799
81.620812
30.650496
13.005733
5.278587
4.503727
3.790855
3.728867
3.743768
3.322959
3.485680
3.466606
4.420877
5.895495
9.878874
14.435649
21.720529
28.357506
37.587881
##ZVALUE=370
0.417829
0.361800
0.393987
0.401735
0.468493
0.452995
0.386834
0.393987
0.360608
0.394583
0.289679
0.445843
0.407696
0.439882
0.370741
0.248551
0.476837
0.430942
0.355840
0.389814
0.316501
0.403523
0.452995
0.248551
0.594854
0.443459
0.479817
0.479817
0.462532
0.419617
0.372529
0.469685
0.398755
0.432730
0.405908
0.520945
0.415444
0.394583
0.443459
0.493526
0.377893
0.598431
0.539422
0.581741
0.500679
0.399947
0.478625
0.585914
0.362992
0.459552
0.411868
0.582933
0.795722
0.585914
0.562668
0.519753
0.673532
0.604987
0.644922
0.790954
0.683665
0.802875
0.885725
0.857711
0.944734
1.077652
1.613498
7.832646
25.319457
80.903769
148.233771
271.290541
385.554433
525.586009
591.225624
599.235892
547.629595
427.793860
315.168500
175.125599
98.835826
39.122701
17.808676
7.094741
4.236698
3.595948
3.685951
3.425479
3.227592
3.050566
2.951622
3.048778
3.719926
5.586743
7.878542
12.649894
##ZVALUE=375
0.351667
0.264645
0.456572
0.306964
0.395775
0.384450
0.189543
0.241995
0.252724
0.223517
0.349879
0.231862
0.338554
0.396967
0.435710
0.376701
0.386834
0.304580
0.459552
0.310540
0.396967
0.397563
0.382662
0.358820
0.322461
0.365973
0.475645
0.487566
0.424981
0.509620
0.683665
0.368953
0.444651
0.480413
0.432730
0.417829
0.514984
0.443459
0.592470
0.354648
0.432730
0.558496
0.371933
0.537634
0.548959
0.479817
0.481606
0.397563
0.471473
0.292659
0.596642
0.547767
0.506639
0.459552
0.540614
0.557899
0.500679
0.535846
0.621676
0.674725
0.676513
0.666976
0.660419
0.693798
0.780821
0.865459
0.880957
1.104474
1.228452
4.126430
14.139414
48.794746
102.191567
218.096972
330.067873
489.627719
590.711832
665.812492
661.420822
556.557775
427.504778
251.437426
151.025653
70.347786
34.459829
11.200905
5.372763
3.889799
3.524423
3.346801
3.095865
2.863407
2.792478
2.617836
2.818704
3.395677
##ZVALUE=380
0.271797
0.300407
0.275970
0.297427
0.291467
0.317693
0.387430
0.487566
0.300407
0.278950
0.355840
0.391603
0.298619
0.282526
0.317693
0.289679
0.393987
0.330806
0.361800
0.386834
0.329614
0.340939
0.223517
0.367761
0.445843
0.320673
0.304580
0.400543
0.399947
0.501871
0.452995
0.524521
0.487566
0.526905
0.538826
0.367761
0.225902
0.616908
0.458956
0.585914
0.310540
0.510812
0.379682
0.592470
0.398755
0.508428
0.459552
0.451803
0.337958
0.572801
0.420809
0.430942
0.374913
0.429749
0.523925
0.508428
0.661612
0.467896
0.529885
0.570416
0.534654
0.540614
0.644922
0.779629
0.831485
0.612736
0.891685
0.732541
0.904799
0.900626
1.208782
2.036691
7.373691
34.244657
79.561472
178.777575
279.229879
422.829390
530.995727
631.819963
648.010969
585.867763
492.631793
344.640613
231.835842
113.539696
57.960749
19.598603
7.960796
3.974438
3.272891
3.271699
2.933741
2.907515
2.596974
2.347827
##ZVALUE=385
0.343919
0.337958
0.513792
0.385642
0.339746
0.264645
0.333786
0.394583
0.361800
0.321865
0.256896
0.349879
0.435710
0.278950
0.496507
0.372529
0.370741
0.347495
0.497699
0.443459
0.327826
0.358820
0.255704
0.317693
0.455976
0.454783
0.382662
0.267625
0.380874
0.379682
0.408888
0.533462
0.279546
0.445843
0.495911
0.506639
0.394583
0.557899
0.591874
0.426769
0.513792
0.458956
0.477433
0.258684
0.373721
0.465512
0.360608
0.419617
0.363588
0.462532
0.385642
0.547767
0.517964
0.424981
0.483990
0.551939
0.432730
0.410676
0.455976
0.482798
0.525713
0.445843
0.467896
0.579953
0.617504
0.597835
0.694990
0.725985
0.736713
0.959635
1.021624
1.121759
1.041889
1.326799
3.619790
20.469427
51.890612
125.156641
210.730433
355.178714
463.458896
579.394698
616.254807
596.638918
528.219938
393.148661
279.392004
151.407719
84.543824
34.541488
14.305711
4.527569
3.315806
3.019571
3.025532
2.628565
##ZVALUE=390
0.254512
0.218749
0.244975
0.270605
0.259876
0.244975
0.293851
0.292659
0.268817
0.295639
0.174642
0.233650
0.258684
0.269413
0.195503
0.291467
0.264645
0.266433
0.269413
0.244975
0.282526
0.273585
0.437498
0.280738
0.407696
0.438690
0.434518
0.388622
0.473857
0.461936
0.483990
0.512600
0.482798
0.361800
0.331998
0.553727
0.470877
0.401735
0.528693
0.481606
0.449419
0.483990
0.457764
0.521541
0.492930
0.407696
0.399947
0.323653
0.520945
0.467896
0.246763
0.417829
0.471473
0.365973
0.500679
0.473857
0.402927
0.392795
0.357628
0.461936
0.419617
0.410676
0.558496
0.469685
0.457764
0.575781
0.697970
0.659823
0.740886
0.819564
0.879765
0.995994
0.782609
0.924468
1.100898
1.047850
1.828671
11.003613
34.017563
100.468993
178.363919
315.561891
416.682959
520.419478
574.941635
588.216782
545.978546
437.695980
336.259007
209.078789
124.502778
51.129460
22.747517
6.421804
3.554821
3.020763
##ZVALUE=395
0.363588
0.316501
0.244975
0.347495
0.379682
0.311732
0.351667
0.374913
0.324845
0.414848
0.303984
0.335574
0.349879
0.406504
0.362992
0.338554
0.317693
0.476837
0.211596
0.266433
0.207424
0.400543
0.369549
0.377893
0.451803
0.504851
0.455976
0.503659
0.415444
0.441670
0.558496
0.517964
0.647902
0.592470
0.415444
0.708699
0.720620
0.678897
0.523925
0.629425
0.547767
0.403523
0.627637
0.413656
0.518560
0.636578
0.467896
0.390410
0.549555
0.563860
0.512600
0.591874
0.589490
0.466704
0.467896
0.393987
0.543594
0.379682
0.380874
0.490546
0.550747
0.531673
0.613928
0.494719
0.574589
0.492930
0.729561
0.796914
0.775456
0.826716
0.638962
0.815988
0.892878
0.816584
0.798702
0.797510
0.852942
1.179576
1.277924
6.175637
21.623969
72.602630
132.788420
237.962008
340.448618
479.751825
561.274886
610.540509
596.757531
517.097712
412.432551
265.676975
170.868635
76.303482
36.256909
11.509657
##ZVALUE=400
0.289679
0.247955
0.259876
0.310540
0.274777
0.320673
0.237823
0.293851
0.167489
0.270605
0.397563
0.376701
0.146627
0.263453
0.231862
0.253916
0.159740
0.287890
0.197887
0.127554
0.241995
0.247955
0.096560
0.242591
0.321865
0.324845
0.474453
0.297427
0.451803
0.453591
0.663996
0.424981
0.676513
0.532866
0.641942
0.379682
0.579953
0.590682
0.472665
0.642538
0.501871
0.451803
0.640750
0.387430
0.430942
0.555515
0.578761
0.522733
0.538826
0.389814
0.352859
0.414848
0.448823
0.414848
0.481606
0.352859
0.409484
0.403523
0.347495
0.359416
0.416636
0.401735
0.392795
0.451803
0.502467
0.616908
0.484586
0.617504
0.732541
0.440478
0.710487
0.765920
0.726581
0.675917
0.704527
0.671744
0.652671
0.765920
0.797510
0.958443
1.152754
3.161430
11.329651
41.793585
87.573528
189.715624
288.042426
424.283743
510.150790
577.746630
578.706861
506.964922
419.064760
279.100537
186.307430
94.780922
##END
