##TITLE=FKDZ0151
##FORMAT=SPECTACLE-ASCII V-1.2
##DATA TYPE=ULTRAVIOLET SPECTRUM
##SECOND TYPE=ULTRAVIOLET SPECTRUM
##DATE=02/28/18
##TIME=17:34:21
##SPECTROMETER/DATA SYSTEM=SPECTACLE
##XUNITS=NM EM
##YUNITS=ENERGY
##YFACTOR=1
##FIRSTX=220
##LASTX=410
##NPOINTS=96
##3DDATA=Equidistant
##ZUNITS=NM EX
##FIRSTZ=210
##LASTZ=400
##ZPOINTS=39
##XYDATA=(Y..Y)
##ZVALUE=210
6.676912
6.580949
5.101562
5.075932
4.507899
5.512834
5.899668
5.406737
6.328821
6.441474
7.043481
6.337762
7.802844
7.495880
8.387566
8.053780
8.454919
10.455847
11.201501
12.021661
12.168884
14.463663
14.748573
14.970899
17.542839
17.722845
19.102693
18.866658
17.903447
19.437671
22.459626
23.294687
23.616552
25.579929
26.022792
26.781559
25.899410
26.564598
26.909709
26.205778
27.457476
26.746988
26.836991
29.533505
29.866695
30.442476
30.697584
29.558539
30.592680
30.017495
31.532645
30.742884
33.105612
33.655763
33.562779
32.759905
32.493472
33.576488
34.962893
34.398437
35.581589
35.649538
35.566688
37.430525
35.748482
36.915541
38.584471
44.576526
50.304532
58.156848
69.726706
85.188746
91.467500
116.019845
121.977925
138.800740
147.545934
153.596997
157.373548
157.005787
149.148703
134.904981
122.083426
102.042556
84.939003
66.026449
53.934455
46.611428
39.831996
35.608411
34.530759
33.286810
33.075809
31.797886
33.245683
36.512613
##ZVALUE=215
41.316748
39.240718
34.081936
25.187731
17.474890
12.966990
10.051727
8.186698
9.717941
10.725856
9.873509
10.410547
9.068847
9.369850
10.490417
8.974671
9.982586
10.123849
10.755658
12.428761
13.239980
13.393760
15.247464
17.894506
17.974973
18.962622
19.153953
23.180842
21.680593
23.435950
25.465488
28.848648
28.277636
30.705929
29.477477
30.780435
30.877590
31.965971
31.811595
30.973554
31.773448
30.232668
32.661557
33.291578
32.213926
34.286976
34.091473
35.564899
34.542680
35.070777
35.127997
35.756826
36.940575
36.725998
38.539767
35.928488
39.062500
35.801530
37.378669
37.372708
38.862824
38.401484
40.012002
38.545728
40.363669
42.585731
45.755506
47.620535
54.973960
64.478517
74.136853
89.216828
103.951693
120.175481
139.248967
149.011612
159.172416
163.780451
166.800618
167.353749
155.395865
144.598484
132.270455
109.574795
92.752576
78.027844
62.969923
51.270723
44.673681
39.197803
38.779974
38.296580
35.519600
32.541752
35.815835
36.444664
##ZVALUE=220
129.423738
136.907697
153.086782
160.367489
138.290524
106.899738
76.890588
44.487715
28.593540
21.306872
19.487739
21.507740
20.702481
18.129945
17.644763
15.966892
14.197826
15.161633
13.706684
14.146566
14.741421
14.452934
16.815662
18.189549
18.664598
21.593571
23.481846
25.816560
26.772618
28.234720
29.112697
32.934546
33.426881
35.885572
36.855936
37.665963
38.355589
36.932826
37.734509
38.609505
37.098527
37.684441
38.090944
38.454533
37.290454
40.942430
37.935972
39.313436
39.843917
38.808584
39.192438
39.487481
39.296746
40.283799
39.871931
40.629506
39.695501
39.881468
38.327575
39.675832
43.197870
43.860674
40.124655
40.640831
43.342710
42.870641
45.480728
51.194429
58.912635
67.276955
78.373551
90.865493
102.363825
122.442842
138.969421
149.496794
161.587000
168.517828
180.104971
177.717805
170.531869
161.452889
137.522817
120.821595
88.268518
70.740581
54.502487
48.432946
40.822625
40.203929
36.496520
35.702586
36.752820
36.848783
35.543442
35.430789
##ZVALUE=225
243.728757
259.858966
344.723463
441.232920
477.542877
464.939475
413.685441
310.351849
230.890512
152.757764
85.290670
57.405829
38.463473
37.591457
37.007928
34.907460
32.496452
27.505755
24.251938
21.690726
19.588470
18.299818
19.429922
21.175742
22.370815
23.227930
25.042892
28.784871
29.905438
34.164786
34.468770
35.579801
36.240816
40.727854
38.451552
37.857890
39.335489
39.767623
38.484931
39.492846
38.913488
38.097501
39.162636
37.218928
37.166476
35.096407
37.697554
37.281513
39.423704
34.990907
37.834644
37.459731
36.459565
37.849545
37.463903
36.816001
34.410954
35.724640
34.916997
37.062764
35.843849
38.381815
39.165616
37.019849
37.642717
39.317608
40.240884
43.935776
48.308969
51.992536
65.264702
76.622963
84.063411
92.435479
107.184649
116.318464
119.183660
125.165582
126.958489
118.779540
115.361810
104.511976
92.996955
77.504516
65.701604
53.729415
43.270588
37.840605
33.751726
30.092597
29.832721
29.412508
27.345419
29.602647
26.695728
27.255416
##ZVALUE=230
156.305432
170.640945
287.221670
503.796935
654.335618
821.579695
873.168707
845.280886
723.592639
574.176908
328.418612
204.617977
102.935433
67.742467
55.344701
56.444407
60.426593
58.608651
54.154992
42.797923
37.989616
28.378963
21.852851
19.209981
17.585754
17.416477
18.426776
21.552444
22.398829
24.404526
27.815700
26.808977
26.734471
28.912425
28.540492
30.084848
30.145645
29.553771
27.514696
28.279424
28.773546
29.642582
27.198792
25.023818
27.548671
27.983785
26.522875
27.207732
28.089881
25.332570
26.272535
25.088787
27.695894
26.580691
26.664734
25.036931
25.565624
26.061535
25.171638
26.236773
26.086569
27.384758
26.775599
26.466846
25.976896
26.952624
27.411580
29.794574
31.828880
38.739443
41.070580
50.875545
57.165623
62.366724
65.336823
69.271922
67.794919
65.747499
61.843991
58.151484
52.358508
43.898821
40.573478
36.902428
32.066703
29.221773
27.192831
24.547577
23.486614
22.318959
21.999478
20.740628
21.389723
20.406842
21.734834
19.394755
##ZVALUE=235
33.466816
40.781498
95.111728
247.488618
406.756997
642.516613
859.601498
1015.710831
1015.710831
1015.710831
1015.619636
767.943859
560.912490
313.730836
201.799870
126.971602
87.716579
87.481737
91.442466
91.902614
91.018677
74.767470
57.118535
43.662786
31.672716
24.904609
18.914938
17.543435
17.863512
17.090440
19.865632
18.740892
20.863414
20.640492
21.751523
22.169948
22.791624
20.537972
21.157861
20.366907
21.141768
22.465587
21.358728
19.118786
22.327900
19.835830
21.365881
19.541979
21.230578
19.495487
19.021630
20.192862
21.038651
20.956993
19.669533
20.463467
19.897819
19.389987
18.638968
19.000769
18.239617
17.171502
17.693639
18.954873
18.559694
21.173954
20.339489
21.153688
22.770762
26.298761
30.842423
35.251975
38.059950
40.116906
42.337775
44.547915
42.487979
39.073825
40.306449
36.346912
34.364462
29.194951
28.276443
22.739768
20.586848
18.697977
15.821457
16.254783
16.245842
15.658736
15.254617
14.474988
15.012622
13.357997
13.394952
13.268590
##ZVALUE=240
2.381802
3.087521
6.968975
27.114749
67.166686
183.676481
332.423449
599.300861
834.739804
995.689631
1015.710831
1015.710831
939.085484
748.491883
491.949916
317.965746
164.794922
115.363002
104.612708
111.585855
119.215846
125.577450
128.377676
110.905766
91.798902
69.216490
52.497983
36.136508
25.162697
18.361807
15.810728
13.354421
14.435649
13.647676
13.712645
13.900995
14.589429
13.983846
13.725758
12.868643
13.137460
13.852715
13.987422
14.028549
13.627410
14.192462
13.193488
13.084412
12.310743
12.340546
12.369752
12.441874
12.395978
13.336539
11.755824
12.447834
13.144612
12.076497
12.590885
12.164712
11.921525
11.522770
11.860728
11.819601
12.476444
12.112856
12.770891
13.926625
13.510585
14.968514
17.670989
19.342899
20.739436
23.924708
22.737980
24.107695
24.149418
23.983717
24.580956
22.160411
21.187663
20.584464
18.051863
16.364455
14.496446
13.859868
12.956858
11.435747
11.233687
11.400580
11.588931
11.618733
11.284947
11.327863
11.799932
10.428429
##ZVALUE=245
2.103448
2.334714
1.867414
2.519488
5.483627
14.964938
50.129890
110.272765
260.681510
391.489863
610.005856
735.837817
815.261602
820.637941
730.098486
564.156771
418.077707
264.395475
181.327462
116.079450
100.773573
99.506974
117.894411
133.191943
136.282444
135.908723
121.749640
104.182959
77.180862
57.185888
42.529702
26.296973
20.745993
13.842583
13.566613
12.802482
12.768507
13.789535
11.902452
13.844967
13.410449
12.062788
11.899471
12.490749
11.968613
11.251569
11.416674
11.039972
11.086464
9.059906
10.406971
10.387897
9.833574
9.696484
8.657575
8.738637
9.305477
9.338856
8.551478
8.312464
8.818507
8.398890
7.298589
8.176565
8.547902
8.369684
8.476973
9.032488
9.226799
10.600686
10.538697
13.289452
11.892915
11.904836
13.673902
13.098717
12.471676
12.326837
13.766885
11.677742
12.321472
11.453629
9.002686
10.231733
9.616613
8.915663
9.479523
10.311604
8.643866
9.245872
9.027719
9.191632
8.793473
8.895993
8.226633
9.598732
##ZVALUE=250
1.458526
1.408458
1.641512
1.780987
1.680851
2.245903
2.325773
9.074807
28.154850
57.635903
151.152611
276.293755
467.999578
605.403781
734.315515
787.045956
729.012489
639.878511
556.828976
368.819833
245.964527
142.440796
109.963417
98.308921
110.456944
130.643845
138.053894
146.708488
143.347979
128.572583
110.516548
84.179640
64.385533
40.115714
29.385686
19.452572
15.925765
13.150573
14.258623
13.496876
13.111830
13.678670
12.661815
13.141632
13.390779
12.436509
10.925531
10.863543
11.751652
9.883642
10.074973
9.924769
10.674000
9.372830
9.545684
8.665919
8.062720
8.055568
7.489920
7.993579
7.170439
7.774830
6.814599
7.003546
6.970763
7.617474
7.833838
7.464886
7.615685
8.908510
9.633899
9.801984
10.768771
10.795593
10.874867
10.792613
10.851622
10.550618
10.242462
9.165406
8.983612
8.833408
8.847713
8.865595
8.489490
8.397698
7.879734
8.590817
7.798672
7.620454
8.050799
8.584857
7.810593
8.132458
8.019805
8.602738
##ZVALUE=255
1.744628
1.526475
1.484752
1.747608
1.831651
1.938939
1.773834
1.809597
2.104640
4.046559
21.587610
48.499703
98.354816
213.186741
329.520702
507.038832
619.773865
705.732703
725.249648
649.968982
543.512702
417.634845
260.270834
169.971585
104.248524
88.543892
93.406439
108.881593
135.900974
150.399804
157.784820
151.862502
138.817430
116.527677
94.838738
60.875416
46.410561
31.938553
23.668408
19.089580
16.754866
16.420484
15.115738
13.880730
13.910532
13.218522
12.739897
13.141632
12.329817
11.139512
10.306835
10.130405
9.432435
9.276867
8.960962
8.404851
7.611513
7.242560
7.494688
6.469488
6.685853
6.608963
6.737709
6.367564
5.861521
6.244779
6.261468
6.157756
6.296635
7.236600
7.011890
7.192492
7.516742
6.994605
7.674694
7.959604
8.030534
8.148551
8.364916
7.587671
6.798506
6.669760
7.171631
7.098913
7.204413
6.853938
7.078648
7.548928
6.751418
6.818771
6.687641
6.443858
6.757975
6.220937
6.785989
7.779598
##ZVALUE=260
1.089573
1.148582
1.236796
1.283884
1.502633
1.133680
1.223683
1.281500
1.685619
1.706481
1.550913
2.332926
7.687807
30.397773
66.554546
164.169669
271.021724
442.422628
573.166609
721.929669
773.491859
755.760670
637.335777
503.256917
328.885913
226.520896
135.995746
95.766783
80.295801
92.082620
112.086535
143.152475
158.750415
167.690516
168.355703
147.996545
128.439665
97.140670
73.466897
51.038861
36.857724
25.889874
21.672845
17.914772
16.490817
15.218854
14.884472
14.056563
13.290644
11.501908
11.447668
10.905862
10.393858
9.849668
9.074807
7.900000
7.559657
7.428527
7.154942
6.103516
6.402731
6.611943
5.540848
6.075501
5.699992
5.922914
5.469918
6.010532
5.521774
5.505681
5.935431
6.635785
6.065965
7.016659
6.965995
6.587505
6.694794
6.349683
5.811453
6.312728
6.054640
5.926490
6.002784
6.378889
6.151795
6.326437
6.486773
5.991459
5.886555
5.506873
6.392598
6.205440
6.396770
6.318688
6.146431
6.262660
##ZVALUE=265
1.232624
1.160502
1.066923
1.310706
1.286864
1.308918
1.275539
1.193881
1.444817
1.483560
1.590848
1.673698
1.587868
1.954436
4.245639
21.553636
50.175786
124.557614
219.628811
402.647853
563.211441
700.073838
809.113979
812.442899
714.287758
597.217679
431.153774
303.399563
172.658563
112.968683
85.975528
79.656839
97.303987
127.289891
150.169730
168.448687
176.530480
167.160630
151.218772
124.383569
101.235509
72.345734
52.296519
35.079718
25.890470
19.507408
16.234517
15.482903
14.101863
13.540983
12.172461
10.974407
10.866523
9.965897
9.375811
9.060502
8.263588
7.477999
7.209778
6.953478
6.264448
6.283522
5.834699
5.715489
5.925894
5.571842
5.061626
5.418658
4.963875
5.471706
5.909801
6.282926
5.861521
5.801916
5.914569
5.550981
5.982518
5.871654
5.725622
6.259680
5.943775
6.085634
6.177425
5.847812
5.549788
5.475879
5.491972
5.622506
5.530715
5.490780
5.898476
5.746484
5.747676
5.419850
6.276965
5.899668
##ZVALUE=270
0.878572
1.068711
1.029968
0.767708
1.163483
0.962615
1.113415
1.169443
1.111627
0.942945
1.144409
1.249909
1.491904
1.330972
1.526475
1.640916
2.466440
9.712577
27.174950
85.757971
172.485709
299.794674
517.255664
674.769878
821.355581
853.179693
813.090801
712.444782
537.586808
397.429466
273.732543
153.211951
98.263621
70.494413
77.096820
103.477836
128.000975
154.830813
168.658495
173.731446
170.453787
151.326656
128.911734
94.752908
70.510507
44.567585
33.128858
22.977591
17.364621
13.141632
11.913776
10.917783
10.695457
9.771585
8.768439
8.542538
7.930994
7.066727
7.762909
6.641746
6.072521
6.152987
5.731583
5.673766
5.963445
5.318522
5.689859
5.484819
5.340576
5.010962
5.836487
5.622506
5.399585
5.526543
5.518794
5.765557
5.763769
5.676746
5.143881
5.351901
5.413890
5.021691
5.160570
5.015731
5.339980
5.082488
5.216599
5.044937
5.137920
4.890561
4.762411
5.269647
5.302429
4.808903
4.995465
5.257726
##ZVALUE=275
0.822544
0.751615
0.850558
1.006722
0.883937
1.003742
1.032948
1.046658
1.143813
1.146793
1.164675
1.082420
1.058578
1.277924
1.449585
1.248717
1.487732
1.659989
1.588464
3.746748
14.560819
56.126714
120.707750
272.009969
425.088406
638.275743
764.845610
862.938762
860.244036
778.273940
666.312575
468.212962
331.996679
187.205672
113.514662
66.547990
58.225989
73.179007
91.955662
122.966766
144.115686
162.006617
167.358518
161.053538
145.606995
116.950870
91.549754
63.818693
45.124888
28.714538
19.751787
12.761950
10.026693
8.838773
8.598566
7.793903
7.396936
6.837845
6.375909
5.890727
6.657839
6.052852
5.671978
5.600452
5.873442
5.220771
4.809499
4.983544
4.902482
5.082488
5.070567
5.278587
5.176663
5.612969
5.431771
5.407929
5.614758
5.227923
5.405545
5.322695
5.632639
5.278587
5.325675
4.968643
4.430413
4.910827
5.020499
4.807711
4.842877
4.754663
4.787445
4.646778
5.009770
4.770756
5.092621
4.678965
##ZVALUE=280
0.795722
0.724792
0.847578
0.840425
1.099706
0.771880
1.016855
0.895858
1.039505
1.060963
0.944734
0.805855
0.942945
0.998974
1.137853
1.162887
1.109838
1.193881
1.475811
1.631975
1.887679
2.164841
9.885430
33.086538
103.164911
192.214847
354.871750
507.714748
706.105828
817.613006
865.944624
828.502774
730.088949
540.070534
395.031571
228.448510
135.417581
66.752434
43.534636
45.280457
60.201883
86.675882
110.622644
137.561560
150.329471
158.241987
152.312517
133.105516
113.302469
83.872676
62.001944
38.970709
26.881695
15.046000
10.035634
7.194877
6.110668
5.552769
5.235672
5.045533
4.981756
4.872680
4.888773
4.727840
4.839897
4.728436
4.639626
4.504919
4.529953
4.991889
4.966855
5.304813
5.070567
5.299449
5.230904
5.171895
5.235672
4.736781
4.579425
4.995465
4.941821
4.243851
4.614592
4.594922
4.350543
4.794598
4.937649
4.766583
4.645586
4.529953
4.578829
4.593730
4.165769
4.086494
4.436970
4.684925
##ZVALUE=285
0.837445
0.635982
0.703931
0.912547
0.845790
0.887513
0.854731
0.999570
0.787973
0.989437
0.927448
0.947714
1.019835
0.921488
1.198649
0.999570
1.107454
0.957847
1.301765
1.366735
1.401901
1.454949
1.417994
1.710653
4.917979
17.305613
57.254434
120.036602
260.041952
397.352576
525.858998
735.457540
835.798979
855.036974
790.632963
631.440878
487.681627
300.761461
188.744664
90.183616
48.873425
30.714869
35.742521
56.875944
76.099634
106.018782
125.115514
144.945979
151.046515
145.620704
133.464932
108.520985
86.008906
58.382750
40.116906
23.537874
14.155507
8.657575
6.408691
4.896522
4.928708
4.186630
4.190803
4.125834
4.354715
4.455447
4.381537
4.601479
4.255772
4.534721
4.319549
4.759431
4.882812
4.785657
4.709959
4.712939
4.655719
4.891753
4.988909
4.802942
4.759431
4.577637
4.402995
4.419684
4.622936
4.890561
4.546642
4.299879
4.296899
4.614592
4.301667
4.381537
4.538894
4.371405
4.322529
4.329681
##ZVALUE=290
0.888705
0.652671
0.693798
0.698566
0.793934
0.780821
0.883937
0.733733
0.966787
0.640750
0.721812
0.668764
0.526905
0.848770
0.824928
1.030564
0.967979
0.911951
1.026988
1.026988
1.214743
1.126528
1.375675
1.275539
1.474619
1.544952
2.366900
6.898642
32.569766
75.208545
147.867799
304.505825
454.871655
661.776662
784.987807
850.185752
819.340944
693.894625
558.124781
364.236832
238.943696
117.676854
63.835979
29.763579
24.427772
33.866763
49.611926
73.393583
93.123913
119.733810
135.561824
146.770477
142.778754
126.785636
108.573437
78.764558
58.563948
36.505461
24.548769
13.438463
8.864999
5.685687
4.388690
4.187822
4.325509
4.458427
4.245639
4.171729
4.288554
4.505515
4.456639
4.684925
5.321503
5.044937
5.074739
4.696846
4.892945
4.630685
4.988909
4.552603
4.598498
4.545450
4.529953
4.597902
4.633665
4.487634
4.389882
4.683733
4.442930
4.346967
4.575849
3.917813
4.208684
4.195571
4.295707
4.042983
##ZVALUE=295
0.848770
0.691414
0.672936
0.660419
0.693798
0.591874
0.775456
0.810623
0.689626
0.653863
0.425577
0.800490
0.868440
0.965595
0.709891
0.892878
0.916719
0.887513
1.004934
0.978708
0.794530
1.082420
1.009703
1.176596
1.050830
1.106858
1.572967
1.557469
1.674891
3.392696
16.871691
45.997500
103.366971
241.658688
378.338695
581.200719
715.633631
827.929974
833.858848
742.899776
627.963543
442.685485
299.151540
151.124001
84.291697
33.990741
20.472407
20.697713
29.328465
47.179461
65.051913
91.872811
110.444427
130.159855
136.970878
135.113597
121.785998
99.143982
78.717470
54.009557
38.215518
21.853447
14.505982
8.611679
6.186962
4.510880
4.058480
4.238486
3.960729
4.318953
4.420877
4.675984
4.449487
4.605651
4.720688
4.859567
4.859567
4.628897
4.716516
4.502535
4.603863
4.458427
4.336834
4.590750
4.432797
4.500747
4.510880
4.163980
4.397631
4.257560
4.274845
4.420877
4.015565
4.327893
4.220605
4.218817
##ZVALUE=300
0.605583
0.535846
0.542998
0.430942
0.478625
0.818968
0.549555
0.676513
0.597835
0.749826
0.851750
0.704527
0.714660
0.903606
0.771880
0.728965
0.850558
0.785589
0.792742
0.858903
0.792742
0.867844
1.065731
1.121759
1.118779
1.148582
1.312494
1.099706
1.391768
1.332760
1.574755
1.839995
7.372499
23.623705
79.436898
154.773593
311.918855
461.528897
652.932525
762.021542
820.126534
794.450641
667.967796
539.201498
350.833535
228.835940
112.776756
59.231520
23.640990
14.883876
18.072724
25.839806
41.165948
58.930516
82.619786
102.171898
122.917891
128.767490
129.076838
118.844509
99.154711
79.317689
54.818988
39.101839
23.457408
15.178919
8.727908
5.840659
4.920959
4.585981
4.456639
4.224777
4.642606
4.545450
4.333854
4.737973
4.542470
4.597902
4.499555
4.683733
4.569888
4.765987
4.542470
4.419684
4.476905
4.671812
4.205704
4.334450
4.327893
4.335642
4.175901
4.178882
4.162788
3.959537
3.832579
4.232526
##ZVALUE=305
0.575781
0.516772
0.624657
0.605583
0.562668
0.731945
0.559688
0.620484
0.636578
0.644922
0.724792
0.678897
0.609756
0.518560
0.654459
0.704527
0.651479
0.777841
0.705719
0.840425
0.745654
0.890493
0.872612
0.899434
0.951886
1.002550
0.902414
0.926852
1.110435
1.039505
1.196861
1.405478
1.244545
1.535416
3.224611
16.626716
44.565797
123.930573
222.754478
399.459600
551.818013
721.945763
808.018446
808.935761
733.819008
571.295619
432.328582
265.273452
163.354874
74.753761
37.246943
15.251637
11.947751
15.854836
24.035573
40.389895
58.086514
81.460476
98.571777
115.589499
122.386813
119.988918
111.600757
93.661547
74.906945
51.716566
35.817623
21.808743
14.009476
8.329749
6.242990
4.953742
4.503727
4.322529
4.494786
4.384518
4.670620
4.657507
4.598498
4.543662
4.345775
4.537702
4.416704
4.421473
4.207492
4.399419
4.564524
4.316568
4.289746
4.220605
4.201531
4.262924
3.815889
4.163980
3.863573
4.023910
##ZVALUE=310
0.578761
0.550747
0.548959
0.545979
0.628829
0.620484
0.641942
0.590682
0.635982
0.712872
0.650883
0.851750
0.603795
0.743866
0.747442
0.647902
0.626445
0.660419
0.627637
0.576973
0.679493
0.959635
0.801682
0.755787
0.826716
0.753999
0.842810
0.937581
0.808835
1.132488
1.040697
1.048446
1.095533
1.091957
1.140833
1.548529
1.726747
7.083416
23.529530
74.467659
145.482421
297.111869
444.234014
636.812449
753.649473
810.867548
777.580738
660.336614
530.170798
343.793631
223.392844
110.533834
58.742762
22.190809
11.602640
10.245442
13.779998
21.749735
33.662915
51.576495
68.997741
91.297626
104.293823
114.647746
116.418600
105.865002
93.717575
72.494745
55.157542
34.610629
24.157763
14.430881
9.714961
6.257892
5.063415
4.494786
4.070997
3.889799
3.794432
4.008412
3.923774
4.318953
4.319549
3.878474
4.190803
4.313588
4.632473
4.401803
4.238486
4.089475
4.091859
3.999472
3.943443
3.900528
3.888607
3.709793
##ZVALUE=315
0.520945
0.405908
0.623465
0.434518
0.508428
0.535846
0.518560
0.324845
0.559688
0.547767
0.555515
0.549555
0.565648
0.694990
0.586510
0.685453
0.728965
0.688434
0.480413
0.588894
0.481606
0.671744
0.583529
0.755787
0.712872
0.762939
0.735521
0.719428
0.807643
1.026988
0.951886
0.977516
1.172423
1.025796
1.109838
1.117587
1.339912
1.560450
1.675487
3.278852
12.191534
47.217011
103.112459
231.792927
369.883776
572.540760
695.330501
785.467029
794.770718
707.783699
591.756701
411.436558
283.222795
147.036910
79.953671
30.556917
14.663935
8.258820
8.964539
13.217926
19.072890
31.957626
45.038462
65.272450
81.587434
99.693537
107.944608
108.006597
102.576613
85.835457
70.965886
50.135851
36.150813
21.440983
13.774633
8.436441
5.848408
4.724860
4.402995
3.997684
3.772974
4.164577
4.257560
4.053712
3.930926
4.018545
4.127622
4.209876
4.267693
4.001856
3.955960
4.022717
3.840923
3.749728
3.757477
3.706813
##ZVALUE=320
0.492930
0.424981
0.516772
0.568628
0.383854
0.616908
0.547767
0.741482
0.499487
0.457764
0.518560
0.428557
0.429749
0.542998
0.577569
0.636578
0.456572
0.767708
0.525713
0.625849
0.648499
0.700951
0.525713
0.753999
0.737906
0.679493
0.738502
0.713468
0.632405
0.861883
0.710487
0.831485
0.948906
0.866652
0.878572
0.902414
1.152754
1.000762
1.038909
1.166463
1.239777
1.891851
5.243421
27.377009
67.040920
173.047781
284.250975
461.877584
599.928498
741.346478
787.324905
745.561719
654.898882
485.844612
346.521735
188.869834
107.424855
45.442581
21.129847
9.436607
7.190704
8.199811
10.834932
17.908812
26.195645
43.256879
58.230758
77.029467
92.074871
102.463961
102.984905
95.057487
84.192753
64.286590
49.785972
31.741858
22.002459
13.116598
9.016991
5.786419
4.762411
4.399419
4.114509
3.999472
4.189610
3.979802
3.875494
4.118681
3.937483
3.817677
3.920794
3.857613
4.101992
3.821850
3.965497
3.780723
##ZVALUE=325
0.427961
0.443459
0.527501
0.475645
0.568628
0.462532
0.594854
0.491738
0.555515
0.557899
0.590682
0.463724
0.660419
0.563860
0.605583
0.427961
0.421405
0.563860
0.715852
0.440478
0.332594
0.864863
0.616908
0.647902
0.762939
0.795722
0.610948
0.682473
0.624657
0.671744
0.604987
0.629425
0.749826
0.804663
0.839829
0.855923
0.878572
1.012683
0.968575
1.051426
1.172423
1.084805
1.205802
1.262426
3.024936
18.061996
45.382977
118.286610
213.906765
386.922956
530.635715
690.054893
759.643912
761.748552
688.553452
529.307723
389.715433
233.271718
137.924552
60.615540
29.813647
11.342764
7.272959
6.707907
7.417798
10.792613
16.230941
27.696490
39.653778
57.991743
72.676539
87.937713
96.430779
96.590519
89.273453
74.883699
61.966777
43.912530
31.659603
19.204617
12.779832
7.980466
5.860925
4.551411
4.521608
4.018545
3.869534
4.197955
4.079938
4.036427
3.659725
3.769994
3.628731
3.718734
3.878474
3.779531
##ZVALUE=330
0.483990
0.436902
0.423789
0.430942
0.464916
0.368953
0.498891
0.452995
0.551939
0.585914
0.510812
0.606775
0.501871
0.529885
0.612736
0.475645
0.337958
0.365973
0.577569
0.363588
0.471473
0.511408
0.488758
0.657439
0.706911
0.578761
0.747442
0.672936
0.551939
0.545979
0.676513
0.625849
0.725985
0.788569
0.470877
0.792742
0.805855
0.971556
0.869632
0.856519
0.779629
1.106858
1.144409
1.005530
1.203418
1.394749
1.618862
7.991791
24.642944
80.097914
152.262449
301.907659
436.475873
611.740947
710.768700
753.544569
712.198615
582.887530
455.082655
284.217000
178.285837
82.432628
42.231679
16.059875
8.333921
6.392598
6.218553
7.278919
9.327531
16.273856
23.598671
38.313866
50.928593
69.985986
81.680417
90.329647
90.963840
83.940625
73.432922
56.523681
43.912530
27.771592
19.805431
12.233853
8.560419
5.886555
4.911423
4.440546
3.957748
3.841519
3.771782
3.798604
3.961921
3.562570
3.716946
3.457665
##ZVALUE=335
0.506639
0.475645
0.466704
0.458956
0.486970
0.377893
0.417829
0.329614
0.628829
0.502467
0.610948
0.342727
0.474453
0.564456
0.519753
0.405908
0.634789
0.584722
0.462532
0.578761
0.598431
0.584722
0.641942
0.692606
0.627637
0.584722
0.507832
0.572801
0.585914
0.729561
0.707507
0.692606
0.620484
0.691414
0.629425
0.730753
0.617504
0.771880
0.796914
0.807643
0.863671
0.722408
0.849962
0.874996
1.040697
1.172423
1.158714
1.218915
1.462698
3.725886
13.163686
49.062967
104.080439
227.211714
356.910825
545.058846
660.311580
739.450455
736.547709
635.635853
518.304706
341.417789
225.725770
113.404989
58.117509
21.458864
10.587573
6.543994
5.984902
6.162524
6.913543
9.388924
13.990998
24.624467
34.509897
51.564574
62.793493
75.728893
82.475543
83.727837
79.140663
67.301989
54.521561
40.111542
29.899478
19.365549
13.708472
8.316636
6.286502
4.907846
4.059672
3.736615
3.828406
3.549457
3.569722
3.562570
##ZVALUE=340
0.366569
0.419617
0.389814
0.409484
0.424981
0.462532
0.483990
0.434518
0.472665
0.540614
0.466704
0.446439
0.502467
0.471473
0.424981
0.369549
0.533462
0.578761
0.460744
0.434518
0.615716
0.644922
0.576973
0.608563
0.504851
0.343919
0.694990
0.692606
0.608563
0.690818
0.707507
0.703931
0.673532
0.692606
0.553727
0.551939
0.660419
0.575781
0.609756
0.565648
0.697970
0.796914
0.830889
0.794530
0.660419
0.898838
0.938773
0.900626
0.982881
1.078844
1.312494
1.984835
6.514788
30.729771
75.005889
182.464719
297.390819
471.355915
590.681434
697.386861
724.570751
656.729937
555.095673
399.594903
275.883675
143.803954
76.994896
28.904676
13.453960
6.914735
6.190538
5.536675
5.693436
6.518960
8.593798
14.661551
21.795630
34.776926
45.944452
60.340762
71.000457
78.707933
78.336596
72.605610
64.974427
51.706433
41.602850
29.460788
20.765662
12.523532
8.217692
5.792975
4.998446
4.204512
3.798604
3.622770
##ZVALUE=345
0.545979
0.435710
0.411868
0.274777
0.251532
0.451803
0.532866
0.215769
0.385642
0.468493
0.452995
0.486970
0.341535
0.422597
0.444651
0.414848
0.542998
0.505447
0.508428
0.501871
0.288486
0.526905
0.550747
0.722408
0.370741
0.528693
0.583529
0.600815
0.424981
0.680685
0.719428
0.564456
0.639558
0.720620
0.548959
0.661612
0.621676
0.460744
0.621676
0.768900
0.574589
0.591874
0.649691
0.709891
0.748634
0.842810
0.728965
0.712872
0.732541
0.846982
0.958443
1.121759
1.179576
1.361966
3.763437
14.286637
54.811835
112.566948
234.288573
354.302526
521.155596
623.455644
691.877007
677.807927
573.036671
462.090969
303.266644
195.893645
88.558793
43.241978
15.652776
8.583665
5.858541
5.415678
5.140901
5.031824
5.912781
7.768869
12.946725
19.282699
31.689405
41.539669
54.906607
63.910484
71.052909
73.323846
69.504976
62.769651
50.662756
40.282607
28.431416
19.752979
12.684464
8.765459
5.747676
4.683733
##ZVALUE=350
0.421405
0.626445
0.459552
0.369549
0.452995
0.496507
0.425577
0.436902
0.379682
0.430942
0.445843
0.469685
0.358820
0.533462
0.508428
0.395775
0.505447
0.336766
0.292659
0.449419
0.429749
0.340939
0.540614
0.499487
0.485778
0.528693
0.490546
0.477433
0.540614
0.601411
0.506639
0.537634
0.606775
0.574589
0.618696
0.607967
0.836849
0.707507
0.775456
0.774860
0.673532
0.563860
0.702739
0.636578
0.615716
0.833869
0.771880
0.820756
0.728965
0.875592
0.958443
0.777841
0.906587
0.959635
1.100898
1.044869
1.768470
8.808970
27.831793
84.966421
160.087943
309.371948
438.874960
586.626530
668.127537
686.091781
631.462932
501.855612
373.800993
210.426450
126.115680
55.993795
26.880503
9.561777
6.267428
5.310774
5.143881
4.583597
4.852414
5.419850
7.191896
11.920929
17.402768
27.421713
36.127567
48.235655
56.524873
63.944459
66.219568
63.565969
58.292747
46.913624
38.703680
27.449727
20.179749
12.876987
##ZVALUE=355
0.455976
0.460744
0.466704
0.502467
0.562668
0.375509
0.530481
0.327826
0.529885
0.493526
0.385642
0.474453
0.664592
0.466704
0.500679
0.503659
0.445843
0.520945
0.466704
0.503659
0.499487
0.511408
0.463724
0.468493
0.559688
0.521541
0.482798
0.564456
0.593662
0.507832
0.592470
0.616908
0.595450
0.595450
0.604987
0.672936
0.612736
0.659823
0.573993
0.582933
0.564456
0.508428
0.748634
0.766516
0.767708
0.698566
0.645518
0.760555
0.777841
0.834465
0.762939
0.978708
0.928640
1.023412
1.044869
1.042485
1.056790
1.209974
1.351833
3.128648
18.180609
46.961904
123.822689
217.565894
385.990739
519.417524
664.185882
717.051625
686.947703
582.951903
407.755971
284.562707
151.885748
81.675649
30.393600
14.598966
6.360412
5.070567
4.824996
4.936457
4.599690
4.628897
5.303621
6.552935
10.093451
14.642477
23.185611
30.899644
42.106509
50.590634
57.599545
59.936643
58.472753
53.463578
44.439435
36.730766
##ZVALUE=360
0.520945
0.467896
0.299811
0.450611
0.514984
0.470877
0.495911
0.525713
0.457764
0.505447
0.529885
0.414848
0.485778
0.473857
0.614524
0.493526
0.467896
0.512600
0.563860
0.558496
0.570416
0.537634
0.318885
0.488758
0.441670
0.434518
0.612736
0.497699
0.460744
0.559688
0.607967
0.682473
0.735521
0.551939
0.674725
0.481606
0.534654
0.461936
0.407696
0.638962
0.615716
0.811815
0.757575
0.594854
0.674725
0.593662
0.605583
0.624657
0.683665
0.753999
0.596642
0.825524
0.664592
1.022816
0.928640
1.056790
0.928640
0.947714
1.040697
1.176000
1.373887
2.146959
7.078648
30.623674
73.858500
178.168416
286.950469
453.796983
584.977865
698.181987
713.298917
633.198619
516.451001
328.061581
206.472874
95.441937
48.579574
18.590689
8.817911
5.250573
4.657507
4.516840
4.415512
3.984571
4.027486
4.472733
5.526543
8.200407
11.434555
18.389821
25.897622
36.114454
43.881536
50.329566
53.570867
54.063797
##ZVALUE=365
0.380874
0.480413
0.307560
0.388622
0.550747
0.392795
0.379682
0.832677
0.516772
0.544786
0.470877
0.548959
0.477433
0.404716
0.384450
0.442863
0.437498
0.520945
0.424981
0.557899
0.549555
0.540614
0.507832
0.486970
0.562668
0.648499
0.393987
0.569820
0.438690
0.461936
0.393987
0.562668
0.600815
0.736713
0.460744
0.515580
0.413656
0.474453
0.385642
0.755787
0.613928
0.682473
0.547767
0.673532
0.747442
0.717640
0.748634
0.597835
0.628829
0.578761
0.577569
0.681877
0.696778
0.694990
0.835657
0.832677
0.883937
0.858903
0.878572
0.935793
1.015663
1.126528
1.158714
1.417994
2.970695
17.130971
46.557784
123.713613
217.784643
367.375016
481.309891
588.803887
619.682670
571.534634
486.594439
338.547826
232.959986
123.744607
67.429543
25.698543
11.553764
5.261898
4.585981
4.280806
3.884435
3.839731
3.645420
3.513694
3.853440
4.681945
6.260872
10.661483
14.477968
22.223592
29.350519
37.979484
##ZVALUE=370
0.281930
0.296831
0.246763
0.314713
0.341535
0.383854
0.340939
0.452995
0.530481
0.453591
0.471473
0.548959
0.445843
0.358820
0.485778
0.393987
0.394583
0.406504
0.363588
0.511408
0.464916
0.330806
0.443459
0.420809
0.510812
0.399947
0.374913
0.479817
0.440478
0.619888
0.542998
0.374913
0.555515
0.574589
0.595450
0.463724
0.526905
0.549555
0.631809
0.665784
0.607967
0.543594
0.647902
0.612736
0.638962
0.734925
0.686646
0.701547
0.692606
0.618696
0.552535
0.844598
0.761747
0.845790
0.920892
0.920892
0.843406
0.973940
1.029968
1.041889
1.139641
1.094937
1.211762
1.367927
1.579523
1.787543
2.267957
9.638667
30.539632
97.563863
206.001997
474.160910
777.764916
1015.655994
1015.655994
1015.655398
1015.655994
972.756743
660.617948
315.622687
154.395700
50.483942
20.721555
8.033514
5.266666
4.750490
4.525781
4.188418
3.875494
3.830791
3.565550
3.948808
4.338622
6.124973
8.430481
12.985468
##ZVALUE=375
0.404716
0.540614
0.374913
0.445843
0.455976
0.551939
0.555515
0.511408
0.410676
0.458956
0.479817
0.459552
0.437498
0.447631
0.584722
0.443459
0.416636
0.518560
0.419617
0.528693
0.367761
0.477433
0.487566
0.306964
0.536442
0.499487
0.492930
0.663996
0.564456
0.556707
0.608563
0.574589
0.558496
0.484586
0.582933
0.522733
0.547767
0.521541
0.609756
0.554919
0.629425
0.588894
0.646710
0.656843
0.659823
0.779629
0.752807
0.677705
0.691414
0.657439
0.703931
0.903606
0.708699
0.719428
0.757575
0.888705
0.635982
0.856519
0.803471
0.681877
0.938773
0.968575
1.076460
1.145601
1.220703
1.191497
1.234412
1.542568
1.879930
4.906654
17.307401
59.203506
121.700764
263.122916
404.395461
606.765747
722.340941
794.610977
765.589476
627.885461
479.700565
286.082625
173.502564
76.886415
37.672520
12.652874
6.089807
4.225969
3.911853
3.623962
3.812909
3.318787
3.195405
3.206730
3.291965
3.663898
##ZVALUE=380
0.245571
0.461936
0.549555
0.515580
0.589490
0.384450
0.418425
0.481606
0.437498
0.398755
0.297427
0.508428
0.413656
0.328422
0.493526
0.395775
0.232458
0.379682
0.399947
0.401735
0.331998
0.310540
0.414848
0.423789
0.417829
0.534654
0.434518
0.428557
0.401735
0.399947
0.580549
0.471473
0.499487
0.649691
0.423789
0.558496
0.552535
0.467896
0.446439
0.487566
0.489950
0.553727
0.457764
0.558496
0.613928
0.587702
0.541806
0.474453
0.407696
0.513792
0.478625
0.511408
0.458956
0.582933
0.638962
0.646710
0.429749
0.579953
0.568628
0.691414
0.589490
0.636578
0.692606
0.697970
0.659823
0.776649
0.797510
0.851750
1.067519
1.045465
1.259446
1.846552
11.012554
33.539534
100.050569
180.383921
323.725939
443.409681
568.642616
615.576506
590.800643
519.778728
394.952893
289.958715
162.291527
91.784000
37.098527
17.178655
6.320477
4.045963
3.513694
3.349781
3.304482
2.959967
2.908707
3.039837
##ZVALUE=385
0.367761
0.328422
0.352859
0.378489
0.380874
0.352859
0.404716
0.350475
0.357628
0.361800
0.340939
0.482798
0.343919
0.407696
0.435710
0.333786
0.369549
0.295639
0.335574
0.388622
0.432730
0.513792
0.294447
0.511408
0.494719
0.303984
0.400543
0.397563
0.466704
0.517964
0.543594
0.593662
0.489950
0.617504
0.553727
0.480413
0.470877
0.535846
0.424981
0.445843
0.419617
0.517964
0.485778
0.551939
0.405908
0.570416
0.569820
0.481606
0.572801
0.472665
0.513792
0.549555
0.466704
0.423789
0.515580
0.557899
0.487566
0.649691
0.437498
0.485778
0.668764
0.588894
0.611544
0.614524
0.694990
0.735521
0.828505
0.758767
0.877976
0.971556
1.075864
1.150966
1.107454
1.420975
4.481673
24.999976
63.000917
151.442885
250.050426
404.220819
504.929423
583.685637
587.300658
523.237586
443.012714
313.156843
215.222836
112.547874
62.987804
25.392771
11.081696
4.281998
3.596544
3.444552
3.075600
2.998710
##ZVALUE=390
0.430942
0.416636
0.390410
0.270605
0.409484
0.450611
0.331998
0.477433
0.356436
0.358820
0.566840
0.426769
0.527501
0.351667
0.525713
0.422597
0.327826
0.313520
0.424981
0.536442
0.523925
0.238419
0.525713
0.527501
0.323653
0.461936
0.379682
0.338554
0.542998
0.615716
0.526905
0.649691
0.487566
0.582933
0.522733
0.566840
0.487566
0.558496
0.564456
0.513792
0.493526
0.384450
0.498891
0.498891
0.521541
0.592470
0.676513
0.636578
0.562668
0.471473
0.549555
0.519753
0.681877
0.615716
0.553727
0.381470
0.696778
0.511408
0.573993
0.665784
0.586510
0.622869
0.588894
0.639558
0.839829
0.580549
0.716448
0.918508
0.816584
0.898838
0.968575
1.033545
1.073480
1.044869
1.071692
1.254678
2.370477
18.417835
61.676502
175.389647
296.423435
469.161868
565.231442
637.281537
644.631982
591.058731
511.607528
379.433632
281.956792
164.924860
94.194412
37.983656
17.675757
6.028414
3.843904
3.288984
##ZVALUE=395
0.355840
0.324845
0.496507
0.431538
0.335574
0.386834
0.278950
0.301600
0.432730
0.348687
0.332594
0.464916
0.338554
0.353456
0.467896
0.308752
0.567436
0.433922
0.456572
0.426769
0.337958
0.368953
0.533462
0.389814
0.450611
0.452995
0.555515
0.491738
0.411868
0.434518
0.714660
0.616908
0.540614
0.523925
0.533462
0.437498
0.550747
0.640750
0.566840
0.497699
0.636578
0.596642
0.635982
0.633597
0.627637
0.505447
0.499487
0.618696
0.381470
0.533462
0.599623
0.471473
0.485778
0.617504
0.533462
0.554919
0.516772
0.691414
0.589490
0.505447
0.585914
0.449419
0.689626
0.661612
0.602603
0.558496
0.627637
0.910759
0.584722
0.842810
0.886917
0.897646
0.936985
0.981688
1.006722
1.040697
1.147985
1.136661
1.277924
6.808639
24.960637
85.696578
163.727403
302.918553
415.235758
544.755459
602.780581
612.567663
564.199686
452.834964
343.497992
203.905702
126.121640
58.816671
27.890801
9.634495
##ZVALUE=400
0.417829
0.365973
0.204444
0.483990
0.336766
0.333786
0.329614
0.434518
0.385642
0.398755
0.448823
0.364780
0.435710
0.524521
0.452995
0.354648
0.379682
0.375509
0.446439
0.508428
0.452995
0.361800
0.454783
0.376701
0.552535
0.657439
0.480413
0.632405
0.534654
0.593662
0.466704
0.602603
0.606775
0.686646
0.531673
0.481606
0.515580
0.490546
0.783801
0.725985
0.558496
0.515580
0.386834
0.629425
0.542998
0.521541
0.582933
0.494719
0.589490
0.496507
0.599623
0.566840
0.556707
0.477433
0.532866
0.463724
0.484586
0.545979
0.551939
0.558496
0.638962
0.740886
0.471473
0.561476
0.565648
0.642538
0.678897
0.680685
0.825524
0.730753
0.810623
0.701547
0.753999
0.853539
0.799894
0.983477
0.906587
0.879765
0.990629
1.124740
1.197457
3.851652
13.504624
48.081875
102.244616
219.981670
332.559943
479.386449
559.139848
604.333878
582.227707
482.777953
382.198691
241.788626
155.951977
76.118708
##END
