##TITLE=FKDZ0152
##FORMAT=SPECTACLE-ASCII V-1.2
##DATA TYPE=ULTRAVIOLET SPECTRUM
##SECOND TYPE=ULTRAVIOLET SPECTRUM
##DATE=02/28/18
##TIME=17:37:24
##SPECTROMETER/DATA SYSTEM=SPECTACLE
##XUNITS=NM EM
##YUNITS=ENERGY
##YFACTOR=1
##FIRSTX=220
##LASTX=410
##NPOINTS=96
##3DDATA=Equidistant
##ZUNITS=NM EX
##FIRSTZ=210
##LASTZ=400
##ZPOINTS=39
##XYDATA=(Y..Y)
##ZVALUE=210
4.602671
4.652739
5.296469
3.926754
3.999472
4.808903
4.368424
4.925728
5.115867
5.597472
4.489422
5.199909
5.349517
5.581975
5.755424
6.058812
5.970597
7.082820
8.083582
6.921887
8.541942
10.496974
11.380911
11.131763
12.841821
13.371706
15.066862
15.049577
17.718673
19.836426
22.095442
21.280646
25.430918
26.333928
25.845766
26.790500
26.057959
26.061535
26.090741
25.331974
23.313761
24.322867
24.404526
25.371909
24.257898
23.951530
25.016665
23.541451
22.571683
24.392605
24.887919
24.065971
23.111701
25.116801
23.310781
23.049712
22.120476
23.810863
22.410750
21.461844
22.415519
21.172762
21.714568
22.213459
23.081899
24.267435
27.210712
27.826428
31.970739
38.516521
48.903823
56.947470
68.176985
79.739690
90.855956
99.728703
108.521581
113.055706
121.329427
122.587681
113.940835
108.726621
95.876455
77.215433
67.564845
51.735640
38.780570
31.741858
26.196837
24.421811
22.093654
22.640824
20.188689
20.040870
22.506714
23.524761
##ZVALUE=215
31.254888
30.291677
26.321411
19.909739
15.805960
9.963512
8.290410
8.563995
8.674860
8.629560
8.091927
7.830858
8.557439
7.469654
7.602572
6.943941
6.734729
6.858706
8.820891
8.919835
9.211898
9.303689
11.440516
11.386871
11.974573
13.727546
17.323494
17.566681
19.741654
24.308562
23.935437
30.045509
29.510856
33.801794
34.097433
36.552548
35.714507
34.862757
34.958720
32.800436
32.754540
32.061934
30.653477
28.293729
29.254556
29.215813
26.260614
27.308464
26.399493
25.574565
24.653673
23.996830
24.064779
22.738576
23.135543
23.502707
26.283860
23.424625
22.400618
23.841858
23.318529
23.514628
21.478534
23.481846
22.872686
23.635626
23.821592
26.540756
30.669570
35.484433
39.851665
51.795840
57.252645
65.496564
73.264837
79.780817
81.806779
85.918903
85.816979
82.050562
80.327988
74.452758
62.584877
54.140687
43.998957
35.707951
29.750466
24.910569
21.705627
19.211769
19.487739
17.971992
17.452836
17.162561
17.553568
18.624663
##ZVALUE=220
74.050426
78.897476
84.337592
83.406568
71.967840
57.396889
42.355657
26.559830
18.199682
16.582608
15.977621
16.970634
16.953945
17.070770
13.779998
11.995435
10.431409
9.369850
9.520650
8.263588
8.792877
9.432435
9.942651
12.446642
14.504790
14.892817
18.902421
22.355914
24.015903
30.421615
35.082698
39.973855
41.761994
47.037601
46.424866
47.723651
51.363707
48.447847
45.781732
44.832826
43.411851
41.051507
40.762424
38.327575
35.695434
34.280419
32.299757
31.849742
29.505491
30.633807
25.974512
27.858615
26.166439
25.177598
22.853613
23.769736
23.225546
23.900867
23.197532
21.088719
20.582676
21.015406
23.135543
20.773411
21.610856
21.878481
23.370981
24.606586
27.216673
34.865737
35.985708
46.224594
53.769946
59.742928
64.599514
71.582794
78.090429
78.641772
85.044503
83.625913
76.412559
70.811510
57.461858
50.980449
42.267442
30.465722
28.587580
22.625923
19.397736
16.106963
18.113852
17.894506
16.450882
16.271472
16.135573
16.973615
##ZVALUE=225
163.848996
172.259808
226.540565
288.274884
309.555531
300.195813
261.865854
186.276436
125.956535
84.419847
43.009520
32.580495
31.085610
29.562712
32.045841
31.651855
25.386810
21.156669
19.683838
14.064908
11.650920
9.358525
10.443926
12.086630
12.294650
14.735460
18.241405
23.203492
29.105544
34.113526
38.698912
42.983890
48.682690
49.807429
52.184463
52.946806
53.850412
52.466989
50.807595
51.150918
50.716996
47.186613
45.386553
44.043660
40.748715
38.563609
37.963986
33.935905
35.524964
33.176541
28.176904
28.331876
27.811527
25.278926
25.717616
24.619699
25.183558
24.192929
23.481846
22.246838
22.669435
21.200776
21.172762
21.782517
21.763444
22.181869
21.187663
22.743940
26.013851
28.150678
32.919645
37.409663
41.891932
45.015812
48.422813
49.235821
48.114657
49.157739
43.610930
43.413639
38.508773
34.318566
31.301975
26.323795
23.474693
21.226406
19.757748
16.089678
14.500618
15.473962
14.021993
15.084743
15.213490
14.414787
13.494492
13.350844
##ZVALUE=230
89.315772
102.493763
153.333545
252.612829
330.645442
399.845839
438.046455
443.649888
395.630598
335.468650
232.844949
153.861642
89.487433
62.481761
53.480864
55.031776
54.329634
50.782561
48.116446
39.274693
30.456781
21.432638
17.597675
12.345910
11.655688
12.111664
13.176799
19.243956
20.198822
25.313497
30.029416
32.415986
34.672618
38.547516
41.148663
39.806962
39.563775
40.257573
38.830638
38.134456
38.946867
37.254691
35.863519
34.537911
30.256510
29.184818
28.630495
27.218461
26.548505
27.514696
24.447441
22.762418
24.805665
21.824837
22.394657
22.721887
22.191405
21.587610
20.119548
19.866824
19.057989
19.047856
18.276572
17.528534
19.299984
17.424822
19.550920
20.430684
23.056865
25.730729
28.249621
33.288598
36.308765
39.972663
44.824481
45.890808
47.086477
44.981837
47.944784
45.535564
42.944551
39.529800
33.735633
29.473901
26.012659
19.481778
19.419789
16.154647
15.766621
16.173720
14.383793
15.246868
16.056895
14.791489
14.262795
12.748837
##ZVALUE=235
21.376610
26.873946
58.269501
139.155984
232.018828
369.668007
481.736660
609.977841
672.760010
671.198964
567.995906
451.793671
292.965770
194.744468
111.179948
83.517432
74.368715
81.118941
86.058974
85.132718
79.571605
71.721673
53.821802
37.655830
28.170943
19.343495
17.250776
15.713573
16.262531
18.056631
19.058585
20.568967
22.050738
23.277998
24.170876
25.009513
24.116635
25.821924
25.850534
23.464561
23.854971
23.913980
23.354888
21.054745
20.972490
21.337867
21.031499
19.178987
18.999577
18.093586
17.726421
16.609430
16.455650
17.514825
16.253591
14.766455
16.097426
15.135407
14.612675
15.004873
14.133453
14.514923
15.507936
13.821721
13.740659
13.983846
14.181733
14.750957
15.867949
18.759966
19.041896
23.176670
24.021864
26.991963
27.126670
29.758811
29.728413
28.726459
28.525591
30.082464
26.222467
22.815466
21.715760
17.440915
16.232729
12.891889
11.823773
11.184812
11.321902
10.560751
11.455417
12.229681
10.898709
10.227561
11.529922
11.649728
##ZVALUE=240
2.106428
2.522469
6.795526
22.813678
68.781972
125.826001
248.795748
365.931988
523.291826
601.953864
627.921820
597.779751
528.958440
397.960544
293.540955
185.317993
123.628974
98.508596
93.489885
109.002590
117.834806
122.389793
116.019845
107.757449
86.255670
71.675777
49.421787
37.533641
25.368929
19.657612
15.273690
15.004873
14.514923
17.767549
16.719699
17.143488
17.738938
16.858578
18.189549
18.685460
17.949939
18.219948
17.016530
17.492771
16.564727
15.990734
16.904473
15.611649
14.822483
13.291836
13.615489
13.331771
11.462569
12.134910
13.830662
9.796619
11.575818
11.782646
11.351705
10.825992
10.984540
10.364652
10.824800
9.899735
10.822415
11.129975
10.112524
10.964870
12.048483
11.467934
12.466908
13.131499
13.794899
14.926791
15.427470
16.502738
15.695691
15.526414
13.731718
14.269948
15.037656
13.024807
11.430979
12.425780
10.749698
10.706782
10.719895
9.884834
9.306669
10.031462
9.086728
9.311438
10.361671
9.715557
9.274483
8.682609
##ZVALUE=245
1.506805
1.721978
2.062917
2.181530
3.450513
12.083650
26.569963
70.937872
128.704906
227.460861
312.821865
422.020555
487.990975
508.567691
482.032895
428.545475
323.288441
236.761570
146.884918
115.825534
99.811554
102.412701
118.884444
134.834647
141.010880
128.224492
122.857690
100.861788
80.773830
57.589412
43.832660
30.498505
25.917888
21.899939
20.698905
21.139979
20.738840
21.809936
20.263791
20.809770
20.777583
19.601583
19.205809
18.333793
19.022822
16.538501
16.334653
15.966892
13.974905
15.444756
13.875961
14.659762
12.985468
12.741685
12.954473
12.733936
11.547804
10.678768
10.450482
9.775758
9.406805
9.407997
8.844733
9.047985
8.638501
8.059740
8.379817
9.000897
9.049773
8.767843
9.232759
9.403825
10.353923
11.822581
11.813641
12.383461
12.201667
11.460781
10.992885
12.113452
11.260509
10.438561
10.316968
9.194613
8.642673
8.864999
8.016825
9.656549
8.727908
8.889437
8.541942
7.975698
8.329749
9.513497
9.024739
7.492900
##ZVALUE=250
1.532435
1.944900
1.782775
1.712441
1.725554
2.274513
2.717972
6.462932
25.988817
57.442784
148.800611
250.274539
373.193622
532.516837
628.286600
686.227679
650.721788
555.275679
457.302928
306.203961
204.260945
137.061477
99.438429
91.657639
110.847950
127.855539
145.297647
149.920583
146.078467
138.605833
122.182965
97.937584
77.663660
55.105686
44.239759
35.739541
33.220649
28.349757
30.074716
29.859543
26.783943
27.911663
27.764440
24.585724
24.668574
22.162795
21.178722
19.703507
20.664930
18.800497
16.619563
15.842915
16.116500
14.092922
14.437437
12.380481
12.551546
11.810660
11.153817
9.802580
9.246469
10.125637
9.251833
8.794665
7.554889
8.397698
9.116530
9.649992
8.208752
8.807778
9.290576
9.551644
8.954406
9.781718
9.963512
8.793473
10.378957
9.684563
9.707808
8.955598
8.475780
8.925796
7.875562
7.683635
8.269548
8.629560
7.946491
7.762909
7.620454
7.222891
8.454919
8.256435
7.643700
7.630587
7.851720
8.232594
##ZVALUE=255
1.261830
1.233816
1.568794
1.423955
1.486540
1.646876
1.430511
1.653433
2.092719
4.067421
16.201735
40.424466
80.976486
166.427493
255.078673
386.142731
478.551984
570.750833
606.568456
563.828945
498.237014
395.637751
252.146721
167.548656
106.456876
89.165568
95.249414
116.389990
146.735907
158.765912
171.880722
171.832442
161.382556
138.077736
117.847919
92.377663
75.603724
57.587624
48.852563
43.112636
40.949583
36.413670
35.378933
35.220981
31.605959
31.147599
27.760863
26.903749
25.116801
22.655725
21.168590
20.355582
17.820597
16.810894
16.730428
13.995767
13.935566
12.617707
11.330843
11.156797
9.834766
9.682775
8.815527
8.464456
8.694530
7.595420
8.233786
7.929802
8.535981
7.603765
7.919669
8.048415
8.038878
8.799434
8.224845
8.379817
8.260608
8.233786
7.507801
8.096695
7.224679
7.177591
7.147789
7.661581
6.631613
7.235408
7.265806
7.195473
6.965995
7.409453
6.514788
6.536841
6.517768
7.006526
7.869601
6.612539
##ZVALUE=260
1.041889
1.151562
1.217723
1.316667
1.303554
1.343489
1.307726
1.296997
1.720786
1.232624
1.771450
2.511740
6.828904
25.951862
58.844686
133.737922
216.125846
349.837542
459.030867
593.746901
645.397902
660.913587
589.264631
482.218862
326.521993
229.829550
142.790675
106.636882
97.777843
111.120939
136.105418
169.550776
189.534426
203.873515
202.560425
185.939670
166.019797
139.007568
112.488866
86.485744
72.480440
58.949590
52.581429
46.993494
43.142438
39.480925
36.928654
34.164786
30.693412
29.693842
25.024414
25.237799
21.706820
20.489693
19.084811
17.134547
17.083883
14.337897
13.171434
11.962652
11.821985
10.324717
10.084510
9.334683
8.985996
9.070635
7.589459
7.703900
7.588863
7.950664
8.246899
8.020997
7.519722
8.130670
8.150935
7.568598
7.726550
7.337928
7.351637
7.863641
6.980896
6.560683
6.597638
6.642938
7.004738
6.591678
6.274581
6.323457
7.624626
6.355643
6.746650
6.515980
6.491542
6.179810
6.981492
6.714463
##ZVALUE=265
0.934601
0.813603
1.114607
0.892878
1.071692
1.093745
1.229644
1.192689
1.359582
1.210570
1.448989
1.606941
1.720786
1.598597
3.750920
17.991662
42.382479
103.164911
178.035498
323.433876
450.949669
568.404794
682.838559
708.846450
646.994710
560.093522
422.878861
309.826732
187.906623
137.446523
111.329556
115.979910
137.076974
172.138810
199.553967
219.376683
230.468512
216.178894
201.637745
173.065662
146.063566
110.540986
88.934898
67.833662
58.832765
47.471523
43.007731
39.028525
37.055612
33.503771
32.277703
28.893948
26.619434
22.963881
22.489429
19.629598
17.788410
15.770793
15.138984
13.506413
12.261868
11.386871
10.986924
10.128617
10.027885
8.680820
8.550882
8.047819
7.713437
7.977486
7.767677
7.951856
8.130670
7.645488
7.788539
7.205606
6.986856
6.521940
7.411838
7.083416
6.590486
6.618500
6.072521
6.570816
6.029606
6.268620
5.803704
6.622672
6.059408
6.697774
6.704926
6.083846
6.452799
6.029606
5.896688
5.564690
##ZVALUE=270
0.888705
0.869632
0.864863
0.920892
0.956655
1.165867
0.973940
1.197457
1.124740
1.122952
1.090765
1.085997
1.207590
1.531839
1.570582
1.471639
2.138615
9.287000
25.101900
77.459812
143.784881
212.704539
407.346487
546.638966
686.814785
743.224621
735.915899
668.058991
529.026985
413.674712
274.905562
196.285844
137.975812
120.254755
128.832459
149.649978
180.608630
203.380585
221.068859
223.556757
211.806893
193.720460
164.027810
137.294531
102.632642
81.234574
59.195757
48.524737
41.119456
34.486651
30.808449
28.577447
26.039481
23.172498
20.533800
19.851923
17.790794
15.497804
14.785528
14.056563
12.696981
12.014508
11.040568
11.080503
9.619594
8.919835
8.695722
7.843971
7.984638
8.088946
7.505417
8.438826
7.883906
7.372499
7.346869
7.268786
7.252693
7.035732
6.539822
6.681681
5.822778
6.010532
6.265640
5.801916
5.945563
5.883574
6.073713
6.340742
5.846620
5.707741
5.726814
5.819798
5.408525
5.476475
5.985498
5.717874
##ZVALUE=275
0.927448
1.072884
0.948906
0.894666
1.023412
1.038909
0.898838
1.144409
0.871420
1.112819
0.977516
1.046658
1.154542
1.082420
1.352429
1.252890
1.469851
1.566410
1.583695
4.088879
14.756918
40.923953
112.152696
206.592679
371.789932
499.935746
646.430850
732.124448
769.827962
732.447505
656.625032
492.017865
369.619727
221.337676
150.649548
104.779601
96.278787
109.208822
129.951835
157.288909
177.109838
192.881823
197.589993
187.044740
169.405937
136.496425
110.405684
83.967447
62.398911
43.824911
32.832623
24.872422
21.528602
18.971562
17.265677
15.770793
14.249682
13.745427
12.267828
11.167526
10.716915
10.019541
9.500980
9.494424
8.653998
8.151531
8.125901
7.888675
7.467866
7.030964
7.985830
6.699562
7.055998
7.281899
7.238984
6.393790
6.372929
6.699562
6.307960
5.988479
6.252527
5.598664
5.410910
5.662441
5.581975
5.602837
5.699992
5.450845
5.680919
5.424619
5.318522
5.148649
4.943609
5.086660
5.115867
5.667806
##ZVALUE=280
0.781417
0.773668
0.823736
0.826716
0.789762
0.846982
0.970960
1.098514
0.969768
0.870824
0.897646
0.886917
1.104474
1.004934
1.107454
0.919700
0.991821
1.160502
1.244545
1.424551
1.669526
1.753569
9.035468
29.950738
90.875626
163.000822
294.843912
427.182913
598.450899
705.654025
778.610706
770.933628
700.584650
535.730720
401.249528
238.633752
151.154995
83.482862
60.909986
60.082674
74.085593
99.746585
124.913454
149.727464
162.149668
168.355703
163.154006
142.002702
122.365952
90.879798
68.368912
44.786930
31.216741
20.061731
14.150739
10.867715
9.750724
8.971691
8.691549
8.485913
8.072853
7.927418
7.624626
7.673502
6.622672
6.755590
6.769896
6.370544
6.460547
6.581545
6.396770
6.158948
6.415844
6.839633
6.656647
6.069541
6.150603
6.468892
6.064773
5.920529
5.573630
5.796552
5.654693
5.461574
5.438924
4.931688
5.008578
5.390644
5.468726
5.105734
5.059838
5.119443
5.023479
5.105734
4.784465
4.869699
##ZVALUE=285
0.719428
0.801682
0.891685
0.753999
0.802875
0.792742
0.791550
0.820756
0.883937
0.817776
0.922680
0.810623
0.934601
0.927448
0.925660
0.963807
0.855923
1.112819
0.979900
1.126528
1.148582
1.315475
1.094937
1.618862
4.675984
15.613437
50.586462
105.188489
218.421817
334.090590
432.102680
627.508759
724.373460
773.628950
733.689666
598.844886
468.182564
289.529562
181.538463
89.769959
50.188899
32.680631
37.704706
57.606697
78.269839
109.624863
128.814578
145.954490
153.488517
147.605538
135.072470
111.050606
90.388656
61.077476
42.068958
24.035573
15.798807
10.039806
7.657409
6.709695
6.386638
5.766749
5.923510
6.063581
6.016493
5.792975
6.082654
5.888939
6.105900
5.821586
6.451607
6.198883
6.724000
6.368756
6.321669
5.911589
6.153584
5.970597
5.632639
5.618930
5.663633
6.051660
5.550981
5.152822
5.758405
5.149841
4.857779
5.225539
5.050898
5.272627
5.155802
5.087852
4.935861
4.956722
4.758835
4.986525
##ZVALUE=290
0.759959
0.850558
0.629425
0.692606
0.623465
0.582933
0.670552
0.643730
0.662804
0.683665
0.789762
0.586510
0.761747
0.796914
0.779629
0.903606
0.996590
0.969768
1.096725
0.854731
1.052618
1.047850
1.142621
1.053810
1.558661
1.622438
2.008677
8.670688
24.739504
74.073672
136.755705
274.255872
402.139425
574.123859
679.768920
759.838820
755.618811
653.267503
532.279015
352.782011
235.228539
118.013620
63.483715
29.634833
24.412870
35.142899
50.024986
75.756907
95.668435
120.555758
136.501789
146.007538
142.426491
126.909614
108.744502
80.645680
59.997439
38.667917
26.068687
14.850497
9.937882
6.683469
5.989671
5.711913
5.733967
5.829930
5.888939
6.115437
5.755424
5.649924
6.190538
6.478429
6.026626
6.050467
6.220937
6.139874
6.148815
6.156564
5.838871
5.887747
5.873442
5.416870
5.525947
5.553961
5.311966
5.387664
5.318522
5.032420
5.450845
5.055666
5.088449
5.082488
5.111694
4.764795
5.105734
4.370809
##ZVALUE=295
0.653863
0.535846
0.628829
0.644922
0.770688
0.740886
0.646710
0.642538
0.689626
0.814795
0.623465
0.648499
0.457764
0.702739
0.952482
0.720620
0.997782
1.093745
0.853539
0.875592
0.929832
0.907779
0.821948
0.922680
1.089573
1.046658
1.321435
1.163483
1.681447
2.804995
14.614463
40.790439
89.349747
204.582810
322.560668
500.103831
626.556873
741.047859
760.769844
704.045892
600.680709
424.984694
290.450454
154.224634
85.947514
35.546422
20.873547
21.035671
30.401945
47.607422
65.171719
91.969967
111.365914
130.530596
139.284730
135.435462
124.141574
101.764798
81.247687
55.769682
39.978623
24.058819
15.682578
9.698868
7.468462
6.126761
5.484819
5.851984
5.326867
5.725622
5.489588
5.860925
5.867481
6.120801
6.153584
6.319880
5.806684
5.755424
5.980730
5.567670
5.241632
5.734563
5.592704
5.475879
5.423427
5.236864
5.272627
4.783869
5.110502
5.029440
4.751682
4.481673
4.817843
4.665852
4.656911
4.610419
##ZVALUE=300
0.587702
0.660419
0.476837
0.387430
0.770688
0.586510
0.584722
0.674725
0.683665
0.678897
0.765920
0.762939
0.773668
0.695586
0.630617
0.575781
0.645518
0.686646
0.850558
0.875592
0.707507
1.157522
0.953674
0.964999
0.996590
1.039505
1.005530
1.231432
1.250505
1.284480
1.488924
1.615882
5.481839
21.020770
69.186687
132.034421
264.147520
393.606424
568.443537
676.146746
756.557584
755.425692
658.453703
547.477007
364.034772
236.137509
117.850900
61.313510
24.787784
15.891790
18.224716
26.060939
42.591691
59.306622
85.743666
103.644729
123.583674
130.641460
128.233433
119.461417
99.365711
81.249475
55.314898
40.652752
24.014711
16.333461
9.738803
7.497668
5.819798
5.597472
5.875826
5.398989
5.630851
5.754828
5.679727
5.878806
5.516410
5.679727
5.458593
5.774498
5.428791
5.441904
5.459785
5.137920
5.198717
4.943609
5.050898
5.005598
5.106926
4.840493
5.023479
4.628897
4.469752
4.460812
4.320741
4.612803
##ZVALUE=305
0.585914
0.489950
0.537634
0.634789
0.716448
0.594854
0.552535
0.590682
0.654459
0.658631
0.367761
0.627637
0.566840
0.630617
0.720620
0.707507
0.610948
0.649691
0.759959
0.529885
0.821948
0.698566
0.812411
0.834465
0.739694
0.897646
0.939965
1.026988
1.134872
1.121759
1.220703
1.237988
1.131892
1.359582
3.157854
11.386871
44.794679
96.489787
207.692981
321.534872
489.766598
609.315634
719.960928
743.422508
675.988793
574.866533
408.967733
284.206867
148.341656
81.635714
34.202933
16.930699
12.309551
15.771985
25.177598
38.371682
61.082840
77.871680
101.127625
115.230680
123.402476
123.233795
111.264586
95.988512
73.314905
56.925416
36.019683
24.370551
13.807416
9.281635
7.028580
5.970597
5.553961
5.298853
5.163550
5.223751
5.618930
5.131960
5.105734
5.216599
5.126595
5.102754
5.115867
5.179644
5.162954
5.151629
4.899502
5.310774
4.944801
4.831553
4.776716
4.636645
4.587770
4.234910
4.331470
4.463792
##ZVALUE=310
0.627637
0.479817
0.437498
0.582933
0.450611
0.623465
0.555515
0.645518
0.583529
0.542998
0.365973
0.600815
0.527501
0.730753
0.616908
0.836849
0.631809
0.696778
0.649691
0.637770
0.656843
0.693798
0.787973
0.551939
0.947714
0.726581
0.734925
0.665784
0.875592
0.875592
1.093745
1.117587
1.057982
1.026988
1.269579
1.360774
1.711845
4.724860
24.604797
57.534575
138.409734
233.837962
397.589803
525.968671
665.143728
721.328855
707.068443
638.324022
488.240719
357.084870
202.599764
121.454597
53.114891
25.375485
11.377931
10.284781
14.782548
21.415949
35.167933
48.821568
71.786642
88.921785
106.299520
115.432739
116.325617
109.162927
92.687607
75.033903
51.864982
36.920905
22.283792
14.982820
9.480715
6.992817
5.625486
5.363822
5.060434
4.760623
4.723668
4.729629
4.977584
4.995465
5.025864
4.780889
4.820824
4.962683
4.875660
4.916787
4.679561
4.315972
4.229546
4.551411
4.390478
4.492998
4.569888
4.086494
##ZVALUE=315
0.424981
0.650883
0.477433
0.593662
0.569820
0.487566
0.604987
0.401735
0.548959
0.622869
0.591874
0.593662
0.558496
0.547767
0.573993
0.511408
0.685453
0.566840
0.628829
0.730753
0.583529
0.797510
0.504851
0.691414
0.610948
0.810623
0.750422
0.772476
0.858903
0.656843
0.795722
0.805855
1.065731
1.062751
1.111627
1.207590
1.136661
1.478791
1.364946
2.786517
9.686947
40.273666
88.330507
193.989873
309.937596
488.563776
595.497489
696.365833
717.614889
656.742454
559.664965
402.841568
283.235908
149.203539
81.827641
30.885935
14.609694
8.750558
9.169579
13.155937
18.856525
32.100677
45.571923
67.170858
83.254576
100.979805
108.724833
109.696984
103.153586
85.860491
71.020722
51.663518
37.722588
21.433830
14.214516
8.554459
6.665587
5.285740
5.004406
4.887581
4.558563
4.330873
4.543662
4.772544
4.604459
4.451871
4.683733
4.327893
4.629493
4.226565
4.809499
4.562736
4.416704
4.172921
4.069805
4.476905
##ZVALUE=320
0.584722
0.602603
0.543594
0.373721
0.543594
0.463724
0.426769
0.459552
0.672936
0.438690
0.505447
0.553727
0.527501
0.542998
0.613928
0.485778
0.685453
0.555515
0.571609
0.759959
0.547767
0.575781
0.578761
0.527501
0.637770
0.704527
0.609756
0.612736
0.797510
0.729561
0.819564
0.736713
0.801682
0.823736
0.927448
0.964999
0.948906
1.126528
1.128912
1.232624
1.303554
1.655817
4.548430
23.965836
58.611631
144.277811
235.333443
389.996767
510.836840
641.884804
696.322918
683.939457
616.517663
465.625525
339.728594
188.263655
106.863976
44.531822
21.240711
9.429455
7.698536
8.443594
10.956526
17.642975
26.028752
43.377876
59.033632
78.351498
91.225505
103.067756
104.050636
96.477866
85.431933
64.969659
50.713420
32.115579
22.202730
13.721585
9.384751
6.349683
5.061626
4.748702
4.646778
4.608631
4.490614
4.316568
4.081726
4.205704
4.285574
4.381537
4.576445
4.082918
4.033446
4.233718
4.278421
4.411936
##ZVALUE=325
0.482798
0.475645
0.535846
0.498891
0.567436
0.583529
0.633597
0.258684
0.498891
0.474453
0.475645
0.390410
0.599623
0.463724
0.463724
0.477433
0.526905
0.552535
0.543594
0.514984
0.549555
0.424981
0.456572
0.622869
0.690818
0.566840
0.501871
0.655651
0.630617
0.559688
0.790954
0.765920
0.819564
0.728965
0.780821
0.723600
0.871420
0.885725
1.082420
1.180768
1.089573
1.122952
1.184940
1.376867
2.330542
14.171600
37.567616
98.880529
175.150633
321.959853
441.450477
585.284829
661.712885
683.513880
632.653832
498.431921
375.059843
228.172541
137.448907
61.518550
30.294657
11.178851
7.479787
6.617904
7.690787
10.997653
15.662909
26.661754
38.771629
58.863759
71.578622
88.321567
95.371604
96.613765
90.857744
75.056553
62.866807
44.173598
32.087564
19.370914
12.765527
8.109808
6.207824
5.039573
4.629493
4.211664
4.293919
4.195571
4.155636
4.071593
4.102588
3.959537
4.043579
3.856421
3.988743
4.174709
##ZVALUE=330
0.365973
0.483990
0.470877
0.606775
0.538826
0.526905
0.418425
0.493526
0.429749
0.448823
0.493526
0.443459
0.464916
0.364780
0.537634
0.561476
0.432730
0.569820
0.619888
0.513792
0.560880
0.529885
0.451803
0.371933
0.650883
0.541806
0.541806
0.620484
0.509620
0.566840
0.631809
0.760555
0.573993
0.698566
0.728965
0.676513
0.686646
0.861883
0.815988
0.923872
0.824928
0.946522
1.087785
1.048446
0.964999
1.227856
1.567602
6.114841
19.929409
64.689517
124.498606
243.788958
358.156562
512.510538
606.285930
663.913488
639.678836
532.321930
425.804853
274.388790
175.291896
83.079934
43.057799
16.215444
8.524656
6.172657
6.069541
7.121563
9.715557
15.936494
23.813844
37.179589
50.548911
69.410801
80.453753
88.889003
90.504885
83.278418
73.358417
56.678653
42.824745
28.125644
20.137429
12.890697
9.085536
6.177425
5.388856
4.418492
4.024506
4.241467
4.174709
3.954768
3.914833
3.862977
3.800988
3.875494
##ZVALUE=335
0.404716
0.354648
0.375509
0.543594
0.361800
0.564456
0.551939
0.430942
0.380874
0.499487
0.472665
0.535846
0.334978
0.397563
0.451803
0.527501
0.522733
0.575781
0.512600
0.618696
0.415444
0.551939
0.608563
0.648499
0.488758
0.418425
0.614524
0.542998
0.664592
0.544786
0.479817
0.698566
0.523925
0.698566
0.712872
0.776649
0.623465
0.753999
0.615716
0.761747
0.740886
0.687838
0.849962
0.924468
0.861883
0.968575
0.968575
0.996590
1.313686
2.861619
9.880662
40.393472
84.392428
183.705688
291.337967
451.421738
554.695725
634.324551
643.150806
573.510528
478.122830
323.801637
219.764709
114.945769
59.889555
21.609664
10.489821
6.016493
5.642772
5.767941
6.539822
9.573698
13.966560
24.165511
34.137964
51.197410
63.175559
76.524615
82.927942
85.107684
78.512430
66.811442
55.822730
40.635467
29.784441
19.193888
13.573766
8.584857
6.325841
4.894733
4.504919
4.156828
4.025698
4.047751
3.592968
3.910661
##ZVALUE=340
0.295639
0.486970
0.247955
0.474453
0.392795
0.447631
0.302792
0.424981
0.466704
0.497699
0.522733
0.345707
0.415444
0.526905
0.477433
0.588894
0.545979
0.417829
0.477433
0.417829
0.533462
0.495911
0.257492
0.336766
0.524521
0.363588
0.633597
0.547767
0.481606
0.554919
0.521541
0.568628
0.659823
0.658631
0.659823
0.620484
0.634789
0.684857
0.654459
0.542998
0.703931
0.691414
0.706911
0.801682
0.723600
0.778437
0.919700
0.952482
0.957847
0.907779
1.085997
1.708865
4.880428
23.983717
58.699846
143.582821
238.154531
383.610725
492.804646
597.448945
627.838969
583.625436
509.101748
372.033715
260.971785
136.048794
76.325536
31.726956
13.717413
6.667972
5.594492
5.582571
5.503893
6.686449
8.909702
14.549494
21.457672
33.738613
45.787692
61.495900
71.496964
78.107715
78.806877
73.267817
65.258741
52.053928
41.650534
28.379560
20.856857
13.111830
9.163618
5.962849
4.848838
4.158616
4.118681
3.693700
##ZVALUE=345
0.302792
0.402927
0.539422
0.493526
0.170469
0.486970
0.309944
0.384450
0.436902
0.407696
0.426769
0.432730
0.522733
0.436902
0.360608
0.450611
0.376701
0.478625
0.387430
0.457764
0.579953
0.542998
0.393987
0.611544
0.470877
0.451803
0.503659
0.546575
0.562668
0.699759
0.611544
0.526905
0.524521
0.575781
0.520945
0.526905
0.608563
0.395775
0.572801
0.584722
0.558496
0.647902
0.772476
0.733733
0.611544
0.767708
0.779629
0.718832
0.726581
0.730753
0.940561
0.994802
0.970960
0.976920
2.292991
12.991428
37.031770
100.018978
172.029734
302.057862
408.643484
536.181927
591.362715
597.114563
541.393757
413.263440
304.817557
178.411603
102.238655
41.006804
19.389987
8.068681
5.961657
5.457997
4.977584
5.161762
5.709529
8.149743
11.953712
21.157861
29.921532
44.540763
54.234862
65.041780
70.998669
72.843432
69.305897
62.121749
53.015947
39.442778
29.779673
18.952489
13.409853
8.353591
6.276965
4.631877
##ZVALUE=350
0.359416
0.432730
0.470877
0.415444
0.486970
0.357628
0.307560
0.547767
0.517964
0.424981
0.478625
0.439882
0.344515
0.314713
0.498891
0.480413
0.474453
0.498891
0.465512
0.410676
0.360608
0.412464
0.480413
0.444651
0.493526
0.422597
0.589490
0.554919
0.392795
0.517964
0.632405
0.573993
0.546575
0.472665
0.596642
0.427961
0.561476
0.477433
0.665784
0.580549
0.686646
0.694990
0.732541
0.738502
0.708699
0.575781
0.640750
0.772476
0.713468
0.733733
0.772476
0.781417
0.826716
0.955462
0.826716
1.036525
1.432896
6.556511
20.759702
64.489841
122.894645
241.571665
343.530774
474.158525
550.840497
589.462519
558.171868
457.406640
348.977447
205.925703
125.757456
57.705641
27.426481
9.438992
5.966425
5.347729
4.950762
4.898906
4.832745
5.610585
7.715821
12.172461
17.855763
26.508570
35.707951
48.388839
56.458712
64.701438
66.604614
64.464808
58.189631
47.569871
38.415790
26.709437
19.468665
12.662411
##ZVALUE=355
0.454783
0.318885
0.243783
0.434518
0.313520
0.460744
0.451803
0.425577
0.305772
0.366569
0.319481
0.468493
0.480413
0.539422
0.531673
0.483990
0.391603
0.499487
0.365973
0.387430
0.421405
0.420809
0.434518
0.409484
0.485778
0.666976
0.416636
0.387430
0.505447
0.620484
0.562668
0.532866
0.439882
0.570416
0.704527
0.583529
0.488758
0.635982
0.554919
0.529885
0.463724
0.722408
0.635982
0.567436
0.704527
0.564456
0.544786
0.583529
0.669956
0.627637
0.824928
0.923872
0.687838
0.662804
0.922680
0.734925
0.789762
1.177788
1.179576
2.329946
13.026595
35.970807
97.379684
166.046619
291.047692
395.631790
513.384938
559.344888
549.653769
482.510924
353.624821
256.481767
144.107938
79.673529
31.757951
14.533997
6.241798
5.076528
4.807711
4.640818
4.539490
4.490614
5.358458
6.497502
10.524988
14.756918
23.420453
30.822754
42.828918
50.559640
58.360696
60.661435
58.618784
54.240823
44.893622
37.160516
##ZVALUE=360
0.318885
0.260472
0.505447
0.356436
0.461936
0.464916
0.433922
0.382662
0.433922
0.321865
0.530481
0.435710
0.513792
0.400543
0.380874
0.509620
0.331998
0.582933
0.380874
0.566840
0.432730
0.395775
0.476837
0.421405
0.433922
0.462532
0.419617
0.499487
0.422597
0.492930
0.626445
0.399947
0.474453
0.540614
0.455976
0.606775
0.598431
0.494719
0.613928
0.575781
0.637770
0.674725
0.721812
0.626445
0.626445
0.592470
0.547767
0.603795
0.651479
0.574589
0.768900
0.637770
0.736713
0.678897
0.786781
0.822544
0.713468
0.717640
0.879765
0.996590
0.971556
1.588464
4.849434
22.005439
52.348971
126.210451
210.727453
347.050428
443.093777
530.014634
548.599958
502.941608
422.208905
286.774635
189.887881
92.669725
48.186779
18.798709
8.420944
5.108714
4.599690
4.628897
4.356503
4.018545
4.059672
4.516840
5.239844
8.481741
11.778474
18.307567
25.454760
35.845637
42.622685
50.600767
54.736733
54.422617
##ZVALUE=365
0.482798
0.452995
0.358820
0.379682
0.499487
0.431538
0.394583
0.371933
0.481606
0.278950
0.244975
0.539422
0.497699
0.370741
0.511408
0.369549
0.382662
0.308752
0.465512
0.412464
0.394583
0.473857
0.515580
0.466704
0.283718
0.399947
0.425577
0.426769
0.435710
0.425577
0.435710
0.704527
0.554919
0.498891
0.509620
0.539422
0.651479
0.701547
0.495911
0.469685
0.620484
0.457764
0.410676
0.624657
0.510812
0.623465
0.566840
0.653863
0.674725
0.453591
0.572801
0.604987
0.498891
0.601411
0.551939
0.540614
0.822544
0.688434
0.797510
0.713468
0.753999
0.991821
0.954866
1.209974
2.392530
12.204647
33.138990
87.658763
159.084797
287.898779
381.901860
484.514832
529.090762
513.716936
446.511507
322.722793
228.544474
124.772787
68.573952
25.154948
10.782480
5.217791
4.608631
4.257560
4.035830
3.787875
3.678799
3.616810
3.844500
4.689693
6.316900
10.378957
14.640689
22.179484
29.188991
38.219690
##ZVALUE=370
0.435710
0.415444
0.249743
0.331998
0.274777
0.321865
0.394583
0.317693
0.367761
0.408888
0.278950
0.366569
0.366569
0.368953
0.477433
0.430942
0.422597
0.412464
0.389814
0.394583
0.561476
0.441670
0.473857
0.389814
0.318885
0.443459
0.540614
0.465512
0.428557
0.364780
0.507832
0.405908
0.440478
0.448823
0.498891
0.493526
0.520945
0.485778
0.365973
0.526905
0.447631
0.414848
0.445843
0.595450
0.394583
0.393987
0.470877
0.508428
0.596642
0.526905
0.685453
0.419617
0.416636
0.583529
0.615716
0.533462
0.567436
0.797510
0.729561
0.821948
0.752807
0.809431
0.930429
0.764728
0.878572
1.037717
1.444817
6.635785
20.782948
63.556433
120.733976
228.024721
325.702429
446.919799
504.016876
512.366891
467.570424
362.492800
268.020630
151.136518
86.743832
35.156608
16.114712
6.496906
4.539490
3.778934
3.643632
3.536940
3.496408
3.359914
3.189445
3.601909
3.973842
5.864501
8.261800
12.826920
##ZVALUE=375
0.401735
0.332594
0.398755
0.302792
0.343919
0.403523
0.385642
0.314713
0.328422
0.385642
0.350475
0.419617
0.523925
0.427961
0.472665
0.534654
0.446439
0.291467
0.456572
0.381470
0.358820
0.324845
0.385642
0.305772
0.443459
0.564456
0.604987
0.461936
0.392795
0.553727
0.278950
0.426769
0.497699
0.567436
0.458956
0.402927
0.448823
0.537634
0.519753
0.550747
0.527501
0.397563
0.496507
0.506639
0.421405
0.504851
0.318885
0.482798
0.521541
0.585914
0.557899
0.629425
0.671744
0.634789
0.554919
0.579953
0.546575
0.566840
0.525713
0.596642
0.594854
0.674725
0.503659
0.595450
0.683665
0.673532
0.836849
1.044869
1.122952
3.060699
10.746717
38.222671
81.796646
179.298520
274.015665
401.351452
474.582911
518.762469
499.477983
407.297611
312.787890
188.498497
118.541718
58.620572
29.629469
10.160804
5.272627
3.968477
3.868937
3.502965
3.366470
3.108978
3.002882
3.026724
3.069639
3.718734
##ZVALUE=380
0.385642
0.464916
0.492930
0.455976
0.297427
0.405908
0.289679
0.399947
0.419617
0.315905
0.363588
0.442863
0.254512
0.407696
0.183582
0.403523
0.260472
0.486970
0.383854
0.391603
0.412464
0.433922
0.391603
0.416636
0.448823
0.448823
0.668764
0.425577
0.431538
0.408888
0.459552
0.513792
0.347495
0.482798
0.364780
0.466704
0.419617
0.555515
0.495911
0.529885
0.549555
0.523925
0.501871
0.454783
0.605583
0.593662
0.481606
0.521541
0.361800
0.409484
0.627637
0.396967
0.535846
0.539422
0.625849
0.533462
0.530481
0.366569
0.504851
0.706911
0.483990
0.545979
0.689626
0.766516
0.665784
0.677705
0.797510
0.734925
0.831485
1.081824
0.971556
1.725554
6.014705
27.375817
62.606931
144.777894
228.690505
349.885821
435.938835
504.609942
500.229001
429.524779
350.919962
243.210793
161.549449
79.414845
41.036606
14.919639
6.890893
4.035830
3.672838
3.092885
3.225803
3.036857
3.045797
2.780557
##ZVALUE=385
0.335574
0.381470
0.240803
0.318885
0.314713
0.269413
0.349879
0.364780
0.479817
0.468493
0.299811
0.248551
0.288486
0.265837
0.430942
0.300407
0.369549
0.380874
0.406504
0.301600
0.210404
0.229478
0.302792
0.308752
0.333786
0.352859
0.447631
0.379682
0.501871
0.422597
0.482798
0.613928
0.584722
0.558496
0.523925
0.500679
0.525713
0.617504
0.620484
0.488758
0.524521
0.557899
0.549555
0.589490
0.536442
0.557899
0.478625
0.511408
0.503659
0.423789
0.629425
0.367761
0.483990
0.515580
0.619888
0.613928
0.586510
0.630617
0.736713
0.540614
0.536442
0.412464
0.509620
0.359416
0.611544
0.786781
0.670552
0.650883
0.674725
0.714660
0.745654
0.914931
0.941753
1.139641
2.871752
15.069842
39.445758
98.993778
171.228647
296.748877
388.155580
474.699736
496.106744
465.804935
407.031775
296.676755
208.509564
113.145709
65.080523
27.338862
11.676550
4.285574
3.453493
3.211498
3.167987
3.069639
##ZVALUE=390
0.306964
0.309944
0.341535
0.283718
0.320673
0.347495
0.363588
0.406504
0.318885
0.323653
0.300407
0.283718
0.488758
0.301600
0.364780
0.187755
0.311732
0.431538
0.277758
0.433922
0.375509
0.386834
0.559688
0.489950
0.521541
0.335574
0.553727
0.617504
0.533462
0.642538
0.599623
0.651479
0.927448
0.718832
0.648499
0.665784
0.750422
0.684857
0.582933
0.691414
0.600815
0.616908
0.617504
0.568628
0.491738
0.576973
0.695586
0.484586
0.511408
0.694990
0.464916
0.346899
0.496507
0.450611
0.443459
0.618696
0.624657
0.663996
0.614524
0.692606
0.547767
0.517964
0.538826
0.487566
0.464916
0.617504
0.785589
0.691414
0.821948
0.871420
0.714660
0.965595
0.865459
0.874996
0.878572
0.937581
1.743436
6.525517
29.257536
67.523718
153.156519
237.378478
349.842906
428.958535
495.737791
497.968793
442.220569
368.777514
251.432657
168.205500
86.678863
44.568777
16.125441
7.059574
3.555417
3.193617
##ZVALUE=395
0.217557
0.119805
0.277758
0.311732
0.172853
0.282526
0.174642
0.265837
0.160933
0.162721
0.167489
0.384450
0.240803
0.383854
0.344515
0.280738
0.266433
0.272989
0.150800
0.188947
0.244975
0.222921
0.276566
0.191927
0.310540
0.401735
0.299811
0.410676
0.567436
0.473857
0.673532
0.706911
0.794530
0.762939
0.732541
0.841618
0.887513
0.674725
0.744462
0.674725
0.716448
0.644922
0.497699
0.506639
0.593662
0.582933
0.634789
0.596642
0.598431
0.535846
0.578761
0.288486
0.499487
0.566840
0.455976
0.477433
0.430942
0.383854
0.434518
0.311732
0.428557
0.500679
0.399947
0.335574
0.353456
0.423789
0.492930
0.548959
0.494719
0.580549
0.718832
0.719428
0.585914
0.577569
0.656843
0.535846
0.803471
0.945926
1.007915
4.367828
16.253591
55.395961
104.058981
194.108486
282.370448
405.465961
474.803448
514.134765
493.261814
411.824584
321.083665
196.364522
122.042894
53.267479
25.425553
8.965731
##ZVALUE=400
0.416636
0.350475
0.432730
0.222921
0.296831
0.269413
0.406504
0.351667
0.417829
0.453591
0.282526
0.322461
0.306964
0.402927
0.562668
0.327826
0.236630
0.534654
0.337958
0.403523
0.397563
0.262856
0.465512
0.331998
0.328422
0.462532
0.481606
0.615716
0.629425
0.735521
0.796914
0.909567
0.855923
0.896454
0.821948
1.066923
0.924468
0.997782
0.903606
0.753999
0.834465
0.831485
0.674725
0.674725
0.778437
0.586510
0.482798
0.631809
0.663996
0.459552
0.392795
0.485778
0.553727
0.530481
0.595450
0.578761
0.511408
0.553727
0.585914
0.486970
0.580549
0.532866
0.430942
0.645518
0.548959
0.506639
0.495911
0.514984
0.741482
0.646710
0.770688
0.755787
0.732541
0.784993
0.668764
0.591874
0.772476
0.982881
0.964999
0.826716
0.927448
2.518892
8.494854
30.689836
67.182779
147.883892
232.865810
353.395939
433.308482
492.460728
496.973991
432.750583
351.306796
232.148767
151.726604
76.712966
##END
