##TITLE=FKDZ0101
##FORMAT=SPECTACLE-ASCII V-1.2
##DATA TYPE=ULTRAVIOLET SPECTRUM
##SECOND TYPE=ULTRAVIOLET SPECTRUM
##DATE=02/28/18
##TIME=17:19:52
##SPECTROMETER/DATA SYSTEM=SPECTACLE
##XUNITS=NM EM
##YUNITS=ENERGY
##YFACTOR=1
##FIRSTX=220
##LASTX=410
##NPOINTS=96
##3DDATA=Equidistant
##ZUNITS=NM EX
##FIRSTZ=210
##LASTZ=400
##ZPOINTS=39
##XYDATA=(Y..Y)
##ZVALUE=210
3.152490
3.177524
3.200769
3.487468
2.509952
3.747940
3.190637
2.880692
3.343821
2.989769
2.762675
2.451539
2.463460
2.215505
2.330542
2.837777
2.641678
2.306700
2.600551
2.773404
2.433658
2.945662
2.925992
3.170967
2.745986
3.880858
3.702641
4.241467
4.708767
4.936457
5.400777
6.084442
5.967617
6.459951
6.677508
5.755424
5.930662
5.639791
5.830526
6.789565
5.501509
6.853938
5.509853
5.776882
5.182624
5.283952
6.270409
5.146861
4.780889
4.716516
4.885793
4.794598
4.587770
4.774928
5.153418
4.940629
4.850626
4.568696
4.484653
4.271865
3.924966
5.597472
4.364848
4.809499
4.882812
3.963709
4.579425
5.016923
5.354881
5.837679
6.178617
7.806420
7.809997
8.195639
8.318424
9.543896
8.462667
9.615421
9.326935
8.107424
8.470416
6.713867
6.195903
6.479621
5.437732
4.737973
4.173517
4.576445
4.829764
4.018545
3.886819
4.158616
4.793406
5.660653
5.018711
5.777478
##ZVALUE=215
7.211566
7.363558
6.607771
5.865693
6.680489
6.060600
6.146431
6.091595
5.796552
6.790757
5.715489
5.084872
4.788637
3.684759
2.876520
3.499985
2.801418
2.428889
2.315640
2.793670
3.130436
2.636909
2.600551
3.385544
3.700852
4.044771
5.337000
5.162954
6.074905
5.880594
6.756783
7.502437
7.925630
8.972883
8.818507
9.158850
9.238720
8.610487
8.296967
8.257627
7.794499
8.367896
8.049607
7.221699
7.115602
7.129908
6.670952
6.616712
6.754994
7.280707
6.543994
5.700588
6.466508
4.984736
6.205440
5.373955
5.206466
4.537702
5.018711
5.714893
5.220771
5.002618
4.772544
5.048513
5.272627
5.199909
4.958510
5.761981
6.314516
5.718470
8.117557
7.468462
7.805824
10.298491
9.204745
9.295940
9.635687
8.234978
8.743405
8.535981
7.850528
7.687807
6.610751
6.003976
5.973577
5.000830
5.123615
5.021691
5.284548
4.753470
4.676580
4.224777
4.119873
4.392862
4.555583
4.899502
##ZVALUE=220
24.519563
23.727417
26.018620
27.072430
25.007725
21.851659
17.719865
14.703870
14.355779
13.269782
14.091730
14.090538
13.127923
13.180971
10.100603
8.721948
6.221533
4.417896
3.659725
3.372431
3.450513
3.531575
4.062653
4.805923
4.724860
5.231500
5.422831
7.149577
8.451939
8.698702
10.079741
10.365844
12.667775
13.478994
13.392568
12.604594
14.325976
13.950467
13.479590
12.852550
11.120439
11.683702
11.197925
11.164546
10.666847
9.743571
9.291768
8.914471
9.189844
8.914471
7.493496
7.687807
8.089542
6.899834
6.651878
7.395744
7.621646
6.628633
6.766915
6.599426
6.506443
7.845759
6.352663
7.046461
7.582903
7.140636
6.568432
7.411838
7.198453
8.005500
8.924603
10.163784
11.682510
12.590885
13.065934
12.242794
12.430549
12.845993
12.538433
10.952950
10.209680
10.823607
9.094477
7.890463
6.875992
6.988645
5.753636
5.992651
5.989671
5.366802
5.519986
6.531477
6.724596
6.090999
5.535483
5.327463
##ZVALUE=225
54.101944
58.916807
77.435970
90.914965
99.724531
97.512603
88.579655
70.854425
53.092837
42.048693
30.990839
27.366877
26.576519
29.427409
29.996634
26.814938
22.531748
18.249750
13.964772
8.727908
6.459951
4.551411
4.786849
4.553795
5.437732
5.297661
7.211566
8.042455
8.951426
10.434985
11.735559
13.456941
14.143586
14.302731
16.539693
14.938712
15.611649
15.975833
15.832782
15.025735
13.906956
13.936758
14.141798
12.337565
12.573600
12.290478
11.275411
11.531711
11.044741
10.399818
10.656714
9.788871
10.374784
8.946657
9.400845
9.614825
8.995533
9.024739
9.322762
8.569956
8.540750
7.827878
9.489655
8.130670
7.958412
9.631515
7.864833
9.842515
8.712411
10.833740
11.489987
13.223886
13.870597
14.576912
16.955733
15.136600
14.852881
15.377998
12.808442
13.041496
12.489557
12.021661
11.632442
9.486675
9.241700
9.350777
8.323789
8.917451
9.281635
8.744597
7.607937
8.505583
8.587837
7.738471
8.438826
9.219646
##ZVALUE=230
40.606856
43.917894
72.833896
125.223994
163.318515
202.055573
215.560794
216.475725
197.471976
156.568885
116.964579
76.946616
57.285428
45.488477
47.290921
53.795576
53.072572
48.899651
46.780705
37.771463
28.841496
20.985603
11.882782
8.884668
7.293820
5.439520
6.733537
7.676482
8.622408
8.590817
9.627938
11.462569
12.050867
12.571812
12.506843
14.344454
13.996959
13.449788
14.128685
13.601780
13.333559
12.629628
11.687875
10.555983
11.876822
10.391474
11.011958
10.812879
10.416508
10.375977
9.948611
9.387732
9.911656
11.046529
9.626746
9.682775
9.000897
9.312630
9.318590
9.085536
9.109974
10.246634
8.834600
9.011626
10.052919
8.722544
8.905530
10.054708
9.788871
11.653900
12.916923
12.361407
13.815761
15.909672
16.663671
18.200874
18.957853
17.972589
18.302798
17.158985
16.907454
15.828609
15.927553
14.860630
13.464689
11.178851
11.562705
10.834932
10.733604
10.737777
9.646416
10.355711
10.128617
10.901690
11.088848
9.715557
##ZVALUE=235
10.683537
14.711618
28.161407
66.465735
107.003450
176.146626
235.095620
294.839740
327.566862
319.187641
291.827917
236.285925
156.313777
119.368434
84.755421
72.394609
74.781775
79.320669
81.538558
86.559653
79.520941
65.586567
53.332448
36.192536
24.541616
17.855763
12.530684
8.914471
8.743405
8.226633
10.259748
9.934902
11.006594
9.667873
10.254979
10.191798
10.605454
9.960532
10.018945
10.780692
9.382963
9.789467
10.064840
10.678768
10.666847
9.832978
10.355711
9.287000
9.238720
9.680986
9.599924
8.764863
10.178685
9.132624
8.474588
9.271502
8.940697
8.813739
9.429455
8.990765
8.944869
9.963512
9.525418
9.803772
10.068417
10.055900
11.470914
10.978580
11.498928
12.446642
12.897849
13.629794
14.260411
14.620423
15.175939
17.128587
16.791821
17.165542
14.700890
16.639829
16.225576
15.541911
13.959408
14.138818
12.716651
12.143850
12.393594
11.790991
11.479855
13.038516
12.691617
12.182593
13.955832
13.692975
12.929440
13.614893
##ZVALUE=240
3.130436
3.792644
15.777946
35.484433
77.709556
123.378634
222.076774
288.812518
392.335653
437.968969
477.228761
461.605787
421.178937
325.505733
252.923965
169.400573
126.463771
95.924735
94.001889
103.420615
117.909908
122.821927
122.985840
108.262897
89.008808
70.015788
50.797462
33.467412
22.239685
14.433861
12.328625
10.625720
10.072589
9.742975
10.487437
10.829568
10.606647
11.501908
10.698438
9.950995
9.931922
10.469556
10.535717
11.223555
11.055470
9.848475
10.923743
10.968447
10.347962
11.089444
9.854436
10.727644
10.540485
10.836720
12.608767
11.478662
11.470914
10.794997
10.612607
11.595488
11.878610
10.956526
10.564923
11.575818
12.136698
11.682510
12.672544
12.682676
12.902617
15.853643
15.199780
17.104745
18.478632
21.611452
20.846725
21.838546
21.883845
23.327470
21.918416
23.251772
23.066998
20.993948
20.794868
19.638538
19.073486
16.544461
17.696619
18.352866
17.177463
16.370416
18.106699
16.744733
16.921759
17.060637
16.723871
16.368628
##ZVALUE=245
1.721978
1.826882
2.058744
2.113581
5.966425
21.723509
44.491887
104.709864
175.836682
268.130898
415.844917
542.087555
678.288937
736.949444
742.756724
687.823892
555.382967
439.877510
327.149630
203.910470
142.654777
111.338496
122.052431
133.317709
140.458941
130.756497
119.957924
98.633766
77.629685
55.208802
41.251779
25.422573
20.881891
14.818907
12.830496
11.663437
11.899471
13.186932
11.895895
12.138486
11.919737
12.187958
11.641979
12.126565
11.175871
11.943579
10.842681
11.339784
11.431575
11.378527
11.069775
11.773705
10.704994
9.902716
10.976791
10.767579
10.462999
11.442900
10.244846
10.404587
10.289550
11.297464
11.078715
10.664463
10.983944
10.743737
11.793971
11.593699
12.447834
12.879968
15.589595
17.057657
17.860532
19.260645
20.499825
21.714568
21.621585
23.092628
21.565557
21.966696
20.776987
19.634962
18.648505
18.425584
17.294884
16.999841
16.323924
15.192628
15.372634
15.728474
14.582872
14.731884
16.179681
15.149713
15.183687
16.997457
##ZVALUE=250
1.485944
1.832843
1.737475
1.699924
1.872778
1.845956
3.767610
14.302731
54.481626
105.323792
221.248865
331.822634
459.235907
622.034669
732.676983
824.697018
819.977522
755.897760
654.170513
460.727811
323.868990
217.978954
135.569572
109.377503
112.666488
128.751993
147.259831
149.014592
141.792893
130.265951
115.927458
85.310936
64.255595
43.017864
29.658675
19.087791
15.611649
14.456511
14.224648
13.464689
13.049841
13.202429
13.091564
12.019873
12.525916
11.819601
11.819601
12.419820
11.063814
11.042953
10.540485
10.259748
9.179711
9.591579
9.103417
8.690953
8.395910
8.639693
8.585453
9.297729
8.391738
8.498430
9.439588
8.380413
9.351969
8.360744
8.820891
9.554625
9.393692
10.708570
10.756850
11.788607
11.540651
13.770461
13.780594
13.220906
13.942719
13.618469
15.328526
14.899969
14.715791
14.045835
12.981892
13.602972
12.810826
14.889836
13.476610
13.952851
13.391972
13.297796
12.937784
12.810826
14.428496
14.144778
14.387965
13.671517
##ZVALUE=255
1.602769
1.541972
1.336932
1.360774
1.490712
1.448989
1.475811
1.688600
1.918674
4.204512
23.586750
54.780841
108.247995
226.918459
338.252783
489.882827
586.054921
675.866604
676.052570
616.434813
526.141524
407.849550
254.314542
166.667700
104.651451
87.302923
91.716647
108.624697
135.970712
151.199698
159.179568
156.346560
141.909719
114.158988
95.083714
62.180758
46.286583
28.914809
21.624565
18.097758
15.145540
14.304519
15.260577
13.513565
13.417602
13.456941
12.304783
11.820793
11.223555
11.572838
11.249781
9.958744
10.467768
10.210872
9.301901
9.617805
8.852482
8.991957
8.338690
8.109808
7.523894
8.207560
7.853508
8.420944
8.255839
8.287430
8.636713
9.265542
8.597970
8.927584
9.841919
10.996461
11.429787
11.231899
11.570454
12.089610
12.119412
13.032556
12.742877
13.388991
13.237000
12.980700
13.075471
12.970567
12.288690
12.141466
12.161732
11.753440
12.179613
13.764501
13.448596
12.811422
12.207627
13.138652
13.876557
13.135672
##ZVALUE=260
1.172423
1.155734
1.370907
1.135468
1.216531
1.370907
1.421571
1.496673
1.351833
1.360774
1.419783
2.242923
6.141663
23.632646
52.528977
131.282806
215.515494
357.447863
474.730730
620.869994
683.646798
689.667463
612.681508
507.442951
350.135565
248.200893
151.440501
109.972954
86.068511
92.393756
111.618638
138.194561
157.560706
168.520808
167.272687
147.563815
126.867890
94.771981
73.810816
49.305558
35.907626
24.114847
20.318627
17.050505
16.477704
15.903711
14.906526
14.651418
12.794733
13.137460
13.749599
11.446476
11.074543
10.587573
10.099411
9.426475
9.209514
8.924603
8.628964
7.771850
8.859634
7.893443
7.102489
7.913709
8.282661
7.947683
7.694960
8.095503
8.038878
9.088516
8.454919
9.248853
9.828806
9.529591
10.510683
11.381507
11.003613
9.923577
11.081696
11.316538
11.253953
11.341572
11.031628
11.065602
11.881590
11.488795
11.738539
12.391806
11.531711
11.868477
12.071729
11.901855
12.136698
12.435913
11.766553
12.166500
##ZVALUE=265
0.927448
1.172423
0.866652
1.025796
1.259446
1.053810
1.170635
1.349449
1.304746
1.199841
1.561642
1.362562
1.433492
1.614690
3.368855
15.284419
36.991835
90.952516
164.026618
304.201841
426.889658
550.632477
689.126849
736.835003
715.070963
654.341578
534.520745
402.524471
246.480703
169.480443
105.157495
87.155700
96.523762
128.771663
151.165724
173.607469
179.827809
169.392824
150.118470
125.005841
100.106001
70.007443
50.675869
34.433603
25.888681
20.351410
17.769933
16.405582
15.442967
14.423728
14.482737
13.660789
12.608767
12.201667
11.252761
10.552406
10.095835
9.204745
8.875728
8.554459
9.099841
8.375645
7.797480
8.062720
7.900596
7.422566
8.125901
7.993579
7.666945
8.353591
8.559823
8.579493
9.109974
10.251999
10.222793
9.397864
10.284781
10.440946
10.354519
11.145473
11.150837
10.935664
10.745525
10.995865
10.257959
10.496974
10.342598
11.368990
11.067986
11.335611
11.302829
11.592507
11.640787
11.620522
11.294484
11.759996
##ZVALUE=270
0.980496
1.120567
1.114607
0.949502
0.981688
1.067519
0.987649
0.991821
1.139641
1.068711
1.340508
1.197457
1.074672
1.339912
1.404881
1.514554
2.257824
6.220937
18.469691
59.863925
120.790601
250.681639
375.224948
552.761555
686.201453
778.533816
796.352029
733.884573
637.615919
458.860993
329.823494
181.958675
111.523867
75.106621
76.483488
105.710626
126.435757
155.492425
171.917677
177.410841
170.664787
150.468946
128.465891
97.666979
75.640678
49.663782
35.328865
23.592710
18.714666
14.717579
14.722943
13.322830
11.853576
11.623502
10.674596
10.675788
10.009408
10.252595
9.534955
8.401871
9.124875
8.500814
8.281469
7.813573
8.228421
8.000731
7.567406
7.727742
8.333921
8.238554
8.323789
8.851886
9.012818
9.377599
9.537935
9.125471
9.660721
9.426475
9.280443
9.210706
9.985566
9.984970
10.019541
9.699464
9.931922
10.051727
10.442734
10.474920
10.648966
10.025501
10.890961
10.522604
10.618567
10.697842
10.952950
11.055470
##ZVALUE=275
0.907779
0.931621
0.891685
0.762939
0.914931
0.955462
0.949502
0.944734
0.877976
0.863671
1.000762
1.288652
1.295805
1.384616
1.050830
1.190901
1.503825
1.360774
1.643896
3.709793
12.107491
34.738779
100.903511
185.856819
348.537564
481.106639
656.359792
775.576830
861.669779
850.462914
777.543783
595.312715
426.419973
232.789516
135.388970
70.329905
58.659911
73.832870
92.612505
125.909448
145.975947
163.273811
171.643496
162.377954
149.026513
118.073821
95.235705
66.708922
48.680902
30.107498
22.266507
15.011430
12.864470
11.840463
10.164976
10.230541
9.350777
9.121895
8.993745
8.488894
8.996725
8.730888
8.377433
7.245541
7.843971
7.598996
7.712841
8.148551
7.864833
8.311868
8.396506
8.661747
8.890629
9.282827
9.238720
9.287596
9.511709
9.361506
9.136796
9.384751
9.104609
9.468794
9.538531
10.130405
9.674430
9.990931
9.758472
9.830594
9.959936
10.160804
9.590983
10.247827
10.281801
10.621548
10.361671
10.180473
##ZVALUE=280
0.756979
0.843406
0.902414
0.939965
0.775456
0.768900
0.809431
0.973940
0.720620
0.805855
0.807643
1.077652
0.963807
0.848770
1.278520
1.150966
1.264811
1.158714
1.328588
1.526475
1.385808
1.885891
8.153915
25.132895
77.226758
143.668652
273.449421
405.416489
605.964661
747.630596
853.362679
900.552869
840.081573
658.126473
488.242507
278.890729
162.925720
74.286461
46.803951
47.975779
62.919855
91.476440
113.576651
140.270591
155.714750
162.982941
154.448748
138.366818
116.778612
85.086823
65.728426
42.609572
28.543472
17.616749
11.994839
9.553432
8.567572
8.255839
8.376837
8.186698
7.796884
8.028746
7.565618
7.718801
7.487535
7.384419
8.098483
8.129478
8.033514
8.390546
8.338690
8.463860
8.897781
9.011626
9.360909
9.222627
8.886456
9.834766
9.231567
8.978844
9.743571
9.452701
9.563565
9.483695
9.859800
9.543896
9.628534
9.781718
9.410977
9.576678
10.125637
10.133982
10.402799
9.722710
9.664893
9.798408
##ZVALUE=285
0.618696
0.587702
0.874996
0.741482
0.841618
0.733733
0.797510
0.754595
0.782609
1.079440
0.808835
0.832677
0.921488
0.691414
0.914931
0.922680
0.958443
1.035929
1.079440
0.952482
1.148582
1.322627
1.377463
1.638532
4.629493
14.892817
38.016438
102.348924
178.838968
330.688953
478.549600
691.262484
822.050571
913.624763
895.635486
758.283734
599.975586
367.630720
224.351883
100.934505
52.921772
33.128858
37.864447
57.658553
78.973770
110.863447
129.138827
147.217512
153.205991
147.507787
134.175420
111.738443
89.909434
61.108470
43.791533
25.623441
16.443729
10.780692
8.625984
7.849932
7.237792
7.675886
7.163882
7.505417
6.936789
7.202625
7.474422
7.762909
7.746816
8.333921
8.468628
8.675456
8.582473
8.668900
9.076595
9.194613
9.327531
9.279847
9.358525
9.075999
9.273887
9.735823
9.838939
9.237528
9.470582
9.756684
9.997487
9.821653
9.660721
9.761453
9.512901
9.788871
9.727478
9.995699
9.904504
10.413527
##ZVALUE=290
0.705719
0.708699
0.589490
0.744462
0.930429
0.859499
0.872612
0.799894
0.644922
0.797510
0.887513
0.867844
0.858903
0.982881
0.860691
0.894666
0.841618
0.829697
1.028776
0.881553
0.995994
0.979900
1.209974
1.412630
1.337528
1.633763
2.083778
5.976558
24.547577
58.352947
115.323663
239.309669
373.187661
584.419966
728.469491
862.159729
886.338949
791.261792
659.763813
447.422862
292.888880
142.487884
73.867440
31.986833
24.764538
36.011934
49.947500
75.268745
96.653700
122.928619
137.316585
147.532821
144.375563
129.609704
110.470653
82.499981
60.415864
39.088726
26.263595
16.019940
11.116862
7.900000
6.796718
6.946921
6.524920
6.749630
6.708503
7.042885
7.335544
7.691979
7.885695
8.585453
8.429885
8.745790
9.028912
9.117723
8.573532
9.389520
9.236932
8.739829
9.419918
9.634495
9.387732
9.741783
10.117888
9.995699
10.051727
9.642839
10.138750
10.638833
10.256767
9.551644
9.824634
10.034442
10.205507
9.998679
##ZVALUE=295
0.705719
0.737906
0.670552
0.682473
0.676513
0.551939
0.607967
0.729561
0.743866
0.653863
0.639558
0.675917
0.726581
0.497699
0.820756
0.844598
0.910759
0.860691
0.794530
0.818968
1.083612
0.993609
1.156926
1.196861
1.134872
1.158714
1.291633
1.449585
1.640916
2.784729
9.117723
37.512779
81.687570
188.961625
304.025412
483.238697
611.772537
738.527775
767.560005
712.888837
614.715815
439.959764
307.891965
164.472461
88.664889
35.956502
21.364689
20.925999
29.379725
48.127770
66.151619
94.856620
110.818744
130.998492
139.426589
137.102604
126.048923
102.149844
82.623959
57.435632
40.653944
24.519563
16.643405
10.692477
8.190870
6.784797
6.840825
7.036924
6.821752
7.401705
7.408857
7.714629
7.826686
8.322597
8.485913
8.390546
8.770823
9.191632
8.983612
9.133816
9.406805
9.776950
9.402633
9.709597
9.699464
10.333657
10.209680
9.787679
10.321736
10.099411
10.108948
10.001659
10.420680
10.122657
10.593534
10.075569
##ZVALUE=300
0.723600
0.638962
0.573993
0.609756
0.529885
0.711679
0.710487
0.550747
0.761747
0.720620
0.604987
0.742674
0.737906
0.876784
0.728965
0.761747
0.793934
0.982881
0.940561
0.771880
0.812411
0.674725
0.808835
0.739694
0.982881
1.027584
1.091957
0.982881
1.163483
1.219511
1.272559
1.466870
5.921721
19.829869
63.591599
122.715831
247.385502
366.849899
532.690883
632.427931
699.849725
693.261623
598.855615
490.090847
326.681733
211.508870
107.121468
58.936477
25.183558
15.276670
18.204451
26.089549
43.332577
59.785843
84.169507
104.613900
125.296712
131.780505
129.892826
119.358897
99.677444
80.032945
58.069825
42.932630
25.175810
16.689897
10.764599
8.310676
7.372499
7.342696
6.880760
7.591844
7.726550
8.207560
8.296967
8.307695
8.593798
8.735657
9.102821
9.425879
9.686947
9.516478
9.933710
9.951591
10.170937
10.180473
9.866953
10.447502
10.020733
10.326505
10.129809
10.395646
10.188818
9.980798
10.000467
10.070801
##ZVALUE=305
0.507832
0.580549
0.541806
0.546575
0.641942
0.640750
0.559688
0.541806
0.620484
0.669956
0.651479
0.772476
0.664592
0.652671
0.595450
0.562668
0.658631
0.684857
0.765920
0.896454
0.615716
0.835657
0.748634
0.798702
0.835657
0.864863
0.833869
0.870824
1.021624
1.085997
0.948906
1.110435
1.259446
1.328588
2.473593
13.380647
35.703778
97.488761
172.073841
317.644477
438.338518
591.517687
672.369599
694.895983
644.508004
508.279800
397.652984
249.650478
155.555010
71.380734
35.882592
15.566945
12.191534
16.209483
23.922920
40.046573
57.494640
81.464648
99.021792
117.077827
124.543905
122.333765
113.223791
95.370412
77.699423
53.443909
38.513541
24.404526
16.252995
10.982752
8.540750
8.008480
7.969737
7.851720
7.880926
8.383989
8.655787
8.856654
8.941889
9.403825
9.807944
9.922981
9.754896
9.772778
10.462999
10.330677
10.132790
10.628700
10.627508
10.555983
10.304451
10.710955
10.209680
10.290742
10.190606
10.655522
##ZVALUE=310
0.350475
0.598431
0.716448
0.507832
0.702739
0.544786
0.655651
0.753999
0.744462
0.654459
0.614524
0.514984
0.643730
0.803471
0.642538
0.554919
0.642538
0.569820
0.549555
0.544786
0.604987
0.678897
0.760555
0.468493
0.806451
0.820756
0.659823
0.745654
0.845790
0.918508
0.794530
0.926852
0.937581
0.861883
1.033545
1.248717
1.627803
5.734563
18.794537
60.127974
116.738677
235.170722
354.387760
515.779853
613.597631
679.770708
667.159557
582.000613
479.310751
318.360925
211.640000
106.246471
56.983829
22.552609
11.888742
10.139942
13.582706
23.846626
33.890605
52.907467
69.606900
93.528628
106.014609
118.728876
117.539763
109.854937
95.592737
75.151920
58.523417
37.383437
26.663542
17.193556
11.801720
9.263754
8.362532
8.505583
8.367896
8.697510
8.930564
9.158850
9.562969
9.349585
9.649992
9.824634
10.060668
10.032654
10.613799
10.686517
10.486841
10.158420
10.571480
10.567904
10.768771
10.502934
11.035800
10.402799
##ZVALUE=315
0.556707
0.609756
0.576973
0.558496
0.468493
0.547767
0.400543
0.565648
0.417829
0.771880
0.614524
0.611544
0.649691
0.519753
0.613928
0.571609
0.695586
0.636578
0.642538
0.714660
0.683665
0.678897
0.730753
0.781417
0.615716
0.834465
0.735521
0.924468
0.760555
0.647902
0.837445
0.925660
0.784993
0.850558
0.871420
0.855923
1.184940
1.338720
1.290441
2.693534
9.593964
37.921667
81.399679
179.835558
287.422538
453.032851
556.906462
651.403666
669.654012
611.335635
524.638891
374.916792
263.927579
140.078664
78.056455
29.877424
14.506578
8.712411
9.299517
13.539791
19.606948
33.654571
46.359897
67.602992
84.626675
103.293657
110.839605
112.070441
105.840564
89.033842
73.235631
53.932667
40.655732
24.833679
17.801523
12.333989
10.138750
9.457469
9.151697
9.297729
9.204745
9.249449
9.715557
9.670854
9.979606
10.275841
10.323524
10.040998
10.294914
10.641813
10.361671
10.666847
10.557771
10.075569
10.367632
10.627508
##ZVALUE=320
0.558496
0.527501
0.582933
0.553727
0.440478
0.440478
0.460744
0.541806
0.557899
0.543594
0.595450
0.624657
0.675917
0.553727
0.531673
0.622869
0.476837
0.410676
0.542998
0.565648
0.726581
0.577569
0.776649
0.687838
0.784993
0.678897
0.705719
0.807643
0.804663
0.590682
0.857711
0.943542
0.763535
0.862479
0.828505
0.989437
0.878572
1.023412
1.068711
1.236796
1.041889
1.544952
4.420877
21.251440
52.634478
134.264827
220.417976
357.682705
474.497676
597.458482
648.116469
638.622642
572.666526
439.147949
320.049524
177.677870
102.262497
44.017434
21.603703
9.370446
7.772446
9.202957
11.619925
18.839836
27.020574
43.748617
59.465766
80.766678
92.666745
105.659962
105.772614
98.872781
88.035464
69.073439
53.338408
36.071539
25.874972
17.092824
13.479590
10.344982
10.070801
9.450912
9.472966
9.395480
9.783506
9.548664
10.212660
10.019541
10.190606
10.225773
10.338426
9.999871
10.068417
10.074973
10.463595
10.067821
##ZVALUE=325
0.455976
0.613928
0.490546
0.345707
0.471473
0.498891
0.555515
0.540614
0.509620
0.582933
0.431538
0.512600
0.524521
0.371933
0.455976
0.574589
0.495911
0.512600
0.630617
0.694990
0.456572
0.536442
0.567436
0.647902
0.618696
0.719428
0.587702
0.602603
0.931621
0.849962
0.561476
0.700951
0.736713
0.762939
0.638962
0.880957
0.716448
0.637770
0.649691
0.992417
0.988841
1.103878
1.099706
1.144409
2.494454
14.221668
35.915971
90.122819
160.416961
295.383930
406.503677
542.338490
612.672567
635.593534
587.994456
466.342568
351.079702
214.105844
129.991770
58.795810
29.675961
11.592507
7.635951
7.670522
8.541942
12.049675
17.346740
28.186440
41.122437
61.060786
75.185895
90.049505
99.575520
99.396706
93.289614
78.750849
64.575672
47.180653
35.935640
23.229718
17.563701
12.711883
10.852814
9.665489
9.839535
9.562969
9.990931
9.714961
9.615421
9.816885
9.831786
9.665489
9.645820
9.813905
10.444522
9.694695
##ZVALUE=330
0.322461
0.375509
0.372529
0.458956
0.513792
0.357628
0.481606
0.417829
0.480413
0.323653
0.405908
0.313520
0.530481
0.479817
0.485778
0.425577
0.522733
0.553727
0.414848
0.394583
0.530481
0.593662
0.481606
0.429749
0.470877
0.495911
0.712872
0.524521
0.617504
0.460744
0.582933
0.739694
0.620484
0.687838
0.796914
0.626445
0.745654
0.787973
0.779629
0.813603
0.693798
0.807643
0.857711
1.042485
1.010895
1.142621
1.546741
6.069541
18.871427
61.615705
115.792751
227.750540
333.863497
475.165844
563.506484
620.856881
598.421693
504.344702
400.629640
259.635448
166.766644
78.802705
41.167736
16.366839
9.068847
6.923676
7.173419
8.150935
10.586977
17.363429
25.634766
39.876699
53.436756
72.717667
84.158778
93.236566
93.865991
86.673498
77.621937
59.818625
47.488809
32.768846
24.111867
16.869903
13.940930
11.116862
10.136962
9.585619
9.385943
9.153485
9.336472
8.993745
9.108782
9.123683
9.251833
9.338856
##ZVALUE=335
0.333786
0.312924
0.282526
0.221729
0.358820
0.463724
0.198483
0.271797
0.295639
0.184774
0.204444
0.236630
0.302792
0.234842
0.281930
0.174642
0.259876
0.395775
0.305772
0.257492
0.343919
0.421405
0.452995
0.386834
0.377893
0.307560
0.381470
0.373721
0.398755
0.496507
0.745654
0.330806
0.393987
0.579953
0.448823
0.307560
0.554919
0.546575
0.656843
0.655651
0.660419
0.456572
0.583529
0.684857
0.657439
0.806451
0.877976
1.061559
0.862479
2.727509
9.804964
37.372708
76.911449
168.708563
265.559554
415.825844
512.093902
589.438677
598.324537
533.296466
444.108844
302.057862
204.075575
105.633736
56.068897
21.586418
10.723472
7.072687
6.852746
6.695986
7.901788
11.106730
15.465617
26.043653
36.950707
54.327846
66.954494
80.063939
86.362958
87.430477
82.159638
70.930719
59.801936
44.886470
34.779906
23.980737
17.902851
12.980700
11.035800
9.376407
9.437799
8.982420
8.743405
8.663535
8.507967
8.902550
##ZVALUE=340
0.370741
0.387430
0.484586
0.447631
0.541806
0.478625
0.407696
0.525713
0.489950
0.380874
0.364780
0.567436
0.430942
0.362992
0.315905
0.473857
0.417829
0.485778
0.509620
0.465512
0.413656
0.524521
0.455976
0.601411
0.431538
0.453591
0.602603
0.623465
0.626445
0.608563
0.590682
0.407696
0.536442
0.544786
0.614524
0.584722
0.599623
0.671744
0.639558
0.604987
0.591874
0.761747
0.696778
0.721812
0.932813
0.918508
0.902414
0.825524
0.900626
1.046658
1.057982
1.740456
4.957914
23.651719
54.666996
131.760836
218.993425
352.114439
450.859666
552.504659
581.300855
544.204712
471.436977
348.140597
243.130922
127.762556
72.536469
30.619502
14.291406
7.482767
6.850958
6.468892
6.773472
8.443594
10.717511
16.901493
24.150610
36.691427
49.234629
64.343810
74.459910
82.171559
82.779527
77.630877
70.303679
56.116581
45.931935
32.582879
24.701953
17.776489
13.551712
10.123849
9.474754
8.751750
8.294582
8.419752
##ZVALUE=345
0.401735
0.432730
0.340939
0.414848
0.387430
0.521541
0.484586
0.526905
0.637770
0.632405
0.446439
0.572801
0.530481
0.394583
0.382662
0.534654
0.332594
0.460744
0.420809
0.485778
0.511408
0.431538
0.585914
0.522733
0.674725
0.584722
0.599623
0.500679
0.545979
0.446439
0.488758
0.587702
0.573993
0.664592
0.655651
0.735521
0.581741
0.543594
0.589490
0.599623
0.746846
0.626445
0.797510
0.850558
0.687838
0.742674
0.748634
0.711679
0.820756
0.783801
0.965595
1.016855
1.094937
1.075864
2.194643
13.221502
34.919977
89.403987
157.797933
277.856588
374.825597
489.786863
542.639494
547.654629
497.056842
380.668640
283.928514
166.443586
96.792579
39.258599
19.503832
8.773804
7.033944
6.473660
6.578565
6.664991
7.785559
10.346770
14.070868
22.881627
32.651424
47.002435
57.396889
68.253875
74.211955
76.680779
73.421001
65.501928
56.106448
43.651462
33.709407
22.850633
17.477870
12.492537
10.404587
8.924603
##ZVALUE=350
0.441670
0.409484
0.382662
0.379682
0.548959
0.414848
0.329614
0.492930
0.392795
0.364780
0.648499
0.476837
0.373721
0.435710
0.544786
0.492930
0.521541
0.433922
0.493526
0.480413
0.565648
0.428557
0.382662
0.344515
0.483990
0.378489
0.529885
0.597835
0.553727
0.536442
0.422597
0.554919
0.436902
0.566840
0.519753
0.541806
0.485778
0.523925
0.543594
0.579953
0.597835
0.503659
0.607967
0.574589
0.754595
0.708699
0.638962
0.658631
0.585914
0.693798
0.825524
0.998974
0.979900
0.874996
0.763535
0.808835
1.410842
7.111430
21.368861
60.530901
113.812685
227.782726
322.881937
425.157547
498.493910
533.386469
505.006909
414.678454
319.619775
190.818906
116.577744
54.164529
26.628971
10.219812
6.996989
6.490946
6.242990
6.087422
6.415844
7.435679
9.579659
14.464855
20.007491
29.739738
38.314462
51.154494
58.981776
67.076683
69.320798
67.589879
62.020421
50.538778
41.664839
30.380487
23.258924
16.040802
##ZVALUE=355
0.431538
0.319481
0.463724
0.469685
0.438690
0.420809
0.546575
0.378489
0.488758
0.424981
0.436902
0.302792
0.261664
0.384450
0.230670
0.491738
0.481606
0.411868
0.475645
0.370741
0.511408
0.563860
0.494719
0.331998
0.455976
0.439882
0.502467
0.470877
0.450611
0.599623
0.612736
0.585914
0.531673
0.634789
0.613928
0.476837
0.462532
0.533462
0.436902
0.441670
0.418425
0.533462
0.506639
0.548959
0.755787
0.544786
0.540614
0.732541
0.782609
0.757575
0.852942
0.733733
0.664592
0.785589
0.879765
0.851750
0.880957
1.008511
1.018643
3.215671
11.052489
40.371418
79.819560
163.151622
251.702666
379.588008
456.084013
509.969592
505.515933
427.090526
346.857905
231.225491
147.429705
66.237450
32.580495
12.412667
7.455945
6.036758
5.998611
5.874634
5.931854
6.213784
6.941557
9.036660
11.589527
18.217564
24.449825
35.120845
43.534636
54.637790
60.263872
63.245893
62.421560
56.454539
50.034523
39.133430
##ZVALUE=360
0.324845
0.403523
0.413656
0.363588
0.543594
0.426769
0.488758
0.427961
0.446439
0.399947
0.476837
0.489950
0.526905
0.472665
0.341535
0.532866
0.471473
0.682473
0.509620
0.430942
0.445843
0.592470
0.550747
0.600815
0.590682
0.602603
0.615716
0.431538
0.349879
0.599623
0.482798
0.716448
0.442863
0.506639
0.513792
0.520945
0.609756
0.504851
0.524521
0.611544
0.640750
0.530481
0.504851
0.550747
0.540614
0.613928
0.565648
0.658631
0.630617
0.638962
0.763535
0.694990
0.735521
0.794530
0.870824
0.645518
0.824928
0.923872
0.997782
1.010895
1.096725
1.697540
5.123615
21.544695
50.165653
119.683743
192.307830
307.614803
399.113894
487.391949
498.588681
459.253788
386.333466
264.926553
176.938772
87.339878
45.970678
18.382668
9.184480
5.845428
5.621910
5.451441
5.213618
5.297661
5.697608
6.096959
7.059574
10.060668
13.810992
20.533800
27.682781
38.567781
46.154857
53.449869
57.096481
56.579709
##ZVALUE=365
0.458956
0.493526
0.451803
0.416636
0.499487
0.416636
0.461936
0.423789
0.442863
0.432730
0.447631
0.531673
0.528693
0.523925
0.351667
0.492930
0.419617
0.420809
0.357628
0.544786
0.624657
0.375509
0.484586
0.372529
0.407696
0.575781
0.500679
0.460744
0.550747
0.685453
0.433922
0.504851
0.543594
0.564456
0.640750
0.683665
0.577569
0.306964
0.630617
0.607967
0.403523
0.534654
0.689626
0.578761
0.570416
0.566840
0.546575
0.541806
0.775456
0.641942
0.710487
0.556707
0.578761
0.749826
0.866652
0.790954
0.706911
0.712872
0.807643
0.774860
0.759959
0.930429
0.986457
1.318455
2.903938
9.739995
34.713745
72.154999
160.819888
249.970555
374.954939
446.835756
501.363873
495.611429
420.534611
337.343812
217.280984
133.849978
60.257912
29.750466
10.882616
6.446838
5.320907
5.197525
5.195737
5.219579
5.102754
5.076528
5.648732
6.146431
8.433461
11.444688
17.575622
23.735762
33.004880
39.348602
##ZVALUE=370
0.388622
0.298619
0.373721
0.450611
0.462532
0.335574
0.534654
0.506639
0.454783
0.417829
0.538826
0.366569
0.341535
0.406504
0.459552
0.565648
0.422597
0.402927
0.395775
0.323653
0.469685
0.318885
0.367761
0.387430
0.436902
0.495911
0.424981
0.390410
0.299811
0.568628
0.460744
0.531673
0.459552
0.558496
0.633597
0.377893
0.563860
0.558496
0.475645
0.545979
0.522733
0.460744
0.563860
0.571609
0.479817
0.440478
0.710487
0.505447
0.562668
0.555515
0.556707
0.654459
0.653863
0.663996
0.583529
0.738502
0.515580
0.518560
0.625849
0.581741
0.768900
0.633597
0.783801
0.800490
0.904799
0.867844
1.461506
6.788969
20.486712
59.517622
109.800696
206.429958
297.696590
406.971574
459.246635
474.332571
432.547927
337.789655
250.603557
140.834451
80.588460
32.445788
15.689731
6.798506
5.173683
4.790425
4.622936
4.642606
4.549623
4.320741
4.751682
4.920959
5.280972
7.338524
9.908676
14.895797
##ZVALUE=375
0.403523
0.435710
0.376701
0.366569
0.186563
0.368953
0.433922
0.373721
0.539422
0.431538
0.540614
0.339746
0.369549
0.405908
0.394583
0.419617
0.537634
0.427961
0.354648
0.685453
0.382662
0.375509
0.324845
0.285506
0.352859
0.502467
0.354648
0.387430
0.411868
0.370741
0.392795
0.480413
0.532866
0.395775
0.444651
0.453591
0.368953
0.394583
0.600815
0.422597
0.524521
0.466704
0.575781
0.508428
0.540614
0.547767
0.577569
0.533462
0.531673
0.491738
0.548959
0.504851
0.548959
0.584722
0.500679
0.544786
0.372529
0.508428
0.767708
0.647902
0.668764
0.776649
0.612736
0.501871
0.635982
0.627637
0.740886
0.963807
1.190901
2.779961
14.665723
34.794807
84.909797
148.567557
255.897641
336.039662
426.683426
464.478731
446.190834
386.568904
277.076960
194.419622
109.321475
61.802864
25.483966
12.350678
5.538464
4.430413
4.383922
4.341602
4.261732
4.173517
4.168749
4.300475
4.502535
4.930496
##ZVALUE=380
0.343919
0.508428
0.291467
0.262856
0.412464
0.461936
0.441670
0.409484
0.359416
0.463724
0.360608
0.263453
0.370741
0.407696
0.445843
0.416636
0.416636
0.533462
0.390410
0.530481
0.343919
0.466704
0.408888
0.356436
0.505447
0.236630
0.552535
0.382662
0.474453
0.408888
0.593662
0.517964
0.555515
0.458956
0.409484
0.516772
0.578761
0.489950
0.369549
0.422597
0.471473
0.462532
0.400543
0.590682
0.518560
0.625849
0.538826
0.494719
0.423789
0.437498
0.536442
0.457764
0.365973
0.564456
0.497699
0.578761
0.394583
0.450611
0.587702
0.618696
0.690818
0.637770
0.663996
0.483990
0.667572
0.799894
0.610948
0.721812
0.741482
0.993609
1.066923
1.789927
6.271601
26.625991
58.388710
129.835606
203.649998
311.862826
387.774706
453.022718
454.788804
398.268700
323.613882
217.120647
145.216584
72.633624
38.160682
14.447570
7.378459
4.448891
4.067421
4.004836
3.956556
4.090667
3.841519
3.984571
##ZVALUE=385
0.370741
0.361800
0.413656
0.258684
0.244975
0.189543
0.246763
0.260472
0.372529
0.316501
0.418425
0.509620
0.443459
0.394583
0.332594
0.497699
0.474453
0.498891
0.340939
0.352859
0.401735
0.295639
0.357628
0.345707
0.429749
0.539422
0.426769
0.324845
0.494719
0.377893
0.483990
0.440478
0.561476
0.517964
0.490546
0.640750
0.560880
0.403523
0.473857
0.416636
0.306964
0.458956
0.527501
0.427961
0.510812
0.493526
0.493526
0.483990
0.379682
0.369549
0.402927
0.379682
0.575781
0.511408
0.531673
0.575781
0.531673
0.589490
0.369549
0.528693
0.484586
0.674725
0.613928
0.589490
0.443459
0.549555
0.645518
0.602603
0.592470
0.782609
0.831485
0.806451
0.983477
1.214743
2.853870
15.245676
37.418604
89.297891
154.068470
270.604491
362.170935
452.966690
479.859710
458.145738
403.917432
293.960571
206.458569
111.923814
62.538981
25.740862
11.420846
4.846454
3.944635
3.886819
3.649592
3.428459
##ZVALUE=390
0.370741
0.292659
0.426769
0.420809
0.319481
0.482798
0.296831
0.339746
0.344515
0.285506
0.316501
0.281930
0.388622
0.310540
0.423789
0.355840
0.454783
0.343919
0.587702
0.444651
0.495911
0.408888
0.518560
0.362992
0.290871
0.464916
0.440478
0.330806
0.355840
0.424981
0.350475
0.329614
0.419617
0.604987
0.377893
0.481606
0.596642
0.512600
0.561476
0.490546
0.675917
0.617504
0.526905
0.513792
0.361800
0.434518
0.531673
0.553727
0.414848
0.514984
0.520945
0.625849
0.455976
0.450611
0.444651
0.630617
0.629425
0.610948
0.462532
0.579953
0.585914
0.512600
0.471473
0.340939
0.508428
0.642538
0.618696
0.679493
0.696778
0.597835
0.782609
0.727773
0.717640
0.743866
1.072884
0.945926
1.627803
8.332729
23.497939
66.944957
121.593475
224.456787
305.347443
394.314528
435.626507
445.698500
410.480499
323.416591
243.579745
148.215890
86.311698
35.893917
17.803907
6.987453
4.294515
3.702641
##ZVALUE=395
0.268817
0.290871
0.168681
0.269413
0.167489
0.258684
0.306964
0.170469
0.301600
0.174642
0.166893
0.343919
0.223517
0.330806
0.380874
0.220537
0.162721
0.396967
0.410676
0.362992
0.316501
0.186563
0.421405
0.147820
0.182986
0.293851
0.373721
0.457764
0.136495
0.457764
0.060797
0.322461
0.522733
0.149608
0.382662
0.373721
0.329614
0.212789
0.460744
0.373721
0.209808
0.346899
0.493526
0.459552
0.340939
0.490546
0.193715
0.327826
0.431538
0.338554
0.459552
0.396967
0.363588
0.493526
0.402927
0.356436
0.403523
0.385642
0.287890
0.358820
0.352859
0.525713
0.388622
0.466704
0.263453
0.495911
0.528693
0.644922
0.571609
0.498891
0.503659
0.566840
0.771880
0.528693
0.443459
0.632405
0.775456
0.717640
0.868440
4.423857
15.766621
50.198436
92.854500
170.257688
246.566534
350.753665
413.053632
451.214910
436.172485
368.441939
287.720561
178.411007
113.834739
53.783655
20.439625
9.730458
##ZVALUE=400
0.452995
0.323653
0.415444
0.336766
0.353456
0.268817
0.206828
0.451803
0.459552
0.284910
0.313520
0.340939
0.430942
0.555515
0.543594
0.515580
0.441670
0.256896
0.326633
0.355840
0.180602
0.407696
0.550747
0.521541
0.341535
0.381470
0.450611
0.337958
0.446439
0.503659
0.528693
0.645518
0.674725
0.602603
0.491738
0.616908
0.606775
0.450611
0.574589
0.552535
0.448823
0.428557
0.548959
0.490546
0.446439
0.434518
0.509620
0.422597
0.354648
0.616908
0.562668
0.401735
0.437498
0.538826
0.436902
0.465512
0.388622
0.381470
0.420809
0.543594
0.449419
0.482798
0.531673
0.607967
0.578761
0.516772
0.692606
0.510812
0.536442
0.671744
0.642538
0.816584
0.735521
0.740886
0.717640
0.669956
0.754595
0.771880
0.713468
0.896454
1.029968
2.498627
8.240938
29.265881
60.643554
136.902928
203.808546
305.008888
372.091532
427.601933
431.072712
376.052856
308.502913
205.923915
134.887695
67.948699
##END
