##TITLE=FKDZ0102
##FORMAT=SPECTACLE-ASCII V-1.2
##DATA TYPE=ULTRAVIOLET SPECTRUM
##SECOND TYPE=ULTRAVIOLET SPECTRUM
##DATE=02/28/18
##TIME=17:22:55
##SPECTROMETER/DATA SYSTEM=SPECTACLE
##XUNITS=NM EM
##YUNITS=ENERGY
##YFACTOR=1
##FIRSTX=220
##LASTX=410
##NPOINTS=96
##3DDATA=Equidistant
##ZUNITS=NM EX
##FIRSTZ=210
##LASTZ=400
##ZPOINTS=39
##XYDATA=(Y..Y)
##ZVALUE=210
2.532601
3.199577
3.300905
2.770424
2.817512
3.255606
3.291965
3.503561
2.909899
3.026724
2.709627
2.699494
2.086759
2.372861
2.230406
3.026724
2.628565
2.519488
2.723932
3.344417
2.781749
3.259778
3.244877
3.270507
3.936887
5.256534
5.326867
5.742908
6.626844
8.466840
10.931492
9.788871
11.462569
11.685491
12.083650
11.787415
13.625622
12.604594
11.854768
10.924935
10.736585
10.316968
11.106730
10.345578
9.212494
8.593798
9.169579
8.879900
8.197427
7.408857
7.256866
7.216930
7.529855
6.804466
6.248951
6.183982
5.814433
4.618764
5.932450
5.359650
5.037785
5.679727
5.713701
4.825592
5.098581
6.428957
5.464554
5.882978
7.038713
6.449819
7.349849
9.314418
10.005832
11.397600
11.808872
14.327765
16.083717
15.677810
17.029643
16.705990
16.583800
13.979673
12.987852
12.210608
9.573698
7.672906
6.805658
6.676912
5.491972
4.545450
5.433559
5.034804
5.087852
4.787445
5.404949
5.580783
##ZVALUE=215
8.535981
8.025765
7.626414
6.164908
5.638599
5.002618
5.825758
6.276965
6.242990
5.879998
5.929470
4.688501
4.637837
4.196763
3.045797
3.288984
2.740622
3.242493
3.215671
2.616644
3.046989
3.251433
3.292561
3.484488
4.329681
5.061626
6.999969
9.354949
11.208653
12.909770
15.379786
17.009974
18.451810
21.108985
19.945502
21.144748
20.397902
18.935800
20.749569
19.578934
18.651485
17.010570
16.038418
15.256405
15.093684
15.189648
13.506413
12.554526
11.701584
11.545420
10.630488
9.599924
9.410977
9.057522
8.473992
8.769631
7.567406
7.505417
6.539822
6.855726
6.978512
6.480813
6.501675
7.106662
6.616712
5.888939
5.752444
6.628633
6.758571
6.754994
8.121729
9.283423
9.909868
11.745691
12.411475
13.945699
17.217994
15.844703
16.616583
17.206669
14.725924
15.524626
12.079477
11.031628
8.315444
8.687973
7.198453
6.378889
6.201863
6.122589
4.790425
5.592704
5.511642
5.301833
5.094409
5.547404
##ZVALUE=220
24.016500
23.892522
22.840500
25.839806
21.422505
17.089844
15.336871
12.445450
12.425780
13.568997
14.819503
13.541579
13.848543
11.930466
9.886622
6.821752
6.369948
4.717708
3.807545
4.023910
3.441572
3.734827
4.007816
3.950596
5.445480
7.335544
9.466410
12.553930
15.733838
18.148422
22.698641
26.052594
28.593540
30.433536
30.852556
33.560991
33.116937
31.206608
31.128526
31.397939
30.272603
27.412772
25.336742
25.007725
22.234917
20.779967
20.496845
18.264651
16.631484
15.609860
14.717579
13.931990
14.303923
12.487769
12.005568
10.282993
9.829998
10.449886
9.313822
8.615851
8.542538
7.934570
7.411838
7.796884
7.827878
7.599592
8.094907
7.799864
7.999539
8.209944
9.480715
9.197593
9.785891
11.532903
13.500452
14.109612
14.131665
15.012622
14.354587
13.558865
13.450980
11.921525
11.597872
10.222793
9.713769
8.643866
7.604957
6.638765
6.652474
5.612969
6.687641
6.222725
6.576777
6.338954
5.508661
5.781651
##ZVALUE=225
34.684539
37.592649
48.225522
59.565902
62.089562
65.605640
58.231950
48.671961
39.087534
30.372739
26.411414
23.988485
25.637746
27.765632
27.535558
26.786923
22.333860
17.727613
13.959408
8.854866
6.103516
4.983544
4.520416
5.080700
5.494952
7.928610
9.590983
14.238954
17.571449
21.570921
24.593472
30.495524
32.366514
36.454797
36.010742
37.065744
37.973523
36.838651
37.156940
35.392642
34.384727
33.188462
29.473901
28.125644
26.928782
23.859739
24.284720
21.272898
19.566417
17.840862
18.387437
16.682744
15.249848
14.131665
13.379455
13.367534
13.020635
11.920929
11.136532
12.570620
10.608435
10.047555
8.934736
9.643435
9.396672
9.670854
8.981824
8.608699
8.971691
8.287430
10.293722
11.409521
10.780692
12.398958
14.141798
12.629628
14.650822
14.417768
13.602972
14.581680
14.033914
12.490749
11.676550
11.075735
9.916425
10.050535
7.866621
8.024573
7.284880
8.268952
7.937551
7.476807
8.542538
7.614493
8.202791
7.719994
##ZVALUE=230
29.764771
32.646656
49.886703
86.003542
108.521581
139.754415
150.061846
145.812631
136.187673
113.438964
80.157518
57.545900
44.294596
43.135881
45.631528
50.254464
51.376820
49.354434
42.061806
33.966899
27.343631
17.288923
13.147593
7.576942
6.450415
8.658767
8.535981
10.421872
13.712645
15.925765
19.880533
22.150874
25.970936
27.099848
28.513670
30.918717
29.893517
28.211474
29.874444
26.984811
28.442740
27.571917
25.594831
23.680925
22.295713
20.007491
19.783974
18.508434
18.219948
16.885996
15.791655
14.193654
13.066530
15.567541
12.540817
13.354421
11.974573
13.045669
12.445450
12.979507
10.712743
10.586977
10.714531
9.913445
10.261536
11.098981
11.141896
10.718703
10.391474
10.919571
12.058616
11.856556
13.514757
15.572906
15.872717
17.093420
18.805861
16.436577
16.136765
16.235709
16.790628
17.111897
15.685558
13.477802
11.926889
10.812879
9.652972
10.731816
10.674596
10.762811
9.106994
9.496808
9.689927
10.170937
10.754466
9.985566
##ZVALUE=235
9.854436
11.036992
26.599765
62.774420
99.666715
170.833468
236.249566
305.122733
354.209542
365.316868
329.018831
269.627571
193.325877
140.586495
101.551414
79.773664
72.246790
77.439547
83.398819
83.822608
83.033442
64.706802
50.918460
38.508773
26.010871
15.428662
12.767911
10.527968
10.035634
11.346936
12.997985
14.223456
14.958978
15.951991
17.514825
17.497540
17.356873
17.220974
18.447638
17.953515
18.166900
17.733574
18.406510
18.047690
16.548634
15.290976
15.614629
12.824535
13.644695
13.909936
11.864901
12.919903
12.877584
13.180971
13.357997
13.282895
13.782978
11.586547
11.663437
11.226535
10.874867
11.673570
10.351539
10.377765
12.076497
10.944605
10.713935
12.142658
12.535453
12.797713
13.949871
14.373660
15.221834
17.454624
16.918778
16.915798
18.160939
17.266870
18.449426
17.140508
15.104413
15.583634
16.392469
14.698505
13.587475
15.482903
14.264584
13.766885
13.826489
12.239814
12.844801
13.224483
11.875629
13.311505
14.130473
12.462735
##ZVALUE=240
2.357960
2.006888
5.639791
13.704896
36.879778
87.927580
145.240426
261.157751
349.790454
453.408957
495.074987
494.230986
450.092554
352.400541
274.655819
172.098875
126.553774
96.149445
92.255473
101.870894
110.829473
118.661523
115.607977
107.126832
83.353519
68.526864
48.345923
34.094453
22.210479
16.847849
13.629794
13.184547
14.157891
12.569427
14.234781
13.760924
14.538765
15.171766
14.472604
14.195442
15.369654
13.846755
14.762878
13.142824
13.448000
14.422536
14.670491
12.221932
11.869669
12.080669
11.732578
11.749864
12.724996
12.181997
10.629892
9.754896
11.351705
11.437535
10.792613
10.665655
10.448694
11.599660
10.841489
10.003448
11.508465
11.779666
12.611747
11.216998
12.395978
12.622476
14.120936
14.039874
15.687943
16.124845
15.471578
16.472936
16.609430
14.384985
14.758706
17.571449
16.264915
17.153621
15.375614
15.519857
16.145706
17.627478
13.993979
15.774965
15.138984
15.464425
15.644431
14.979839
15.470982
15.540719
15.988946
14.860630
##ZVALUE=245
1.954436
1.903772
1.880527
1.897812
3.747940
12.481809
31.225681
81.864595
142.919421
227.957964
371.117592
467.665792
546.289682
559.518933
517.112613
443.647504
313.307643
234.123468
154.062510
113.546848
99.873543
104.593635
116.886497
133.568645
139.834881
132.013559
122.567415
99.504590
80.699921
58.493614
44.022799
29.366612
24.157763
17.249584
18.563867
19.247532
17.892718
17.797947
16.787648
17.575622
17.568469
16.542673
16.145706
14.964938
15.220642
14.150739
13.424754
12.638569
12.881756
13.578534
13.673902
12.168884
12.848973
12.253523
11.521578
12.294650
11.385679
11.089444
10.950565
10.607839
10.942817
10.471940
10.920763
11.305809
9.663701
10.144711
11.687875
11.233687
11.690855
12.332797
12.975931
13.512969
13.390779
14.539957
14.806986
13.534427
14.664531
14.950633
14.562607
14.521480
15.500784
14.854670
14.278889
14.321804
13.830662
15.957952
15.881658
13.806820
15.157461
14.453530
14.907718
15.618801
15.133619
15.912652
15.216470
15.035868
##ZVALUE=250
1.312494
1.701713
1.722574
1.506805
1.649857
1.997948
2.537966
6.048679
25.149584
52.722692
121.230483
199.470520
289.819837
408.611894
480.727553
536.896586
528.230667
465.029478
392.700434
278.108716
191.813707
136.269927
96.844435
97.192526
112.433434
127.514601
147.535801
152.992606
145.015717
135.833621
118.215680
93.888640
73.449612
52.752495
40.230751
31.130910
27.002692
25.707483
24.553537
24.252534
24.966598
23.161769
22.994876
21.969676
20.132661
20.273924
19.129515
17.910600
17.889738
16.360879
15.915632
15.522838
14.673471
13.822913
13.453960
12.409687
11.442900
10.967851
10.736585
10.898709
10.495782
10.169744
9.769797
10.772943
9.885430
10.369420
11.159778
10.495782
11.261702
11.144876
10.894537
12.628436
12.956858
12.822747
12.791753
13.513565
13.981462
13.190508
14.691949
14.370680
13.772845
14.050603
14.390945
14.370680
14.295578
14.232993
13.815761
15.169978
14.331937
14.572740
14.325976
13.735890
15.050769
14.406443
14.782548
15.237927
##ZVALUE=255
1.191497
1.286864
1.266599
1.374483
1.105666
1.363754
1.449585
1.370907
1.637936
3.416538
14.930964
36.587715
72.028637
152.348876
235.358477
368.231535
457.842946
541.282892
570.651889
540.815592
468.508601
373.329520
240.335464
161.962509
100.624561
87.251663
96.327662
115.719438
144.511461
160.167813
173.123479
172.353983
158.991814
136.857629
115.042925
87.241530
70.290565
52.039623
42.382479
37.613511
34.710765
32.595992
32.169819
30.398965
28.762817
27.925968
26.116967
23.437738
23.680925
21.182895
21.051764
17.373562
17.817616
16.319752
15.537739
14.912486
14.142990
13.237000
11.467934
12.712479
12.504458
12.264848
11.380911
11.020899
10.121465
11.516809
10.921955
10.901690
11.247993
10.632873
10.270476
11.648536
10.802746
11.078715
12.226701
12.549758
12.416840
12.762547
12.478828
13.186932
12.791753
12.746453
13.602972
13.258457
12.931824
12.946725
13.665557
13.802648
12.757778
13.846755
13.836622
14.886856
13.712645
13.308525
13.501644
14.395714
##ZVALUE=260
0.699759
0.880957
1.140833
0.950694
0.982881
0.928640
1.159906
1.135468
1.444817
1.321435
1.448989
1.913905
5.231500
21.656752
49.752593
118.940473
195.843577
324.168801
437.047482
559.669733
620.419979
629.148483
555.214882
456.418991
314.212441
218.773484
138.795972
101.741552
93.345642
104.876757
128.473639
164.821744
186.991692
197.685957
197.296739
177.612901
158.655643
129.160881
106.846690
80.146790
67.360997
53.326488
48.055649
43.159723
39.087534
35.271645
35.176873
31.666756
30.522943
28.207898
25.791526
24.706721
22.209883
21.242499
18.683672
17.812848
17.004609
15.294552
15.837550
14.194846
13.514757
12.620687
11.810660
11.855960
12.086630
10.863543
10.536909
10.441542
11.030436
10.992885
11.308789
11.213422
12.483597
11.757612
11.981726
11.757612
11.810660
12.061000
12.013912
12.019873
11.690855
11.682510
11.709929
12.294650
12.572408
12.184978
11.721849
13.351440
12.804866
13.408661
12.768507
12.522936
12.070537
12.792945
12.421608
13.095737
##ZVALUE=265
1.253486
0.960827
1.118779
1.095533
1.156926
1.193881
1.188517
1.303554
1.464486
1.208782
1.122952
1.468658
1.516938
1.552701
3.422499
14.612675
36.164522
92.547536
163.068771
305.572748
423.638821
540.542603
654.277802
683.194995
619.257689
535.525680
407.227874
297.627449
183.658600
131.410956
107.733607
110.226870
130.149722
164.747834
187.918544
211.958885
219.090581
209.990740
197.269917
166.567564
135.120749
105.576515
86.941719
65.102577
57.025552
46.707988
42.538643
39.858818
36.729574
33.264756
31.456947
30.031800
27.420521
25.420785
22.876859
20.479560
18.672943
17.904639
17.751455
16.495585
14.617443
14.120936
13.113618
13.669729
12.350678
12.054443
11.507869
11.464953
11.303425
11.014938
11.346936
11.274815
11.928678
12.034774
11.613965
11.794567
12.734532
11.562705
11.742711
12.388825
12.414455
11.820793
11.824965
11.228919
12.003779
12.439489
12.102723
12.387633
12.714863
12.014508
12.592673
12.377501
12.237430
12.508631
12.212992
12.641549
##ZVALUE=270
0.921488
0.807643
0.935793
1.084805
1.234412
1.059771
0.962615
1.076460
1.151562
1.049638
1.098514
1.137853
0.942945
1.241565
1.395941
1.569986
1.948476
7.148981
19.930601
63.995719
127.839446
224.492550
399.936438
542.052984
695.343018
763.793588
781.209469
728.023648
593.873858
463.795662
334.282517
200.620890
139.865875
111.689568
117.435455
147.256851
172.337890
198.669434
212.941766
219.389796
214.339495
189.607739
166.757703
131.894946
104.835629
76.858997
60.897470
48.218966
43.066740
36.118627
32.963753
29.075742
27.971864
24.933815
23.170710
21.674633
20.664930
19.096732
17.384887
17.435551
15.674829
14.438629
14.021993
13.420582
12.308955
12.705922
12.656450
11.920929
11.720657
12.050867
11.730790
11.723638
12.018681
11.640787
11.721849
12.266636
11.975765
11.753440
11.789799
12.267828
11.822581
12.033582
11.623502
11.875629
11.612773
11.430979
12.056828
12.566447
11.753440
11.665821
12.100935
12.349486
11.969805
11.927485
12.207627
11.627674
##ZVALUE=275
0.975728
0.940561
0.994802
1.000762
0.881553
1.094937
1.145601
1.171827
1.093745
1.278520
1.179576
1.313686
1.076460
1.305938
1.390576
1.358986
1.396537
1.396537
1.437664
3.890991
12.571812
35.619736
103.637576
197.994709
386.451483
536.828637
723.056793
840.106010
903.306007
872.949958
768.162012
578.709841
418.757796
238.853693
152.128935
100.056529
92.225671
104.802847
125.383735
153.629780
175.018907
195.099711
198.656917
189.195871
172.723532
142.348409
117.397904
87.997913
67.987442
47.075748
36.689639
28.195977
24.657845
21.703839
20.592809
19.074678
17.607808
17.297864
16.070604
15.404820
15.023947
13.550520
13.620853
12.798905
12.541413
11.516809
11.777878
11.651516
12.016892
10.946989
11.675954
11.236668
11.268854
11.616945
11.589527
12.007952
11.058450
11.133552
11.627674
11.417866
10.907650
11.127591
11.321902
11.058450
11.466742
11.154413
11.433959
11.342764
11.328459
11.149645
11.424422
10.411739
11.267662
10.764599
11.024475
11.651516
##ZVALUE=280
1.014471
0.648499
0.714660
0.851750
0.853539
0.846982
0.758767
0.718832
0.928640
0.907779
0.777841
0.789762
0.935793
1.019835
1.232624
1.095533
1.102686
1.206994
1.311898
1.288652
1.333952
2.186894
6.694794
29.241443
68.473816
157.434940
254.326463
411.484838
530.630946
666.081905
721.948743
713.065863
643.056631
499.192476
373.010635
229.235888
146.179795
81.449747
59.554577
62.270761
75.280666
102.599859
127.165914
152.919888
165.947676
171.085596
165.943503
144.934654
124.463439
93.599558
73.058605
48.463941
35.885572
22.302866
18.240809
14.038682
13.178587
12.512803
11.848807
11.568666
11.431575
11.350513
11.476874
10.679960
10.603666
10.061860
10.424852
10.175705
10.521412
10.373592
10.197759
9.964705
10.546446
10.418892
10.637641
10.446906
10.141730
10.620952
10.307431
11.109710
10.537505
11.018515
11.134744
10.871887
11.018515
10.424852
10.865927
10.532737
11.071563
10.431409
10.957718
10.773540
11.082888
10.563731
11.128783
10.450482
##ZVALUE=285
0.770688
0.662804
0.952482
0.699759
0.890493
0.719428
1.026988
0.810623
0.770688
0.699759
0.729561
0.947714
0.965595
0.756979
0.789762
0.890493
0.959635
0.982881
1.000762
1.093745
1.094937
1.034737
1.504421
1.762509
3.831983
12.137890
43.186545
88.996887
189.215541
299.198627
425.243974
587.247014
680.042505
723.837018
685.271621
560.109615
438.551903
273.317695
173.024535
86.724758
51.531792
35.437942
40.617585
60.996413
81.842542
112.940669
132.567883
150.544643
155.845881
152.941942
138.812661
114.996433
92.679858
65.391660
45.807958
26.720762
19.101501
13.267994
10.945797
9.348989
9.009838
9.449720
9.162426
9.439588
8.894801
9.215474
9.457469
8.872747
9.582639
10.020733
10.166764
9.532571
10.141730
10.195971
10.071993
10.220408
10.315776
10.792613
10.752678
10.495782
10.543466
10.429621
10.561943
10.395646
10.873675
10.771751
11.018515
10.677576
10.956526
11.040568
10.864735
11.179447
10.620952
10.402799
10.929704
11.058450
##ZVALUE=290
0.638962
0.482798
0.712872
0.628829
0.744462
0.594854
0.646710
0.771880
0.860691
0.878572
0.638962
0.727773
0.796914
0.892878
0.847578
0.877976
0.897646
0.787973
0.783801
0.860691
0.885725
1.035929
1.197457
0.966787
1.436472
1.299977
1.819730
5.217791
22.749901
54.441690
108.709931
230.209827
351.813436
527.278781
637.885928
718.697906
709.255934
614.094734
503.538847
337.976813
221.368670
113.390684
63.600540
30.106902
25.431514
36.790967
50.895810
75.819492
96.485615
124.041438
140.807629
147.919655
146.297812
128.955841
111.625791
83.169937
62.408447
40.442944
28.011799
17.363429
12.478828
9.059906
8.291602
8.308887
8.268952
8.196831
8.352995
8.297563
8.467436
9.134412
9.361506
9.546876
9.713769
9.764433
10.294914
10.219812
10.204911
10.485649
10.254979
10.341406
10.774732
11.077523
10.909438
10.666847
10.805726
11.342764
11.028647
10.887980
10.852814
10.480881
11.375546
10.885000
11.115670
10.885596
10.500550
10.728836
##ZVALUE=295
0.645518
0.640750
0.591874
0.631809
0.826716
0.688434
0.699759
0.804663
0.806451
0.718832
0.725985
0.744462
0.772476
0.805855
0.829697
0.980496
0.779629
1.031756
0.800490
0.794530
0.925660
0.874996
0.947714
0.918508
1.154542
1.206994
1.176596
1.240969
1.468658
2.440810
11.765957
33.724904
75.923800
181.543827
292.737484
463.848710
581.559539
690.065622
715.273023
657.052994
562.263727
405.009985
276.596546
144.919753
83.274841
34.620762
20.849705
21.572709
29.551983
48.100948
66.979527
94.103813
113.838911
132.779479
139.557719
136.488676
124.645829
101.673603
82.949996
57.858825
41.544437
25.439858
17.524958
11.476874
9.163618
7.907748
7.550716
7.958412
8.075833
8.303523
8.881688
8.934736
9.000897
9.652972
9.685755
10.219812
10.103583
9.868741
10.398626
10.138750
10.692477
10.275841
10.565519
10.717511
10.523796
11.290908
11.146665
10.865927
10.615587
10.948777
11.205673
10.963678
10.781884
11.040568
10.969639
10.706782
##ZVALUE=300
0.629425
0.644922
0.656843
0.583529
0.583529
0.602603
0.682473
0.497699
0.500679
0.673532
0.628829
0.706911
0.693798
0.573993
0.701547
0.563860
0.800490
0.836849
0.735521
0.724792
0.879765
0.999570
0.857711
0.819564
0.869632
1.091957
1.047850
1.131892
1.056790
1.060963
1.224875
1.466870
5.113482
17.436743
59.119463
116.733909
240.482688
363.730788
526.120663
623.427629
697.847009
689.436793
593.070984
483.120680
320.330858
208.568573
106.064677
59.166551
24.452806
15.533566
19.030571
25.921464
42.986870
59.670806
84.483624
106.002688
126.355886
131.878853
130.425692
121.728778
101.142526
81.337690
58.153868
41.900873
26.069880
17.628670
11.364818
9.353757
8.124709
8.076429
8.344650
8.131862
8.761883
8.981824
9.136796
9.492636
9.912848
9.710789
10.190606
10.431409
10.471940
10.953546
11.076927
10.679960
11.713505
10.666847
11.316538
11.023879
11.093616
11.097789
11.225939
10.854602
11.030436
11.306405
10.968447
11.015534
##ZVALUE=305
0.693798
0.602603
0.417829
0.686646
0.633597
0.507832
0.623465
0.499487
0.344515
0.598431
0.475645
0.786781
0.769496
0.741482
0.669956
0.593662
0.577569
0.639558
0.741482
0.631809
0.655651
0.660419
0.565648
0.836849
0.845790
0.883937
0.989437
0.881553
1.012683
0.997782
1.179576
1.179576
1.167655
1.293421
2.761483
9.732842
37.982464
84.307790
186.467767
292.415619
449.631810
563.589931
667.206645
690.186620
630.484819
529.960990
378.865600
265.282989
137.665868
78.827739
32.746792
16.677976
12.279749
15.531778
25.392771
38.447976
60.270429
78.008771
101.269484
115.956664
124.907494
124.173760
113.080740
99.260807
75.717568
58.425665
37.573576
26.786923
16.331673
11.990666
8.899570
8.758903
8.653998
8.825660
8.997917
9.440780
9.121895
9.546876
9.596944
10.388494
10.602474
10.697842
10.921955
11.165738
11.184812
11.281967
11.231899
11.167526
11.501908
11.506677
11.642575
11.364818
11.468530
11.403561
11.178851
11.535883
##ZVALUE=310
0.614524
0.582933
0.545979
0.586510
0.612736
0.546575
0.673532
0.691414
0.667572
0.465512
0.281930
0.539422
0.621676
0.560880
0.787973
0.650883
0.580549
0.592470
0.561476
0.653863
0.695586
0.601411
0.795722
0.722408
0.644922
0.869632
0.987649
0.901818
0.797510
0.963807
1.016855
1.184940
1.041889
1.151562
1.138449
1.356602
1.472831
5.510449
17.165542
56.453943
112.902522
232.277513
344.041586
505.746603
603.030920
672.667623
663.398504
568.758845
467.343926
315.922499
210.464001
104.277730
56.167841
22.109747
12.061596
10.732412
14.080405
23.634434
33.470988
52.462816
69.449544
93.695521
106.454492
118.158460
117.383599
109.836459
96.487999
74.151754
56.177974
38.662553
27.279854
17.731786
13.289452
10.162592
9.414554
8.962750
9.450912
9.481907
9.746552
9.994507
10.042787
10.636449
10.892749
11.105537
10.826588
11.753440
11.350513
11.422634
11.296868
11.352897
11.534691
11.847615
11.757612
11.775494
11.210442
11.076927
##ZVALUE=315
0.805855
0.677705
0.751615
0.697970
0.470877
0.620484
0.646710
0.626445
0.761747
0.657439
0.629425
0.808835
0.782609
0.750422
0.697970
0.768900
0.763535
0.876784
0.663996
0.764728
0.739694
0.710487
0.712872
0.777841
0.857711
0.879765
0.807643
1.020432
0.987649
1.054406
0.910759
1.065731
1.035929
1.035929
0.917912
1.220703
1.433492
1.303554
1.551509
2.638698
8.417964
35.255551
77.524781
173.697472
278.730989
443.471670
546.710491
643.486977
669.154525
612.712502
530.274510
377.892852
267.192721
141.087770
78.593493
30.219555
14.842749
9.249449
9.316802
14.102459
20.146966
33.505559
46.850443
66.241622
83.714724
102.045536
109.695792
111.669898
105.547905
88.755488
73.823929
53.901672
40.235519
25.299788
18.697977
12.943745
11.142492
10.267496
9.781718
9.987950
9.880662
10.298491
10.720491
10.852814
10.846853
11.349916
10.819435
11.422634
11.556745
11.467934
11.314750
11.712909
11.672974
11.436939
11.357665
11.920929
##ZVALUE=320
0.635982
0.550747
0.662804
0.663996
0.674725
0.650883
0.734925
0.638962
0.587702
0.736713
0.673532
0.548959
0.654459
0.556707
0.628829
0.636578
0.847578
0.626445
0.698566
0.742674
0.674725
0.816584
0.806451
0.727773
0.954866
0.601411
0.748634
0.793934
0.866652
0.846982
0.809431
0.871420
0.861883
0.773668
1.090765
1.026988
1.023412
1.200438
1.176596
1.117587
1.339912
1.685619
3.998876
19.681454
49.125552
128.176808
211.660862
349.430442
465.672016
592.994690
651.186705
638.953447
577.641726
441.551805
324.198604
183.359981
107.230544
47.235489
22.888780
10.170937
8.261800
9.358525
12.063980
18.511415
27.097464
45.056939
59.447885
79.408884
93.511939
105.971694
107.724667
99.118948
88.565946
69.035888
54.098964
36.779642
26.767850
18.368959
14.331937
10.952950
10.490417
10.196567
10.719895
10.712743
10.789633
11.066794
10.885000
10.642409
10.874867
11.001825
11.340976
11.243820
11.196733
10.764599
11.172891
11.107922
##ZVALUE=325
0.506639
0.467896
0.349879
0.563860
0.336766
0.616908
0.450611
0.554919
0.523925
0.377893
0.543594
0.636578
0.584722
0.525713
0.610948
0.480413
0.528693
0.552535
0.554919
0.455976
0.605583
0.556707
0.560880
0.611544
0.535846
0.613928
0.657439
0.657439
0.690818
0.788569
0.728965
0.863671
0.731945
0.788569
0.825524
0.862479
0.784993
0.763535
0.886917
1.028776
0.882745
1.079440
1.225471
1.345873
2.261996
12.145638
32.809973
86.287856
154.389739
285.228491
397.148728
530.470610
600.383878
622.432828
579.327941
456.377864
343.365669
205.273628
125.285983
58.420897
29.624701
11.835694
8.217692
7.184744
8.436441
12.473464
18.057823
28.342605
41.149855
61.080456
75.078607
90.699792
98.548532
100.395679
93.285441
79.982877
66.551566
48.433542
36.308765
23.953915
17.749667
13.471842
11.605620
10.625720
10.378957
10.533929
10.167956
10.938644
10.647774
10.493994
10.682940
10.978580
10.514855
10.367632
10.447502
10.694861
##ZVALUE=330
0.717640
0.593662
0.739694
0.640750
0.518560
0.614524
0.539422
0.511408
0.535846
0.619888
0.712872
0.646710
0.730753
0.644922
0.693798
0.713468
0.774860
0.655651
0.845790
0.701547
0.714660
0.565648
0.597835
0.709891
0.644922
0.667572
0.655651
0.608563
0.787973
0.744462
0.636578
0.807643
0.934601
0.918508
0.949502
1.054406
0.831485
0.863671
0.898838
1.015663
1.011491
1.038909
1.017451
1.040697
1.187921
1.351833
1.581907
5.723834
17.399788
56.126714
108.574629
216.621757
316.943526
463.511944
551.126003
605.358481
585.212708
493.303537
393.236876
252.984762
163.188577
77.667832
40.415525
16.044974
9.268522
7.523894
7.546544
8.493662
11.560917
18.255711
26.393533
40.375590
53.580999
72.999001
84.426999
93.900561
94.091892
87.546706
77.389479
61.316490
48.676729
33.722520
26.025772
17.993450
14.534593
12.171865
10.988712
10.696650
10.289550
10.088682
10.305643
10.186434
10.408759
10.367632
10.513663
10.592937
##ZVALUE=335
0.315905
0.474453
0.521541
0.386834
0.507832
0.434518
0.565648
0.350475
0.477433
0.479817
0.547767
0.451803
0.354648
0.405908
0.563860
0.451803
0.441670
0.481606
0.354648
0.477433
0.630617
0.359416
0.461936
0.577569
0.611544
0.529885
0.701547
0.539422
0.519753
0.581741
0.610948
0.537634
0.595450
0.528693
0.533462
0.483990
0.684857
0.775456
0.687838
0.749826
0.886917
0.744462
0.802875
0.966787
0.913739
0.975728
0.991821
1.015663
1.061559
2.598763
8.977652
34.243464
72.122812
160.835981
254.087448
402.277708
496.264696
570.900440
580.420494
518.221855
432.073474
294.362903
200.407505
105.996728
56.966543
22.725463
10.868907
7.282495
7.183552
7.325411
8.314848
11.250973
15.929937
26.500821
37.591457
54.768920
66.897869
80.771446
86.809993
88.998675
83.249807
71.595907
60.750842
45.370460
34.820437
24.673939
18.972754
13.870597
11.666417
10.326505
10.026693
9.675622
9.560585
9.449720
9.632707
9.483695
##ZVALUE=340
0.444651
0.513792
0.381470
0.373721
0.503659
0.280738
0.514984
0.521541
0.379682
0.513792
0.411868
0.267625
0.358820
0.434518
0.372529
0.613928
0.387430
0.427961
0.424981
0.406504
0.516772
0.598431
0.506639
0.529885
0.254512
0.435710
0.533462
0.492930
0.531673
0.470877
0.628829
0.647902
0.539422
0.495911
0.579953
0.610948
0.686646
0.626445
0.686646
0.656843
0.720620
0.744462
0.756979
0.843406
0.899434
0.875592
0.933409
0.844598
0.838637
0.857711
1.056790
1.375675
4.219413
20.532608
50.080419
124.452710
206.887722
337.689519
435.465574
530.898571
562.776923
529.856682
461.695790
340.164900
238.941908
124.669671
70.700645
29.842854
13.721585
7.406473
7.014871
7.050633
7.239580
8.601546
11.037588
17.204881
24.643540
37.073493
49.119592
65.498948
76.165795
82.587600
82.930923
77.253580
70.389509
57.009459
46.242476
33.427477
25.769472
18.364787
14.139414
11.130571
10.310411
9.103417
9.239912
9.219646
##ZVALUE=345
0.409484
0.346899
0.395775
0.347495
0.441670
0.390410
0.351667
0.345707
0.473857
0.415444
0.432730
0.324845
0.518560
0.463724
0.505447
0.464916
0.518560
0.463724
0.390410
0.536442
0.366569
0.589490
0.503659
0.447631
0.405908
0.410676
0.526905
0.617504
0.523925
0.442863
0.466704
0.564456
0.575781
0.446439
0.660419
0.517964
0.633597
0.587702
0.492930
0.547767
0.555515
0.418425
0.546575
0.652671
0.761747
0.563860
0.684857
0.787973
0.736713
0.991821
0.840425
0.961423
0.942945
1.098514
2.027750
11.535883
31.264424
83.115697
149.238706
266.857743
364.077687
476.136804
525.933504
528.826714
484.308600
376.564860
275.009871
157.189965
90.637803
39.328933
18.883944
9.066463
7.193685
6.706715
6.602407
6.993413
8.167624
10.410547
14.406443
22.941828
32.673478
46.378970
56.893826
68.873763
74.282885
77.107549
74.502826
65.583587
56.914687
44.196844
34.191608
23.678541
18.592477
13.660789
11.335611
9.588599
##ZVALUE=350
0.414848
0.398755
0.399947
0.297427
0.474453
0.541806
0.385642
0.443459
0.534654
0.420809
0.339746
0.428557
0.350475
0.433922
0.443459
0.283718
0.397563
0.432730
0.638962
0.470877
0.429749
0.511408
0.482798
0.383854
0.457764
0.525713
0.495911
0.536442
0.518560
0.440478
0.456572
0.518560
0.505447
0.470877
0.504851
0.566840
0.507832
0.649691
0.534654
0.517964
0.657439
0.525713
0.614524
0.490546
0.570416
0.744462
0.664592
0.578761
0.631809
0.666976
0.688434
0.764728
0.879765
0.989437
0.966787
0.948906
1.299977
5.924702
18.065572
55.216551
104.823709
208.104849
299.835801
417.619944
487.559438
522.324443
494.311452
405.067801
310.245752
185.214877
112.218857
50.278902
24.427772
9.760857
6.906986
6.527901
6.483793
6.505847
6.667972
7.594824
10.223985
15.055537
20.557642
29.746890
38.812757
51.668882
60.346723
68.683624
70.653558
68.809986
62.356591
51.386952
42.314529
31.170845
23.606420
16.965866
##ZVALUE=355
0.420809
0.316501
0.293851
0.346899
0.327826
0.349879
0.542998
0.427961
0.446439
0.293851
0.494719
0.324845
0.354648
0.458956
0.393987
0.451803
0.415444
0.381470
0.339746
0.520945
0.512600
0.454783
0.526905
0.539422
0.509620
0.457764
0.631809
0.500679
0.429749
0.573993
0.479817
0.481606
0.529885
0.569820
0.471473
0.497699
0.440478
0.554919
0.492930
0.523925
0.490546
0.516772
0.547767
0.544786
0.623465
0.592470
0.581741
0.663996
0.469685
0.668764
0.728965
0.742674
0.702739
0.606775
0.687838
0.879765
0.752807
1.088977
1.093745
3.010631
9.609461
36.031604
73.647499
154.770017
242.651701
366.278887
444.113016
495.754480
490.698814
418.258905
338.078737
222.360492
141.297579
63.907504
31.968951
11.898875
7.403493
6.021857
6.063581
5.939603
6.092787
6.250739
6.995797
9.180903
11.930466
18.220544
25.270581
35.674572
43.636560
53.370595
60.073733
63.271523
62.662959
56.618452
50.515532
39.743781
##ZVALUE=360
0.391603
0.346899
0.465512
0.485778
0.481606
0.419617
0.440478
0.420809
0.472665
0.451803
0.392795
0.399947
0.416636
0.465512
0.424981
0.346899
0.483990
0.484586
0.439882
0.268817
0.508428
0.468493
0.313520
0.336766
0.352859
0.455976
0.316501
0.560880
0.516772
0.556707
0.543594
0.445843
0.442863
0.395775
0.586510
0.461936
0.466704
0.574589
0.511408
0.525713
0.584722
0.566840
0.664592
0.648499
0.636578
0.529885
0.546575
0.646710
0.588894
0.544786
0.495911
0.485778
0.639558
0.741482
0.692606
0.702739
0.782609
0.790954
0.916719
0.964999
1.064539
1.505613
4.097819
18.548965
44.284463
106.340647
180.348754
299.963951
386.198759
461.927652
481.004715
441.884995
373.864770
254.469514
169.973969
84.008574
45.156479
17.986894
9.247661
6.012917
5.635619
5.698800
5.685687
5.697608
5.706549
6.433725
7.302761
10.798573
14.252663
21.054745
28.184652
38.948655
46.179891
53.779483
57.247877
57.673454
##ZVALUE=365
0.391603
0.379682
0.404716
0.308752
0.364780
0.548959
0.339746
0.529885
0.505447
0.509620
0.370741
0.453591
0.500679
0.373721
0.506639
0.306964
0.460744
0.513792
0.339746
0.464916
0.447631
0.489950
0.346899
0.407696
0.414848
0.292659
0.551939
0.369549
0.521541
0.478625
0.462532
0.545979
0.664592
0.486970
0.504851
0.580549
0.602603
0.354648
0.413656
0.472665
0.602603
0.613928
0.715852
0.734925
0.610948
0.618696
0.522733
0.413656
0.422597
0.523925
0.648499
0.604987
0.459552
0.647902
0.643730
0.694990
0.611544
0.624657
0.796914
0.801682
0.736713
0.798702
0.843406
1.145601
1.848936
10.083914
26.785731
72.069764
132.617950
243.616700
327.871442
418.576598
457.859635
445.442796
391.544700
285.188556
202.234983
112.961531
61.234832
23.713708
10.810494
5.812645
5.278587
5.325675
5.239844
4.897714
5.026460
5.086660
5.520582
6.522536
8.407831
12.230873
16.892552
25.091767
32.214522
40.787458
##ZVALUE=370
0.414848
0.414848
0.360608
0.308752
0.181794
0.451803
0.336766
0.478625
0.440478
0.557899
0.353456
0.337958
0.552535
0.399947
0.256896
0.551939
0.432730
0.477433
0.370741
0.283718
0.421405
0.437498
0.426769
0.340939
0.386834
0.427961
0.344515
0.310540
0.246763
0.305772
0.592470
0.505447
0.616908
0.374913
0.500679
0.466704
0.468493
0.245571
0.429749
0.554919
0.433922
0.484586
0.485778
0.521541
0.466704
0.527501
0.450611
0.419617
0.531673
0.459552
0.544786
0.662804
0.513792
0.503659
0.575781
0.670552
0.686646
0.732541
0.767708
0.713468
0.588894
0.702739
0.773668
0.753999
0.889897
0.934601
1.280904
5.315542
16.856790
53.603649
101.040602
191.334486
276.212692
385.445952
436.275005
445.424914
406.085849
316.766500
234.254599
130.936503
74.708462
31.108856
15.917420
7.247925
5.466938
4.839897
4.699826
4.619956
4.608631
4.730821
4.707575
5.117655
5.583763
7.454753
10.183454
15.254617
##ZVALUE=375
0.355840
0.362992
0.161529
0.255704
0.264645
0.358820
0.169873
0.411868
0.337958
0.360608
0.238419
0.334978
0.453591
0.404716
0.489950
0.304580
0.449419
0.337958
0.404716
0.306964
0.321865
0.441670
0.416636
0.522733
0.425577
0.352859
0.459552
0.552535
0.413656
0.352859
0.332594
0.473857
0.570416
0.349879
0.451803
0.473857
0.529885
0.332594
0.509620
0.474453
0.521541
0.412464
0.481606
0.503659
0.458956
0.484586
0.663996
0.371933
0.581741
0.503659
0.553727
0.648499
0.592470
0.460744
0.732541
0.611544
0.420809
0.463724
0.664592
0.510812
0.607967
0.562668
0.650883
0.701547
0.632405
0.754595
0.753999
0.864863
1.025796
2.729893
8.913875
32.076836
68.252683
150.016546
230.053663
339.523554
404.090881
440.405011
423.267484
347.404480
267.760754
164.480805
104.424953
52.189827
26.991963
10.533929
5.907416
4.707575
4.556775
4.462600
4.281998
4.368424
4.358888
4.303455
4.372597
5.035996
##ZVALUE=380
0.263453
0.334978
0.397563
0.432730
0.348687
0.461936
0.363588
0.259876
0.300407
0.291467
0.301600
0.289679
0.346899
0.440478
0.324845
0.436902
0.348687
0.377893
0.403523
0.287890
0.344515
0.338554
0.381470
0.431538
0.441670
0.345707
0.417829
0.458956
0.335574
0.507832
0.619888
0.335574
0.543594
0.594854
0.413656
0.462532
0.308752
0.420809
0.545979
0.460744
0.558496
0.482798
0.465512
0.471473
0.539422
0.571609
0.447631
0.455976
0.506639
0.455976
0.598431
0.525713
0.458956
0.481606
0.525713
0.620484
0.492930
0.549555
0.588894
0.545979
0.555515
0.652671
0.608563
0.588894
0.567436
0.718832
0.671744
0.800490
0.844598
0.897646
1.061559
1.428723
4.872680
22.403598
50.799847
119.860768
191.922784
295.210481
369.197726
428.857803
429.953933
371.961594
302.696824
203.275681
135.508776
67.367554
36.055446
13.941526
7.153749
4.655719
4.240870
3.970861
4.015565
3.980994
4.179478
3.959537
##ZVALUE=385
0.347495
0.364780
0.386834
0.283718
0.275970
0.475645
0.286698
0.257492
0.315905
0.314713
0.284910
0.324845
0.349879
0.203848
0.368953
0.280738
0.272989
0.437498
0.414848
0.398755
0.433922
0.356436
0.383854
0.306964
0.540614
0.532866
0.473857
0.575781
0.591874
0.499487
0.455976
0.599623
0.625849
0.336766
0.669956
0.588894
0.586510
0.508428
0.453591
0.674725
0.432730
0.479817
0.558496
0.546575
0.528693
0.512600
0.588894
0.450611
0.461936
0.552535
0.552535
0.442863
0.512600
0.460744
0.540614
0.507832
0.525713
0.432730
0.492930
0.534654
0.518560
0.629425
0.654459
0.465512
0.643730
0.555515
0.662804
0.759959
0.683665
0.784993
0.743866
0.871420
0.927448
1.125932
2.490878
12.027621
31.654835
82.753897
143.918991
249.671936
327.521563
402.374864
423.836708
398.672819
348.315835
254.215598
180.156827
99.007487
56.438446
24.132729
10.825992
4.877448
4.005432
3.790855
3.661513
3.782511
##ZVALUE=390
0.253916
0.263453
0.436902
0.304580
0.400543
0.288486
0.469685
0.309944
0.373721
0.499487
0.411868
0.424981
0.328422
0.401735
0.520945
0.386834
0.339746
0.455976
0.452995
0.354648
0.352859
0.346899
0.489950
0.427961
0.444651
0.427961
0.507832
0.508428
0.445843
0.597835
0.576973
0.490546
0.615716
0.553727
0.515580
0.463724
0.631809
0.719428
0.782609
0.759959
0.650883
0.571609
0.580549
0.579953
0.585914
0.503659
0.591874
0.536442
0.521541
0.550747
0.522733
0.690818
0.560880
0.685453
0.409484
0.528693
0.520945
0.511408
0.545979
0.663996
0.629425
0.534654
0.653863
0.451803
0.632405
0.596642
0.657439
0.710487
0.698566
0.711679
0.915527
0.657439
0.792742
0.790954
0.840425
0.979900
1.322627
6.555915
19.857883
60.045719
112.949610
210.502744
284.297466
366.178751
407.182574
418.099761
382.582545
302.476883
229.622722
139.189959
81.342459
34.166574
15.941858
6.117821
4.330873
3.687739
##ZVALUE=395
0.504851
0.431538
0.364780
0.313520
0.294447
0.308752
0.334978
0.412464
0.434518
0.488758
0.439882
0.484586
0.425577
0.324845
0.499487
0.545979
0.492930
0.474453
0.520945
0.486970
0.412464
0.511408
0.495911
0.542998
0.535846
0.474453
0.549555
0.542998
0.641942
0.745654
0.624657
0.626445
0.772476
0.739694
1.005530
0.831485
0.839829
0.812411
0.897646
0.742674
0.893474
0.828505
0.779629
0.682473
0.663996
0.663996
0.837445
0.750422
0.715852
0.608563
0.583529
0.755787
0.722408
0.437498
0.655651
0.579953
0.559688
0.643730
0.600815
0.617504
0.504851
0.656843
0.670552
0.550747
0.678897
0.602603
0.613928
0.638962
0.609756
0.735521
0.864863
0.779629
0.835657
0.742674
0.814795
0.850558
0.854731
0.789762
1.045465
3.709793
13.214946
44.129491
83.772540
159.123540
232.571959
336.548686
396.632552
434.166789
419.723988
352.988839
275.962949
171.019435
106.827617
46.757460
23.397803
8.712411
##ZVALUE=400
0.317693
0.333786
0.485778
0.431538
0.351667
0.419617
0.397563
0.338554
0.367761
0.317693
0.307560
0.415444
0.401735
0.454783
0.446439
0.375509
0.451803
0.309944
0.406504
0.410676
0.208616
0.263453
0.446439
0.279546
0.474453
0.566840
0.580549
0.518560
0.740886
0.656843
0.860691
0.844598
0.806451
0.818968
0.908971
0.867844
0.731945
0.945926
0.866652
0.857711
0.775456
0.685453
0.752807
0.706911
0.615716
0.795722
0.677705
0.581741
0.780821
0.585914
0.680685
0.537634
0.636578
0.536442
0.486970
0.394583
0.401735
0.438690
0.369549
0.704527
0.534654
0.519753
0.536442
0.529885
0.468493
0.565648
0.648499
0.682473
0.451803
0.570416
0.638962
0.693798
0.580549
0.699759
0.684857
0.652671
0.662804
0.789762
0.797510
0.877976
0.871420
2.075434
6.760955
24.976730
52.991509
119.423866
188.723803
291.143656
358.326435
412.732959
418.806672
365.478992
302.263498
207.656622
137.289762
70.415735
##END
