##TITLE=KDZ0151
##FORMAT=SPECTACLE-ASCII V-1.2
##DATA TYPE=ULTRAVIOLET SPECTRUM
##SECOND TYPE=ULTRAVIOLET SPECTRUM
##DATE=02/28/18
##TIME=17:27:48
##SPECTROMETER/DATA SYSTEM=SPECTACLE
##XUNITS=NM EM
##YUNITS=ENERGY
##YFACTOR=1
##FIRSTX=220
##LASTX=410
##NPOINTS=96
##3DDATA=Equidistant
##ZUNITS=NM EX
##FIRSTZ=210
##LASTZ=400
##ZPOINTS=39
##XYDATA=(Y..Y)
##ZVALUE=210
3.886819
3.122687
2.954602
3.746748
2.803802
3.328919
4.251599
3.720522
2.916455
2.298951
2.317429
2.699494
2.422929
2.255440
2.502799
2.633929
2.313852
2.916455
2.798438
2.640486
2.618432
3.000498
2.905726
3.568530
2.912879
3.091693
2.793670
3.725886
4.210472
3.938675
3.533959
3.198981
4.204512
4.440546
3.798604
4.399419
4.410744
4.775524
4.750490
4.772544
4.525781
4.147887
4.775524
4.512668
4.838705
5.860925
4.832745
5.239844
3.963709
5.573630
4.389882
3.823638
4.990697
4.455447
5.235672
5.105734
4.870892
5.916953
5.211830
5.497932
5.502701
5.753636
6.117821
5.254745
5.734563
5.427599
6.505847
6.588697
7.190704
8.003712
10.444522
11.604428
12.437701
13.342500
14.591813
15.316606
13.974905
15.077591
15.046597
14.506578
13.130903
11.033416
10.557771
9.563565
7.911921
7.385612
6.418824
5.368590
5.038977
5.617738
5.408525
5.406737
5.892515
6.180406
5.268455
6.023645
##ZVALUE=215
7.944703
6.493926
6.726980
6.614923
5.569458
6.314516
5.307794
6.298423
6.598830
6.404519
5.195737
4.797578
4.918575
3.227592
3.161430
2.994537
2.836585
2.253652
2.537966
2.242923
2.842546
3.576875
2.954602
4.049540
3.803968
3.990531
3.681779
4.308820
3.952980
3.829598
4.493594
3.752708
4.078746
4.838705
4.482865
4.465580
4.240870
4.443526
4.157424
4.827976
4.495978
4.776716
5.011559
5.368590
4.283786
4.695654
4.600883
4.999638
5.425811
4.798770
4.965663
5.750656
5.559921
5.334616
5.652905
5.458593
5.405545
5.320907
5.206466
5.061626
5.478859
5.947948
6.090999
6.137490
5.641580
5.660653
5.443692
7.001758
7.959604
8.274913
9.441972
10.749698
11.072755
13.272762
14.761686
14.849901
13.796687
12.781620
13.883710
12.612939
11.029840
10.954738
10.456443
8.538961
7.256866
6.927848
6.515980
5.899668
4.997849
4.591942
5.136728
5.324483
4.350543
5.624890
5.746484
4.783869
##ZVALUE=220
19.974709
22.590756
22.699833
22.308826
21.273494
17.456412
15.775561
13.797879
13.083816
13.229847
15.663505
14.081597
13.991594
12.059808
9.874701
8.147955
6.103516
4.712939
3.457665
3.677607
3.251433
3.242493
3.274679
3.376603
3.503561
3.721714
3.842711
4.049540
3.564954
3.935695
4.030466
4.329681
3.925562
5.365610
4.990697
4.636645
6.511807
5.284548
4.894733
4.968643
5.371571
5.373955
4.578829
5.764961
5.687475
6.130934
5.488992
5.003810
4.949570
5.058646
4.895926
5.153418
5.761981
5.526543
5.309582
4.750490
5.453825
5.398989
5.282760
6.378889
6.211996
6.604791
5.938411
5.738735
5.975962
6.596446
6.233454
7.181764
7.609725
8.599758
9.012818
10.605454
11.816621
12.488961
15.130639
13.406873
14.178753
14.580488
12.928843
13.128519
11.766553
9.712577
10.055900
9.127855
7.154942
7.563829
6.254911
6.359816
5.525947
5.654693
5.365610
5.100965
5.122423
5.443692
5.178452
4.497766
##ZVALUE=225
31.724572
32.909513
44.542551
55.465698
62.356591
60.592890
58.752894
46.455860
37.846565
29.362440
25.638938
25.682449
25.548935
28.252602
27.727485
26.038885
20.775795
18.199682
11.393428
9.917617
6.256700
4.749894
3.989935
3.232956
3.849864
3.969669
4.772544
4.157424
4.203916
4.703999
4.647970
4.500747
4.204512
5.054474
5.155802
5.309582
6.011724
6.048679
6.078482
5.590916
6.465912
5.576611
5.767941
5.468726
5.163550
5.427599
6.055832
6.186962
6.207824
5.101562
5.577803
6.006956
5.451441
5.725622
5.763769
6.636977
6.253719
6.341934
5.576611
5.792975
6.038547
5.619526
6.194711
6.489754
6.360412
6.913543
6.333590
7.022619
7.979870
8.448958
9.228587
10.603666
10.771751
12.052655
13.561845
14.232993
13.209581
12.574792
11.894703
11.689663
11.381507
9.467602
8.150935
7.360578
8.050799
6.595850
6.164908
5.734563
6.026626
6.539822
5.401969
5.202889
5.894899
4.875660
4.951954
5.415678
##ZVALUE=230
27.641654
29.379725
47.933459
75.569749
102.463961
124.807954
139.897466
141.382813
132.603645
105.612874
80.492496
63.668489
46.235919
45.771599
44.678450
49.661994
53.255558
46.651959
44.709444
34.261942
27.543902
17.687678
11.755824
7.790923
5.571842
4.723668
4.725456
5.140901
4.512668
5.349517
5.637407
5.527735
4.637837
5.067587
5.822778
5.386472
5.506873
5.653501
5.562901
5.823970
5.780458
6.252527
5.053878
6.628633
6.561875
6.523728
5.603433
6.073713
6.379485
5.780458
6.077886
6.692410
6.692410
6.914735
6.049871
7.203817
6.147623
7.363558
6.546974
6.160736
7.668734
6.255507
6.090999
7.491708
6.939769
6.892681
8.923411
7.867813
9.155869
9.136796
11.412501
11.498928
13.363957
14.240742
14.197826
13.977885
13.220906
12.533665
12.344718
11.970997
11.747479
10.731816
9.847879
8.616447
7.655621
8.087754
7.609725
6.708503
7.636547
7.494688
7.909536
6.811619
6.638765
6.745458
7.001758
6.802678
##ZVALUE=235
9.876490
12.420416
28.834939
51.519871
99.180937
140.118003
204.228759
238.330960
277.620554
282.611847
244.304538
206.891894
155.509710
106.002688
83.332658
71.867704
73.856711
81.895590
85.493922
85.214972
75.182915
68.896413
51.391721
36.791563
23.378730
15.106797
9.961724
7.698536
6.505847
7.406473
6.580949
5.755424
6.902814
6.718636
6.263852
5.762577
6.070733
5.873442
6.468892
6.002784
6.431937
6.515980
7.296801
7.270575
6.840825
7.897615
7.739663
6.697774
5.749464
7.036924
6.481409
6.379485
6.759763
7.789731
7.842779
7.544756
7.760525
7.355809
6.965995
6.946921
7.503629
7.076859
8.129478
7.822514
8.225441
7.925630
8.149743
8.455515
10.053515
10.317564
11.605620
13.213754
14.978647
14.929771
15.631914
16.219616
15.527606
14.917850
14.031529
13.436675
12.459755
12.212992
10.943413
10.637641
8.878708
8.152723
8.455515
8.549690
8.121729
9.196997
9.017587
7.416606
8.313656
8.240938
8.668900
8.064508
##ZVALUE=240
1.750588
2.919436
5.527735
14.941692
34.266710
78.089833
130.112767
221.735835
312.954783
378.894806
444.598794
452.163815
396.387577
338.931680
253.680944
182.479620
119.807720
101.444721
96.496940
104.427934
108.037591
119.387507
114.583969
102.326870
87.776780
64.863563
49.255490
30.589700
18.740892
13.188720
9.365678
7.947683
6.774664
7.563829
8.002520
7.568598
7.702708
6.299615
7.401705
7.084608
7.745624
7.000566
7.582903
7.393956
6.276965
7.746816
6.654859
6.620884
6.945729
6.376505
7.471442
6.861687
6.866455
8.172989
6.886721
7.152557
7.307529
7.226467
7.521510
6.905794
7.143617
7.738471
6.167889
7.952452
7.338524
7.384419
8.612871
9.630919
9.821653
11.785626
12.830496
12.842417
14.513731
17.310977
15.381575
16.608834
16.164780
15.813708
13.937950
14.997721
12.696981
11.378527
11.986494
9.910464
9.674430
9.969473
9.304881
8.862615
8.511543
9.029508
8.445978
8.863807
9.196997
8.145571
8.919835
8.202791
##ZVALUE=245
1.401901
2.061725
1.832843
1.875758
3.909469
9.983778
33.872724
70.214868
151.975751
236.037970
368.294716
458.070636
524.441600
558.466911
525.832772
437.339544
354.387760
244.066715
170.008540
116.099715
97.558498
102.419853
122.023821
133.052468
135.437846
128.607750
116.715431
102.770925
71.937442
53.141713
39.543509
22.933483
15.477538
10.372996
9.183884
7.942915
6.578565
6.861687
6.925464
7.316470
6.429553
6.569624
6.491542
5.390644
6.765723
6.247759
5.872846
5.409718
5.795956
5.530715
6.429553
5.362630
5.932450
6.413460
6.577969
5.888939
6.352663
6.758571
6.025434
6.655455
6.592870
5.997419
7.095933
6.055832
6.039739
7.266998
7.259846
8.021593
8.548498
10.142922
9.737611
10.984540
11.882782
12.965798
13.652444
15.059710
12.572408
12.941957
13.275743
12.944937
10.737777
10.938644
10.815859
9.634495
9.235740
9.251833
9.280443
8.632541
9.127855
8.502603
9.129643
8.516908
8.233786
8.550882
7.967949
7.468462
##ZVALUE=250
1.624823
1.434684
1.613498
1.518726
1.639724
2.113581
2.452731
6.852746
27.959943
61.903000
145.556927
242.365599
354.288816
501.231551
596.581697
658.761859
646.702647
568.887591
474.667549
326.706767
222.607851
149.042606
102.123618
96.107721
111.341476
127.167702
139.249563
146.193504
142.455697
126.566887
108.528733
78.911781
58.645606
34.946799
23.101568
13.950467
8.708835
7.235408
6.154776
6.964803
6.393790
6.534457
6.388426
6.470680
5.956888
5.785823
5.672574
5.860925
5.632639
6.157756
5.832911
5.271435
5.667806
5.835891
5.549788
5.882978
6.025434
5.487800
5.758405
5.396605
5.680919
6.207824
6.175637
6.193519
6.168485
6.069541
7.495880
7.718801
8.472800
9.091496
10.263920
11.179447
12.024641
13.483763
12.906790
12.669563
13.385415
12.687445
12.255907
11.505485
11.457801
9.805560
8.776784
7.949471
8.571744
9.100437
7.670522
8.174777
8.960962
7.942915
7.717609
7.360578
8.555651
7.951856
7.818937
7.625818
##ZVALUE=255
1.363754
1.479983
1.475811
1.697540
1.473427
1.384616
1.792908
1.702905
2.159476
3.847480
19.663572
48.310757
95.871687
204.822421
311.127901
479.792953
592.658520
692.657828
719.189644
667.433739
570.486784
450.318456
287.799835
188.695788
109.024644
86.043477
89.401603
107.983947
130.196810
145.357847
150.569677
148.024559
133.288503
105.487704
81.885457
55.002570
38.647652
22.099614
12.377501
7.789731
6.427765
5.969405
5.631447
5.205870
5.278587
5.545616
5.296469
5.671978
5.376935
5.294681
5.221963
4.746914
4.999638
4.818439
4.486442
4.620552
4.628897
4.393458
4.829764
5.168915
4.945993
5.191565
5.026460
5.156994
5.186796
5.808473
5.856752
5.400777
6.086826
6.601810
7.449985
8.310676
9.605885
8.725524
9.163618
9.377599
10.117888
9.429455
9.518862
8.597970
8.645654
7.408857
7.411838
6.797910
6.901622
7.033944
6.564856
6.781816
7.203817
5.737543
7.401705
6.881952
6.350875
7.435679
6.589890
7.260442
##ZVALUE=260
1.197457
1.292825
1.367927
1.332760
1.260638
1.481771
1.648664
1.214743
1.597404
1.474619
1.780987
2.735853
7.704496
33.863783
70.942640
166.513920
282.265544
419.269800
612.144470
734.424591
821.551681
821.847916
699.086785
559.136868
378.725529
254.272819
146.553516
99.378824
77.161789
86.075664
109.742880
133.321881
147.764683
156.105757
150.698423
133.052468
111.723542
82.999468
60.922503
36.969781
23.329854
12.766719
7.574558
5.667806
5.558729
5.303621
5.036592
4.982948
4.805923
4.685521
5.062819
4.821420
4.355907
4.490614
4.385710
4.429817
4.192591
4.123449
4.610419
4.684925
4.375577
4.390478
4.444718
4.459620
4.745722
4.874468
5.150437
5.593896
6.167889
6.313920
6.852746
6.943941
8.026958
8.555651
8.930564
8.232594
8.307695
8.246899
8.141994
7.583499
6.763935
6.619692
6.595850
5.549788
6.354451
5.744696
6.102920
6.340742
6.126761
6.454587
5.911589
5.804896
6.242990
6.031990
5.750656
6.135702
##ZVALUE=265
1.241565
1.169443
1.182556
1.265407
1.095533
1.060963
1.329780
1.408458
1.357794
1.306534
1.401901
1.522899
1.876950
1.841784
3.840923
19.693971
51.282644
135.315657
242.954493
447.879434
618.648529
778.156519
909.602642
918.852687
807.243586
688.635707
505.524874
356.097817
202.800632
125.751495
82.669854
68.546534
83.923936
113.549829
136.628747
153.796673
157.927871
150.894523
134.137869
107.716918
82.888603
54.962635
36.970973
21.309853
12.601614
6.876588
5.628467
5.175471
4.766583
4.428625
4.490614
4.649758
4.887581
5.054474
4.691482
4.476905
4.597902
4.523993
4.564524
4.074574
4.426837
4.465580
4.137754
4.221797
4.353523
4.160404
4.746914
4.890561
5.464554
5.617738
6.562471
6.942749
7.257462
7.696748
7.761717
8.100867
7.688999
6.992817
6.983876
6.646514
6.327629
6.175637
5.866885
5.660653
5.750656
5.640984
5.376935
5.536675
5.216599
5.777478
5.646944
5.667806
5.253553
5.335808
5.611777
5.822778
##ZVALUE=270
1.001954
0.799894
1.075864
1.085997
1.111627
1.213551
1.036525
1.000762
1.070499
1.186728
1.426935
1.474619
1.248717
1.303554
1.438856
1.860857
2.181530
10.413527
29.631853
93.141794
183.166862
313.276649
533.372760
699.206591
874.858499
928.588510
903.002024
814.291835
625.613928
461.146832
319.247842
167.535543
101.570487
60.498714
62.818527
88.248849
109.325647
138.638616
153.406858
158.913732
154.666901
133.513808
110.955834
80.202818
59.063435
34.195781
22.391677
12.231469
7.770658
5.848408
4.835725
4.826784
4.617572
4.607439
4.597902
4.144907
4.446507
4.335642
4.323721
4.239678
3.917813
4.266500
3.916621
3.980994
3.868937
4.137754
4.106760
4.917979
4.848838
5.491972
5.669594
6.282926
6.297827
7.338524
6.919503
7.025599
7.033944
6.332994
5.923510
6.158948
5.852580
5.444884
5.104542
5.786419
5.290508
4.813671
4.570484
5.455613
4.929900
5.171895
4.861951
4.862547
4.817843
4.749894
5.045533
5.276799
##ZVALUE=275
1.070499
0.913739
1.012683
1.085997
0.991821
0.916719
0.963807
1.058578
1.155734
1.216531
1.287460
1.302958
1.176596
1.308918
1.182556
1.353621
1.446605
1.650453
2.010465
5.179644
18.262863
52.128434
144.628882
271.556973
497.241616
671.527982
873.580575
993.534923
1015.710831
979.508758
850.408673
611.320734
429.387689
223.202705
128.082633
63.143969
48.869848
61.861873
83.436966
112.956762
132.928491
151.659846
158.779621
150.323510
134.822726
105.620623
83.224773
56.957603
39.782524
22.273660
13.964772
7.846951
5.730987
4.765987
4.396439
4.185438
4.001856
4.055500
3.775954
4.291534
4.046559
4.184842
4.004836
3.998876
4.108548
3.985763
4.046559
4.062653
4.209876
4.874468
5.251765
5.254745
6.313920
6.473660
6.840825
6.770492
6.286502
6.129742
5.627871
5.595684
5.232692
5.254745
4.907846
4.924536
4.934669
4.719496
4.450679
4.408956
4.496574
4.895926
4.624724
4.992485
4.350543
4.072785
4.699826
4.603863
##ZVALUE=280
0.975728
0.827909
1.053810
0.974536
1.028776
0.933409
0.877976
0.890493
0.971556
0.990629
1.007915
1.026988
1.093745
0.990629
1.234412
1.244545
1.445413
1.599789
1.446605
1.643896
1.791716
2.242923
11.566877
38.010478
117.126703
216.873884
408.769846
594.498515
845.012665
996.173024
1015.710831
1015.710831
957.227945
716.643929
513.738990
286.438465
167.093873
76.476932
45.398474
41.664839
55.173635
83.145499
107.143521
133.706927
147.483945
153.207779
146.677494
130.064487
109.422803
78.972578
58.730841
36.435723
23.287535
12.559891
7.837415
5.047917
4.659891
4.064441
3.912449
3.901720
3.886819
3.850460
4.099607
4.091859
4.149675
4.148483
3.959537
4.108548
4.384518
4.885793
4.854798
5.664825
5.893707
5.975962
6.049871
5.945563
5.864501
5.761981
5.907416
5.486608
5.127788
4.734993
4.522800
4.157424
4.384518
3.985763
4.147887
4.278421
4.412532
4.233718
4.054904
4.486442
4.238486
4.288554
4.324913
4.146695
##ZVALUE=285
0.854731
0.765920
0.859499
0.967979
0.819564
0.825524
1.022816
0.875592
0.757575
0.936985
0.868440
1.026988
1.126528
0.971556
0.931621
1.182556
1.076460
1.049638
1.327991
1.509786
1.274943
1.626611
1.611710
1.928806
6.137490
21.582842
71.104765
144.007802
310.769677
495.742559
704.841614
979.465842
1015.710831
1015.710831
1015.710831
876.437426
668.023825
400.696993
243.180990
114.925504
58.994889
32.919645
35.367608
56.018829
76.040626
105.483532
125.626922
143.716931
148.773789
144.171715
132.275820
107.635856
86.209774
58.139563
40.677786
21.876693
13.380647
7.550716
5.219579
4.360676
4.208684
3.922582
3.881454
3.882647
4.153848
3.954768
3.898740
4.256964
4.614592
4.776716
4.790425
5.055666
5.296469
5.590916
5.605817
5.633831
5.430579
5.415678
4.875660
4.770756
4.688501
4.628897
4.531741
4.263520
4.265904
4.410744
4.112720
4.090667
4.437566
3.893971
4.380941
4.194975
4.230738
4.118681
3.769994
3.968477
##ZVALUE=290
0.659823
0.833869
0.725985
0.792742
0.775456
0.910759
0.890493
0.964999
0.884533
0.924468
0.979900
0.972748
0.997782
1.097918
1.120567
0.975728
0.999570
1.105666
1.033545
1.142621
1.109838
1.123548
1.387596
1.498461
1.407862
1.953840
2.618432
8.085966
39.027929
94.899535
183.246732
384.997725
587.002635
882.434845
1015.712619
1015.712619
1015.712619
996.561646
826.905966
547.436476
359.003544
178.553462
90.679526
36.371946
25.522709
35.742521
48.448443
74.526668
94.502568
122.130513
137.217641
144.511461
141.932964
125.385523
107.056499
78.411698
58.117509
36.755800
23.137927
12.811422
8.344650
4.980564
4.232526
3.997684
3.780723
3.693700
3.867745
3.912449
4.138947
4.535913
4.460812
4.949570
4.750490
5.447865
5.508661
5.081892
5.354881
4.712939
4.356503
4.521608
4.458427
4.078746
4.414916
4.092455
4.123449
4.046559
4.247427
4.181862
3.995895
3.921986
3.997684
3.888607
3.714561
4.264712
4.127622
3.708601
##ZVALUE=295
0.666976
0.771880
0.714660
0.742674
0.808835
0.664592
0.839829
0.735521
0.731945
0.692606
0.927448
0.772476
0.944734
0.948906
0.770688
0.992417
0.841618
0.889897
0.988841
1.058578
1.127720
1.009703
1.373887
1.105666
1.299977
1.254678
1.405478
1.566410
2.184510
3.676414
12.451410
57.300925
132.761598
311.851501
502.547622
795.167685
989.224911
1015.709639
1015.709639
1015.709639
936.283469
654.304624
446.829796
230.335593
122.346878
44.848919
24.501681
21.309853
29.528737
46.677589
64.962506
91.262460
111.026764
130.495429
137.373805
133.124590
120.979548
99.557638
79.226494
53.391457
37.185550
21.139979
14.098883
7.977486
5.765557
4.071593
4.051924
4.032850
4.150867
4.401803
4.236698
4.708767
4.832745
5.072951
5.275607
4.771948
4.631877
5.154610
4.377961
4.595518
4.463792
4.293919
3.903508
4.067421
4.154444
4.073977
4.271865
3.664494
3.907681
3.799796
3.715754
4.062653
3.695488
3.630519
3.877878
3.833771
##ZVALUE=300
0.758767
0.552535
0.633597
0.633597
0.646710
0.881553
0.846982
0.791550
0.677705
0.873804
0.828505
0.618696
0.819564
0.684857
0.882745
0.834465
0.851750
0.848770
0.984669
1.016855
0.878572
0.990629
1.012683
1.068711
1.160502
1.136661
1.171827
1.463890
1.403689
1.556873
1.937747
2.003908
8.123517
28.409958
99.729896
200.703740
425.481796
652.052760
952.739716
1015.712023
1015.712023
1015.712023
1007.207036
827.185512
528.875589
341.109633
167.702436
86.541772
32.351613
16.925931
19.084811
25.584698
43.178797
58.761835
85.140467
104.041696
124.029517
129.936934
127.750635
118.162632
96.584558
78.780651
54.321885
38.733482
22.128820
14.458895
8.559823
6.019473
4.524589
4.404783
4.312992
4.648566
4.759431
5.042553
4.671812
4.960895
4.818439
4.776716
4.152656
4.302859
4.204512
4.034638
4.078746
4.228950
3.927946
3.762841
4.215837
4.033446
3.884435
3.850460
3.753901
3.522635
3.736615
3.770590
3.775954
3.667474
##ZVALUE=305
0.712872
0.756979
0.616908
0.679493
0.680685
0.567436
0.754595
0.760555
0.675917
0.705719
0.631809
0.824928
0.812411
0.849962
0.705719
0.824928
0.665784
0.724792
0.724792
0.898838
1.034737
1.064539
0.923872
1.101494
1.129508
0.892878
1.126528
1.236796
1.303554
1.398921
1.538992
1.599789
1.883507
2.065897
3.479719
19.831657
56.056976
164.820552
305.686593
583.353639
831.709504
1015.712023
1015.712023
1015.712023
1015.712023
963.756442
727.086663
442.900658
264.328718
112.776756
54.544806
19.493699
13.198853
17.364621
24.150610
40.843487
57.010651
81.018806
98.706484
115.637779
123.638511
121.162534
112.949610
93.439817
75.575709
52.430630
36.971569
21.675825
14.241934
8.413792
6.602407
5.245805
5.187988
5.086660
4.722476
4.603863
4.787445
4.160404
4.413724
4.110932
4.132986
4.073977
4.104972
3.988743
4.253983
4.027486
3.889799
3.932714
4.138947
3.582835
3.747940
3.745556
3.881454
3.652573
3.864765
3.854632
##ZVALUE=310
0.715852
0.838637
0.634789
0.698566
0.829697
0.657439
0.663996
0.631809
0.689626
0.572801
0.725985
0.655651
0.695586
0.860691
0.875592
0.919700
0.774860
0.823736
0.769496
0.627637
0.804663
0.755787
0.770688
1.085997
0.868440
0.991821
1.131892
1.139641
1.209974
1.140833
1.190901
1.404881
1.305938
1.459718
1.532435
1.793504
2.132654
8.995533
31.002760
107.142925
218.725801
469.617844
722.675920
1015.704870
1015.704870
1015.704870
1015.704870
1015.704870
948.729515
609.323978
388.941765
184.071660
94.305873
32.388568
14.685988
11.215806
14.084578
23.322701
32.570958
52.323937
69.173574
91.554523
105.519891
116.595626
115.167499
105.831623
94.341636
72.617531
55.513978
35.073757
24.079680
14.377832
9.688735
6.513000
5.518794
5.151629
4.796982
4.169941
3.958941
4.228950
3.974438
4.033446
4.077554
4.065633
3.838539
4.047751
4.040599
3.630519
3.751516
3.640652
3.800988
3.542900
3.568530
3.585815
3.583431
3.669858
##ZVALUE=315
0.638962
0.812411
0.550747
0.679493
0.741482
0.715852
0.840425
0.688434
0.806451
0.819564
0.801682
0.747442
0.657439
0.880957
0.880957
0.967979
0.899434
0.846982
0.882745
0.793934
0.782609
0.935793
0.729561
0.920892
1.055598
1.054406
1.029968
0.959635
1.168847
1.104474
1.041889
1.208782
1.350641
1.450777
1.561642
1.345873
1.602769
1.834631
2.254844
4.339814
16.218424
68.776608
154.814720
367.730856
627.353787
1010.077000
1015.791893
1015.791893
1015.791893
1015.791893
1015.791893
810.484886
543.400645
268.823504
141.546726
49.158931
20.781755
10.414720
10.227561
14.101863
20.848513
33.659935
46.731830
66.725612
83.005428
99.999905
107.964873
110.445619
102.898479
85.786581
70.914626
50.708652
36.210418
22.198558
14.844537
8.943677
6.493926
5.195737
4.888773
4.460812
4.131794
4.088879
3.811717
4.180670
4.045963
4.165769
4.010797
3.939867
4.061460
4.227757
3.890991
3.692508
3.778934
3.680587
3.711581
3.578663
##ZVALUE=320
0.637770
0.575781
0.754595
0.746846
0.691414
0.697970
0.604987
0.494719
0.633597
0.714660
0.669956
0.722408
0.794530
0.679493
0.665784
0.701547
0.765920
0.722408
0.692606
0.757575
0.790954
0.790954
0.913739
0.730753
0.709891
0.831485
0.935793
0.927448
0.937581
1.109838
0.993609
0.948906
1.186728
1.084805
1.185536
1.295805
1.445413
1.443624
1.423955
1.783967
2.024770
2.754927
8.190870
42.396784
103.101730
276.820660
480.265617
863.612890
1015.715599
1015.715599
1015.715599
1015.715599
1015.715599
1015.715599
745.183825
392.157435
213.889480
85.573792
38.671494
13.152957
8.714795
9.354949
12.082458
18.412471
27.529597
43.902993
58.879852
78.761578
91.788769
101.314783
103.431940
96.516609
85.191727
65.792799
50.173998
31.999946
21.944642
13.341904
9.193420
5.897880
4.884601
3.866553
4.134774
3.889799
3.937483
3.814697
3.938675
3.695488
3.915429
3.857613
3.861785
3.792644
3.644824
3.453493
3.679991
3.556609
##ZVALUE=325
0.674725
0.697970
0.679493
0.607967
0.613928
0.769496
0.658631
0.591874
0.671744
0.631809
0.831485
0.819564
0.648499
0.778437
0.718832
0.694990
0.841618
0.787973
0.764728
0.763535
0.877976
0.921488
0.765920
0.845790
0.999570
0.872612
0.861883
0.965595
1.041889
0.989437
1.054406
1.005530
1.320839
1.142621
1.128912
1.279712
1.296997
1.347661
1.316667
1.438856
1.541972
1.986623
1.914501
2.321601
4.422665
28.190613
75.836778
198.835731
370.509624
730.651617
1015.765667
1015.765667
1015.765667
1015.765667
1015.765667
1015.765667
961.882472
536.880493
302.535892
122.848749
56.732893
17.277598
9.177923
8.061528
8.843541
12.295842
17.410517
27.841926
40.412545
60.296655
74.246526
89.258552
96.274614
96.917748
91.194510
76.249838
62.411427
44.698715
32.162666
18.943548
12.714863
7.839799
5.974770
4.687905
4.429817
4.209876
4.039407
3.897548
3.975630
3.738999
3.683567
3.786683
3.513694
3.706813
3.784895
3.470778
##ZVALUE=330
0.646710
0.518560
0.589490
0.539422
0.422597
0.594854
0.558496
0.608563
0.387430
0.583529
0.526905
0.582933
0.532866
0.588894
0.638962
0.700951
0.626445
0.624657
0.552535
0.715852
0.587702
0.660419
0.694990
0.758767
0.701547
0.625849
0.750422
0.805855
0.735521
0.873804
0.782609
0.773668
0.912547
1.002550
0.690818
1.160502
0.966787
1.159906
1.101494
1.113415
1.251698
1.304746
1.461506
1.456738
1.561642
2.028942
2.455711
12.854934
42.089820
133.267641
256.955624
518.854856
771.963000
1015.710831
1015.710831
1015.710831
1015.710831
1015.710831
905.976892
559.212565
337.910652
144.042969
71.206689
25.234818
11.082888
7.142425
7.238984
8.034706
10.615587
17.211437
25.054812
39.277673
53.277612
71.483850
82.088709
90.269446
89.780688
83.245635
73.188543
56.026578
42.506456
27.344823
19.251704
11.999607
8.263588
5.752444
4.847646
4.276633
3.844500
3.546476
3.561974
3.558993
3.349781
3.373623
3.336668
3.174543
##ZVALUE=335
0.546575
0.595450
0.638962
0.553727
0.562668
0.597835
0.546575
0.544786
0.587702
0.565648
0.578761
0.520945
0.495911
0.695586
0.701547
0.521541
0.662804
0.694990
0.629425
0.558496
0.628829
0.655651
0.624657
0.712872
0.776649
0.651479
0.800490
0.684857
0.695586
0.843406
0.640750
0.801682
0.719428
0.846982
0.985861
0.920892
0.896454
1.112819
0.969768
1.038909
1.105666
1.080632
1.091957
1.283884
1.351833
1.371503
1.786947
1.886487
2.077818
5.628467
21.353960
87.425709
184.279680
407.906771
649.368763
998.587608
1015.712023
1015.712023
1015.712023
1015.712023
999.295712
668.950677
434.921980
214.234591
109.147429
35.990477
15.218854
7.887483
7.000566
7.093549
7.629991
10.948777
15.483499
25.420785
35.495758
52.333474
63.991547
77.036619
83.192587
83.755851
78.383684
65.471530
54.046512
41.236877
30.359626
19.473433
13.332963
8.034706
6.198883
4.375577
3.851652
3.495812
3.607869
3.393888
3.439784
3.164411
##ZVALUE=340
0.498891
0.413656
0.415444
0.574589
0.549555
0.603795
0.550747
0.652671
0.602603
0.603795
0.638962
0.633597
0.606775
0.614524
0.588894
0.496507
0.483990
0.527501
0.621676
0.537634
0.534654
0.678897
0.578761
0.561476
0.619888
0.700951
0.689626
0.783801
0.847578
0.812411
0.785589
0.929832
0.735521
0.466704
0.759959
0.810623
0.730753
0.960827
0.878572
0.926852
0.866652
0.932813
0.926852
1.159906
1.174808
1.270771
1.247525
1.427531
1.798868
1.605749
1.816750
2.771616
9.808540
52.774549
130.313635
321.936011
542.863607
890.551805
1015.710831
1015.710831
1015.710831
1015.710831
1015.710831
781.664848
537.293553
272.835493
144.104958
53.640604
21.373630
8.566976
7.225871
6.813407
6.667972
7.875562
10.207891
15.676618
22.707582
35.644770
46.204925
61.268806
71.880817
78.358650
78.450441
72.871447
64.971447
50.812960
40.477514
28.909445
20.356774
12.736917
8.452535
5.312562
4.346967
3.842711
3.538728
3.178716
##ZVALUE=345
0.455976
0.605583
0.604987
0.442863
0.439882
0.534654
0.499487
0.516772
0.504851
0.541806
0.565648
0.523925
0.637770
0.545979
0.483990
0.559688
0.580549
0.630617
0.576973
0.576973
0.653863
0.583529
0.580549
0.616908
0.621676
0.708699
0.626445
0.605583
0.594854
0.667572
0.643730
0.674725
0.580549
0.784993
0.636578
0.849962
0.754595
0.825524
0.845790
0.854731
0.930429
0.925660
0.880957
0.920892
0.942945
1.039505
1.211762
1.238585
1.291633
1.441836
1.544952
1.651645
1.625419
1.976490
5.251765
24.028420
107.320547
217.957497
448.911786
680.745840
998.166800
1015.710831
1015.710831
1015.710831
1015.710831
907.456875
591.238737
373.551846
162.876844
76.794624
24.273992
11.578798
7.453561
6.854534
6.073713
6.204844
6.851554
8.728504
13.488531
19.928813
31.859875
42.115450
54.742694
64.517856
70.888996
72.746873
68.950653
62.854886
49.415827
39.796829
27.354956
19.787550
12.181997
8.417964
5.457997
4.372597
##ZVALUE=350
0.528693
0.602603
0.565648
0.475645
0.408888
0.438690
0.468493
0.400543
0.506639
0.510812
0.646710
0.655651
0.663996
0.693798
0.417829
0.595450
0.440478
0.619888
0.612736
0.504851
0.763535
0.334978
0.506639
0.678897
0.805855
0.711679
0.599623
0.703931
0.666976
0.557899
0.732541
0.703931
0.719428
0.615716
0.652671
0.648499
0.750422
0.792742
0.894666
0.747442
0.812411
0.775456
0.886917
0.894666
0.824928
1.052618
0.893474
1.058578
1.221895
1.131892
1.265407
1.313686
1.477599
1.560450
1.596808
2.030730
2.846718
13.799667
48.807859
166.996717
319.245458
615.835786
866.812468
1015.726924
1015.726924
1015.726924
1015.726924
991.647840
746.385455
425.756574
251.382589
107.264519
46.972632
13.586879
7.622838
6.326437
5.923510
5.716681
5.653501
6.200671
7.907748
12.545586
17.894506
27.972460
35.996437
48.553944
57.541728
64.390898
65.832734
64.335465
58.050752
47.002435
38.691759
27.179718
19.984841
12.924671
##ZVALUE=355
0.521541
0.466704
0.573993
0.492930
0.519753
0.556707
0.598431
0.482798
0.540614
0.458956
0.472665
0.477433
0.385642
0.543594
0.545979
0.603795
0.648499
0.559688
0.633597
0.629425
0.725985
0.587702
0.678897
0.589490
0.676513
0.693798
0.568628
0.735521
0.697970
0.680685
0.585914
0.654459
0.726581
0.482798
0.840425
0.750422
0.820756
0.701547
0.746846
0.897646
0.739694
0.873804
0.772476
0.909567
0.824928
0.970960
0.864863
0.985861
0.947714
1.162887
1.030564
1.043677
1.372695
1.220703
1.481771
1.616478
1.669526
1.999736
2.160668
6.694794
24.981499
112.781525
244.754553
515.691638
786.237717
1015.710831
1015.710831
1015.710831
1015.710831
1015.710831
855.536461
543.450713
335.325003
142.904520
64.500570
18.639565
8.537769
6.182790
5.869865
5.563498
5.063415
5.204678
5.606413
7.564425
10.258555
16.367435
22.883415
33.308864
42.197704
50.900578
56.699514
59.789419
58.787465
52.838922
46.304464
35.868883
##ZVALUE=360
0.687838
0.656843
0.591874
0.786781
0.692606
0.701547
0.619888
0.716448
0.673532
0.572801
0.730753
0.796914
0.691414
0.735521
0.848770
0.716448
0.724792
0.753999
0.755787
0.717640
0.894666
0.712872
0.746846
0.820756
1.054406
0.888705
0.850558
0.753999
0.934601
0.800490
0.859499
0.798702
0.815988
0.965595
1.024604
0.805855
0.829697
0.866652
0.976920
0.934601
1.003742
0.994802
0.979900
0.889897
1.022816
1.008511
1.172423
1.082420
1.091957
1.191497
1.153946
1.408458
1.283884
1.313686
1.455545
1.585484
1.764894
1.818538
2.008677
2.219677
2.407432
3.339648
14.528632
52.355528
203.921795
406.214595
765.094757
1015.838981
1015.838981
1015.838981
1015.838981
1015.838981
973.412991
719.778538
411.219597
242.532492
96.670985
40.419698
11.740923
6.952882
6.007552
5.638599
5.340576
5.034804
4.959702
5.168915
6.458759
8.615851
13.254881
18.710494
27.598739
35.197735
45.159459
50.898790
54.704547
54.600835
##ZVALUE=365
0.494719
0.479817
0.557899
0.560880
0.562668
0.560880
0.527501
0.642538
0.552535
0.723600
0.519753
0.411868
0.782609
0.542998
0.629425
0.712872
0.505447
0.415444
0.536442
0.632405
0.751615
0.668764
0.721812
0.679493
0.672936
0.622869
0.690818
0.717640
0.797510
0.751615
0.883937
0.643730
0.902414
0.790954
0.822544
0.801682
0.712872
0.808835
0.747442
0.870824
0.790954
0.834465
0.889897
0.913739
0.776649
0.954866
0.936985
0.885725
1.031756
0.897646
1.036525
1.188517
1.080632
1.369715
1.245737
1.393557
1.293421
1.454949
1.545548
1.613498
1.818538
2.022982
2.176762
2.754927
5.010962
30.797720
92.511773
273.496509
491.380692
846.173763
1015.710831
1015.710831
1015.710831
1015.710831
1015.710831
822.955966
575.987697
304.215550
163.283944
56.675673
21.513700
7.515550
5.774498
5.204678
5.136728
4.683733
4.508495
4.264712
4.336834
5.116463
6.667972
10.619760
14.877915
22.267699
28.959513
37.979484
##ZVALUE=370
0.582933
0.446439
0.365973
0.477433
0.434518
0.457764
0.510812
0.524521
0.632405
0.487566
0.591874
0.404716
0.606775
0.513792
0.561476
0.659823
0.452995
0.597835
0.590682
0.623465
0.570416
0.639558
0.606775
0.568628
0.790954
0.853539
0.744462
0.734925
0.584722
0.619888
0.699759
0.628829
0.676513
0.765920
0.622869
0.672936
0.744462
0.748634
0.647902
0.596642
0.695586
0.726581
0.740886
0.670552
0.764728
0.774860
0.924468
0.905991
1.018643
0.890493
0.945926
0.893474
1.079440
1.044869
0.903606
1.068711
1.127720
1.238585
1.236796
1.236796
1.337528
1.584888
1.756549
1.690984
2.072453
2.117753
3.500581
13.993979
76.781511
181.406736
410.963893
631.393790
956.149697
1015.712023
1015.712023
1015.712023
1015.712023
985.072851
636.746883
403.997898
185.420513
91.061592
31.175613
11.770725
5.861521
5.304813
4.609823
4.201531
4.320741
3.795624
3.574491
3.978610
4.411936
5.839467
9.287000
12.646914
##ZVALUE=375
0.437498
0.558496
0.511408
0.548959
0.415444
0.453591
0.466704
0.522733
0.481606
0.501871
0.466704
0.513792
0.549555
0.474453
0.490546
0.533462
0.510812
0.667572
0.587702
0.550747
0.514984
0.537634
0.578761
0.554919
0.475645
0.682473
0.430942
0.575781
0.578761
0.518560
0.594854
0.605583
0.465512
0.824928
0.595450
0.636578
0.449419
0.543594
0.606775
0.604987
0.726581
0.637770
0.735521
0.620484
0.688434
0.682473
0.695586
0.673532
0.829697
0.810623
0.839829
0.842810
0.857711
0.774860
0.747442
0.894666
1.019835
0.981688
1.083612
1.004934
1.097918
1.187921
1.058578
1.249909
1.376867
1.494884
1.881719
1.896620
2.238750
7.532835
29.049516
117.333531
248.949528
515.975952
761.822462
1015.710831
1015.710831
1015.710831
1015.710831
983.511806
756.113529
457.605720
287.696719
137.799978
67.802668
20.030737
7.682443
4.891753
4.402995
3.997684
3.922582
3.614426
3.449917
3.431439
3.434420
3.591776
##ZVALUE=380
0.362992
0.509620
0.499487
0.470877
0.508428
0.663996
0.486970
0.439882
0.475645
0.413656
0.405908
0.608563
0.546575
0.429749
0.458956
0.446439
0.465512
0.420809
0.403523
0.559688
0.547767
0.484586
0.457764
0.522733
0.412464
0.408888
0.585914
0.638962
0.540614
0.614524
0.533462
0.531673
0.623465
0.694990
0.495911
0.613928
0.527501
0.508428
0.543594
0.619888
0.655651
0.625849
0.660419
0.580549
0.584722
0.584722
0.743866
0.618696
0.529885
0.548959
0.646710
0.786781
0.732541
0.692606
0.788569
0.844598
0.765920
0.820756
0.763535
0.881553
0.970960
0.932813
0.833869
1.042485
1.164675
1.313686
1.260638
1.468658
1.495481
1.706481
2.348423
3.562570
13.169646
66.186786
158.993602
373.677611
595.504642
914.101005
1015.710831
1015.710831
1015.710831
1015.710831
948.292017
664.518476
449.664593
220.021605
110.667944
35.077929
13.701916
5.395412
4.414916
3.986955
3.727674
3.376603
3.458858
3.321767
##ZVALUE=385
0.455976
0.470877
0.536442
0.496507
0.403523
0.369549
0.531673
0.292659
0.543594
0.405908
0.322461
0.463724
0.465512
0.456572
0.404716
0.426769
0.406504
0.437498
0.391603
0.493526
0.546575
0.566840
0.519753
0.578761
0.538826
0.707507
0.552535
0.528693
0.487566
0.473857
0.227690
0.432730
0.533462
0.568628
0.580549
0.602603
0.592470
0.610948
0.720620
0.613928
0.703931
0.571609
0.509620
0.618696
0.656843
0.671744
0.671744
0.610948
0.470877
0.718832
0.574589
0.680685
0.635982
0.738502
0.595450
0.718832
0.691414
0.620484
0.663996
0.811815
0.778437
0.769496
0.747442
0.984669
0.923872
0.981688
1.100898
1.081824
1.362562
1.328588
1.643896
1.812577
1.845956
2.442598
6.594658
35.558939
92.877746
240.680575
432.992578
765.630007
998.706818
1015.710831
1015.710831
1015.710831
1012.653708
736.401677
504.475832
263.433456
145.029426
56.226850
22.004843
6.220937
4.284978
3.976822
3.645420
3.493428
##ZVALUE=390
0.483990
0.537634
0.444651
0.376701
0.487566
0.473857
0.323653
0.353456
0.545979
0.601411
0.432730
0.375509
0.645518
0.512600
0.556707
0.467896
0.295639
0.452995
0.494719
0.314713
0.414848
0.204444
0.485778
0.466704
0.387430
0.451803
0.439882
0.439882
0.498891
0.562668
0.444651
0.491738
0.459552
0.536442
0.599623
0.505447
0.566840
0.425577
0.388622
0.473857
0.593662
0.435710
0.589490
0.543594
0.537634
0.584722
0.616908
0.752807
0.683665
0.676513
0.514984
0.676513
0.665784
0.678897
0.677705
0.676513
0.867844
0.748634
0.684857
0.747442
0.848770
0.775456
0.874996
0.786781
0.779629
1.039505
1.033545
1.111627
1.160502
1.313686
1.471639
1.525879
1.788735
1.722574
1.656413
2.056956
3.369451
19.057393
58.131814
180.314779
340.883732
633.967519
864.096880
1015.710831
1015.710831
1015.710831
1015.710831
920.770764
683.329105
393.244624
217.084885
80.948472
34.210682
9.338856
4.531741
3.670454
##ZVALUE=395
0.345707
0.601411
0.424981
0.354648
0.542998
0.472665
0.474453
0.258684
0.454783
0.393987
0.473857
0.545979
0.488758
0.377893
0.553727
0.442863
0.381470
0.469685
0.456572
0.425577
0.263453
0.427961
0.429749
0.427961
0.433922
0.567436
0.448823
0.466704
0.575781
0.650883
0.540614
0.476837
0.527501
0.541806
0.465512
0.557899
0.541806
0.535846
0.575781
0.637770
0.757575
0.495911
0.573993
0.474453
0.597835
0.650883
0.566840
0.463724
0.631809
0.616908
0.550747
0.592470
0.648499
0.615716
0.726581
0.649691
0.630617
0.717640
0.685453
0.791550
0.624657
0.700951
0.896454
0.753999
0.795722
0.848770
1.030564
0.963807
1.230836
1.247525
1.421571
1.412630
1.575947
1.577735
1.406670
1.724958
1.459718
1.848936
2.253652
10.918975
38.372874
128.940940
249.955654
478.426814
714.609027
1010.236740
1015.712023
1015.712023
1015.712023
1015.712023
890.375972
532.681942
315.012932
125.463009
55.225492
16.683936
##ZVALUE=400
0.345707
0.455976
0.503659
0.332594
0.381470
0.416636
0.405908
0.527501
0.473857
0.393987
0.448823
0.409484
0.330806
0.517964
0.366569
0.486970
0.530481
0.448823
0.350475
0.441670
0.534654
0.522733
0.504851
0.508428
0.591874
0.564456
0.503659
0.476837
0.460744
0.614524
0.476837
0.520945
0.413656
0.525713
0.466704
0.515580
0.530481
0.381470
0.537634
0.510812
0.624657
0.483990
0.685453
0.841618
0.602603
0.526905
0.549555
0.609756
0.635982
0.685453
0.719428
0.586510
0.636578
0.637770
0.585914
0.620484
0.621676
0.630617
0.523925
0.817776
0.770688
0.827909
0.760555
0.891685
0.923872
0.975728
0.939965
1.117587
1.007915
1.227856
1.268983
1.289845
1.356602
1.481771
1.415610
1.415610
1.379848
1.563430
1.535416
1.793504
2.049804
5.758405
21.043420
76.048970
165.693760
369.617939
588.742495
928.411484
1015.710831
1015.710831
1015.710831
1015.710831
1001.487970
666.768551
424.822569
202.847719
##END
