##TITLE=KDZ0102
##FORMAT=SPECTACLE-ASCII V-1.2
##DATA TYPE=ULTRAVIOLET SPECTRUM
##SECOND TYPE=ULTRAVIOLET SPECTRUM
##DATE=02/28/18
##TIME=17:16:42
##SPECTROMETER/DATA SYSTEM=SPECTACLE
##XUNITS=NM EM
##YUNITS=ENERGY
##YFACTOR=1
##FIRSTX=220
##LASTX=410
##NPOINTS=96
##3DDATA=Equidistant
##ZUNITS=NM EX
##FIRSTZ=210
##LASTZ=400
##ZPOINTS=39
##XYDATA=(Y..Y)
##ZVALUE=210
3.772974
3.167987
2.992749
2.986789
3.146529
3.906488
4.041791
3.498793
3.941655
3.847480
3.160834
3.304482
2.678633
3.817677
3.162622
3.633499
4.082918
3.782511
3.808737
4.416704
4.280806
5.052686
5.188584
5.591512
5.079508
5.320907
6.403923
5.823970
5.823970
6.752610
7.233620
6.346703
7.075667
7.941723
7.207990
7.241964
7.181764
7.463694
7.810593
7.013679
8.697510
8.412600
7.428527
7.595420
8.273721
9.192824
8.537769
9.534955
9.695888
8.381605
9.740591
10.252595
8.874536
9.351969
9.577870
10.280609
9.387732
8.925796
10.293722
10.200739
10.409951
10.680556
11.242628
8.980632
9.985566
12.061000
11.086464
11.213422
13.494492
16.597509
19.115806
22.840500
24.961829
30.720830
33.303499
36.155581
40.706992
40.054917
40.813684
41.704774
37.641525
32.627583
30.996799
26.825666
21.801591
16.276836
15.224814
13.048649
11.535883
12.124777
11.173487
11.630654
10.392666
11.053681
11.845827
11.191964
##ZVALUE=215
12.807846
13.252497
12.135506
10.017753
8.051991
7.895827
7.553697
6.631613
7.186532
7.762909
7.440448
6.276965
5.414486
5.378723
4.810691
4.134774
4.681945
3.309846
4.370809
4.925728
5.436540
4.965663
5.533695
6.473660
6.847978
6.295443
7.353425
7.186532
6.829500
6.687641
7.216930
8.290410
8.253455
7.901788
7.880926
8.117557
8.983612
9.210706
9.670854
8.630753
9.498596
8.236766
9.912848
9.269714
9.742975
10.135770
10.093451
10.508895
10.888577
10.768771
11.356473
11.173487
10.442734
11.397600
11.828542
11.751652
11.257529
10.148883
11.129975
11.328459
11.490583
12.149811
12.471676
11.169910
13.093948
13.082623
14.296770
14.815927
17.112494
19.486547
21.619797
25.013685
29.567480
34.325719
35.675764
41.042566
43.487549
44.647455
41.557550
42.595863
40.977001
35.542846
32.239556
28.404593
25.924444
18.912554
15.926957
13.991594
13.911724
12.269616
11.369586
11.564493
11.008978
11.520982
11.771917
11.374950
##ZVALUE=220
46.253800
47.011971
49.339533
51.954985
49.254894
35.784841
28.881431
21.357536
17.357469
14.865994
14.264584
15.239716
15.663505
14.220476
11.765957
9.795427
7.661581
6.829500
6.575584
6.364584
6.142855
6.423593
6.731749
7.171631
6.708503
7.648468
8.546710
8.598566
8.007884
8.589625
8.714795
8.957982
10.067821
9.049773
9.355545
11.136532
10.499954
11.417866
10.357499
10.215640
11.478662
10.687709
12.237430
10.582805
10.368824
11.521578
12.383461
11.867881
12.713671
11.828542
11.313558
11.045933
12.611747
11.928678
13.163686
12.234449
12.903810
12.595654
13.377666
13.649464
12.961626
13.197660
12.591481
12.681484
13.711452
13.642907
13.248920
17.793775
18.496513
21.751523
24.224520
30.247569
34.123659
39.091706
41.264892
43.144822
46.330690
51.915646
49.794912
48.414469
46.842694
43.586493
38.750768
32.027960
27.731657
20.379424
17.823577
14.828444
15.117526
13.104677
12.265444
12.339950
12.144446
11.097789
10.535717
12.912750
##ZVALUE=225
76.590776
81.833601
101.923943
127.148628
135.056973
137.308836
120.546818
89.356899
65.235496
47.667623
33.230782
30.309558
28.584599
31.219721
31.245947
25.896430
24.613738
21.302700
15.461445
12.210608
9.415746
7.708669
7.075667
7.200837
8.198619
8.842945
7.992983
8.195639
9.566545
7.887483
8.726716
9.380579
8.575916
10.636449
10.152459
9.972453
9.292960
11.115670
10.724664
10.899901
9.465814
10.953546
11.506677
10.805726
11.142492
11.989474
11.612773
12.521744
12.610555
11.349916
11.758804
11.747479
12.577772
12.570620
12.578964
11.912584
12.360811
13.042688
12.758970
13.149977
12.111664
12.800694
14.641881
13.247728
14.543533
13.854504
14.576912
16.575456
16.856790
17.851591
19.779801
24.342537
25.351644
29.353499
31.420588
31.825900
34.749508
31.458735
33.084750
30.429959
27.754903
26.284456
26.310682
20.485520
20.041466
17.857552
15.605688
13.967752
13.566613
13.692975
12.303591
11.694431
12.134910
11.345744
11.429787
12.285709
##ZVALUE=230
57.275891
67.622662
101.975799
171.072483
223.617554
273.850560
295.739770
290.137529
258.967876
212.391615
134.267807
92.792511
59.539676
50.547719
48.722625
53.448677
54.308772
53.345561
49.468875
39.565563
28.979778
20.449758
14.928579
11.257529
8.293986
6.931424
7.516742
8.607507
8.036494
7.470846
7.885695
9.512901
8.338690
8.614659
8.495450
9.790659
8.926988
8.264780
10.047555
9.488463
10.253787
10.259748
9.948611
10.011792
10.629892
10.031462
9.989738
10.488629
11.026859
10.979772
11.095405
10.400414
11.288524
11.365414
10.990500
11.546612
10.961890
13.638735
12.097955
12.307763
12.346506
11.141896
11.291504
11.999607
12.645721
14.024973
12.449622
15.070438
14.147758
15.939474
18.507838
20.413995
21.780729
26.245713
25.570989
25.525689
26.387572
24.727583
26.314855
23.366809
20.598769
20.937920
19.370914
16.903877
16.819835
15.886426
14.992952
14.858842
13.445616
12.211800
12.966990
12.753606
12.802482
12.724996
13.167858
14.245510
##ZVALUE=235
20.483732
21.627545
58.559775
108.572841
204.338431
297.472477
420.837998
515.140891
579.862595
571.967959
498.629808
403.237939
305.209756
185.254812
125.133991
84.175467
76.681972
81.007481
88.433623
87.585449
79.553723
74.336529
52.713752
38.239956
24.986863
17.328858
12.651682
11.053681
9.770989
9.759665
9.378791
8.550882
8.134842
8.782744
10.567904
9.084940
9.751916
9.467602
9.848475
9.516478
10.083914
10.586977
9.936690
10.401607
9.597540
10.357499
10.145903
10.642409
10.610819
11.063814
11.008978
11.014938
11.231899
11.053681
12.514591
12.065768
11.528730
11.920929
11.608601
12.496710
11.745691
12.452602
13.770461
13.134480
14.155507
13.993979
14.202595
15.316606
16.655922
18.768907
21.547675
23.370981
25.378466
27.355552
30.025840
31.529665
33.417940
31.482577
31.362772
29.583573
29.618740
27.361512
25.135875
23.372769
21.548867
19.708872
18.889904
17.188787
17.921925
16.039610
16.501546
16.234517
17.204881
16.800761
15.062690
15.639663
##ZVALUE=240
2.805591
3.085732
8.954406
34.504533
73.392987
170.790553
276.099443
481.855869
627.688766
775.870681
838.162899
802.413821
686.382651
564.768910
396.279693
270.399451
155.402422
116.764903
102.177858
109.801888
118.300915
128.897429
121.626854
110.929012
89.933872
70.007443
52.850842
35.037994
23.823977
15.892982
12.773871
11.235476
10.502934
11.098981
10.708570
10.906458
10.797977
10.477901
11.653900
11.203885
10.932684
11.577606
10.322928
11.463761
11.311769
11.170506
10.064840
11.208653
11.663437
10.657907
10.775924
11.394620
11.015534
10.748506
11.278987
11.149645
12.093782
13.336539
12.720823
13.432503
11.708736
12.818575
13.492703
13.837814
13.929605
14.235973
15.490651
15.572906
18.684864
19.955635
22.822618
25.352836
29.668808
27.698874
29.842854
31.732917
31.470656
31.038523
30.962825
30.654669
30.386448
28.640628
28.713942
24.970770
23.706555
20.042658
20.926595
20.513535
20.045638
18.935800
19.310713
19.112825
17.195940
19.048452
17.191768
18.844604
##ZVALUE=245
2.001524
1.888871
2.441406
2.909899
8.153915
22.816658
72.459579
145.837665
331.279635
513.168573
814.267993
1002.063751
1015.710831
1015.710831
1015.710831
997.074842
819.376707
548.290014
358.379483
201.732516
139.607787
115.627646
125.750899
136.206746
142.448545
133.469701
119.840503
101.485848
78.746676
56.905746
40.867925
27.010441
19.012690
14.143586
12.328625
12.011528
11.243820
11.476874
11.265874
10.215640
10.028481
10.497570
9.805560
9.632707
10.078549
9.676814
9.534955
10.148883
9.902716
9.567738
10.244846
10.124445
10.101795
10.597706
9.854436
10.382533
10.511875
10.707974
10.676980
9.879470
10.973811
11.697412
11.187792
12.466908
12.360811
12.522936
13.970733
14.029741
14.160872
17.137527
19.144416
20.521879
23.246408
24.665594
25.348663
24.621487
23.858547
24.095774
23.929477
21.399856
20.834804
20.086765
19.923449
18.481612
18.500686
18.435717
17.577410
16.705990
18.004775
18.950701
16.856790
18.192530
16.577840
17.361641
17.589927
17.475486
##ZVALUE=250
1.646876
1.904964
1.773834
2.346635
2.171993
2.387762
4.061460
16.312599
43.087602
121.626854
228.551626
452.320576
652.287006
928.863883
1015.710831
1015.710831
1015.710831
1015.710831
935.830474
702.261925
423.967838
273.655653
151.125789
116.620660
116.985440
131.932497
141.878724
149.214864
144.089460
131.019950
110.336542
81.108809
60.466528
38.501620
25.458932
16.372800
11.965632
9.771585
8.945465
9.030700
9.000897
8.392930
7.173419
8.905530
8.018613
8.917451
8.386970
7.049441
7.567406
7.482767
7.965565
8.023977
7.757545
7.709861
7.565618
8.425713
7.163882
7.366538
7.640719
8.177757
7.768869
7.621646
8.526444
9.070635
8.818507
9.500980
11.005998
10.194778
10.665655
12.670755
14.145970
15.457869
15.671849
18.235445
18.989444
19.690990
18.762946
18.567443
18.032789
17.724633
16.584992
16.068816
15.685558
16.947985
15.451908
14.945865
15.269518
15.357733
15.230775
16.223788
14.853477
16.038418
14.843941
15.298724
15.005469
15.314817
##ZVALUE=255
1.561642
1.575947
1.556873
1.450777
1.825690
1.970530
1.437664
2.011657
2.332926
5.360842
27.618408
65.726638
131.140947
276.558399
428.599715
656.718016
810.352564
986.895561
1015.710831
998.128653
876.541734
694.596767
429.949760
269.614458
144.570470
104.449987
98.498464
109.702945
133.895874
146.521926
154.200792
145.398974
134.160519
106.186867
87.483525
57.456493
40.008426
22.641420
15.447736
9.594560
7.841587
6.587505
7.065535
6.861687
6.898642
6.761551
6.595850
5.859733
6.599426
6.555915
6.347895
6.843805
6.454587
6.517768
5.818605
6.286502
5.944967
6.844997
6.852746
6.648898
6.424785
7.043481
6.120801
7.311702
7.301569
7.737875
8.171797
8.639693
9.357929
9.235740
10.611415
12.324452
12.670755
13.394952
13.860464
14.261603
14.631748
13.874769
14.336705
14.206767
12.859702
13.645887
13.381839
12.474656
12.555718
13.294816
13.000965
13.131499
12.578964
13.173819
13.258457
12.290478
14.201999
13.446808
13.033748
13.816953
##ZVALUE=260
1.284480
1.238585
1.368523
1.402497
1.514554
1.607537
1.531839
1.343489
1.611710
1.659989
1.788735
2.564788
8.512735
36.009550
80.211759
193.959475
327.894688
537.041426
714.744925
912.401676
1009.024978
1015.696526
893.980861
732.686520
488.061905
335.309505
193.311572
120.846629
83.714724
86.934566
105.991960
128.317475
148.714781
161.006451
154.805779
136.387944
115.686655
85.240602
60.804486
37.398934
24.915934
13.069510
9.699464
7.118583
6.408691
6.038547
6.003976
6.758571
6.383657
6.482601
6.795526
6.389618
6.623864
6.199479
6.085634
5.874634
6.232858
6.236434
6.344914
6.279945
6.112456
6.869435
7.019639
6.834865
7.141829
7.427931
7.565618
7.099509
8.785725
9.586811
9.903908
10.979772
11.019707
12.455583
12.779832
12.278557
13.154745
13.227463
12.798905
12.755990
12.078881
12.362599
12.560487
11.481643
11.868477
11.621714
12.393594
11.824965
12.026429
11.927485
12.301803
12.597442
12.734532
12.808442
11.940598
12.293458
##ZVALUE=265
1.489520
1.331568
1.187921
1.193881
1.302958
1.297593
1.475811
1.496673
1.508594
1.808405
1.296997
1.738667
1.959801
2.148747
4.953742
24.459958
59.221983
151.408911
268.614888
500.156879
694.023967
879.128575
1015.712619
1015.712619
995.572805
857.440829
629.603863
441.540480
248.970985
149.127841
94.762444
73.237419
83.339810
115.748644
134.885907
155.712962
161.906481
155.203938
137.079954
109.558702
86.700916
57.881474
39.277673
23.894906
14.841557
8.797646
7.746816
6.804466
6.967783
6.364584
6.911755
6.530881
6.276965
6.568432
6.513000
6.290674
6.193519
6.135702
6.624460
6.668568
6.370544
6.151795
6.518960
6.634593
6.849766
7.098913
7.427931
7.813573
7.743835
8.226633
8.632541
10.293722
10.526776
10.456443
11.484623
11.093616
11.399984
12.006760
11.110902
10.889769
11.390448
11.662841
11.477470
10.852814
10.689497
10.743737
10.791421
11.589527
10.930896
11.121631
11.260509
11.685491
11.147857
11.321902
11.665821
12.077689
##ZVALUE=270
0.905991
0.995994
0.836849
0.812411
0.908971
0.825524
0.967979
1.309514
1.293421
1.132488
1.210570
1.439452
1.475811
1.545548
1.706481
1.654625
2.713799
11.572838
35.299659
107.910633
216.178894
371.206999
651.285648
859.834552
1015.537977
1015.537977
1015.537977
1015.537977
806.655884
598.287582
407.177806
213.068724
120.797753
65.050721
64.342618
90.609789
112.768412
140.798688
155.379772
162.390471
159.268975
137.290955
116.435885
86.438656
62.347651
37.361979
25.139451
15.049577
10.702610
8.107424
7.320642
7.262826
6.568432
7.263422
6.699562
6.987453
6.923676
7.038713
6.572604
6.721616
7.253885
7.363558
7.260442
6.738901
7.273555
7.510781
7.842779
8.112788
8.347631
9.143949
9.402633
9.436607
10.123849
11.231899
11.368990
11.061430
11.134744
11.454821
11.957884
11.386871
11.324883
10.941625
10.528564
10.814667
10.441542
10.549426
10.470748
10.788441
10.330677
10.517836
10.137558
10.414720
10.948777
10.701418
10.876656
11.358857
##ZVALUE=275
1.049638
1.172423
1.155734
1.119971
0.933409
0.807643
1.113415
1.149774
1.227856
1.232624
1.297593
1.351833
1.571774
1.558661
1.549721
1.549721
1.851916
1.771450
1.990795
4.813671
18.309951
72.370768
156.898499
352.357626
558.947921
853.284001
1011.716723
1015.710831
1015.710831
1015.710831
991.932750
724.539757
508.865714
277.110934
160.820484
79.188943
54.022670
65.077543
85.047483
114.436746
137.600899
153.202415
162.892938
153.932571
139.704943
111.185908
86.781979
58.658719
41.500926
25.664568
16.878843
10.697842
9.062886
7.409453
7.436872
7.294416
7.500648
7.638931
7.609725
8.180737
7.633567
7.400513
7.780790
7.469654
8.118749
8.085966
8.039474
8.318424
8.509755
9.035468
9.281635
10.281801
10.897517
10.875463
11.714697
11.496544
11.624694
11.059642
11.228919
11.162758
11.434555
10.404587
10.418892
10.211468
10.262728
11.022687
10.537505
10.878444
10.915995
10.678768
10.602474
10.609627
11.082888
10.197759
10.917783
10.651946
##ZVALUE=280
1.125932
1.032948
1.080632
1.256466
1.127720
1.255870
1.147985
1.268983
1.416802
1.231432
1.193881
1.369715
1.600981
1.564622
1.396537
1.416802
1.537800
1.613498
1.759529
1.990795
2.198815
2.908707
13.897419
44.809580
140.088797
257.822871
476.115942
690.776706
970.378518
1015.892029
1015.892029
1015.892029
1015.892029
849.527717
624.969602
351.800919
209.125876
92.686415
54.628849
46.219826
59.135556
87.731481
108.999610
137.557983
154.253840
159.047842
150.400996
132.283568
114.911795
83.025694
62.686801
39.352775
26.982427
15.445948
11.086464
7.799864
7.826686
7.468462
7.540584
7.696748
7.561445
7.884502
8.012652
7.909536
8.316636
8.108616
8.228421
8.477569
9.413958
9.734631
9.965897
9.958744
10.443926
10.849833
10.932684
11.381507
11.150837
11.174679
10.825992
10.828972
10.240674
10.050535
10.525584
10.721684
10.221601
10.395646
10.590553
10.127425
10.210872
10.922551
10.465980
10.487437
10.500550
10.210872
10.765791
11.090636
##ZVALUE=285
0.969768
0.947714
0.984669
0.914931
0.894666
0.995994
0.882745
0.931621
1.048446
0.880957
1.111627
1.005530
1.050830
1.198649
1.068711
1.388788
1.274943
1.229644
1.349449
1.475811
1.665950
1.718998
1.997948
2.178550
6.924868
24.941564
83.145499
169.460773
361.490846
561.930537
786.489844
1015.710831
1015.710831
1015.710831
1015.710831
1004.040837
799.230933
488.018990
303.256512
139.229894
70.727468
35.575628
37.460923
56.253672
78.750849
108.808875
128.451586
145.332813
150.965452
146.222711
135.766864
109.112859
88.105798
59.798956
41.407943
25.403500
16.962886
10.642409
8.599758
7.720590
7.520914
7.443428
7.663965
7.490516
7.808805
7.900000
8.203983
8.281469
8.832812
9.493828
9.400845
10.196567
10.465980
10.769963
10.426641
10.682940
10.286570
10.653734
10.500550
10.703802
10.219812
9.919405
10.564923
10.693669
10.379553
10.243654
10.481477
10.178685
10.223985
10.903478
10.573864
10.456443
10.168552
10.288954
10.229945
10.554790
##ZVALUE=290
0.712872
0.636578
0.877976
0.749826
0.933409
0.877976
0.920892
0.971556
1.015663
1.028776
1.033545
1.025796
1.044869
0.939965
0.980496
0.978708
0.969768
1.218915
1.285672
1.192689
1.469851
1.294613
1.441836
1.883507
1.771450
2.086759
2.870560
9.843707
43.807626
106.970668
211.292505
444.329977
685.513020
1002.481580
1015.710831
1015.710831
1015.710831
1015.710831
969.141722
651.846528
427.340865
211.948752
111.520886
42.294860
28.494596
35.946965
50.503612
74.841976
96.538663
123.373866
138.149858
147.544742
144.040585
128.592849
110.153556
80.020428
60.143471
38.605928
26.580691
15.893579
11.520982
8.502603
7.777810
7.760525
7.460713
7.261634
7.521510
7.712841
8.508563
8.605719
9.191632
9.364486
10.014772
9.804964
9.965897
10.139942
10.660887
10.088682
9.906888
10.135770
10.108948
10.268688
9.955764
10.018945
10.486841
10.490417
10.067821
10.016561
10.757446
10.317564
10.627508
9.994507
10.292530
9.790659
10.036826
10.182858
##ZVALUE=295
0.976920
1.083612
0.706911
0.846982
1.017451
1.017451
1.010895
0.875592
1.091957
1.099706
1.084805
1.070499
1.004934
1.074672
1.262426
1.083612
1.230836
1.138449
1.064539
1.346469
1.403689
1.394749
1.289845
1.573563
1.832843
1.818538
1.914501
1.920462
2.483726
4.184842
23.968816
65.967441
147.625804
353.941917
565.195680
902.837515
1015.880704
1015.880704
1015.880704
1015.880704
1015.880704
768.904686
528.051853
279.869437
154.336691
57.829618
28.922558
22.269487
30.852556
48.893690
66.700578
93.043447
111.485720
134.683847
140.846968
135.338902
125.010610
101.685524
82.039833
57.638884
41.116476
24.826527
16.859770
11.039972
8.846521
7.875562
7.757545
7.713437
8.178949
8.091927
9.067655
9.187460
9.116530
10.141730
10.373592
9.967685
10.734797
10.098815
10.140538
10.034442
9.987950
10.328889
10.196567
10.169744
10.325909
10.251999
10.433793
10.566711
10.530949
10.677576
10.729432
10.204911
10.639429
10.520816
10.552406
10.447502
##ZVALUE=300
0.665784
0.657439
0.789762
0.798702
0.882745
0.796914
0.668764
0.824928
0.696778
0.893474
0.710487
0.840425
1.119971
0.836849
0.704527
0.960827
1.020432
0.884533
0.881553
1.093745
1.027584
1.191497
1.182556
1.205802
1.231432
1.272559
1.573563
1.528859
1.542568
1.809597
2.024770
2.468824
6.597638
39.730668
98.817945
249.666572
429.597497
753.139853
992.833972
1015.712023
1015.712023
1015.712023
1015.712023
963.602662
703.522563
378.821492
223.851800
97.699761
45.580864
18.787980
18.554926
29.072762
40.721893
63.836575
83.125830
108.985901
123.942494
133.056641
132.085681
117.643476
103.190541
78.302622
60.503483
38.760900
27.071834
16.143918
11.916757
8.926988
8.352995
7.946491
8.436441
8.357763
8.776784
9.335876
9.572506
9.354949
9.774566
9.512901
9.704828
9.893775
9.909868
10.232925
9.941459
9.950995
9.928942
10.274649
10.529757
10.659695
10.313988
10.324717
10.706782
10.465980
10.376573
10.186434
10.322928
10.500550
##ZVALUE=305
0.662804
0.721812
0.796914
0.595450
0.784993
0.677705
0.559688
0.674725
0.857711
0.850558
0.658631
0.685453
0.810623
0.940561
0.734925
0.767708
0.791550
0.895858
0.965595
0.931621
0.958443
1.074672
1.185536
1.082420
1.254678
1.217723
1.150966
1.298785
1.491904
1.675487
1.613498
1.521707
1.958609
2.138615
3.900528
23.769736
64.064860
183.041692
328.676701
610.233545
859.826803
1015.710831
1015.710831
1015.710831
1015.710831
1015.710831
831.924677
520.869493
325.979590
146.804452
69.407821
23.013949
13.933778
17.522573
25.982857
41.821599
59.044957
82.168579
100.655556
119.981766
125.718713
123.766661
115.979910
96.692443
78.151822
53.832531
38.986802
25.313497
17.344952
11.539459
10.030866
9.102821
8.827448
8.826852
9.173751
8.767843
9.504557
9.809732
9.428859
9.759665
9.875894
10.123849
9.963512
10.011792
10.242462
10.569692
10.895729
10.321736
10.218620
10.294914
10.584593
10.391474
10.404587
10.223985
10.368824
10.297894
##ZVALUE=310
0.694990
0.552535
0.518560
0.618696
0.678897
0.707507
0.709891
0.738502
0.773668
0.761747
0.842810
0.875592
0.896454
0.886917
0.808835
0.722408
0.696778
0.838637
0.922680
0.849962
1.024604
0.744462
0.884533
0.959635
1.047850
1.034737
0.972748
1.037717
1.146793
1.271963
1.184940
1.356602
1.521707
1.588464
1.784563
2.038479
2.577901
10.006428
33.067465
111.757517
223.940015
464.483500
704.527497
1010.529995
1015.710831
1015.710831
1015.710831
1015.710831
1015.710831
720.842481
486.432910
247.469544
131.446719
43.767691
17.931461
12.086630
15.256405
25.010705
34.092665
53.261518
71.665645
94.310641
107.513666
117.744803
119.510889
108.923912
96.875429
75.881481
57.993531
38.360953
27.537942
18.230677
13.620853
10.613799
9.591579
9.100437
9.010434
9.398460
9.249449
9.687543
9.778738
9.750724
9.663701
9.368658
9.979606
10.204911
10.224581
9.981990
10.545850
10.544658
10.674596
10.791421
10.278821
10.165572
10.675788
10.674000
##ZVALUE=315
0.651479
0.852942
0.574589
0.575781
0.818968
0.681877
0.632405
0.598431
0.698566
0.764728
0.713468
0.660419
0.595450
0.852942
0.724792
0.775456
0.851750
0.738502
0.799894
0.877976
0.952482
1.013875
0.814795
0.886917
1.021624
0.955462
0.884533
1.079440
1.126528
1.059771
1.263618
1.114607
1.194477
1.253486
1.600981
1.303554
1.649857
1.988411
2.006888
4.875660
18.303990
74.435472
165.221691
375.119448
589.625835
933.477879
1015.710831
1015.710831
1015.710831
1015.710831
1015.710831
821.895003
584.558845
312.857628
169.461966
60.861707
23.519993
10.723472
11.074543
15.081763
21.198988
34.217834
47.780871
69.209933
85.067749
104.766488
112.125874
112.761855
105.730891
89.150667
72.755814
54.782629
40.531754
25.407672
18.193722
12.943745
10.648966
9.726882
9.422898
9.349585
9.248853
9.280443
9.527802
9.814501
9.837747
9.676814
10.271668
10.194778
10.519624
10.226965
10.304451
10.113716
10.184646
10.456443
10.425448
10.106564
##ZVALUE=320
0.566840
0.566840
0.621676
0.664592
0.645518
0.702739
0.731945
0.749826
0.597835
0.662804
0.835657
0.709891
0.762939
0.590682
0.836849
0.583529
0.505447
0.863671
0.713468
0.896454
1.007915
0.782609
0.901818
0.897646
0.920892
0.994802
0.964999
0.922680
0.898838
0.932813
1.097918
0.994802
1.073480
1.349449
1.253486
1.255870
1.408458
1.482964
1.491904
1.778603
1.942515
2.736449
8.408427
46.095848
112.783909
282.992721
465.068817
759.336948
985.183716
1015.710831
1015.710831
1015.710831
1015.710831
928.376913
685.857534
391.952991
235.083699
101.712942
44.771433
13.917685
9.468794
10.611415
12.787580
19.725561
28.485656
46.166778
60.316920
80.803633
93.476772
105.935931
106.647611
100.214481
89.274645
69.552660
53.888559
36.691427
27.183890
17.601848
13.291836
10.674000
9.701848
9.764433
9.609461
9.714961
9.422898
9.986758
9.721518
9.910464
10.101795
10.078549
10.133982
10.096431
10.320544
10.121465
9.997487
9.856820
##ZVALUE=325
0.584722
0.644922
0.717640
0.629425
0.482798
0.676513
0.618696
0.464916
0.438690
0.681877
0.600815
0.563860
0.709891
0.836849
0.698566
0.727773
0.668764
0.718832
0.626445
0.635982
0.769496
0.748634
0.853539
0.765920
0.895858
0.771880
0.806451
0.977516
0.864863
0.820756
0.922680
0.865459
0.881553
1.205802
1.151562
1.242757
1.204610
1.362562
1.342893
1.376867
1.455545
1.870990
1.859665
2.211928
4.523993
29.122829
77.169538
201.043487
361.567736
662.600994
909.048915
1015.710831
1015.710831
1015.710831
1015.710831
984.743834
756.965876
464.544892
284.418464
130.613446
63.582659
19.962788
10.195971
8.557439
9.499788
13.107657
18.254519
29.938817
42.542815
60.659647
75.849891
92.373490
99.243522
100.334883
94.282627
79.310536
65.870881
48.674941
36.474466
23.867488
17.736554
12.916923
10.674596
10.057688
9.773970
9.550452
9.783506
9.348989
9.588599
9.748936
9.699464
9.568930
9.596944
9.612441
9.665489
9.552836
##ZVALUE=330
0.535846
0.646710
0.685453
0.576973
0.515580
0.661612
0.636578
0.739694
0.552535
0.648499
0.547767
0.779629
0.649691
0.493526
0.703931
0.583529
0.743866
0.649691
0.590682
0.763535
0.889897
0.858903
0.705719
0.658631
0.670552
0.734925
0.700951
0.729561
0.759959
0.789762
0.912547
0.777841
1.021624
0.861883
1.006722
1.044869
1.123548
1.124740
1.306534
1.211762
1.347661
1.464486
1.364946
1.597404
1.605749
2.164841
2.512932
12.769699
44.050813
148.797631
287.219882
570.315719
817.707777
1015.715003
1015.715003
1015.715003
1015.715003
1015.715003
857.036710
555.962920
356.882811
166.522861
83.395839
28.977990
12.621880
7.911921
8.076429
9.527802
11.773705
18.372536
27.176738
41.530728
54.567456
73.810816
85.459948
93.742609
95.044971
87.977648
77.520609
60.908794
47.916770
32.677650
24.533868
16.807914
13.543963
11.140704
9.954572
9.531975
9.381771
9.392500
9.147525
8.914471
9.242892
9.442568
9.150505
8.988976
##ZVALUE=335
0.548959
0.646710
0.676513
0.593662
0.680685
0.631809
0.506639
0.529885
0.671744
0.621676
0.670552
0.690818
0.620484
0.694990
0.608563
0.639558
0.786781
0.685453
0.723600
0.605583
0.628829
0.730753
0.664592
0.769496
0.755787
0.768900
0.857711
0.907779
0.826716
0.879765
0.959635
0.857711
0.919700
0.720620
0.798702
1.015663
0.963807
0.890493
1.095533
1.178980
1.105666
1.317859
1.291633
1.203418
1.475811
1.360774
1.638532
1.809597
1.991987
6.113648
22.011399
88.915825
187.653899
415.119529
651.893020
996.295810
1015.771627
1015.771627
1015.771627
1015.771627
1009.527445
701.450706
468.086004
235.921741
120.368600
40.622950
17.288923
9.004474
8.338690
8.494854
9.477735
11.984706
17.218590
27.371645
37.726760
54.975748
67.459941
81.238747
87.722540
88.998675
82.763433
70.267916
59.218407
45.214891
35.670996
24.575591
18.293858
13.352633
11.283755
9.828806
9.284616
9.300709
8.952618
8.942485
9.276867
9.154677
##ZVALUE=340
0.558496
0.437498
0.521541
0.516772
0.420809
0.639558
0.485778
0.742674
0.636578
0.610948
0.526905
0.608563
0.583529
0.520945
0.635982
0.627637
0.633597
0.567436
0.655651
0.710487
0.610948
0.616908
0.580549
0.733733
0.596642
0.604987
0.681877
0.640750
0.654459
0.795722
0.779629
0.747442
0.836849
0.747442
0.765920
0.847578
0.925660
1.029968
0.907779
0.974536
0.942945
1.121759
1.131892
1.198649
1.135468
1.282692
1.484752
1.305938
1.504421
1.874566
2.005696
2.479553
13.915896
45.117736
142.305493
279.091597
567.317009
806.537867
1015.710831
1015.710831
1015.710831
1015.710831
1015.710831
854.916573
531.695485
325.253606
145.273805
67.471862
18.972754
9.960532
8.293986
7.929802
8.329749
9.319782
11.973977
16.253591
25.280714
35.192966
50.915480
63.570738
75.948834
81.895590
82.524419
78.602433
67.775846
57.309866
43.989420
33.827424
23.409724
17.910600
13.117790
10.910630
9.100437
8.660555
8.552670
8.280873
##ZVALUE=345
0.358820
0.397563
0.489950
0.436902
0.426769
0.572801
0.606775
0.331998
0.511408
0.575781
0.543594
0.504851
0.694990
0.420809
0.390410
0.431538
0.530481
0.583529
0.673532
0.403523
0.568628
0.503659
0.734925
0.583529
0.544786
0.602603
0.579953
0.654459
0.610948
0.648499
0.675917
0.641942
0.621676
0.625849
0.664592
0.692606
0.803471
0.750422
0.720620
0.791550
0.910759
0.949502
0.956655
0.896454
0.839829
0.954866
0.931621
1.270771
1.188517
1.330972
1.403689
1.487732
1.616478
2.051592
4.662871
31.475425
88.757873
233.279467
407.132506
709.354877
943.692923
1015.657783
1015.657783
1015.657783
1015.657783
901.958942
664.743781
391.466022
223.035812
85.878968
36.852956
12.641549
8.587837
7.995963
7.876754
7.815957
8.449554
10.996461
15.204549
23.644567
32.590628
47.367811
57.695508
68.341494
74.088573
76.485872
72.921515
64.844489
55.752993
43.399930
33.521652
22.769570
17.551780
12.414455
10.332465
8.819699
##ZVALUE=350
0.544786
0.499487
0.393987
0.556707
0.495911
0.547767
0.562668
0.522733
0.524521
0.484586
0.540614
0.561476
0.563860
0.622869
0.602603
0.512600
0.550747
0.546575
0.629425
0.627637
0.552535
0.678897
0.708699
0.667572
0.601411
0.606775
0.718832
0.552535
0.792742
0.680685
0.606775
0.651479
0.734925
0.780821
0.781417
0.694990
0.754595
0.907779
0.780821
0.844598
0.854731
0.738502
0.925660
0.845790
0.845790
0.920892
0.901818
1.046658
1.054406
1.069903
1.099706
1.359582
1.269579
1.601577
1.795888
2.109408
2.768636
15.833974
52.227974
159.147978
299.452543
575.947762
809.934735
1015.710831
1015.710831
1015.710831
1015.710831
1012.575030
811.950564
500.708818
303.838849
134.088993
60.185790
16.434789
8.777976
7.629991
7.367730
7.148981
7.091761
8.106828
10.231733
15.165806
20.470619
30.428767
39.846897
52.133799
60.316920
68.099499
70.005655
67.474842
61.408877
50.847530
42.443871
31.270981
24.126768
16.666651
##ZVALUE=355
0.454783
0.530481
0.568628
0.527501
0.462532
0.548959
0.458956
0.525713
0.608563
0.519753
0.620484
0.599623
0.704527
0.582933
0.582933
0.626445
0.610948
0.688434
0.734925
0.703931
0.645518
0.703931
0.531673
0.780821
0.740886
0.672936
0.790954
0.753999
0.603795
0.613928
0.735521
0.590682
0.585914
0.774860
0.766516
0.727773
0.790954
0.759959
0.861883
0.736713
0.820756
0.872612
0.852942
0.835657
1.028776
0.898838
1.176000
0.921488
1.129508
1.139641
1.198649
1.425743
1.213551
1.216531
1.557469
1.631975
1.537800
1.882911
2.135634
6.973743
25.983453
101.210475
208.240747
432.524681
673.969984
998.714566
1015.710831
1015.710831
1015.710831
1015.710831
924.961567
604.684949
377.267003
163.581967
75.962543
22.759438
10.239482
7.365942
7.015467
6.724596
6.775856
6.830692
7.376671
9.545684
12.147427
18.503666
25.099516
35.712719
44.650435
54.435730
60.304999
63.943863
62.146783
56.566596
49.792528
39.174557
##ZVALUE=360
0.492930
0.690818
0.375509
0.525713
0.344515
0.556707
0.428557
0.534654
0.518560
0.492930
0.541806
0.548959
0.581741
0.507832
0.481606
0.680685
0.405908
0.525713
0.501871
0.663996
0.472665
0.571609
0.592470
0.575781
0.879765
0.723600
0.686646
0.751615
0.584722
0.816584
0.791550
0.617504
0.657439
0.661612
0.750422
0.696778
0.709891
0.909567
0.895858
0.814795
0.792742
0.741482
0.678897
0.724792
0.852942
0.846982
0.870824
0.917912
1.111627
0.933409
1.136661
1.140833
1.124740
1.071692
1.263618
1.285672
1.273751
1.600981
1.815557
1.898408
2.108812
3.556609
12.008548
56.760907
134.481788
325.261950
529.360771
846.296549
1015.684009
1015.684009
1015.684009
1015.684009
1013.092995
702.505708
458.990932
222.900510
113.724470
40.437579
15.672445
7.424951
6.708503
6.493926
6.251931
5.889535
6.233454
6.932616
8.006692
10.752678
13.884902
21.137595
28.435588
39.549470
46.872497
54.024458
57.684779
57.449937
##ZVALUE=365
0.561476
0.463724
0.528693
0.462532
0.591874
0.595450
0.524521
0.428557
0.566840
0.517964
0.484586
0.499487
0.530481
0.472665
0.639558
0.538826
0.604987
0.518560
0.533462
0.547767
0.530481
0.650883
0.505447
0.656843
0.787973
0.696778
0.735521
0.757575
0.696778
0.636578
0.701547
0.650883
0.570416
0.736713
0.644922
0.568628
0.797510
0.726581
0.796914
0.747442
0.764728
0.674725
0.707507
0.851750
0.820756
0.821948
0.874996
0.986457
0.830889
1.053810
0.970960
0.877976
1.024604
1.107454
1.092553
1.148582
1.322627
1.238585
1.426935
1.437664
1.617670
1.804829
2.058744
2.395511
4.741549
26.736856
77.050924
215.743780
389.863849
692.644715
947.199464
1015.710831
1015.710831
1015.710831
1015.710831
807.643533
555.702448
291.766524
154.224634
54.591894
21.983981
7.980466
6.740689
6.211996
6.173849
5.852580
5.688667
5.501509
5.802512
6.469488
8.074641
12.273788
16.816854
24.575591
30.994415
40.133595
##ZVALUE=370
0.534654
0.518560
0.473857
0.516772
0.391603
0.526905
0.429749
0.544786
0.509620
0.402927
0.688434
0.525713
0.625849
0.546575
0.538826
0.551939
0.601411
0.566840
0.529885
0.621676
0.576973
0.556707
0.472665
0.593662
0.494719
0.637770
0.616908
0.661612
0.744462
0.753999
0.666976
0.845790
0.755787
0.676513
0.550747
0.746846
0.700951
0.682473
0.734925
0.776649
0.747442
0.697970
0.845790
0.723600
0.746846
0.813603
0.767708
0.864863
0.680685
0.850558
0.725985
0.912547
0.918508
0.908971
1.007915
0.971556
1.014471
1.020432
1.259446
1.156926
1.191497
1.337528
1.470447
1.794696
1.795888
1.985431
3.276467
11.375546
60.376525
148.167014
352.733731
563.465953
886.193514
1015.712023
1015.712023
1015.712023
1015.712023
976.561904
630.971789
397.496819
176.602602
87.480545
31.972528
13.148785
6.444454
5.797744
5.398989
5.311966
5.092621
5.048513
5.077720
5.223751
5.843639
7.310510
10.956526
14.814734
##ZVALUE=375
0.570416
0.436902
0.566840
0.499487
0.640750
0.552535
0.757575
0.484586
0.476837
0.660419
0.591874
0.504851
0.634789
0.550747
0.500679
0.492930
0.421405
0.614524
0.483990
0.616908
0.534654
0.651479
0.688434
0.501871
0.636578
0.648499
0.536442
0.646710
0.627637
0.499487
0.636578
0.514984
0.599623
0.625849
0.629425
0.684857
0.612736
0.652671
0.737906
0.571609
0.591874
0.744462
0.664592
0.643730
0.685453
0.778437
0.758767
0.788569
0.825524
0.814795
0.711679
0.739694
0.832677
0.932813
0.790954
0.980496
1.054406
0.870824
1.046658
1.144409
1.119971
1.073480
1.090765
1.338720
1.258850
1.573563
1.717806
1.942515
2.573729
7.397532
27.540922
102.865696
219.733715
486.298800
742.569566
1015.710831
1015.710831
1015.710831
1015.710831
1015.710831
812.679529
472.775698
279.909968
120.997429
58.202744
17.995834
8.087754
5.473495
5.344748
5.069971
4.811883
4.810691
4.535913
4.509687
4.693866
5.417466
##ZVALUE=380
0.466704
0.511408
0.571609
0.441670
0.492930
0.248551
0.477433
0.476837
0.529885
0.407696
0.533462
0.629425
0.562668
0.648499
0.446439
0.617504
0.537634
0.391603
0.631809
0.511408
0.430942
0.570416
0.504851
0.654459
0.768900
0.585914
0.598431
0.556707
0.485778
0.383854
0.372529
0.434518
0.582933
0.588894
0.518560
0.686646
0.594854
0.624657
0.654459
0.505447
0.543594
0.699759
0.607967
0.614524
0.564456
0.678897
0.660419
0.676513
0.711679
0.764728
0.863671
0.754595
0.708699
0.819564
0.886917
0.829697
0.996590
0.875592
0.711679
0.964999
0.941753
0.985861
0.993609
0.989437
1.222491
1.359582
1.365542
1.473427
1.571774
1.942515
2.185702
4.105568
13.981462
67.155957
158.005953
373.165011
606.879592
954.380035
1015.712023
1015.712023
1015.712023
1015.712023
963.688493
652.783513
415.249467
188.369751
92.818737
30.481815
12.558699
5.867481
5.052686
4.859567
4.545450
4.570484
4.463792
4.283786
##ZVALUE=385
0.495911
0.383854
0.479817
0.540614
0.399947
0.468493
0.587702
0.549555
0.426769
0.551939
0.487566
0.489950
0.473857
0.559688
0.518560
0.624657
0.520945
0.457764
0.510812
0.575781
0.575781
0.764728
0.488758
0.504851
0.534654
0.450611
0.352859
0.669956
0.544786
0.446439
0.656843
0.474453
0.428557
0.560880
0.589490
0.432730
0.503659
0.570416
0.549555
0.551939
0.662804
0.500679
0.703931
0.613928
0.631809
0.694990
0.588894
0.751615
0.642538
0.670552
0.651479
0.632405
0.772476
0.834465
0.656843
0.781417
0.834465
0.715852
0.845790
0.955462
0.828505
0.732541
0.886917
0.930429
0.983477
1.166463
1.153946
1.163483
1.323819
1.647472
1.791716
1.833439
2.027750
2.302527
8.125901
29.712915
108.933449
234.144926
500.485897
752.102733
1015.734673
1015.734673
1015.734673
1015.734673
1002.857089
804.690719
498.273969
307.911634
134.164691
62.765479
19.573569
7.661581
4.810691
4.612803
4.468560
4.123449
##ZVALUE=390
0.503659
0.575781
0.399947
0.375509
0.482798
0.281930
0.357628
0.559688
0.415444
0.455976
0.471473
0.616908
0.404716
0.369549
0.446439
0.397563
0.484586
0.526905
0.368953
0.533462
0.588894
0.527501
0.601411
0.494719
0.359416
0.625849
0.510812
0.421405
0.594854
0.445843
0.518560
0.440478
0.558496
0.609756
0.520945
0.666976
0.599623
0.614524
0.661612
0.685453
0.615716
0.568628
0.806451
0.613928
0.578761
0.643730
0.520945
0.759959
0.747442
0.640750
0.716448
0.484586
0.702739
0.732541
0.671744
0.722408
0.728965
0.667572
0.757575
0.831485
0.775456
0.787973
0.828505
0.972748
0.985861
1.036525
1.099706
1.169443
1.307726
1.315475
1.496673
1.628995
1.715422
1.600981
1.719594
1.943707
3.820658
17.079711
81.830025
187.041759
430.158973
663.845539
975.410938
1015.710831
1015.710831
1015.710831
1015.710831
933.209658
620.042682
406.537652
198.306441
97.780824
31.545758
12.089610
4.894733
4.240870
##ZVALUE=395
0.514984
0.413656
0.424981
0.570416
0.429749
0.478625
0.458956
0.387430
0.481606
0.385642
0.433922
0.406504
0.448823
0.524521
0.413656
0.327826
0.457764
0.342727
0.357628
0.489950
0.333786
0.540614
0.535846
0.565648
0.551939
0.515580
0.550747
0.419617
0.600815
0.549555
0.430942
0.590682
0.497699
0.537634
0.478625
0.526905
0.609756
0.515580
0.547767
0.469685
0.498891
0.471473
0.564456
0.586510
0.447631
0.521541
0.649691
0.725985
0.566840
0.640750
0.641942
0.447631
0.608563
0.810623
0.703931
0.598431
0.759959
0.682473
0.583529
0.737906
0.723600
0.888705
0.772476
0.855923
0.762939
0.887513
0.972748
1.127720
1.212955
1.193881
1.368523
1.416802
1.293421
1.403689
1.476407
1.728535
1.610518
1.693964
2.277493
11.362433
43.832660
153.405666
294.669867
551.251769
807.283521
1015.698910
1015.698910
1015.698910
1015.698910
1015.698910
826.464891
483.914614
290.337801
120.822787
55.804849
17.031431
##ZVALUE=400
0.484586
0.516772
0.541806
0.388622
0.411868
0.383854
0.420809
0.375509
0.448823
0.379682
0.456572
0.400543
0.403523
0.560880
0.501871
0.320673
0.495911
0.501871
0.545979
0.403523
0.605583
0.417829
0.456572
0.375509
0.601411
0.486970
0.462532
0.497699
0.566840
0.579953
0.440478
0.599623
0.607967
0.623465
0.524521
0.476837
0.560880
0.503659
0.609756
0.612736
0.621676
0.596642
0.550747
0.531673
0.575781
0.534654
0.534654
0.687838
0.676513
0.648499
0.783801
0.613928
0.601411
0.635982
0.646710
0.715852
0.626445
0.803471
0.565648
0.722408
0.842810
0.822544
0.784993
0.834465
0.865459
0.908971
1.020432
0.970960
0.996590
1.419783
1.293421
1.381636
1.411438
1.535416
1.456738
1.391768
1.295805
1.546741
1.422763
1.761913
2.074838
5.396605
21.902919
88.938475
193.019509
429.920554
685.845613
1015.197635
1015.710831
1015.710831
1015.710831
1015.710831
989.234447
648.388863
409.758687
192.371607
##END
