##TITLE=DDW02
##FORMAT=SPECTACLE-ASCII V-1.2
##DATA TYPE=ULTRAVIOLET SPECTRUM
##SECOND TYPE=ULTRAVIOLET SPECTRUM
##DATE=04/11/18
##TIME=15:54:27
##SPECTROMETER/DATA SYSTEM=SPECTACLE
##XUNITS=NM EM
##YUNITS=ENERGY
##YFACTOR=1
##FIRSTX=220
##LASTX=410
##NPOINTS=96
##3DDATA=Equidistant
##ZUNITS=NM EX
##FIRSTZ=210
##LASTZ=400
##ZPOINTS=39
##XYDATA=(Y..Y)
##ZVALUE=210
13.026595
14.456511
11.653900
10.683537
9.768605
8.737445
9.034872
10.225773
7.906556
5.298853
3.466606
3.280640
2.785921
1.794696
2.469420
2.932549
2.681613
2.316833
2.356768
2.912879
3.169775
2.983809
3.689528
3.015995
2.964735
3.514886
3.238916
3.329515
3.783703
4.276633
4.898906
4.468560
3.943443
5.080700
4.494786
4.617572
5.011559
4.514456
4.371405
6.730556
5.197525
4.912615
4.490614
4.587770
5.017519
4.323721
4.614592
5.314946
5.924702
5.433559
5.447865
5.561709
4.777908
5.837679
5.132556
5.896688
5.732775
5.454421
5.110502
6.267428
5.549788
5.287528
5.344748
6.325841
5.288720
5.359650
5.659461
5.386472
6.704926
7.789731
8.463860
9.334683
9.960532
10.847449
11.187792
10.646582
11.155605
11.557937
11.249781
10.901690
8.856654
9.864569
8.285642
7.122755
6.589890
6.247759
4.774928
5.226731
4.809499
6.115437
8.093715
11.096597
13.188720
18.007755
21.988750
23.774505
##ZVALUE=215
38.650632
36.796927
27.794838
24.182796
18.281937
17.429590
16.697645
15.337467
14.001727
13.674498
10.492802
8.975863
7.154942
5.707741
4.510880
3.766418
2.832413
2.896786
3.562570
2.883673
3.087521
3.474951
2.706647
4.001856
3.703833
4.011989
3.758669
3.781915
4.308820
3.729463
4.076958
5.082488
5.313754
5.833507
4.793406
5.802512
5.761981
5.689859
6.074905
6.297827
6.653666
5.566478
5.768538
5.844831
5.573630
5.541444
5.343556
6.170869
5.485415
5.639791
5.923510
5.955696
5.764961
6.554723
5.367994
5.669594
5.951524
6.874800
6.385446
6.995797
6.133914
6.443858
5.928874
6.780624
7.072687
6.107688
6.627440
6.516576
8.015633
7.492900
8.437634
9.264946
10.095835
10.768771
11.321902
11.900663
11.411905
10.719895
10.617971
8.722544
9.471774
8.785725
6.693602
6.427765
7.155538
5.917549
5.676746
5.498528
4.972816
4.851818
4.556775
4.682541
5.138516
6.529689
7.934570
9.817481
##ZVALUE=220
78.320503
82.301497
77.258945
68.442822
56.066513
45.543909
33.353567
26.962757
24.995804
26.111603
24.568439
25.336742
21.918416
16.809702
12.987852
10.904670
7.488728
4.777908
3.443956
4.245639
3.611445
3.841519
3.033876
3.204942
3.341436
3.603697
4.294515
4.300475
4.180670
5.242825
5.000830
5.168915
6.025434
5.684495
5.399585
6.588697
6.787777
6.227493
7.431507
6.887913
6.500483
6.878972
5.889535
7.111430
6.329417
5.558729
6.598830
6.087422
6.789565
6.534457
6.728768
7.447600
7.685423
7.794499
7.185936
7.793903
8.837581
7.608533
7.905960
6.954670
8.765459
8.135438
8.047819
7.121563
7.371902
7.775426
7.931590
6.999969
8.206964
8.824468
9.755492
9.870529
11.815429
12.081861
11.923909
11.604428
10.870695
11.299849
11.205673
10.282993
9.894967
8.321404
7.953644
7.523894
6.689429
5.973577
4.941821
5.020499
5.522966
5.631447
4.902482
4.957914
5.011559
4.272461
4.393458
4.385710
##ZVALUE=225
100.906491
105.866790
124.704838
137.503743
135.771632
120.941997
101.982951
79.430938
56.890845
45.012832
38.949847
35.728812
37.726760
38.212538
34.517646
31.872988
26.181936
20.429492
13.977885
8.896589
6.432533
5.667806
4.411936
3.749728
4.341602
4.112720
5.043745
4.936457
4.376769
5.206466
5.240440
5.423427
5.271435
6.169677
7.117987
7.526875
6.855726
7.901788
7.248521
6.995797
7.127523
6.256700
6.787777
7.693768
7.541776
7.579923
7.421970
7.274747
7.390976
7.857680
8.285642
7.780790
8.828640
8.986592
9.015799
8.868575
9.066463
8.610487
8.389950
9.611845
10.013580
9.988546
8.341670
8.392930
10.186434
10.108948
9.411573
8.407831
9.531975
8.675456
9.861588
11.537671
11.129975
11.469722
12.328625
12.171865
11.329651
10.621548
11.527538
9.630919
9.338856
8.505583
9.045601
6.491542
6.003976
6.361604
6.107688
5.867481
5.885959
5.214810
6.927848
5.278587
5.292892
4.781485
5.165935
4.697442
##ZVALUE=230
70.845485
74.856877
117.662549
152.687430
196.407437
214.220881
217.643976
208.989978
168.864727
137.858987
93.522668
71.113706
63.868761
55.161715
55.408478
57.104826
59.885979
55.901408
46.509504
36.572814
26.611686
20.679832
12.113452
8.506775
5.277991
5.470514
4.858971
5.413890
4.629493
4.653931
5.890727
6.268620
5.729795
6.655455
6.964803
6.456971
6.638765
6.886721
6.809831
6.647706
6.906986
7.662773
7.622838
6.677508
6.989837
6.004572
7.079840
7.391572
8.722544
8.569956
8.787513
7.808805
8.131862
9.786487
9.468794
9.887815
10.243654
9.263754
10.261536
11.264682
10.831952
10.451674
10.782480
10.274649
10.051727
10.255575
10.613799
10.605454
10.339618
9.977818
11.917949
11.908412
11.693835
13.002753
12.381673
13.151765
12.528896
11.345744
11.418462
11.010766
10.224581
8.180737
8.397698
7.773638
6.361604
6.832480
7.564425
7.273555
6.786585
6.301999
6.676912
6.747842
5.893707
5.142689
4.887581
5.452633
##ZVALUE=235
20.569563
22.629499
44.487715
97.920895
146.868825
213.894844
270.859003
331.155658
343.273878
334.243774
289.958715
236.708522
162.978768
119.015574
87.994933
76.566935
76.986551
80.879927
85.416436
83.570480
76.242685
66.683888
51.219463
32.905936
23.133755
14.040470
9.310842
6.664991
6.942749
6.057620
5.939603
6.023645
5.871654
6.609559
6.628633
5.673766
5.865693
6.645918
7.128716
6.776452
6.995797
6.832480
7.692575
6.952882
7.206798
6.859899
7.029772
7.456541
8.155704
7.388592
8.030534
8.938909
8.368492
9.448528
9.540915
9.647608
8.669496
10.487437
10.578632
10.396838
10.072589
10.966659
11.456609
10.349751
10.433793
9.931922
10.054708
10.032654
10.828972
11.769533
11.726618
11.418462
11.930466
14.290810
13.792515
14.095902
12.284517
11.370778
12.641549
10.967851
10.885000
10.086894
9.556413
8.901954
7.901788
8.653998
7.537603
7.043481
7.870793
6.931424
7.823706
6.186962
6.833673
6.393790
6.511807
6.543994
##ZVALUE=240
2.096891
2.988577
6.618500
24.485588
50.271749
109.378695
172.703862
281.806588
370.531678
472.560525
505.481958
504.484773
448.924899
366.517901
270.433426
191.696882
130.103827
101.040602
98.339915
99.295974
113.346577
113.734603
111.452937
96.182823
76.839924
62.855482
47.035813
29.851794
20.029545
12.712479
9.589791
6.855726
6.972551
6.506443
6.901622
6.907582
6.080866
6.232858
6.739497
5.772710
7.467866
7.096529
6.326437
6.889701
6.222725
7.001758
8.557439
8.124709
6.385446
7.178783
7.560849
8.019805
8.863807
8.554459
8.744597
8.520484
8.996725
10.729432
9.213686
9.579659
9.257793
10.269880
11.478662
11.101961
10.257959
11.613965
10.631680
11.021495
10.787845
11.908412
11.704564
13.741851
13.002753
13.531446
13.829470
13.870597
12.122989
14.498830
14.093518
11.851788
11.555552
9.825826
9.486675
8.587837
9.425879
8.246899
8.799434
7.539988
7.247925
7.542968
8.897781
7.383823
8.381605
7.043481
6.270409
6.814599
##ZVALUE=245
1.816750
1.300573
1.819730
2.055764
4.190803
12.399554
40.201545
79.930425
176.481605
270.980000
420.274734
509.713888
578.559637
600.916743
560.499430
455.831885
369.284749
253.873467
178.651810
117.153525
94.060898
99.998713
111.317635
122.587681
131.788850
126.016736
110.060573
94.457865
71.467757
52.471757
37.133694
20.204782
13.945699
8.625984
7.459521
5.939603
7.066727
6.372929
6.394982
6.364584
6.143451
6.828904
6.377697
6.610751
5.762577
6.214976
5.961657
5.897880
6.336570
7.215738
6.343722
6.725788
6.701946
7.041693
7.661581
6.990433
8.521676
7.446408
8.183718
8.588433
9.559989
8.234978
9.343624
8.878708
9.230971
8.425713
10.053515
8.755922
9.127855
9.991527
9.219646
11.455417
10.261536
11.789799
11.682510
11.882782
11.329651
10.600686
10.752678
10.559559
8.816719
9.515882
9.050965
8.351803
8.285642
7.050633
7.222891
7.152557
6.783605
6.988645
6.450415
6.267428
5.880594
6.057620
6.398559
6.067753
##ZVALUE=250
1.726747
1.949668
1.894832
1.648664
1.902580
1.811981
3.281832
8.819699
30.423999
66.572428
154.775977
252.993703
370.124578
519.944429
605.886579
679.749846
662.781000
586.172938
487.760901
343.359709
235.081911
154.941678
100.557804
94.518661
105.517507
119.289756
135.820508
137.512684
136.394501
125.252604
103.700757
77.582598
57.343841
33.318996
22.404790
11.727810
8.173585
6.553531
6.507635
6.193519
5.719662
6.314516
5.924702
6.786585
7.217526
6.650686
6.038547
6.233454
6.459951
6.088614
5.707741
6.212592
7.073879
6.325841
6.802678
6.537437
7.050633
7.007718
6.300807
6.749630
7.164478
6.811619
6.963611
6.801486
6.959438
7.288456
7.646680
7.119775
7.361770
8.393526
8.894801
9.604692
9.127855
8.903742
9.057522
9.456873
9.917617
9.504557
8.552670
8.008480
7.621646
6.654859
6.665587
6.490946
6.719828
6.812811
6.235838
5.721450
5.953908
5.832911
5.179644
5.170703
5.552769
5.592704
5.692840
4.652739
##ZVALUE=255
1.352429
1.487732
1.233816
1.215935
1.565814
1.571774
1.641512
1.784563
1.670718
4.458427
19.774437
50.122738
101.243854
213.879943
329.407454
503.811836
622.814894
726.978779
757.399797
702.161789
600.578785
475.382805
304.526687
196.978450
112.365484
88.835955
89.481473
102.737546
122.193694
138.295889
143.780708
144.309998
132.098794
104.262829
82.580447
52.879453
38.478971
20.303726
12.353659
8.341670
7.348657
6.272793
6.427765
6.187558
5.506873
5.835891
5.343556
5.338788
6.386638
6.103516
6.102920
6.277561
6.458759
6.598830
6.720424
6.556511
6.539822
6.092787
6.744862
6.236434
6.201863
6.617904
6.222725
6.402731
6.574988
6.750822
6.957650
6.840825
7.063746
7.563829
7.797480
7.411838
7.772446
8.563995
8.451939
7.988811
7.660985
8.470416
7.281899
7.256866
6.979704
6.282926
5.601645
5.407929
5.253553
4.395843
4.674792
4.378557
4.440546
4.345775
4.741549
4.328489
4.560947
4.776716
4.029870
4.283786
##ZVALUE=260
0.962615
1.161695
1.160502
1.143813
1.108646
1.290441
1.297593
1.048446
1.391768
1.312494
1.490712
2.589822
7.582903
32.760501
71.949959
170.247555
278.291702
455.770493
598.433614
761.422515
833.562016
837.515593
726.795793
593.685508
397.809744
272.713900
160.610676
105.350614
77.950954
81.616640
98.771453
127.932429
142.984986
153.611898
150.165558
130.381584
113.220811
81.598759
60.060620
36.434531
24.298429
14.469624
8.929968
7.140636
5.583763
5.982518
6.445646
6.110668
6.202459
6.231666
6.294847
6.116629
6.624460
5.905628
6.306767
6.297827
6.010532
6.204844
6.353855
6.246567
6.131530
6.073713
6.839633
6.622672
6.496906
6.413460
6.116629
6.347895
6.354451
6.735921
7.184744
7.047653
6.915927
7.433891
6.937981
7.078648
6.403923
6.986856
6.145835
5.577803
5.640984
5.199909
5.111694
4.677773
4.442930
4.625916
4.312992
3.719926
3.886819
3.942847
3.928542
3.691912
4.009604
3.376603
3.960729
4.057884
##ZVALUE=265
0.994802
1.131892
0.855923
1.254678
1.104474
1.014471
1.051426
1.320839
1.043677
1.216531
1.132488
1.382828
1.661777
1.730919
5.115867
17.084479
61.668754
120.624900
252.955556
396.555662
609.093904
756.239891
894.243717
919.235945
884.026885
697.095990
545.946956
340.544581
223.266482
124.137998
80.288649
69.801807
81.135631
112.416744
132.554770
150.643587
155.555606
149.657726
136.424899
108.464956
86.171627
55.256486
39.147735
21.784902
14.895797
8.450747
7.302761
6.898642
6.474853
7.260442
6.874800
7.171631
6.678700
7.168651
6.716847
6.792545
6.831884
6.769896
7.055998
6.682873
6.323457
6.716847
6.534457
6.578565
6.673932
6.167889
6.610751
6.173849
6.348491
6.316900
6.706715
6.624460
6.930828
7.082820
6.999969
6.410480
7.027984
6.029606
5.353689
5.531907
4.886985
4.967451
4.627705
4.068613
4.142523
3.953576
3.804564
3.844500
3.797412
3.403425
3.516674
3.646612
3.498793
3.586411
3.431439
3.725886
##ZVALUE=270
0.947714
0.875592
0.857711
0.869632
0.948906
0.728965
1.060963
1.079440
1.056790
0.966787
1.095533
1.119971
1.169443
1.084805
1.570582
1.752973
1.888871
10.081530
29.503703
93.761683
183.907747
320.075750
548.712611
722.824931
907.014012
965.242982
944.557786
843.736529
659.824014
494.651794
340.581536
181.138515
103.946924
62.005520
61.709881
86.143613
108.333826
137.557983
152.659416
158.754587
151.563883
135.613680
112.953782
84.253550
61.310530
37.071705
25.356412
14.941692
10.118484
8.472800
6.975532
7.222891
7.061958
7.334948
7.313490
7.228851
7.117987
6.982684
6.977916
6.835461
6.970763
6.773472
6.613731
6.665587
6.290674
6.094575
6.005764
5.865693
5.902648
6.190538
6.304979
6.655455
6.323457
7.010698
6.476641
5.999804
5.990863
5.982518
5.383492
5.056858
4.947782
4.167557
3.991723
3.920794
4.076958
3.643632
3.565550
3.782511
3.519654
3.268719
3.423691
3.282428
3.023744
3.269911
3.408790
3.187656
##ZVALUE=275
0.793934
0.793934
0.821948
0.732541
0.615716
0.849962
1.004934
0.672936
0.909567
0.848770
0.901818
0.994802
0.866652
0.925660
1.242757
1.200438
1.238585
1.523495
1.474619
4.576445
17.933846
49.551725
148.743391
272.895694
494.616628
665.032864
863.385797
975.068808
1012.358665
950.844884
830.003023
607.999563
431.111455
233.708620
136.014819
65.553784
50.046444
61.250925
81.247687
110.972524
131.284595
152.421594
158.930421
150.974989
136.057734
108.096004
87.228417
59.954524
41.948557
24.837852
16.573668
10.260940
8.250475
7.540584
7.461905
7.431507
7.031560
7.441640
6.982684
6.737709
6.768703
6.401539
6.910563
6.637573
6.003976
6.471872
6.363988
6.295443
6.265640
6.436706
6.428957
7.073879
6.623864
6.300807
6.284714
5.943775
6.044507
5.500913
5.537868
4.774928
4.679561
4.178882
4.584789
3.932714
3.653765
3.714561
3.517866
3.446937
3.608465
3.456473
3.218651
2.947450
2.953410
3.332496
3.468990
3.152490
##ZVALUE=280
0.566840
0.560880
0.350475
0.695586
0.500679
0.709891
0.694990
0.644922
0.852942
0.813603
0.658631
0.819564
0.687838
0.840425
0.943542
1.043677
1.124740
1.310706
1.004934
1.441836
1.745820
2.105832
11.153817
36.799908
116.136670
214.468837
388.033986
561.765432
785.505772
935.047865
1012.308002
1007.289886
907.420516
685.047507
506.188869
284.952521
170.891881
79.422593
47.045946
41.221976
55.946708
83.700418
106.869936
133.839846
149.816871
154.985785
150.507689
132.491589
113.021731
81.947446
61.972737
39.622784
26.555657
15.358925
11.203885
7.832646
7.467866
7.037520
6.766915
6.985664
7.003546
6.999969
6.879568
6.665587
6.274581
6.411672
6.399751
6.482601
6.243587
6.040931
6.382465
6.277561
6.431937
6.045699
5.874634
5.743504
5.515814
5.683899
5.011559
4.696846
4.748702
4.144907
4.259944
3.999472
3.675818
3.479719
3.613830
3.194809
2.768636
3.137589
3.703833
3.099442
2.710819
3.248453
3.226995
2.956986
##ZVALUE=285
0.679493
0.618696
0.692606
0.710487
0.604987
0.700951
0.562668
0.672936
0.558496
0.623465
0.803471
0.645518
0.732541
0.619888
0.842810
0.777841
0.960827
1.006722
0.944734
1.032948
1.091957
0.950694
1.479983
1.795888
5.757809
19.452572
65.732598
136.495829
290.183425
450.294614
619.363785
858.715773
989.051461
1015.890837
983.979702
807.016492
626.845956
391.943455
245.482922
116.294622
61.429739
32.556653
34.474730
55.859685
75.261593
104.558468
123.395920
143.103600
150.421858
145.133734
132.105947
108.484626
88.999867
61.872602
42.948723
24.748445
16.297698
10.209680
8.167624
7.199645
6.769896
6.422997
6.449819
6.073713
6.043911
6.391406
6.065965
6.328821
6.204844
6.142855
5.799532
6.076694
5.849600
5.917549
5.642772
5.156994
5.188584
4.553795
4.622936
4.440546
4.185438
3.889799
3.719926
3.709793
3.475547
3.394485
3.279448
2.864599
2.928972
2.957582
2.752542
2.718568
2.973676
2.808571
2.876520
3.306866
##ZVALUE=290
0.429749
0.572801
0.463724
0.512600
0.428557
0.536442
0.573993
0.696778
0.665784
0.552535
0.577569
0.734925
0.701547
0.700951
0.622869
0.669956
0.677705
0.754595
0.947714
0.998974
1.015663
1.105666
1.128912
1.386404
1.394749
1.535416
2.475977
7.767677
34.866929
85.259676
167.534947
349.485874
529.540777
786.833763
942.940712
1015.890837
1015.890837
897.413492
733.434558
493.574739
324.667692
161.897540
84.406734
35.298467
25.092959
33.851862
48.081875
72.340965
93.936920
121.254921
137.035847
145.111680
145.833492
129.915476
111.421943
80.175996
61.592460
38.718581
26.374459
15.461445
11.279583
7.246733
6.491542
6.143451
5.874634
5.912781
5.639791
5.660653
5.511642
5.736947
5.587935
5.845428
5.791783
5.696416
5.570650
4.793406
4.558563
4.346967
4.224777
3.528595
3.992915
3.217459
3.262758
2.986789
2.986789
2.993941
3.161430
2.956986
2.896786
2.761483
2.799630
2.817512
2.433658
2.610683
2.621412
2.466440
##ZVALUE=295
0.610948
0.548959
0.556707
0.428557
0.428557
0.525713
0.438690
0.444651
0.578761
0.531673
0.425577
0.629425
0.587702
0.822544
0.582933
0.730753
0.676513
0.671744
0.620484
0.795722
0.603795
0.910759
1.075864
1.177788
1.354814
0.997782
1.317859
1.326799
1.705885
3.430843
18.814802
53.572655
118.570924
278.473496
442.426801
695.802569
869.283676
1014.663577
1015.892029
971.132517
825.209618
595.256686
404.173732
212.487578
116.201639
44.791698
23.924708
21.176934
28.470755
47.373772
64.433813
91.831684
110.883713
131.288767
139.254928
137.081742
125.017762
101.642609
81.458688
56.931973
41.705966
24.172664
16.223788
10.079741
7.639527
5.956888
5.605817
5.037785
5.742908
4.920959
5.355477
5.043745
5.084872
4.868507
4.901886
4.261732
4.062653
4.468560
4.182458
3.650784
3.439784
3.207922
3.324747
3.059506
2.935529
2.767444
2.773404
2.596974
2.747774
2.339482
2.474785
2.316833
2.366900
2.285838
2.371669
2.322793
##ZVALUE=300
0.257492
0.572801
0.402927
0.476837
0.443459
0.506639
0.523925
0.475645
0.636578
0.404716
0.503659
0.503659
0.292659
0.463724
0.620484
0.621676
0.712872
0.527501
0.585914
0.650883
0.676513
0.642538
0.856519
0.997782
0.781417
0.917912
0.939965
1.030564
1.345873
1.479983
1.317859
1.986623
5.583763
31.904578
79.161525
198.947787
336.303711
576.154590
756.610036
956.653953
1015.890837
1012.223959
924.742818
705.217719
510.944724
283.319950
167.728662
75.534582
36.795735
16.468763
17.634630
28.364658
39.979815
62.315464
82.243681
107.878447
122.576952
131.468773
131.829977
118.632913
104.267001
78.750849
59.880614
38.253665
26.075840
14.605522
10.187626
7.119775
5.388856
4.971623
4.886985
4.852414
4.566908
4.708767
4.588962
4.060864
3.935695
3.779531
3.538728
3.542900
3.177524
3.284812
3.081560
2.868772
2.803802
2.631545
2.726912
2.698898
2.403855
2.382994
2.382994
2.322793
2.157688
2.410412
2.049804
1.961589
##ZVALUE=305
0.566840
0.414848
0.453591
0.553727
0.377893
0.393987
0.437498
0.500679
0.475645
0.403523
0.501871
0.519753
0.432730
0.526905
0.515580
0.556707
0.469685
0.568628
0.664592
0.628829
0.574589
0.634789
0.766516
0.608563
0.689626
0.815988
1.037717
0.743866
0.890493
0.947714
1.120567
1.231432
1.439452
1.604557
2.906919
18.634796
51.899552
144.132972
258.393884
473.200679
659.884810
883.886814
1006.819606
1015.890837
972.898006
771.875978
600.109696
375.844836
232.641697
105.486512
51.841736
20.043850
13.549924
17.543435
25.376678
41.030645
57.082772
80.487728
100.210905
117.263794
125.703812
123.632550
115.064979
97.535849
77.972412
53.093433
37.701726
23.464561
15.152693
8.479953
6.354451
5.214810
4.546642
4.222989
4.123449
3.945827
3.738999
3.593564
3.032684
3.097653
3.107786
2.846718
2.717972
2.790689
2.641678
2.742410
2.527833
2.518892
2.231598
2.192855
2.178550
2.243519
2.239943
2.316833
2.263784
2.136827
##ZVALUE=310
0.428557
0.375509
0.302792
0.456572
0.363588
0.428557
0.297427
0.550747
0.378489
0.477433
0.446439
0.446439
0.320673
0.518560
0.469685
0.580549
0.551939
0.266433
0.568628
0.556707
0.320673
0.628829
0.568628
0.626445
0.777841
0.732541
0.684857
0.610948
0.869632
0.669956
0.716448
1.022816
1.079440
1.131892
0.988841
1.500845
1.566410
7.718801
25.844574
86.018443
171.688795
350.305438
537.278652
786.503553
937.681794
1015.898585
1013.369560
886.211991
728.611946
486.355424
321.730971
160.391927
86.136460
31.195879
14.355779
11.340976
14.405847
23.047924
34.312606
52.665472
68.145990
91.823936
105.063915
115.884542
117.248893
107.553601
95.118880
72.851777
55.573583
36.176443
24.390817
14.407635
9.368658
5.489588
4.829764
3.872514
3.259778
3.224611
3.075600
2.806783
2.687573
2.466440
2.676845
2.410412
2.476573
2.415776
2.476573
2.492666
2.213717
2.056956
2.178550
2.388954
2.032518
1.882911
1.993775
1.879930
##ZVALUE=315
0.411868
0.253916
0.239611
0.431538
0.285506
0.289679
0.286698
0.243783
0.285506
0.268817
0.266433
0.427961
0.268817
0.508428
0.436902
0.511408
0.537634
0.403523
0.454783
0.562668
0.478625
0.629425
0.524521
0.398755
0.520945
0.533462
0.613928
0.719428
0.840425
0.801682
1.009703
0.848770
0.907779
0.928640
0.901818
1.112819
1.191497
1.299977
1.372695
3.495812
13.846755
54.794550
120.821595
271.137953
439.394712
698.067546
859.844685
1001.991630
1015.882492
953.050852
820.607543
585.927963
413.861871
218.458772
120.478868
44.412613
19.693971
9.715557
9.917617
13.683438
19.975901
32.398701
45.886636
66.065788
82.196593
99.856853
108.546615
110.530853
103.419423
87.070465
70.532560
50.959587
36.474466
20.847917
13.705492
7.267594
4.983544
3.547668
3.188848
2.732873
2.457500
2.350807
2.241731
2.236962
2.152920
2.303720
2.244711
2.065897
2.023578
2.076626
1.965761
1.890659
1.951456
1.920462
1.832843
2.024770
##ZVALUE=320
0.312924
0.412464
0.166893
0.388622
0.344515
0.273585
0.413656
0.224710
0.450611
0.380874
0.429749
0.340939
0.196695
0.432730
0.296831
0.415444
0.463724
0.429749
0.488758
0.410676
0.532866
0.459552
0.478625
0.516772
0.438690
0.428557
0.554919
0.592470
0.620484
0.728965
0.573993
0.825524
0.841618
0.936985
0.780821
0.778437
1.015663
0.976920
0.936985
1.194477
1.298785
1.878738
6.123781
33.241510
80.318451
200.975537
333.002806
552.186966
732.284784
928.166509
1010.634899
993.638635
897.322893
682.573915
499.753952
278.319716
158.345699
67.824721
30.712485
11.134744
8.320808
8.842945
11.587739
17.945766
26.882887
42.964816
58.474541
78.294873
91.490746
102.176666
102.431774
96.772909
84.772706
63.990951
49.020648
31.102896
21.191835
12.142658
7.299781
4.196763
3.363490
2.722740
2.282858
2.151728
2.167821
1.907945
1.944900
1.884699
1.897812
2.139807
1.923442
1.858473
1.834631
1.972914
2.064705
2.051592
##ZVALUE=325
0.330806
0.303984
0.354648
0.341535
0.284910
0.395775
0.267625
0.172853
0.377893
0.277758
0.292659
0.409484
0.248551
0.353456
0.408888
0.251532
0.340939
0.353456
0.354648
0.408888
0.275970
0.469685
0.516772
0.464916
0.553727
0.705719
0.464916
0.585914
0.596642
0.577569
0.489950
0.582933
0.616908
0.591874
0.851750
0.852942
0.908971
0.813603
1.018643
0.883937
1.148582
0.963807
1.395941
1.466870
2.995729
20.371675
53.199530
138.368607
249.411464
458.785892
639.300942
856.532454
966.640711
1002.827883
926.976800
733.880997
559.956431
338.298678
206.330419
91.225505
43.816566
14.522672
8.036494
7.031560
7.469654
11.094809
16.011596
26.704669
39.457679
58.439970
73.298812
87.331533
95.875859
95.323920
88.872910
74.575543
61.376691
43.812990
30.063987
17.735958
10.969639
5.904436
4.300475
2.775788
2.275705
2.103448
1.932979
1.983643
1.921654
1.670718
1.829863
1.617670
1.788735
1.975894
1.813769
1.859665
##ZVALUE=330
0.266433
0.326633
0.198483
0.214577
0.243783
0.455976
0.327826
0.251532
0.242591
0.352859
0.359416
0.114441
0.283718
0.277758
0.232458
0.341535
0.335574
0.332594
0.409484
0.360608
0.394583
0.336766
0.353456
0.565648
0.390410
0.499487
0.377893
0.448823
0.401735
0.392795
0.474453
0.621676
0.381470
0.574589
0.737906
0.647902
0.678897
0.609756
0.790954
0.703931
0.760555
0.725985
0.915527
1.224875
1.076460
1.307726
1.690984
8.604527
27.965903
90.886950
176.456571
354.307890
520.285964
753.579736
894.782543
984.766483
948.341489
792.652965
638.710856
412.312746
266.219974
123.787522
63.037872
22.223592
9.642839
6.235838
5.787611
7.017851
9.190440
15.719533
23.527741
37.507415
49.583912
69.186687
79.871416
88.748932
89.903474
81.539750
71.464777
54.172873
40.870905
25.891662
17.492771
10.848641
6.754994
3.879666
2.908707
2.213717
2.002716
1.696944
1.705885
1.647472
1.565814
1.793504
1.620650
1.695752
##ZVALUE=335
0.285506
0.189543
0.183582
0.184774
0.270605
0.280738
0.284910
0.140667
0.259876
0.370741
0.419617
0.143647
0.235438
0.245571
0.374913
0.481606
0.379682
0.390410
0.274777
0.298619
0.322461
0.360608
0.297427
0.391603
0.246763
0.319481
0.402927
0.473857
0.492930
0.630617
0.395775
0.443459
0.471473
0.416636
0.563860
0.319481
0.592470
0.542998
0.658631
0.653863
0.609756
0.599623
0.780821
0.769496
0.803471
0.885725
0.973940
1.105666
1.200438
3.896952
14.610887
58.122873
121.895671
267.360806
424.570441
662.268996
821.568966
945.726037
956.390500
855.853558
711.981654
484.606624
331.263542
171.449780
88.654757
30.361414
12.684464
6.147623
5.476475
5.473495
6.175637
8.670688
13.261437
23.286939
33.236742
49.925447
61.661601
76.401830
81.915855
83.380938
76.903701
64.664483
53.477883
39.266944
28.975606
17.593503
11.410713
6.462932
4.067421
2.763867
2.262592
1.927614
1.736879
1.655817
1.663566
1.681447
##ZVALUE=340
0.132918
0.158548
0.132918
0.176430
0.315905
0.292659
0.187755
0.135899
0.068545
0.202656
0.209808
0.257492
0.267625
0.183582
0.220537
0.184774
0.142455
0.076890
0.194907
0.141859
0.243783
0.329614
0.254512
0.261664
0.298619
0.230670
0.284910
0.138879
0.374913
0.346899
0.080466
0.336766
0.416636
0.519753
0.478625
0.408888
0.389814
0.484586
0.347495
0.501871
0.468493
0.599623
0.439882
0.558496
0.659823
0.793934
0.768900
0.790954
0.936985
0.966787
1.112819
2.052784
6.739497
34.724474
85.037947
207.856894
349.394679
566.117764
727.245808
889.676809
939.386487
882.230997
767.724514
567.096472
396.359563
205.697417
114.514828
44.978857
18.151999
6.775856
5.354881
4.995465
4.986525
6.060600
7.988811
14.093518
20.584464
32.971501
44.622421
60.496926
69.529414
77.949762
77.350736
70.995688
63.859820
49.892664
38.606524
26.312470
18.349886
10.621548
6.757975
3.917813
2.739429
2.192855
1.931787
1.570582
##ZVALUE=345
0.217557
0.217557
0.226498
0.279546
0.228882
0.180602
0.210404
0.058413
0.206828
0.275970
0.274777
0.193715
0.243783
0.226498
0.105500
0.212789
0.234842
0.314713
0.234842
0.355840
0.277758
0.420809
0.191927
0.266433
0.190735
0.210404
0.357628
0.323653
0.305772
0.368953
0.340939
0.351667
0.255704
0.336766
0.386834
0.355840
0.298619
0.515580
0.449419
0.380874
0.543594
0.591874
0.653863
0.585914
0.630617
0.594854
0.706911
0.686646
0.903606
0.818968
0.823736
0.933409
1.129508
1.374483
2.993941
19.277930
54.124594
146.466494
255.536437
451.524854
614.687800
811.922550
899.920464
904.128551
823.130012
630.787611
468.765497
277.950764
157.432556
61.749816
26.804805
9.120703
5.989671
5.176663
4.441738
4.721880
5.201697
7.544756
11.578798
19.849539
28.340816
43.055415
52.172542
63.876510
69.044828
71.236491
68.152547
59.500933
50.296783
37.719607
27.826428
17.394423
11.892915
6.639957
4.232526
2.859831
##ZVALUE=350
0.165701
0.146627
0.038743
0.345707
0.248551
0.219941
0.126958
0.065565
0.224710
0.103712
0.027418
0.316501
0.153780
0.103712
0.162721
0.174642
0.275970
0.151992
0.278950
0.125766
0.292659
0.114441
0.252724
0.194907
0.139475
0.193715
0.254512
0.342727
0.222921
0.245571
0.329614
0.360608
0.429749
0.146627
0.320673
0.391603
0.383854
0.317693
0.256896
0.401735
0.329614
0.361800
0.523925
0.490546
0.498891
0.509620
0.602603
0.593662
0.558496
0.612736
0.588894
0.732541
0.829697
0.887513
0.800490
1.137853
1.696944
9.692907
30.017495
94.093680
179.078579
355.145931
511.243939
710.370541
834.551454
895.660520
845.523477
697.020888
535.472631
318.647623
195.317864
89.470744
40.854812
11.958480
6.122589
4.754663
4.065633
3.765821
3.902912
4.688501
6.744862
11.001825
16.833544
26.180744
34.671426
47.376752
55.894852
62.979460
65.493584
62.638521
57.266951
45.465827
36.948919
24.544001
17.749667
10.918975
##ZVALUE=355
0.208616
0.256896
0.123978
0.264645
0.238419
0.292659
0.193715
0.135899
0.245571
0.304580
0.293851
0.349879
0.369549
0.331998
0.305772
0.155568
0.332594
0.197887
0.333786
0.208616
0.232458
0.307560
0.252724
0.476837
0.418425
0.441670
0.299811
0.321865
0.179410
0.320673
0.416636
0.262856
0.343919
0.252724
0.375509
0.321865
0.367761
0.399947
0.393987
0.457764
0.426769
0.351667
0.552535
0.581741
0.459552
0.451803
0.384450
0.662804
0.600815
0.564456
0.678897
0.608563
0.754595
0.927448
0.756979
0.862479
0.939965
1.081824
1.411438
3.229976
18.895864
51.405430
136.940479
242.916942
438.357592
598.425865
778.736472
857.677460
848.508477
745.689869
553.074479
402.923822
226.984620
125.786662
47.891736
21.046996
6.873608
4.727840
4.342794
3.704429
3.607869
3.775954
4.327893
5.463958
8.959770
13.651848
22.030473
29.673576
41.559935
49.225688
56.786537
59.357882
57.382584
52.834749
42.905807
35.536885
##ZVALUE=360
0.202656
0.038743
0.098944
0.027418
0.273585
0.251532
0.203848
0.143647
0.213981
0.186563
0.306964
0.329614
0.306964
0.272989
0.169873
0.179410
0.214577
0.176430
0.182986
0.264645
0.270605
0.239611
0.211596
0.178814
0.252724
0.176430
0.322461
0.217557
0.258684
0.371933
0.242591
0.409484
0.469685
0.429749
0.318885
0.406504
0.176430
0.394583
0.304580
0.349879
0.454783
0.434518
0.438690
0.469685
0.335574
0.375509
0.381470
0.431538
0.582933
0.513792
0.570416
0.631809
0.644922
0.609756
0.844598
0.741482
0.706911
0.879765
0.957847
1.036525
1.183748
1.911521
8.407831
27.160645
88.555813
171.287656
335.257649
491.790771
703.681707
811.643004
846.083760
787.959695
636.044741
482.050776
285.161734
170.313716
73.125958
30.930638
9.340644
5.204678
4.092455
3.901720
3.439784
3.301501
3.184676
3.606677
4.785657
6.518960
11.403561
16.599894
25.685430
33.242702
43.344498
49.569607
53.498745
53.853989
##ZVALUE=365
0.147820
0.189543
0.251532
0.211596
0.295639
0.153780
0.244975
0.289679
0.210404
0.292659
0.222921
-0.002980
0.322461
0.313520
0.154972
0.289679
0.098944
0.159740
0.286698
0.234842
0.151992
0.237823
0.189543
0.189543
0.155568
0.208616
0.398755
0.286698
0.345707
0.190735
0.032783
0.275970
0.417829
0.278950
0.264645
0.373721
0.320673
0.498891
0.470877
0.240803
0.457764
0.392795
0.279546
0.495911
0.382662
0.388622
0.438690
0.384450
0.363588
0.524521
0.449419
0.498891
0.540614
0.733733
0.526905
0.728965
0.656843
0.777841
0.685453
0.666976
0.929832
0.982881
1.170635
1.436472
3.337860
18.150806
49.406886
129.518509
236.668587
433.108807
579.812527
738.703609
812.800527
797.268748
701.645017
512.658954
363.198519
199.543834
107.217431
38.522482
15.226603
5.420446
4.115701
3.836751
3.482699
3.285408
2.927780
2.801418
2.888441
4.025698
5.418658
9.401441
13.650656
21.707416
28.445721
37.221909
##ZVALUE=370
0.073910
0.165701
0.240803
0.275970
0.284910
0.201464
0.322461
0.264645
0.297427
0.072718
0.188947
0.207424
0.156760
0.236630
0.249743
0.354648
0.286698
0.198483
0.222921
0.204444
0.253916
0.034571
0.208616
0.317693
0.209808
0.392795
0.274777
0.338554
0.125766
0.278950
0.198483
0.234842
0.431538
0.285506
0.463724
0.402927
0.433922
0.267625
0.455976
0.280738
0.296831
0.240803
0.414848
0.247955
0.535846
0.410676
0.257492
0.337958
0.467896
0.468493
0.554919
0.256896
0.516772
0.397563
0.507832
0.601411
0.660419
0.672936
0.580549
0.622869
0.815988
0.784993
0.858903
0.874996
1.070499
1.168847
1.836419
8.837581
30.566454
97.712874
181.944966
341.788530
495.685935
690.883994
781.792998
796.333551
730.435848
573.350787
420.919657
237.077475
133.544803
52.413940
23.653507
8.118749
4.260540
3.714561
3.346801
3.125668
2.938509
2.547503
2.589822
2.777576
3.263950
5.134940
7.615685
12.742877
##ZVALUE=375
0.239611
0.098944
0.165701
0.000000
0.221729
0.153780
0.152588
0.093579
0.146627
0.203848
0.171661
0.124574
0.224710
0.134706
0.215769
0.155568
0.275970
0.181794
0.255704
0.296831
0.310540
0.250936
0.335574
0.175834
0.325441
0.116825
0.104904
0.251532
0.196695
0.115633
0.312924
0.330806
0.201464
0.153780
0.312924
0.387430
0.360608
0.321865
0.283718
0.407696
0.225902
0.392795
0.314713
0.417829
0.321865
0.489950
0.101924
0.354648
0.399947
0.386834
0.346899
0.357628
0.435710
0.356436
0.376701
0.450611
0.409484
0.435710
0.526905
0.586510
0.518560
0.661612
0.581741
0.700951
0.695586
0.746846
0.899434
1.019835
1.290441
4.575849
15.900731
56.949854
123.036504
273.231864
421.420932
619.939566
735.305548
799.854994
775.380731
637.676716
491.036773
301.140547
188.881755
92.262626
45.364499
14.360547
5.771518
3.554821
3.248453
3.065467
2.618432
2.643466
2.489686
2.466440
2.496839
2.736449
##ZVALUE=380
0.119805
0.027418
0.185966
0.182986
0.222921
0.228882
0.163913
0.143647
0.135899
0.246763
0.159740
0.109673
0.115633
0.223517
0.147820
0.076890
0.060797
0.052452
0.229478
0.188947
0.149608
0.180602
0.162721
0.062585
0.194907
0.312924
0.148416
0.242591
0.291467
0.327826
0.229478
0.425577
0.268817
0.062585
0.305772
0.261664
0.287890
0.216961
0.299811
0.365973
0.397563
0.370741
0.273585
0.338554
0.430942
0.243783
0.245571
0.317693
0.230670
0.444651
0.280738
0.467896
0.295639
0.281930
0.295639
0.403523
0.353456
0.351667
0.323653
0.562668
0.500679
0.400543
0.551939
0.565648
0.529885
0.626445
0.707507
0.724792
0.906587
1.067519
1.301765
2.219677
8.660555
41.107535
93.469620
217.005610
345.422626
537.003875
677.125454
783.383846
784.539580
676.853657
555.536747
385.378003
256.675482
125.613809
64.095855
22.167563
8.990765
3.791451
3.170967
2.952814
2.816916
2.634525
2.506971
2.394915
##ZVALUE=385
0.192523
0.069737
0.094771
0.215769
0.177622
0.159740
0.064969
0.140667
0.183582
0.176430
0.196695
0.118613
0.240803
0.221729
0.092983
0.159740
0.149608
0.183582
0.251532
0.186563
0.236630
0.140667
0.249743
0.150800
0.218749
0.159740
0.042915
0.255704
0.163913
0.196695
0.237823
0.174642
0.401735
0.244975
0.218749
0.240803
0.243783
0.229478
0.306964
0.283718
0.246763
0.348687
0.392795
0.301600
0.324845
0.252724
0.354648
0.219941
0.327826
0.270605
0.086427
0.345707
0.461936
0.250936
0.324845
0.367761
0.370741
0.463724
0.395775
0.420809
0.269413
0.447631
0.359416
0.540614
0.699759
0.538826
0.663996
0.780821
0.951886
0.690818
0.915527
1.109838
1.087785
1.384616
3.953576
23.153424
59.159994
148.619413
260.778666
457.207561
605.049729
750.742555
785.876513
738.497972
645.358562
473.922491
334.937572
179.812908
101.153851
41.019917
16.286969
4.962683
3.361702
3.042817
2.821684
2.835989
##ZVALUE=390
0.122786
0.105500
0.195503
0.023842
0.082850
0.139475
0.128746
0.088811
0.120997
0.212789
0.082850
0.207424
0.200868
0.164509
0.081658
-0.021458
0.075698
0.217557
0.134706
0.162721
0.356436
0.265837
0.297427
0.148416
0.202656
0.229478
0.120997
0.236630
0.223517
0.190735
0.287890
0.264645
0.239611
0.331998
0.197887
0.172853
0.334978
0.242591
0.179410
0.359416
0.265837
0.354648
0.239611
0.436902
0.167489
0.234842
0.233650
0.351667
0.359416
0.222921
0.221729
0.381470
0.389814
0.326633
0.431538
0.329614
0.332594
0.330806
0.385642
0.321865
0.326633
0.328422
0.387430
0.438690
0.496507
0.457764
0.528693
0.725985
0.685453
0.848770
0.836849
0.811815
0.928640
0.879765
1.014471
1.186728
1.879930
11.894703
37.086606
110.567808
204.847455
380.821824
524.325967
685.549974
760.285854
774.595737
711.841583
558.911562
423.188806
254.169703
146.678686
59.113503
26.908517
8.584857
3.866553
3.185868
##ZVALUE=395
0.220537
0.123978
0.172853
0.129938
0.199676
0.217557
0.321865
0.173450
0.056624
0.134706
0.266433
0.180602
0.139475
0.230670
0.242591
0.142455
0.150800
0.044703
0.088811
-0.002980
0.128746
0.184774
0.171661
0.134706
0.225902
0.184774
0.359416
0.245571
0.167489
0.239611
0.345707
0.133514
0.353456
0.318885
0.292659
0.189543
0.331998
0.277758
0.438690
0.369549
0.344515
0.298619
0.487566
0.431538
0.186563
0.196695
0.273585
0.330806
0.458956
0.321865
0.402927
0.222921
0.310540
0.205636
0.330806
0.298619
0.297427
0.395775
0.389814
0.486970
0.414848
0.427961
0.444651
0.429749
0.383854
0.583529
0.432730
0.590682
0.661612
0.600815
0.802875
0.757575
0.872612
0.818968
0.906587
0.852942
0.904799
1.037717
1.391768
6.619692
24.168491
82.928538
155.632496
291.363001
429.077744
618.963838
731.867552
798.313022
770.778656
646.764636
507.257581
312.736630
192.645788
84.106922
39.708614
12.637973
##ZVALUE=400
0.220537
0.391603
0.233650
0.132918
0.176430
0.170469
0.202656
0.184774
0.060797
0.221729
0.148416
0.188947
0.056624
0.118613
0.224710
0.204444
0.270605
0.319481
0.182986
0.182986
0.181794
0.101924
0.066757
0.269413
0.157952
0.131726
0.220537
0.198483
0.149608
0.255704
0.160933
0.139475
0.183582
0.295639
0.299811
0.353456
0.228882
0.296831
0.358820
0.358820
0.472665
0.385642
0.316501
0.266433
0.435710
0.165701
0.294447
0.285506
0.348687
0.458956
0.327826
0.316501
0.466704
0.193715
0.206828
0.421405
0.427961
0.325441
0.419617
0.378489
0.333786
0.247955
0.504851
0.443459
0.452995
0.501871
0.497699
0.585914
0.580549
0.634789
0.852942
0.866652
0.734925
0.621676
0.772476
0.794530
0.795722
0.882745
0.812411
0.901818
1.252890
3.572702
12.749434
46.632886
100.127459
222.245455
352.551937
536.677837
658.494830
757.589936
765.869617
669.510961
546.435714
359.594822
236.018896
118.279457
##END
