##TITLE=DDW01
##FORMAT=SPECTACLE-ASCII V-1.2
##DATA TYPE=ULTRAVIOLET SPECTRUM
##SECOND TYPE=ULTRAVIOLET SPECTRUM
##DATE=04/11/18
##TIME=15:07:59
##SPECTROMETER/DATA SYSTEM=SPECTACLE
##XUNITS=NM EM
##YUNITS=ENERGY
##YFACTOR=1
##FIRSTX=220
##LASTX=410
##NPOINTS=96
##3DDATA=Equidistant
##ZUNITS=NM EX
##FIRSTZ=210
##LASTZ=400
##ZPOINTS=39
##XYDATA=(Y..Y)
##ZVALUE=210
14.360547
13.363957
13.174415
11.797547
10.128617
10.447502
8.405447
8.545518
7.084608
6.534457
5.384684
3.462434
2.777576
3.003478
2.630949
2.745986
2.498627
3.286600
2.744794
3.476739
2.720952
3.133416
3.287792
4.241467
3.467798
3.427863
3.576875
3.872514
3.915429
3.981590
4.414916
3.786683
4.637837
4.752874
4.318953
4.386902
4.941821
4.878640
4.751682
5.250573
4.813671
5.580783
5.050898
6.365776
5.226731
5.974770
5.337596
5.360842
4.762411
5.488992
5.321503
5.798936
5.413890
4.799962
6.183982
5.733967
5.718470
5.867481
6.933808
6.384850
5.538464
6.459951
5.708933
5.153418
6.465912
6.224513
7.226467
6.544590
7.005930
6.141663
8.335710
9.882450
11.272430
11.705756
12.057424
11.588931
12.184978
10.866523
11.351705
11.477470
9.927750
8.596778
7.782578
7.362962
6.146431
5.708933
5.574822
5.809665
5.890727
5.992651
8.662939
9.805560
15.319586
19.290447
22.826791
26.216507
##ZVALUE=215
38.641691
38.800836
30.396581
25.295615
19.710660
17.628670
15.900731
16.616583
13.969541
12.628436
11.623502
9.734631
7.489920
4.852414
4.678965
3.659725
2.851486
2.844930
3.589988
3.555417
2.736449
2.808571
3.547668
3.633499
4.080534
3.677607
3.874898
4.936457
4.396439
5.179644
4.521608
4.432797
4.678965
4.772544
4.412532
5.171895
5.303621
4.679561
4.734993
5.307794
5.739927
5.140901
5.101562
5.563498
5.534887
5.759597
5.560517
7.525682
6.312728
5.472898
5.797744
6.439686
7.160902
6.343722
6.602407
5.470514
6.482601
6.930828
6.745458
6.919503
6.895661
7.106662
6.507635
6.571412
6.313920
7.093549
6.979704
7.918477
8.809566
8.380413
10.565519
10.041595
10.760427
11.684895
12.532473
11.814833
11.342764
10.396838
9.662509
9.201765
8.398890
8.656979
8.846521
7.427931
7.435679
6.326437
5.231500
5.703568
6.367564
5.805492
5.459785
4.498959
6.401539
6.048679
8.129478
11.126995
##ZVALUE=220
78.239441
80.329776
74.698925
67.313910
58.275461
45.718551
36.763549
29.893517
25.768876
26.903749
26.919842
23.955703
19.699931
17.805696
13.460517
10.908842
6.997585
5.204678
4.829764
4.037619
3.443956
3.771782
3.153682
3.662705
3.891587
4.194975
4.577637
4.382730
4.073977
4.857779
5.059838
5.494952
5.642772
4.890561
6.269813
5.550981
5.801916
5.806684
6.179810
5.604625
6.125569
6.861687
6.628633
6.253719
6.708503
6.372929
6.598830
7.151961
5.881786
6.877780
7.018447
8.727908
8.099675
7.955432
8.259416
8.394718
8.184910
9.093881
8.244514
7.602572
9.300709
9.155869
8.994937
8.387566
8.035898
7.522702
8.662939
8.595586
9.569526
9.417534
10.547638
10.338426
10.599494
11.482835
12.133718
13.678670
13.229847
13.273954
12.408495
10.790825
10.089874
9.329915
7.928610
8.252859
7.383823
7.257462
6.578565
5.291700
5.970597
5.754828
5.225539
5.078912
4.924536
5.176663
4.677773
5.443692
##ZVALUE=225
98.382831
106.448531
120.999813
131.940842
133.068562
124.644637
106.453896
81.559420
61.282516
46.709776
41.740537
37.639737
39.415956
41.083694
38.410425
33.815503
27.117729
21.592975
14.217496
9.627938
7.970929
5.678535
4.732609
3.966689
3.788471
5.004406
3.979802
4.195571
5.559921
5.232692
5.722642
5.033612
5.534887
6.335974
5.940795
5.935431
6.007552
6.480813
6.787777
6.525517
6.145835
7.508993
6.540418
7.459521
6.605983
6.924868
7.308722
8.054972
7.887483
7.535815
7.873774
8.162856
9.070635
8.975863
10.209680
10.409951
10.457635
9.765625
10.724664
10.966659
10.224581
10.156631
11.289716
10.430813
10.786653
9.971857
10.092854
10.684729
11.109710
12.441874
10.936856
11.954904
12.881756
12.510419
12.195706
12.606978
13.204813
12.530684
11.014938
10.164976
8.804798
9.538531
8.401871
7.158518
6.971955
6.973743
6.709695
6.070733
6.583929
5.537868
5.700588
6.634593
5.170703
5.423427
4.463792
6.586909
##ZVALUE=230
68.742633
75.873733
110.673904
159.294009
189.538598
220.424533
233.969688
213.298798
184.560418
147.783756
104.086995
77.681541
56.868792
54.830909
55.054426
60.544610
59.141517
57.417750
45.853853
37.608743
27.699471
18.799901
13.427734
7.809997
5.554557
5.667806
4.557967
5.560517
5.250573
5.356669
5.791783
5.415678
5.733967
6.029606
6.530881
6.145835
6.876588
6.934404
7.378459
6.868839
6.990433
6.869435
7.608533
7.318854
7.556677
7.979870
7.054806
7.788539
8.991957
9.706616
9.078979
9.918809
10.727644
11.014938
10.862947
10.607839
11.638999
12.089610
12.991428
13.570786
13.563633
11.611581
13.095737
12.197495
12.304783
11.879802
11.945963
12.750626
13.179779
13.112426
13.436675
13.110638
13.364553
14.395714
15.112758
13.956428
12.939572
13.342500
13.889670
12.726784
11.044741
11.156797
9.923577
9.462833
9.472966
8.233786
7.518530
7.399917
6.920695
6.604791
6.422997
6.428957
6.737709
6.467700
5.975962
5.953908
##ZVALUE=235
20.769835
21.953583
50.869584
91.438890
155.997872
214.234591
288.137794
335.611701
360.098481
345.226526
293.087959
238.011479
178.994536
117.554665
91.843605
76.514482
79.670548
86.771846
89.357495
91.854930
81.125498
70.602894
49.478412
35.722852
21.991730
14.886856
9.579659
7.220507
6.310940
6.131530
5.464554
5.814433
6.917715
7.042885
6.838441
6.844997
6.628633
6.038547
6.334782
7.299781
7.352829
7.635951
7.303953
7.149577
7.319450
7.748604
8.257627
8.033514
8.014441
7.912517
9.222627
10.617971
10.557771
10.614991
10.685921
11.518598
12.527704
11.622906
12.295842
11.940598
12.524724
13.138652
12.573600
12.770891
14.001727
12.228489
12.860894
13.809800
12.042522
15.077591
15.054941
14.967918
15.392900
16.217828
15.578866
15.819669
16.419888
14.624000
14.144778
13.597608
11.794567
10.682940
10.713935
9.242892
9.302497
9.612441
8.869767
7.601976
8.233786
8.241534
7.741451
7.834435
7.106662
7.811785
6.645918
6.377697
##ZVALUE=240
2.904534
3.096461
7.858872
22.300482
57.685971
99.338889
190.480947
273.557901
398.985744
467.579961
519.322753
503.981709
459.874868
354.784727
280.818939
190.920830
134.926438
103.766918
94.306469
104.861856
114.251971
118.337870
116.815567
100.281835
82.966685
64.828992
42.452812
31.403899
16.584992
11.768937
9.255409
7.435679
7.518530
6.838441
7.730722
6.880760
6.928444
6.035566
7.190704
6.583929
6.141663
6.335974
7.007718
6.871819
6.232858
6.967783
7.392764
7.545948
7.828474
8.482933
7.876754
10.089874
12.005568
11.403561
10.984540
10.952950
11.250973
12.352467
11.854768
12.131929
11.789799
12.842417
13.505816
12.863874
13.206601
13.558865
12.797713
13.364553
13.644695
14.469624
15.017986
15.911460
16.768575
17.779469
16.704798
16.797781
15.751719
14.100671
14.732480
13.041496
13.194680
10.977983
11.218786
11.070967
10.203719
9.099841
9.498596
8.894801
9.027719
8.339882
8.101463
7.131696
7.477999
8.314848
7.723570
7.425547
##ZVALUE=245
1.731515
1.866817
1.920462
2.177954
4.882812
14.278889
41.168928
83.297491
180.079937
274.150968
418.821573
508.181453
572.351813
606.705546
568.189621
473.947525
378.291011
251.485705
180.355906
114.255548
100.500584
98.367929
113.132000
123.786926
132.692456
122.155547
110.880733
95.632672
70.492625
52.396655
36.623478
22.008419
13.913512
8.765459
7.887483
5.808473
6.064773
6.190538
6.263852
7.288456
6.586909
6.428957
5.689859
5.473495
6.877780
6.411672
7.103682
6.573796
6.700754
7.751584
7.889867
8.514524
9.879470
9.057522
9.661913
9.782910
10.045767
10.294914
10.066628
10.996461
11.730790
10.773540
11.860728
11.585951
10.954738
11.167526
11.716485
11.835694
11.997819
12.824535
12.817979
12.345910
12.628436
12.616515
12.997985
13.002753
12.779832
12.711883
11.148453
11.284947
10.396838
10.663867
9.431839
8.887649
8.505583
7.824898
7.559657
7.581711
7.839799
7.510781
6.496906
6.482601
6.750822
6.345510
7.470846
6.586909
##ZVALUE=250
1.636744
1.288652
1.510978
1.795888
1.706481
1.993775
2.810955
8.530617
29.714704
68.482757
156.423450
255.564451
368.605852
524.612665
610.286593
676.229596
674.585700
590.857863
492.945910
344.777703
234.012008
155.293941
102.389455
94.639659
103.962421
119.228959
132.878423
139.559507
131.826997
122.847557
103.882551
77.259541
59.566498
34.792423
23.124814
12.172461
9.148717
6.833673
5.634427
6.091595
5.997419
6.024837
6.211996
5.482435
6.132722
6.917715
6.532669
6.216764
6.643534
7.039905
7.750988
7.121563
7.370710
7.712841
8.414984
7.398725
8.754730
8.190870
8.732677
8.542538
9.203553
9.798408
8.464456
9.300709
9.476542
10.010600
9.984970
10.163784
9.904504
9.754896
11.243820
9.379983
10.417700
11.450648
10.528564
10.983944
10.096431
9.919405
9.701848
9.285808
8.661747
8.224845
8.139610
7.370710
7.399917
7.183552
5.958676
6.442666
6.218553
5.906820
5.919933
5.873442
5.831718
5.662441
5.326867
6.151795
##ZVALUE=255
1.390576
1.390576
1.410842
1.501441
1.658797
1.670718
1.965761
1.669526
1.955628
3.632903
17.374754
44.474602
118.748546
204.739571
354.034901
483.178496
651.139617
728.754997
770.359635
714.401007
622.974634
454.895496
320.838690
184.424520
120.230913
87.336898
86.842775
104.609728
119.603872
140.663981
146.042705
140.836835
127.323866
103.028417
82.248449
52.069426
38.982630
20.480752
12.786984
8.267760
7.323623
5.656481
5.882978
6.312728
6.303787
5.634427
5.866885
6.483793
6.382465
6.993413
6.615520
6.114841
7.369518
7.066727
7.165670
7.590652
7.510781
7.181764
7.905960
8.173585
7.231832
7.702708
7.664561
8.392930
7.967949
8.329749
7.900000
8.156896
8.251667
9.073615
9.577870
9.059906
9.494424
8.864999
8.748770
8.961558
8.793473
8.408427
8.413792
7.327795
6.632805
5.927682
5.908608
6.240606
6.169677
4.905462
5.587935
4.513860
5.085468
4.911423
4.323721
4.951954
4.875660
5.081892
4.836917
5.187988
##ZVALUE=260
0.941753
1.086593
1.402497
1.486540
1.316667
1.254678
1.620650
1.465678
1.439452
1.775622
1.572967
2.315640
8.423924
30.898452
70.534945
171.387792
281.261802
460.479856
608.548522
772.303939
847.733617
841.017962
736.805797
601.351857
397.109985
272.467732
158.102512
103.414655
74.808598
83.875656
105.274916
128.354430
143.255591
152.769685
149.422884
134.612918
110.430717
81.570745
58.786869
35.656691
23.927689
13.668537
9.940863
6.196499
5.759597
5.693436
6.469488
6.350875
6.682873
7.050633
7.051826
7.380843
6.478429
7.126927
7.378459
7.073879
7.485747
7.404685
7.263422
6.941557
7.759929
7.627606
7.618666
6.951690
7.457733
7.136464
7.897615
7.459521
7.427931
7.916689
8.015633
8.027554
8.731484
8.199811
8.213520
7.949471
7.748604
6.664991
6.967783
6.402731
6.020665
5.414486
5.403757
4.775524
4.467964
4.884601
4.553795
4.446507
4.289746
3.857613
3.970861
4.457831
4.452467
3.990531
4.253983
3.985763
##ZVALUE=265
1.021624
1.002550
1.048446
1.106858
1.303554
1.302958
1.261830
1.017451
1.268983
1.317859
1.241565
1.464486
1.596808
1.881719
4.451871
21.591783
53.773522
133.486986
235.731602
426.888466
595.927835
755.029917
903.228521
932.682753
842.052698
723.516941
526.173711
370.233655
205.047727
127.162933
76.697469
68.578720
82.503557
110.557675
134.111643
153.092742
159.793496
151.681900
134.541988
106.321573
84.437728
55.483580
37.090778
20.557642
12.997985
7.949471
7.089972
7.285476
6.622672
6.844997
7.033944
7.411838
7.353425
7.833838
7.747412
7.740855
7.901788
8.130670
7.777810
7.621646
7.639527
7.746816
8.188486
8.387566
8.271933
7.311702
7.370710
7.330775
8.193851
7.422566
7.710457
7.817745
8.221865
7.703900
7.306933
7.369518
7.347465
7.439852
6.794930
6.202459
5.467534
4.939437
5.158782
4.832745
4.695654
4.562736
3.990531
4.214644
3.554821
4.090667
4.408956
4.150867
3.899932
3.515482
3.834963
4.050732
##ZVALUE=270
0.954866
1.115799
0.854731
0.989437
0.996590
1.040697
1.064539
1.312494
1.190901
1.172423
1.211762
1.429915
1.366735
1.389980
1.677871
1.990795
2.475977
10.303855
29.290915
94.868541
188.797712
324.064493
559.218526
737.876892
921.475887
993.181467
965.794921
869.247913
663.890839
504.689813
353.657007
184.347630
106.334686
61.480999
62.522888
86.286664
109.163523
135.688782
152.057409
158.057809
152.684450
134.825706
115.065575
83.037615
61.984658
35.531521
24.097562
14.993548
10.467768
7.956624
8.539557
7.850528
8.187890
8.076429
8.252859
8.218884
9.083748
8.670688
8.344650
8.860826
9.084940
8.629560
8.472800
8.866787
8.484721
8.101463
7.922649
8.293986
8.042455
8.295774
7.836819
8.043647
8.403659
8.048415
7.966757
7.397532
7.431507
7.248521
6.936789
5.977750
5.299449
5.099773
4.722476
5.118847
4.437566
4.498959
4.210472
4.107952
3.932714
3.907681
3.845692
4.006624
3.582835
3.868937
3.584623
3.251433
##ZVALUE=275
0.997782
0.863671
0.970960
0.839829
0.947714
0.845790
1.084805
0.850558
0.911951
0.879765
1.015663
0.946522
1.247525
1.289845
1.148582
1.435876
1.556873
1.598597
1.653433
5.010962
18.514991
51.361918
146.881938
273.319483
496.215820
669.614673
874.997973
990.945697
1015.890837
964.362025
844.426751
620.736480
433.916450
231.679678
135.162473
65.576434
49.087405
61.163902
80.871582
111.556649
131.639838
151.434541
157.939792
151.563883
136.733651
107.289553
86.521506
60.015917
42.581558
24.853945
16.067624
11.306405
9.485483
9.215474
8.404851
8.795857
9.271502
9.234548
9.359717
9.892583
9.235740
9.319782
9.174943
8.877516
8.637905
8.343458
8.441806
8.238554
8.163452
8.033514
8.315444
7.964969
8.839965
8.288622
7.892847
7.432699
7.481575
7.019639
6.782413
6.129742
6.089807
4.712939
4.899502
4.923940
4.293919
4.413724
3.897548
3.680587
4.070997
3.848672
3.405809
3.617406
3.419518
3.765821
3.800988
3.522635
##ZVALUE=280
0.910759
0.813603
0.968575
0.767708
0.805855
0.889897
0.802875
0.977516
0.702739
0.789762
1.009703
0.824928
0.831485
0.898838
1.059771
1.197457
1.286864
1.352429
1.427531
1.644492
1.665950
2.051592
11.319518
37.743449
118.143559
217.985511
400.625467
580.288768
810.380578
955.938697
1015.893817
1015.893817
927.093625
706.628561
519.212484
293.483734
173.784494
80.521703
46.991706
42.364001
57.131648
83.094835
107.755661
132.479668
148.345828
152.056813
148.852468
131.857991
109.883547
82.965493
62.675476
39.506555
26.598573
16.587973
12.337565
9.688735
9.099841
8.988976
9.457469
9.822845
9.747744
9.749532
9.781718
9.601712
9.581447
9.470582
8.439422
8.748770
9.113550
8.781552
8.419752
8.651614
8.207560
7.966757
8.051991
7.604957
6.935596
6.575584
6.328821
5.619526
5.320907
5.390644
5.303621
4.734993
4.554987
3.866553
3.872514
3.957748
3.646612
3.553629
3.456473
3.602505
3.644824
3.560781
3.761649
3.400445
##ZVALUE=285
0.625849
0.643730
0.725985
0.857711
0.612736
0.954866
0.829697
0.738502
0.822544
0.812411
0.877976
0.792742
0.662804
0.966787
0.933409
0.746846
0.986457
1.066923
1.003742
1.169443
1.345873
1.248717
1.619458
1.751781
5.792975
19.416809
66.594481
140.137672
298.177600
461.060405
693.079829
876.563787
1005.399823
1015.890837
1005.877852
821.630955
639.401674
396.281481
243.714452
115.997791
60.387850
33.931732
36.147833
55.216551
76.330900
106.645823
126.078725
145.055652
151.910782
147.328973
133.649707
111.295581
88.805556
61.707497
44.301748
27.193427
18.696785
13.037920
11.372566
10.307431
9.700656
9.642839
9.836555
9.257793
9.558797
9.737611
9.637475
9.342432
9.172559
9.124875
8.428693
8.267760
7.657409
8.290410
8.159876
7.262826
6.892681
6.844997
6.539822
5.885959
5.318522
5.053878
4.773736
4.381537
4.271865
3.977418
4.090667
4.170537
3.562570
3.514886
3.340840
3.501773
3.213882
3.131628
3.225803
3.016591
##ZVALUE=290
0.748634
0.811815
0.848770
0.747442
0.769496
0.712872
0.812411
0.971556
0.830889
0.925660
0.907779
0.823736
0.828505
0.925660
1.010895
0.938773
1.096725
1.066923
1.082420
1.100898
1.063943
1.204610
1.493692
1.492500
1.642704
1.798868
2.434850
8.671880
38.336515
86.590648
204.335451
341.768861
583.857894
781.802535
997.424722
1016.018987
1016.018987
944.168568
719.357729
530.704856
304.857492
177.370906
76.659918
38.999915
25.583506
32.502413
51.292777
69.585443
98.185539
120.937824
140.462518
148.325562
147.351623
134.808421
109.469891
87.668896
58.732629
43.862462
28.328896
20.714998
14.252663
11.834502
10.683537
10.569692
9.868741
9.574890
9.987950
9.156466
9.437799
9.342432
8.889437
8.670688
8.643866
8.160472
7.760525
7.364750
6.830692
6.251931
5.936623
5.899668
5.355477
5.150437
4.688501
4.896522
4.248619
4.089475
3.933907
3.890991
3.618598
3.505945
3.122687
3.493428
3.102422
3.258586
3.240705
2.921820
##ZVALUE=295
0.641942
0.619888
0.434518
0.734925
0.610948
0.585914
0.553727
0.621676
0.705719
0.627637
0.515580
0.682473
0.720620
0.683665
0.644922
1.048446
0.978708
0.809431
0.977516
0.952482
0.965595
1.000762
1.043677
0.937581
1.359582
1.138449
1.433492
1.657605
1.860857
3.563762
13.096929
54.163933
120.691657
286.789536
454.172492
719.307661
895.126462
1015.890837
1015.890837
995.730758
851.612687
606.162548
416.238904
219.882727
119.367838
44.419765
24.232864
21.302700
29.630661
49.754977
66.697001
95.193982
114.093423
134.842992
142.919421
139.862895
126.834512
105.684996
85.837841
60.362816
44.942498
28.647780
20.548701
14.209747
12.232661
9.591579
9.327531
9.771585
9.160638
8.906722
8.835793
8.955598
7.983446
8.197427
7.768869
6.836653
6.969571
6.447434
5.993843
5.735755
5.277991
4.909635
4.775524
4.358888
4.092455
4.155636
3.509521
3.619790
3.478527
3.447533
3.207922
3.130436
3.019571
2.904534
2.910495
2.829432
##ZVALUE=300
0.356436
0.504851
0.568628
0.537634
0.566840
0.471473
0.626445
0.621676
0.616908
0.689626
0.621676
0.693798
0.532866
0.565648
0.574589
0.571609
0.704527
0.735521
0.851750
0.813603
0.725985
0.890493
0.792742
0.969768
0.980496
1.054406
1.005530
1.111627
1.145601
1.396537
1.574755
1.901984
7.518530
27.813911
94.339848
182.462931
371.128917
561.543703
817.103982
969.371796
1015.892029
1015.892029
926.154852
753.486753
494.520664
320.245624
159.255862
84.762573
31.768680
18.821955
20.084977
28.156638
45.938492
62.072873
87.497830
107.837915
129.301548
135.727525
134.391785
126.344562
104.420781
86.824894
61.040521
45.316815
28.499961
20.304918
14.186502
11.299849
9.755492
9.518862
8.936524
8.700490
7.803440
8.135438
7.468462
7.119775
6.781816
6.518960
5.601645
5.638599
5.269647
4.816651
4.812479
4.351735
4.243851
3.977418
3.760457
3.476739
3.305674
3.238916
2.910495
2.774596
2.779961
2.701879
2.943873
2.848506
##ZVALUE=305
0.490546
0.539422
0.589490
0.651479
0.605583
0.430942
0.599623
0.563860
0.487566
0.698566
0.531673
0.663996
0.799894
0.484586
0.516772
0.577569
0.664592
0.785589
0.698566
0.849962
0.804663
0.712872
0.874996
1.061559
0.942945
1.130700
1.011491
0.999570
0.914931
0.989437
1.222491
1.467466
1.631975
1.944900
3.396869
19.236803
53.981543
150.742531
269.812942
492.431521
684.136748
917.380452
1015.918851
1015.918851
997.815728
794.844627
616.330504
388.762951
241.882801
109.408498
55.166483
21.675825
15.883446
20.071864
28.293729
45.276880
61.530471
86.009502
104.702711
120.734572
127.412677
125.767589
117.119551
98.015666
80.947876
56.090951
41.369796
27.116537
19.093752
12.495518
9.794831
8.851886
7.920861
7.483959
7.052422
6.517768
6.191730
5.610585
5.417466
5.080700
4.597902
4.611611
4.305840
4.051924
3.936887
3.732443
3.599524
3.515482
3.349781
3.115535
3.249645
2.887845
2.689958
2.774596
2.620816
2.473593
##ZVALUE=310
0.699759
0.719428
0.499487
0.393987
0.307560
0.400543
0.530481
0.578761
0.617504
0.634789
0.576973
0.534654
0.592470
0.555515
0.648499
0.551939
0.574589
0.722408
0.590682
0.725985
0.816584
0.781417
0.757575
0.562668
0.877976
0.849962
1.000762
0.993609
0.927448
0.873804
1.002550
1.107454
1.245737
1.326799
1.303554
1.604557
1.873970
8.021593
27.146935
90.622902
177.786946
366.083980
560.773611
817.473531
975.670815
1015.937924
1015.937924
920.558572
756.611824
505.858660
333.245993
168.173909
89.442730
33.392906
17.100573
14.634728
17.571449
26.932955
36.709905
56.065917
73.327422
96.083879
110.345483
120.089650
120.793581
110.597610
98.396540
77.548623
59.102774
37.821531
26.902556
16.535521
11.623502
7.631779
6.774664
5.897880
5.475879
4.904866
4.547834
4.239678
4.023910
3.830791
3.824830
3.619790
3.449917
3.187656
3.164411
3.035665
3.107786
2.963543
2.803802
2.779961
2.755523
2.482533
2.576709
2.506971
##ZVALUE=315
0.469685
0.463724
0.492930
0.335574
0.442863
0.405908
0.558496
0.400543
0.429749
0.433922
0.379682
0.526905
0.334978
0.428557
0.629425
0.539422
0.629425
0.654459
0.686646
0.378489
0.691414
0.398755
0.661612
0.717640
0.582933
0.692606
0.819564
0.803471
0.897646
0.924468
0.849962
0.762939
1.129508
1.025796
1.231432
1.170635
1.266599
1.526475
1.705885
3.910661
13.530850
56.883693
127.120018
290.908813
460.577011
723.457932
896.080732
1015.892029
1015.892029
996.157527
849.924684
604.793429
422.341824
222.198963
122.183561
46.265721
21.846890
11.922717
12.525916
17.205477
22.724867
35.548806
48.724413
68.371892
84.237456
104.361773
110.336542
111.758709
105.461478
87.797642
72.473884
52.614808
37.560463
22.770762
15.119910
8.894801
6.566644
5.057454
4.575849
4.069805
3.928542
3.483891
3.201962
3.216863
2.980828
2.934933
2.944469
2.791882
2.657771
2.409816
2.470613
2.601743
2.611876
2.551675
2.374649
2.428889
##ZVALUE=320
0.374913
0.364780
0.556707
0.281930
0.159740
0.443459
0.353456
0.370741
0.354648
0.497699
0.530481
0.485778
0.490546
0.469685
0.402927
0.494719
0.488758
0.466704
0.452995
0.561476
0.523925
0.606775
0.502467
0.598431
0.512600
0.624657
0.653863
0.582933
0.679493
0.699759
0.911951
0.738502
0.778437
0.825524
0.936985
1.138449
1.016855
1.026988
1.204610
1.423955
1.370907
2.276897
6.079674
32.166839
81.870556
211.831927
352.445841
581.934452
773.074627
981.023908
1015.890837
1015.890837
931.664705
704.558492
513.418913
282.244682
162.036419
68.443418
31.524897
12.306571
9.415746
10.459423
13.002753
19.257665
28.497577
45.110583
60.500503
78.332424
91.700554
103.492737
103.747845
96.153617
84.574819
64.851642
49.565434
31.877756
21.370649
12.398958
8.298755
4.601479
3.685951
3.304482
2.760887
2.705455
2.664924
2.517700
2.447963
2.115965
2.215505
2.150536
2.239943
2.101660
2.174973
2.191663
2.348423
2.172589
##ZVALUE=325
0.383854
0.391603
0.532866
0.265837
0.406504
0.464916
0.435710
0.316501
0.306964
0.368953
0.378489
0.402927
0.308752
0.511408
0.340939
0.459552
0.445843
0.354648
0.460744
0.507832
0.417829
0.605583
0.590682
0.406504
0.552535
0.746846
0.526905
0.650883
0.550747
0.623465
0.745654
0.818968
0.881553
0.704527
0.748634
0.937581
0.868440
0.761747
0.900626
1.017451
1.237988
1.260638
1.226664
1.689792
3.527999
20.835996
55.514574
147.081614
264.985561
484.705567
671.164989
900.507569
1011.000872
1015.892029
975.694656
770.132542
572.859645
338.907838
205.065608
92.854500
43.924451
14.464855
8.736849
7.420778
8.022785
11.338592
16.513467
27.247667
39.407611
58.391690
72.030425
88.422894
95.335841
96.090436
89.335442
74.202418
61.041713
42.868853
29.643774
18.179417
10.868907
5.929470
4.188418
2.906919
2.600551
2.176762
2.119541
2.122521
1.951456
2.171993
1.826882
1.660585
1.801848
1.808405
1.915693
1.888871
##ZVALUE=330
0.485778
0.497699
0.274777
0.293851
0.382662
0.517964
0.504851
0.397563
0.311732
0.379682
0.340939
0.476837
0.583529
0.585914
0.631809
0.572801
0.362992
0.595450
0.484586
0.518560
0.496507
0.641942
0.495911
0.581741
0.461936
0.495911
0.495911
0.615716
0.726581
0.562668
0.473857
0.648499
0.687838
0.751615
0.757575
0.766516
0.720620
0.947714
0.849962
0.886917
0.937581
1.027584
1.267791
1.228452
1.304746
1.453757
1.940727
9.103417
29.451847
97.784996
188.001990
377.542973
556.459427
802.604556
952.037573
1015.944481
1003.115773
839.260817
666.613579
425.702929
271.532536
125.964880
62.263608
22.054911
9.878874
6.329417
6.376505
7.059574
9.383559
16.223788
24.066567
37.279725
51.516891
69.367886
80.811977
88.497996
89.335442
82.433820
71.090460
54.127574
40.720701
26.146770
17.769933
10.630488
6.692410
3.930926
3.001690
2.254844
2.172589
1.959801
2.011657
1.816750
2.037883
1.987815
1.936555
1.981854
##ZVALUE=335
0.372529
0.397563
0.240803
0.394583
0.332594
0.426769
0.448823
0.292659
0.206828
0.377893
0.385642
0.323653
0.412464
0.418425
0.281930
0.361800
0.359416
0.406504
0.420809
0.520945
0.402927
0.624657
0.562668
0.497699
0.479817
0.357628
0.545979
0.472665
0.390410
0.399947
0.527501
0.517964
0.475645
0.500679
0.741482
0.555515
0.590682
0.790954
0.578761
0.863671
0.855923
0.806451
0.976920
0.910759
0.885725
1.090765
1.145601
1.291633
1.441836
3.894567
15.022755
60.310960
126.734972
282.491446
452.064872
705.977678
875.487924
1006.988883
1011.101604
895.208716
744.574666
498.460531
336.628556
175.259709
90.751648
30.855536
12.853742
6.612539
5.561709
5.771518
6.487966
9.678602
13.966560
23.692846
34.183860
49.893856
62.310696
75.021982
81.535578
82.676411
76.805949
63.934922
54.160953
39.010644
29.114485
17.490983
11.630654
6.610751
4.371405
3.173947
2.459884
1.896620
1.969934
2.037883
1.824498
1.954436
##ZVALUE=340
0.366569
0.262856
0.306964
0.441670
0.377893
0.469685
0.206828
0.246763
0.312924
0.223517
0.410676
0.425577
0.445843
0.457764
0.366569
0.548959
0.399947
0.250936
0.333786
0.308752
0.345707
0.368953
0.298619
0.343919
0.324845
0.436902
0.507832
0.540614
0.501871
0.486970
0.464916
0.480413
0.564456
0.491738
0.575781
0.452995
0.563860
0.507832
0.562668
0.550747
0.656843
0.651479
0.686646
0.860691
0.866652
0.859499
0.905991
1.091957
1.152754
1.190901
1.280904
2.325773
7.094741
36.364794
88.935494
221.023560
366.795659
597.843528
775.233507
948.570967
998.679996
936.257839
808.628798
590.385795
411.902666
210.701823
116.593838
46.500564
18.193722
6.768703
5.813837
5.132556
5.548000
6.214976
8.447766
14.076829
21.528602
33.938885
45.097470
60.162544
71.366429
77.323914
77.786446
71.447492
63.722730
49.942732
39.689541
26.351810
18.780828
10.851622
7.114410
3.590584
3.012419
2.347827
2.016425
2.109408
##ZVALUE=345
0.240803
0.243783
0.260472
0.358820
0.377893
0.282526
0.344515
0.568628
0.329614
0.149608
0.178814
0.289679
0.290871
0.334978
0.413656
0.427961
0.473857
0.220537
0.356436
0.353456
0.441670
0.380874
0.410676
0.410676
0.283718
0.301600
0.449419
0.399947
0.420809
0.368953
0.384450
0.511408
0.492930
0.555515
0.495911
0.524521
0.578761
0.550747
0.480413
0.450611
0.567436
0.652671
0.542998
0.654459
0.831485
0.729561
0.751615
0.751615
1.052618
0.921488
0.986457
1.087785
1.098514
1.326799
3.353953
20.075440
57.025552
150.053501
266.825557
480.816960
657.638907
861.205459
954.769850
959.201455
875.026584
675.568581
494.605899
277.337432
156.451464
65.116882
28.211474
9.383559
6.110668
5.316734
4.767776
4.956722
5.238652
7.698536
11.656880
19.421577
28.850436
42.172670
52.684546
64.343810
69.503784
70.882440
67.625642
58.768988
49.623847
37.056804
27.611852
16.588569
11.777878
6.739497
4.679561
3.057718
##ZVALUE=350
0.164509
0.201464
0.207424
0.378489
0.326633
0.364780
0.136495
0.279546
0.331998
0.425577
0.302792
0.241995
0.295639
0.274777
0.248551
0.203848
0.214577
0.221729
0.183582
0.276566
0.336766
0.432730
0.357628
0.313520
0.344515
0.328422
0.459552
0.346899
0.340939
0.501871
0.425577
0.380874
0.441670
0.607967
0.506639
0.497699
0.575781
0.457764
0.388622
0.598431
0.465512
0.510812
0.537634
0.659823
0.537634
0.667572
0.716448
0.689626
0.716448
0.701547
0.739694
0.918508
0.903606
1.071692
1.110435
1.710653
1.795888
21.319985
33.031702
95.829964
188.806653
379.364491
549.972653
761.620998
889.982581
958.306789
908.043981
744.465590
568.605661
337.490439
201.938748
86.662769
38.187504
11.454821
6.245971
4.672408
4.446507
3.936887
4.037619
4.680753
6.617904
11.498928
16.792417
26.159883
34.823418
47.550797
55.348873
63.841939
65.354705
63.643456
57.127476
45.853853
36.437511
25.072694
17.742515
11.024475
##ZVALUE=355
0.141859
0.224710
0.250936
0.217557
0.342727
0.305772
0.319481
0.457764
0.205636
0.268817
0.205636
0.229478
0.168681
0.309944
0.254512
0.256896
0.293851
0.375509
0.308752
0.264645
0.315905
0.302792
0.433922
0.364780
0.412464
0.293851
0.409484
0.327826
0.366569
0.436902
0.329614
0.442863
0.296831
0.481606
0.513792
0.390410
0.413656
0.549555
0.429749
0.578761
0.347495
0.417829
0.550747
0.545979
0.637770
0.645518
0.586510
0.659823
0.710487
0.601411
0.616908
0.763535
0.894666
0.833869
1.042485
0.877976
1.179576
1.178980
1.433492
4.683733
17.653704
66.803694
136.625767
288.994908
450.842977
684.351921
826.861858
928.638577
916.398764
774.959922
626.552701
413.917899
257.782936
113.333464
53.261518
15.994906
7.308722
4.860759
4.552603
3.875494
3.700852
3.837943
4.486442
6.121993
8.527637
14.568567
21.043420
31.330585
39.801598
50.187707
56.284666
59.594512
57.906508
52.021742
45.202971
34.882426
##ZVALUE=360
0.349879
0.394583
0.375509
0.242591
0.240803
0.279546
0.182986
0.165701
0.347495
0.309944
0.124574
0.157952
0.288486
0.378489
0.277758
0.278950
0.353456
0.298619
0.405908
0.279546
0.382662
0.369549
0.405908
0.490546
0.500679
0.298619
0.348687
0.344515
0.215769
0.406504
0.463724
0.311732
0.505447
0.497699
0.371933
0.413656
0.387430
0.448823
0.488758
0.413656
0.524521
0.463724
0.516772
0.648499
0.658631
0.657439
0.706911
0.573993
0.724792
0.703931
0.670552
0.730753
0.683665
0.827909
0.773668
0.886917
0.852942
1.034737
1.022816
1.380444
1.201630
2.228618
7.612705
34.671426
84.712505
208.722949
345.913768
556.408763
723.868608
876.153708
909.598470
831.570625
696.450472
473.894477
314.052701
152.235627
78.011751
28.371811
10.585785
4.831553
4.316568
3.928542
3.602505
3.529787
3.350973
3.680587
4.719496
7.222891
10.721684
17.618537
24.877787
35.232902
42.345524
50.748587
53.367615
53.761601
##ZVALUE=365
0.136495
0.135899
-0.020862
0.134706
0.130534
0.165701
0.039935
0.138879
0.216961
0.070930
0.045896
0.139475
0.124574
0.164509
0.213981
0.176430
0.159740
0.053644
0.074506
0.198483
0.213981
0.030994
0.279546
0.101924
0.175834
0.273585
0.227690
0.319481
0.251532
0.310540
0.047684
0.181794
0.243783
0.160933
0.349879
0.266433
0.356436
0.234842
0.276566
0.460744
0.391603
0.328422
0.260472
0.402927
0.356436
0.324845
0.325441
0.495911
0.289679
0.521541
0.431538
0.431538
0.532866
0.708699
0.487566
0.499487
0.554919
0.721812
0.613928
0.674725
0.811815
0.976920
1.206994
1.355410
3.183484
19.016862
51.725507
136.566758
255.133510
469.361544
629.000664
803.918839
879.704952
854.637623
748.742819
543.502569
382.932425
208.133459
110.467672
39.115548
15.274882
5.311966
4.238486
3.773570
3.518462
3.123879
2.967715
2.866983
3.120899
3.983974
5.609989
9.632707
14.026761
22.145510
29.183626
37.206411
##ZVALUE=370
0.175834
0.307560
0.238419
0.369549
0.273585
0.292659
0.150800
0.167489
0.239611
0.222921
0.160933
0.226498
0.122786
0.373721
0.306964
0.169873
0.201464
0.357628
0.231862
0.356436
0.350475
0.455976
0.529885
0.307560
0.416636
0.209808
0.408888
0.186563
0.218749
0.313520
0.363588
0.439882
0.336766
0.393987
0.462532
0.320673
0.343919
0.361800
0.433922
0.385642
0.573993
0.459552
0.513792
0.555515
0.518560
0.469685
0.361800
0.354648
0.480413
0.424981
0.623465
0.499487
0.605583
0.616908
0.566840
0.669956
0.700951
0.605583
0.785589
0.811815
0.776649
0.940561
0.971556
1.139641
1.268983
1.191497
1.960993
10.232925
32.987595
103.296638
195.843577
372.709632
538.335443
750.602484
849.391818
861.318707
787.850618
610.539913
448.879600
252.792835
144.683719
56.682825
25.098920
7.915497
4.524589
3.782511
3.348589
3.291965
3.125668
2.812743
2.843738
3.024936
3.653765
5.236864
7.705688
12.297630
##ZVALUE=375
0.280738
0.214577
0.366569
0.285506
0.265837
0.199676
0.230670
0.196695
0.407696
0.281930
0.370741
0.293851
0.299811
0.226498
0.226498
0.254512
0.165701
0.239611
0.165701
0.207424
0.183582
0.228882
0.273585
0.203848
0.347495
0.233650
0.479817
0.215769
0.262856
0.369549
0.234842
0.357628
0.400543
0.313520
0.341535
0.469685
0.324845
0.679493
0.416636
0.368953
0.507832
0.343919
0.355840
0.335574
0.410676
0.347495
0.431538
0.389814
0.361800
0.408888
0.443459
0.456572
0.520945
0.578761
0.420809
0.412464
0.495911
0.681877
0.569820
0.688434
0.672936
0.681877
0.881553
0.770688
0.813603
0.745654
0.952482
1.371503
1.427531
4.451871
17.606616
65.458417
140.492916
303.926468
454.788804
656.728745
788.449645
868.879557
836.889744
682.827830
525.719523
317.665935
198.584795
96.712708
47.260523
14.524460
6.069541
3.723502
3.443956
3.184676
3.082752
2.919436
2.837777
2.769828
2.722740
3.378987
##ZVALUE=380
0.308752
0.190735
0.140667
0.180602
0.085831
0.152588
0.323653
0.341535
0.106692
0.130534
0.222921
0.399947
0.293851
0.203848
0.288486
0.239611
0.127554
0.218749
0.247955
0.252724
0.226498
0.352859
0.212789
0.295639
0.212789
0.240803
0.164509
0.299811
0.300407
0.258684
0.199676
0.166893
0.310540
0.207424
0.338554
0.276566
0.127554
0.244975
0.436902
0.227690
0.348687
0.476837
0.439882
0.456572
0.379682
0.576973
0.186563
0.273585
0.298619
0.267625
0.295639
0.309944
0.481606
0.416636
0.560880
0.377893
0.516772
0.515580
0.398755
0.636578
0.572801
0.507832
0.498891
0.576973
0.598431
0.781417
0.664592
0.919700
1.048446
1.173615
1.448989
2.316833
11.601448
36.287904
111.171603
206.526518
391.837955
563.895702
759.911537
846.891999
843.811631
757.665634
583.265424
432.081819
248.795748
145.353675
58.909655
26.481748
7.895827
3.981590
3.464818
2.984405
3.159642
2.843738
2.846718
2.751946
##ZVALUE=385
0.280738
0.169873
0.293851
0.253916
0.136495
0.283718
0.127554
0.244975
0.213981
0.267625
0.419617
0.127554
0.225902
0.314713
0.490546
0.293851
0.288486
0.297427
0.103712
0.230670
0.334978
0.224710
0.354648
0.268817
0.217557
0.257492
0.179410
0.304580
0.390410
0.327826
0.281930
0.510812
0.325441
0.256896
0.421405
0.434518
0.289679
0.291467
0.462532
0.367761
0.340939
0.432730
0.290871
0.232458
0.385642
0.553727
0.371933
0.477433
0.406504
0.494719
0.436902
0.503659
0.507832
0.399947
0.291467
0.604987
0.474453
0.394583
0.517964
0.465512
0.566840
0.668764
0.496507
0.713468
0.531673
0.598431
0.694990
0.707507
0.934601
0.991821
1.128912
1.104474
1.336932
1.560450
4.401803
24.510622
64.293742
162.317753
288.652778
500.298738
657.591820
809.035897
847.736001
794.348717
691.965818
498.362780
348.709822
187.514424
104.611516
42.554736
17.012954
5.272627
3.614426
3.398657
3.329515
3.124475
##ZVALUE=390
0.015497
0.067949
0.142455
0.134706
0.057817
0.081658
0.027418
0.116825
0.169873
-0.014901
-0.009537
0.119805
0.001788
0.104904
0.036955
0.110865
0.206828
0.178814
0.113845
0.180602
0.224710
-0.080466
0.288486
0.094771
0.206828
0.014901
0.167489
0.116825
0.143647
0.254512
0.004768
-0.005960
0.026822
0.030994
0.221729
0.169873
0.221729
0.146627
0.260472
0.310540
0.328422
0.137687
0.196695
0.220537
0.309944
0.188947
0.148416
0.320673
0.155568
0.279546
0.224710
0.209808
0.324845
0.332594
0.172853
0.411868
0.333786
0.263453
0.325441
0.373721
0.378489
0.419617
0.365973
0.236630
0.439882
0.340939
0.582933
0.586510
0.747442
0.734925
0.845790
0.830889
0.949502
1.064539
0.976920
1.117587
2.069473
12.790561
40.842891
123.474002
230.597854
425.390005
575.892925
740.220547
825.950503
836.662650
763.175488
591.959953
446.490645
267.281532
153.856874
61.799884
27.522445
7.668734
3.935695
3.285408
##ZVALUE=395
0.253916
0.181794
0.160933
0.186563
0.124574
0.201464
0.280738
0.109673
0.244975
0.102520
0.223517
0.194907
0.331998
0.222921
0.210404
0.148416
0.112653
0.226498
0.122786
0.188947
0.195503
0.134706
0.142455
0.154972
0.205636
0.235438
0.258684
0.255704
0.170469
0.186563
0.215769
0.224710
0.251532
0.189543
0.233650
0.401735
0.495911
0.298619
0.385642
0.317693
0.292659
0.318885
0.306964
0.279546
0.332594
0.404716
0.406504
0.333786
0.449419
0.338554
0.277758
0.290871
0.318885
0.340939
0.335574
0.405908
0.472665
0.427961
0.391603
0.465512
0.476837
0.594854
0.441670
0.600815
0.490546
0.616908
0.558496
0.738502
0.747442
0.832677
0.835657
0.890493
0.926852
0.873804
0.931621
0.930429
0.885725
0.965595
1.327991
7.234812
25.952458
89.571476
169.467926
321.512818
472.756624
677.966475
798.498988
866.397619
834.995508
696.246028
540.230870
327.250957
198.729634
85.418820
40.560961
12.979507
##ZVALUE=400
0.362992
0.325441
0.218749
0.142455
0.229478
0.171661
0.131726
0.060797
0.171661
0.186563
0.204444
0.230670
0.200868
0.061989
0.285506
0.217557
0.185966
0.092983
0.190735
0.244975
0.173450
0.342727
0.297427
0.387430
0.071526
0.030994
0.257492
0.237823
0.174642
0.309944
0.382662
0.212789
0.221729
0.266433
0.348687
0.286698
0.353456
0.320673
0.332594
0.412464
0.261664
0.375509
0.321865
0.396967
0.355840
0.394583
0.270605
0.408888
0.470877
0.496507
0.463724
0.335574
0.405908
0.386834
0.346899
0.333786
0.483990
0.526905
0.361800
0.387430
0.457764
0.383854
0.514984
0.482798
0.588894
0.538826
0.611544
0.720620
0.786781
0.735521
0.687838
0.793934
0.869632
0.887513
0.830889
0.841618
0.902414
0.955462
0.984669
1.076460
1.200438
3.547668
13.122559
53.074956
112.801790
246.602893
387.974977
590.568781
724.820495
829.406977
831.821561
719.444752
588.887930
395.644903
258.874893
128.615499
##END
