##TITLE=FDDW01
##FORMAT=SPECTACLE-ASCII V-1.2
##DATA TYPE=ULTRAVIOLET SPECTRUM
##SECOND TYPE=ULTRAVIOLET SPECTRUM
##DATE=04/11/18
##TIME=15:57:43
##SPECTROMETER/DATA SYSTEM=SPECTACLE
##XUNITS=NM EM
##YUNITS=ENERGY
##YFACTOR=1
##FIRSTX=220
##LASTX=410
##NPOINTS=96
##3DDATA=Equidistant
##ZUNITS=NM EX
##FIRSTZ=210
##LASTZ=400
##ZPOINTS=39
##XYDATA=(Y..Y)
##ZVALUE=210
15.087724
13.536811
11.566877
11.534691
9.872913
9.600520
8.500814
8.396506
6.920695
4.842877
3.866553
3.040433
3.144741
2.889633
2.485514
2.814531
2.594590
2.945662
2.434850
2.928972
3.258586
3.121495
3.359914
3.229976
3.244877
4.022717
4.771948
4.969835
5.749464
6.663799
7.312894
7.364750
7.865429
8.903742
7.896423
8.507967
8.651614
9.047985
8.874536
8.867979
8.136630
8.385777
9.026527
8.081794
7.502437
7.953644
7.338524
7.362962
8.056760
7.295609
6.603599
6.215572
5.857944
6.458759
7.144809
6.570816
6.269813
6.752610
6.220937
5.346537
5.538464
6.022453
5.410910
4.934669
5.700588
6.266832
6.505847
6.638765
6.602407
7.411838
7.968545
9.555817
9.684563
10.440946
10.230541
10.953546
10.763407
13.050437
10.357499
9.811521
9.614825
9.043813
7.890463
6.040931
6.078482
5.319715
4.879832
6.530881
5.254745
7.255673
8.761883
10.519624
13.662577
16.958714
22.946000
25.256872
##ZVALUE=215
35.116673
35.495758
31.501651
22.122860
20.371675
17.866492
15.614629
15.007854
15.148520
14.652610
12.074709
9.917617
6.788969
5.924702
3.664494
3.183484
2.944469
3.423691
3.270507
2.996922
3.168583
2.845526
3.327727
4.293919
3.588796
4.593730
5.195737
7.122755
6.511807
8.123517
8.467436
8.595586
9.523630
11.136532
11.587739
10.709763
10.878444
11.221766
10.352731
11.943579
10.656714
10.223985
10.448694
9.104609
8.282661
9.234548
8.368492
9.241700
8.359551
7.009506
7.316470
7.534623
7.374883
7.780790
7.226467
6.628633
7.841587
6.427765
7.295609
5.848408
7.412434
6.705523
6.709695
6.544590
6.771684
7.030964
6.915927
7.168651
6.980896
7.316470
8.033514
9.348989
10.019541
10.187626
11.344552
11.300445
11.423826
10.715723
10.027885
10.028481
9.122491
8.166432
7.297993
7.297993
7.084608
5.360842
5.767941
5.165935
5.129576
4.371405
4.901886
4.262924
4.801750
6.213784
7.665753
9.420514
##ZVALUE=220
83.071589
79.811811
77.684522
69.738626
56.117773
44.716001
36.057830
26.853681
22.681952
24.876595
23.940802
24.012923
19.598603
16.872883
13.599992
10.058880
8.088946
5.086660
4.759431
3.006458
3.675818
3.450513
2.782941
4.045963
4.178882
4.634857
5.156994
7.132888
7.581711
7.766485
9.752512
10.923743
11.493564
11.588931
12.752414
13.106465
12.442470
13.308525
12.937784
13.355613
13.460517
10.966659
11.832714
11.301637
11.279583
10.568500
9.684563
10.019541
10.063648
8.844733
10.452867
9.990931
9.575486
8.802414
8.206964
8.732677
8.164644
8.154511
8.194447
7.488728
8.543730
7.814765
7.545948
7.617474
7.866621
7.027984
7.790923
7.392764
7.673502
8.836985
9.549856
9.537935
10.488629
11.367798
11.276603
12.371540
11.328459
10.849833
10.346770
9.910464
9.216666
8.917451
8.449554
8.076429
6.490946
6.218553
5.877614
5.746484
5.400777
5.105734
4.575849
4.367828
5.059838
4.585981
5.350709
4.885793
##ZVALUE=225
101.065636
108.314753
120.222569
136.185884
135.775805
122.786760
104.044676
77.002645
56.327581
48.383474
38.730502
35.788417
36.951900
39.021969
33.841729
29.771924
24.764538
20.148754
14.797449
10.925531
6.735921
4.915595
3.755689
4.263520
4.718900
4.648566
4.776716
6.885529
6.914735
8.455515
9.722710
10.478497
11.800528
12.744665
12.905598
13.676882
14.388561
13.191700
13.396740
12.626648
13.474822
12.381673
12.575984
11.287928
11.449456
11.648536
11.924505
9.799600
9.295940
10.540485
10.057688
10.686517
10.637641
11.007786
10.076761
10.511875
10.287762
11.291504
10.259748
10.384917
10.129809
9.736419
8.494854
10.566711
9.664893
9.009838
9.137988
8.917451
9.479523
9.640455
10.816455
10.404587
10.726452
11.266470
12.879968
12.994409
11.266470
11.634827
10.467768
11.180639
10.005832
8.375645
8.139610
7.429719
6.768703
6.444454
7.030964
5.416870
6.325841
6.062984
5.422831
5.221963
5.075932
4.908442
4.954934
6.373525
##ZVALUE=230
65.783858
76.029897
113.341808
161.903501
194.754601
220.280886
224.767923
207.660794
179.923773
146.971941
99.919438
74.454546
57.086945
50.701499
53.358674
57.748556
57.256818
54.276586
49.615502
40.689707
29.785633
19.532442
12.122989
8.749962
6.774664
6.006956
6.073713
6.325841
6.750822
8.863807
8.633733
9.778738
10.858774
11.058450
11.514425
11.942983
12.325644
12.983680
11.734962
11.289716
11.622906
12.050867
11.700988
10.713935
9.536743
10.496974
10.005832
10.568500
10.337830
9.765625
10.309815
10.842681
11.326671
10.924935
11.168718
11.467934
10.927916
12.673736
10.357499
10.621548
11.604428
12.467504
9.120703
10.811687
10.401607
9.828806
10.081530
10.455847
11.176467
10.233521
11.335611
11.252761
12.979507
13.173819
13.174415
14.211535
12.834668
12.275577
11.672974
9.499788
10.062456
9.330511
9.202957
7.027984
8.878708
8.062720
7.185936
6.370544
6.630421
6.840825
6.331801
6.428957
5.699992
6.149411
5.600452
5.702972
##ZVALUE=235
21.367669
22.906661
52.679777
87.242723
153.638721
217.846632
289.223790
334.943533
356.940627
341.569781
285.957456
233.134627
176.835656
116.626620
89.140534
75.453520
74.401498
81.614852
83.414912
86.746812
71.765780
68.413615
49.898624
37.679672
22.973418
15.116930
9.906888
6.755590
6.796718
7.193685
7.307529
7.577538
8.468628
9.025931
9.426475
9.424686
9.262562
9.727478
9.123683
10.071993
9.858608
9.739995
9.609461
10.387897
9.154677
9.085536
8.801818
9.188652
9.198785
8.781552
9.826422
10.017753
9.848475
9.621978
10.526776
9.880662
9.821653
10.529757
12.553930
10.381937
10.216832
10.830760
9.600520
10.387897
9.941459
11.080503
10.010600
10.353923
10.764599
10.522604
11.556745
11.974573
12.700558
13.921857
14.197826
13.956428
13.088584
12.589693
12.276769
11.517406
10.456443
9.146929
9.026527
9.264946
8.128881
8.900762
7.279515
7.271767
7.662773
7.013679
6.432533
6.803870
6.958842
6.812811
6.066561
6.275773
##ZVALUE=240
2.876520
2.517700
8.944869
20.792484
54.077506
99.196434
190.013647
282.445550
406.844616
472.028852
521.622896
513.069630
462.884903
363.650918
277.265906
185.876489
139.081478
103.889704
100.765824
101.907849
117.195845
119.332671
115.564466
103.411674
82.705617
66.562891
45.835972
33.133626
19.080639
13.562441
9.298921
7.765889
6.906986
8.310676
7.818937
8.596778
8.655787
8.772612
8.746982
9.354949
9.340644
9.017587
9.613633
9.508729
8.720756
8.845925
9.795427
9.505749
10.636449
11.161566
10.434985
8.277893
11.310577
9.584427
9.761453
9.683967
10.289550
8.912683
9.500980
10.460615
10.553598
9.292960
9.788871
11.393428
9.736419
10.415912
9.869933
10.543466
10.822415
11.254549
11.561513
12.455583
13.119578
14.673471
14.108419
14.060736
14.674664
13.087988
13.227463
12.430549
11.583567
10.172725
9.794831
9.457469
10.044575
8.285642
8.125901
7.916689
8.786917
7.540584
7.263422
7.639527
7.094741
7.585883
7.416606
7.773638
##ZVALUE=245
1.576543
1.828671
2.141595
1.801848
5.128980
13.652444
43.208599
85.908771
185.805559
275.381804
424.298644
516.893864
584.087968
618.119836
579.538941
476.902723
386.812687
263.753533
183.463693
124.127865
99.194646
100.437999
111.183524
126.259923
130.856633
127.077699
111.845732
94.030499
69.835782
56.018829
37.498474
21.392703
14.656782
8.685589
9.189844
7.292628
8.561611
7.371902
8.858442
9.158850
8.524656
8.538961
8.243918
8.878708
8.349419
9.308457
9.225607
10.004640
8.697510
8.119941
8.273721
8.006692
7.504821
8.654594
7.846951
8.849502
8.878708
8.178949
8.182526
8.217692
8.997917
8.767843
8.639693
7.841587
9.174943
9.371638
8.469820
9.397864
9.413958
9.791851
9.619594
9.694695
11.379719
11.239648
11.694431
11.071563
11.084676
11.507869
10.041595
10.360479
9.445548
8.777976
8.757710
8.529425
8.820891
8.036494
6.701946
7.490516
6.769896
6.320477
7.007718
6.871819
7.069707
6.392598
6.241798
7.004738
##ZVALUE=250
1.935959
1.403689
1.860857
1.934767
1.397729
1.954436
3.193617
7.772446
31.719804
69.812536
156.362653
259.298682
372.478962
526.905656
626.528859
688.791871
683.198571
608.307719
507.192016
357.504487
239.869952
158.860683
105.973482
93.085766
105.189681
121.019483
135.463476
139.910579
134.889483
121.515989
106.350780
81.419945
59.369802
35.411716
25.366545
14.796853
10.472536
8.912683
8.924603
9.095669
8.103848
8.926988
8.895993
10.243654
9.223819
8.973479
9.606481
9.339452
9.326935
8.564591
8.476973
8.803606
8.536577
8.103848
9.075999
8.637905
7.985830
7.360578
7.263422
7.539988
7.603765
7.932782
7.466674
7.621646
7.331967
7.605553
7.184744
7.915497
8.450747
8.134842
7.599592
9.109974
9.687543
10.058880
9.479523
9.463429
9.455681
9.866953
8.658767
8.977652
8.015633
8.050799
6.933808
6.958842
6.642938
6.698966
6.222725
6.294847
5.740523
6.197691
6.192923
5.829930
6.305575
6.288886
6.381869
5.975962
##ZVALUE=255
1.270771
1.236796
1.535416
1.393557
1.608729
1.777411
1.755953
1.843572
2.572536
3.977418
20.407438
51.330924
105.402470
223.845840
335.542560
522.306561
636.801720
745.608807
775.493979
726.858974
626.513958
493.002534
315.198898
203.711987
117.390752
89.878440
88.629723
104.091763
125.077963
141.391754
147.334933
143.980980
132.633448
108.479857
88.822842
56.939721
40.580630
24.453998
17.245412
12.379885
10.887980
10.999441
10.159612
10.556579
10.769963
10.258555
9.700656
9.925961
10.488629
8.923411
8.940697
8.246899
9.027719
8.381605
7.880926
7.832646
8.997917
7.411838
7.892847
7.765889
7.490516
7.074475
7.235408
7.502437
7.500648
6.976724
6.963611
6.729960
7.409453
7.578731
7.402897
7.186532
8.907914
7.711649
7.990599
8.513927
8.564591
7.661581
8.337498
7.197857
6.726980
6.370544
5.827546
5.865693
5.134940
5.427599
5.213618
5.182624
5.476475
4.728436
5.445480
4.974604
5.248785
5.203485
4.825592
5.550981
##ZVALUE=260
1.062751
1.347661
1.470447
1.059771
0.884533
1.423955
1.032948
1.403689
1.286864
1.634955
1.708865
2.571940
8.385777
35.396814
75.199604
176.660419
288.639665
470.470786
616.700649
787.432790
858.266950
860.695839
752.422810
619.528890
411.120653
284.227729
166.912675
105.669498
79.332590
84.625483
107.942820
129.669905
146.286488
158.008933
154.861808
134.981871
119.176507
86.283684
66.452622
42.638779
29.989481
19.373894
14.844537
11.887550
11.817813
10.215640
10.505915
10.859966
9.512901
9.593964
9.727478
9.386539
9.608865
8.759499
8.831620
8.705854
8.349419
7.690787
8.260608
7.705688
7.118583
6.788969
6.782413
6.368756
6.361604
6.463528
5.990863
6.480813
6.539822
6.415844
6.636977
6.581545
6.441474
7.279515
7.438660
8.056760
6.523728
6.363988
6.071925
5.535483
5.764961
5.825758
5.103946
5.033612
4.755855
4.483461
4.359484
4.186630
4.012585
3.774762
4.260540
3.830791
4.679561
4.674792
4.682541
4.462600
##ZVALUE=265
1.014471
0.956655
0.978708
1.016855
0.936985
1.008511
1.029968
1.216531
1.386404
1.078844
1.242757
1.304746
1.383424
1.652837
4.388690
21.741986
52.587986
132.113695
237.683654
428.935885
608.446598
758.531690
917.025805
940.460563
849.223733
732.532740
545.346737
387.235880
223.401785
135.996938
89.741945
71.568489
83.239675
114.546418
135.260820
157.860518
164.626837
158.331990
141.503811
113.019943
92.653632
62.921643
46.329498
28.638840
19.447803
14.463663
12.302995
11.361837
11.014938
10.697842
10.519624
10.075569
9.847879
9.786487
9.441972
9.253621
8.815527
8.322597
8.602738
7.548928
7.446408
7.774830
6.880760
6.531477
6.164908
6.484985
6.583929
6.336570
6.468892
6.330609
6.262660
6.908774
7.309914
6.746650
6.628633
7.379651
6.145835
5.519986
5.409718
5.399585
5.434752
4.977584
4.760623
4.700422
4.292727
4.281998
4.274845
4.305840
3.261566
4.349947
3.513694
4.350543
3.786683
4.298687
4.051924
3.898740
##ZVALUE=270
0.951886
0.873804
0.844598
0.831485
1.027584
1.013875
1.123548
0.951886
0.820756
1.090765
1.067519
1.217723
1.444817
1.281500
1.472831
1.441836
2.697706
8.702874
35.717487
83.706975
203.368664
341.855884
579.325557
753.996968
873.307586
1010.285616
987.464786
858.549476
715.574622
495.348573
334.253907
177.667737
107.916594
68.717599
66.761971
89.761615
114.620924
144.157410
157.780647
166.739821
163.780451
143.457651
121.822953
91.693997
68.028569
42.311549
30.286908
19.923449
15.455484
12.372732
11.628866
10.974407
10.448694
9.967685
8.860826
9.304881
9.647608
7.949471
8.439422
7.693768
8.039474
7.348657
7.472634
7.063746
6.818771
6.189942
6.287694
6.356835
6.453991
6.110668
6.114841
6.583929
6.766915
6.896853
6.533861
6.254911
5.506873
5.819798
5.022883
5.247593
4.744530
4.525781
4.383922
4.291534
4.183650
4.206896
3.672838
3.606677
3.893971
3.953576
3.817677
3.509521
3.529787
3.884435
3.706813
3.575683
##ZVALUE=275
0.754595
0.846982
0.709891
0.692606
0.884533
0.812411
0.870824
0.921488
0.897646
0.975728
0.830889
0.794530
1.046658
1.332760
1.043677
1.350641
1.304746
1.660585
1.800656
4.642606
17.909408
51.142573
149.238706
271.057487
502.309799
676.683784
873.684883
990.133882
1015.890837
982.744694
862.422585
637.102723
452.315807
244.444609
145.655870
72.161555
55.289865
64.662695
84.204674
116.651654
137.697458
160.055757
162.579417
159.641504
143.021941
112.365484
89.729428
64.315796
45.883656
28.749704
19.754767
13.365746
11.143684
9.778738
9.346604
9.014606
8.792877
7.963777
8.440614
8.463860
7.964969
7.197857
7.217526
7.051826
6.509423
6.732941
6.246567
6.153584
6.069541
6.061792
6.052852
6.475449
6.654859
6.513596
6.272793
5.839467
5.965829
5.534887
5.180836
5.188584
4.483461
4.408956
4.141927
3.883839
4.073977
3.463626
3.659725
3.895760
3.531575
3.641844
3.749728
3.471971
3.296733
3.191829
3.711581
3.537536
##ZVALUE=280
0.698566
0.698566
0.481606
0.766516
0.747442
0.502467
0.762939
0.772476
0.724792
0.836849
0.744462
0.795722
0.852942
0.930429
0.885725
1.076460
1.121759
1.000762
1.331568
1.436472
1.464486
2.176762
11.497736
38.258433
117.993951
216.278434
397.479534
573.058724
809.635520
960.723758
1015.852690
1015.852690
947.708488
721.753836
533.622503
305.324793
183.392763
84.130764
50.106645
45.317411
60.464740
86.129904
109.567642
136.172771
152.023435
156.884789
152.273774
134.329796
114.653707
84.992647
63.980818
41.199923
28.527975
16.938448
12.454987
9.261966
8.240938
7.887483
7.574558
7.765889
7.393956
6.684661
7.329583
6.286502
6.450415
6.547570
5.956888
6.132722
5.819798
5.692840
6.224513
5.488992
5.720854
5.726814
5.789995
5.820990
5.395412
5.060434
4.849434
4.513860
4.331470
4.498959
3.999472
3.648996
3.924966
3.561974
3.403425
3.604889
3.097653
3.308654
3.551841
3.065467
3.322959
3.314614
3.206730
3.023744
##ZVALUE=285
0.424981
0.287890
0.319481
0.292659
0.421405
0.481606
0.506639
0.359416
0.521541
0.493526
0.667572
0.386834
0.658631
0.552535
0.515580
0.732541
0.591874
0.858903
0.867844
0.761747
0.882745
1.233816
1.362562
1.687407
5.428791
19.330978
65.264702
138.133764
295.362473
450.853705
686.113834
864.837766
1001.528502
1015.657783
1004.391909
834.387541
651.741028
408.608913
258.817673
123.565793
65.449476
36.376715
37.210584
57.632923
77.400804
106.483698
127.655864
144.720674
152.293444
147.026777
136.108994
110.912919
90.392828
60.762763
42.371750
24.424791
16.825795
10.093451
8.010864
6.925464
6.101727
6.131530
5.947948
6.026626
5.567670
5.232692
5.508661
5.610585
5.375743
5.301833
5.762577
5.564690
5.184412
5.228519
5.166531
4.884601
5.032420
4.770756
4.372597
3.943443
3.810525
3.544688
3.559589
3.609657
3.436804
3.062487
3.051758
2.635717
3.184676
3.091693
3.138781
3.062487
2.903938
2.839565
2.977848
2.428889
##ZVALUE=290
0.383854
0.404716
0.564456
0.474453
0.468493
0.582933
0.566840
0.762939
0.473857
0.626445
0.604987
0.608563
0.854731
0.615716
0.804663
0.859499
0.742674
1.045465
0.857711
1.137853
0.927448
0.942945
1.080632
1.264811
1.397729
1.588464
2.180934
7.834435
37.153959
85.380673
201.408863
339.994431
581.640005
772.362947
984.507799
1015.892029
1015.892029
963.394642
735.346675
547.510982
320.527554
189.599991
84.099770
41.405559
26.367903
32.360554
51.157475
70.100427
98.340511
119.723678
140.951872
147.559643
141.890645
131.230950
108.277798
86.567998
58.014989
42.137504
25.634766
15.910864
10.307431
7.189512
6.081462
5.655885
5.154610
5.330443
5.211830
5.011559
5.020499
5.437732
5.173683
4.856586
5.383492
5.290508
5.054474
4.775524
4.410744
4.524589
4.046559
3.915429
3.587604
3.455877
3.486872
3.499985
3.224611
3.261566
3.082752
3.037453
3.096461
3.353953
2.929568
2.817512
2.826452
3.240705
3.271699
2.868772
##ZVALUE=295
0.436902
0.647902
0.475645
0.590682
0.553727
0.474453
0.631809
0.510812
0.478625
0.566840
0.638962
0.646710
0.603795
0.439882
0.607967
0.556707
0.762939
0.677705
0.679493
0.774860
0.795722
0.856519
0.842810
0.910759
1.094937
1.264811
1.355410
1.523495
2.036691
4.138947
15.508533
61.442852
128.243566
288.603902
455.880761
704.904795
890.226960
1015.890837
1015.890837
999.214649
857.397914
618.841648
429.405570
230.590701
127.453804
49.612522
25.963783
21.775961
30.023456
48.081875
64.864755
91.530681
111.965537
132.434964
138.780475
136.385560
124.228001
103.734732
83.538890
56.775808
40.112734
23.155808
15.175939
9.077787
6.726980
5.316734
4.937649
4.798770
4.646778
4.958510
4.764795
4.565716
4.473925
4.715919
4.581809
4.723668
4.193783
4.151464
3.955960
3.732443
3.510714
3.609657
3.257990
3.165603
3.138781
3.029704
2.679825
2.899766
3.061891
2.838969
2.815723
2.624989
2.764463
2.958775
2.866983
2.910495
##ZVALUE=300
0.331998
0.440478
0.540614
0.450611
0.466704
0.521541
0.500679
0.511408
0.517964
0.432730
0.564456
0.505447
0.593662
0.516772
0.474453
0.380874
0.629425
0.676513
0.463724
0.699759
0.895858
0.792742
0.792742
0.684857
0.933409
0.947714
0.974536
1.217723
1.150966
1.167655
1.430511
1.845956
8.012652
28.098822
91.172457
180.084705
367.644429
554.777980
804.087520
961.897969
1015.892029
1015.892029
940.743685
773.906708
520.080924
338.168740
170.513988
93.225837
34.942627
18.082857
18.583536
26.017427
42.056441
58.559775
84.218979
103.034973
124.593973
133.230686
129.385591
120.758414
99.257827
80.644488
57.363510
41.556954
23.401976
15.589595
8.606911
6.093979
4.851818
4.248619
4.101992
4.538894
4.270673
4.293919
4.201531
4.070997
3.934503
3.925562
3.410578
3.265738
3.374815
3.076792
3.103614
3.125668
3.035665
3.029704
2.955794
2.756715
2.943873
2.973676
2.568960
2.640486
2.611876
2.784729
2.900958
2.590418
##ZVALUE=305
0.365973
0.380874
0.323653
0.399947
0.303984
0.409484
0.425577
0.492930
0.422597
0.574589
0.451803
0.496507
0.562668
0.536442
0.530481
0.515580
0.447631
0.580549
0.503659
0.728965
0.723600
0.617504
0.770688
0.678897
0.857711
0.985861
0.954866
0.950694
0.840425
1.056790
1.109838
1.242757
1.393557
1.486540
3.177524
18.364787
51.737428
145.944953
261.261463
478.191972
667.814612
907.734036
1015.890837
1015.890837
1004.732847
807.644725
628.574491
400.672555
250.597596
113.817453
55.008531
20.523667
12.957454
17.062426
23.913980
40.151477
56.581497
79.773664
98.605752
116.802454
122.388601
122.614503
113.638639
95.278621
78.051686
52.698851
37.479997
22.982955
14.342666
8.256435
6.020665
4.804730
4.242659
4.157424
3.926754
3.446937
3.506541
3.459454
3.240705
3.044605
3.271699
2.976656
3.152490
3.023744
3.157854
2.865791
3.100634
2.722740
2.762675
2.566576
2.754927
2.500415
2.669692
2.846718
2.587438
2.515912
##ZVALUE=310
0.290871
0.291467
0.261664
0.157952
0.219941
0.344515
0.320673
0.381470
0.232458
0.114441
0.244975
0.148416
0.308752
0.299811
0.207424
0.275970
0.412464
0.321865
0.309944
0.312924
0.509620
0.485778
0.443459
0.357628
0.504851
0.535846
0.563860
0.580549
0.688434
0.673532
0.774860
0.930429
0.817776
0.964999
1.252890
1.294613
1.680851
7.740855
26.166439
87.539554
172.981620
355.192423
537.945628
787.688494
952.582955
1015.732884
1015.732884
930.176973
772.572756
517.440438
344.474912
174.203515
93.143582
32.774806
14.694929
10.761619
14.009476
22.425652
32.965541
50.829649
67.982674
90.721846
104.864836
115.383863
117.796659
106.595755
94.224811
73.359609
56.025982
35.489798
24.315715
13.866425
8.869767
5.167723
4.370809
3.522635
3.308654
3.249645
2.885461
2.718568
2.559423
2.527833
2.800822
2.442598
2.470613
2.658963
2.429485
2.581477
2.471805
2.621412
2.471805
2.194643
2.228618
2.354980
2.390742
2.258420
##ZVALUE=315
0.283718
0.222921
0.193715
0.275970
0.280738
0.379682
0.455976
0.450611
0.314713
0.243783
0.422597
0.493526
0.286698
0.424981
0.507832
0.294447
0.396967
0.346899
0.293851
0.413656
0.393987
0.396967
0.438690
0.352859
0.493526
0.660419
0.537634
0.623465
0.622869
0.674725
0.722408
0.692606
0.752807
0.819564
1.058578
1.254678
1.369715
1.360774
1.546741
3.475547
13.390779
55.314898
124.670863
282.048583
448.166728
706.876516
876.459479
1015.696526
1015.836000
991.048813
854.769945
615.254641
435.972810
230.989456
126.269460
46.683550
19.810796
9.365678
9.419918
13.616681
18.925667
31.897426
45.086741
65.044761
81.698895
99.237561
108.770728
108.217001
103.186965
86.882710
71.226954
50.944686
36.139488
21.172762
13.567805
7.429719
5.040765
3.871918
3.221631
3.043413
2.640486
2.656579
2.402663
2.547503
2.570748
2.272725
2.613664
2.639890
2.336502
2.403855
2.476573
2.193451
2.500415
2.466440
2.483726
2.228618
##ZVALUE=320
0.388622
0.380874
0.403523
0.256896
0.340939
0.346899
0.250936
0.349879
0.340939
0.352859
0.267625
0.420809
0.376701
0.506639
0.385642
0.362992
0.381470
0.232458
0.360608
0.414848
0.231862
0.440478
0.542998
0.407696
0.486970
0.546575
0.439882
0.777841
0.727773
0.678897
0.713468
0.850558
0.710487
0.777841
0.913739
0.962615
0.900626
1.123548
1.062751
1.283884
1.368523
1.840591
6.079674
31.144619
79.984665
205.702782
338.154435
564.956665
751.750469
957.482457
1015.890837
1015.890837
937.243700
723.557472
528.437495
296.307802
171.530843
72.633624
31.853914
10.898709
7.740855
8.965731
11.265874
17.432570
25.874972
42.934418
57.612658
78.164935
91.654658
101.032853
103.111863
96.930861
84.326863
64.693689
49.403906
31.635761
21.151900
11.776686
7.156730
4.496574
3.266931
2.818704
2.698898
2.587438
2.588630
2.433658
2.429485
2.289414
2.217889
2.253652
2.368689
2.205968
2.396703
2.442598
2.454519
2.641678
##ZVALUE=325
0.306964
0.336766
0.489950
0.262856
0.390410
0.385642
0.332594
0.196695
0.183582
0.368953
0.394583
0.254512
0.279546
0.260472
0.297427
0.405908
0.318885
0.570416
0.454783
0.469685
0.455976
0.258684
0.289679
0.502467
0.413656
0.412464
0.567436
0.477433
0.545979
0.485778
0.757575
0.590682
0.680685
0.748634
0.629425
0.731945
0.862479
0.946522
0.894666
0.947714
1.067519
1.111627
1.052618
1.464486
3.112555
19.730926
51.855445
139.421821
250.215530
468.015671
653.183460
877.082944
997.162461
1015.890837
972.589850
773.379803
584.364533
351.926684
218.381882
99.058747
47.486424
14.901757
7.900596
6.702542
7.201433
10.936856
15.773773
26.583672
38.154721
57.372451
71.589947
86.487532
93.552470
95.218420
89.764595
73.912740
61.314702
43.934584
31.349659
18.035769
11.296868
6.199479
4.213452
3.221631
2.743602
2.187490
2.117753
2.215505
2.170801
2.279878
2.067685
2.183914
2.090931
2.173781
2.403855
2.354980
##ZVALUE=330
0.195503
0.359416
0.254512
0.306964
0.314713
0.320673
0.343919
0.292659
0.262856
0.352859
0.219941
0.452995
0.353456
0.453591
0.361800
0.280738
0.350475
0.216961
0.171661
0.436902
0.499487
0.235438
0.472665
0.435710
0.339746
0.371933
0.420809
0.405908
0.456572
0.501871
0.520945
0.522733
0.554919
0.663996
0.675917
0.679493
0.658631
0.694990
0.671744
0.657439
0.818968
0.802875
0.944734
1.042485
1.193881
1.385808
1.760721
8.303523
28.092861
92.269778
177.929401
357.036591
529.956818
766.308904
920.000672
1015.890837
999.237895
851.477981
683.510900
442.190766
287.793875
134.312510
67.370534
23.541451
9.964705
6.002784
5.990863
6.952882
9.106994
15.708804
23.535490
37.112832
50.136447
68.911910
79.957843
89.194775
89.271665
81.851482
71.741939
54.514408
41.079521
26.132464
18.247962
10.814667
6.877780
4.337430
3.106594
2.699494
2.357960
2.257824
2.174973
2.056956
2.053976
2.067685
2.064705
2.254844
##ZVALUE=335
0.348687
0.302792
0.264645
0.194907
0.269413
0.300407
0.392795
0.224710
0.213981
0.558496
0.413656
0.200868
0.220537
0.209808
0.170469
0.263453
0.227690
0.389814
0.357628
0.433922
0.429749
0.418425
0.375509
0.312924
0.424981
0.388622
0.337958
0.332594
0.378489
0.347495
0.338554
0.572801
0.503659
0.499487
0.630617
0.488758
0.583529
0.691414
0.690818
0.657439
0.589490
0.887513
0.678897
0.767708
0.935793
0.899434
1.089573
1.238585
1.701713
3.221631
18.552542
49.095750
136.915445
245.832801
451.999903
637.624860
865.036845
969.717503
994.020700
923.844576
734.340549
553.447604
326.055884
199.188590
87.909698
39.943457
12.579560
6.601810
5.707741
5.596876
6.604791
8.898973
14.427900
21.380782
34.948587
46.792626
63.370466
73.573589
82.040429
84.221959
77.172518
66.796541
52.613616
41.773915
27.249455
19.352436
11.460781
7.141829
4.344583
3.190637
2.710819
2.297759
2.199411
2.090931
2.103448
2.078414
##ZVALUE=340
0.247955
0.223517
0.079870
0.213981
0.304580
0.269413
0.320673
0.285506
0.263453
0.413656
0.327826
0.286698
0.163913
0.234842
0.281930
0.227690
0.226498
0.220537
0.256896
0.241995
0.270605
0.296831
0.162721
0.361800
0.353456
0.176430
0.376701
0.412464
0.487566
0.569820
0.400543
0.377893
0.597835
0.392795
0.508428
0.526905
0.597835
0.387430
0.588894
0.444651
0.479817
0.459552
0.747442
0.839829
0.780821
0.843406
0.921488
0.847578
1.012683
1.167655
1.267791
1.779795
9.276867
29.030442
92.772841
184.309483
379.408002
544.960499
763.866901
893.162489
978.874564
947.980881
793.884993
632.577538
400.736928
252.232552
118.263960
56.125522
15.884638
7.296801
5.555749
5.475879
5.265474
6.130934
8.568764
12.613535
21.727681
31.439662
46.837926
58.568716
71.629882
76.469779
76.876879
73.749423
62.482953
53.139925
38.264990
28.416514
17.231703
11.981726
6.642938
4.605651
3.060699
2.764463
2.324581
2.132654
##ZVALUE=345
0.121593
0.134706
0.189543
0.140667
0.109673
0.129938
0.226498
0.242591
0.164509
0.279546
0.074506
0.158548
0.173450
0.238419
0.104904
0.149608
0.194907
0.169873
0.066757
0.286698
0.113845
0.081658
0.305772
0.164509
0.246763
0.373721
0.248551
0.255704
0.227690
0.272989
0.233650
0.268817
0.307560
0.390410
0.427961
0.368953
0.443459
0.428557
0.507832
0.209808
0.600815
0.349879
0.484586
0.390410
0.437498
0.634789
0.640750
0.683665
0.720620
0.909567
0.791550
0.785589
1.088977
1.224875
2.964735
18.891692
53.683519
140.662789
251.959562
455.491543
624.139905
830.107927
925.133824
947.591662
870.525837
674.507618
506.618619
301.359892
170.971751
67.569613
29.812455
9.620786
6.071925
5.059838
4.591942
4.791617
5.082488
7.686615
11.058450
19.673705
28.737783
43.090582
52.377582
63.353777
69.213510
71.508884
68.504810
59.751868
51.867962
37.954450
28.689504
17.705560
12.050867
6.687641
4.598498
3.026724
##ZVALUE=350
0.204444
0.219941
0.279546
0.147820
0.276566
0.218749
0.300407
0.232458
0.153780
0.124574
0.225902
0.147820
0.180602
0.186563
0.183582
0.372529
0.266433
0.258684
0.238419
0.219941
0.280738
0.370741
0.365973
0.439882
0.450611
0.332594
0.466704
0.299811
0.455976
0.428557
0.157952
0.137687
0.303984
0.324845
0.403523
0.389814
0.438690
0.340939
0.347495
0.309944
0.562668
0.452995
0.371933
0.490546
0.619888
0.499487
0.451803
0.589490
0.654459
0.667572
0.833869
0.814795
0.808835
0.964999
1.065731
1.207590
1.790524
10.151863
31.259656
94.966888
179.625750
359.994769
520.681739
724.318624
856.722593
930.104852
890.860558
741.433501
574.044585
346.268415
210.739970
91.962814
40.532947
11.615753
6.121993
4.994869
4.593730
4.218817
4.100800
4.743934
6.777644
11.420846
16.794801
25.821924
34.654737
47.245622
55.847764
63.179731
65.051913
62.922835
57.403445
45.911670
37.324429
25.394559
18.143654
11.491776
##ZVALUE=355
0.125766
0.096560
0.297427
0.298619
0.318885
0.346899
0.285506
0.208616
0.139475
0.276566
0.174642
0.224710
0.094771
0.216961
0.147820
0.227690
0.167489
0.192523
0.195503
0.061989
0.219941
0.376701
0.265837
0.383854
0.318885
0.269413
0.436902
0.481606
0.317693
0.475645
0.340939
0.316501
0.334978
0.345707
0.510812
0.204444
0.431538
0.376701
0.506639
0.469685
0.400543
0.290871
0.455976
0.514984
0.462532
0.550747
0.425577
0.695586
0.710487
0.619888
0.627637
0.716448
0.792742
0.899434
0.862479
0.973940
1.016855
1.144409
1.415610
4.516840
16.329885
62.532425
128.506422
267.300010
420.480967
649.271607
792.545676
895.842910
895.211697
771.726966
629.166961
419.541001
266.479850
119.272470
57.439804
17.389655
7.524490
4.929900
4.613996
4.011989
3.650784
3.753901
4.330873
6.255507
8.769631
14.722943
21.278858
31.897426
40.311813
49.980879
56.420565
59.994459
58.259964
52.741766
45.441985
35.686493
##ZVALUE=360
0.363588
0.364780
0.304580
0.442863
0.420809
0.429749
0.351667
0.229478
0.362992
0.286698
0.283718
0.366569
0.410676
0.467896
0.399947
0.319481
0.519753
0.369549
0.310540
0.403523
0.465512
0.277758
0.425577
0.369549
0.582933
0.409484
0.463724
0.484586
0.454783
0.329614
0.744462
0.461936
0.402927
0.524521
0.418425
0.579953
0.511408
0.438690
0.565648
0.646710
0.550747
0.380874
0.618696
0.481606
0.479817
0.460744
0.632405
0.741482
0.770688
0.748634
0.834465
0.822544
0.842810
0.963807
0.975728
0.806451
0.877976
0.960827
1.136661
1.075864
1.189709
2.037883
7.201433
32.326579
78.045726
193.809867
321.337581
522.965789
686.841607
844.441652
886.819959
823.668838
703.208447
485.689640
326.552987
161.548853
83.477497
29.929876
11.462569
4.778504
4.379749
3.955960
3.817677
3.955960
3.671646
4.081726
4.922748
7.654428
10.889769
17.553568
24.808645
35.563707
43.445826
51.067472
53.815842
53.523779
##ZVALUE=365
0.335574
0.219941
0.302792
0.219941
0.271797
0.278950
0.300407
0.193715
0.277758
0.147820
0.212789
0.299811
-0.025630
0.117421
0.195503
0.225902
0.278950
0.269413
0.271797
0.321865
0.291467
0.434518
0.346899
0.256896
0.128746
0.239611
0.185966
0.234842
0.259876
0.346899
0.316501
0.455976
0.289679
0.432730
0.377893
0.349879
0.426769
0.577569
0.441670
0.373721
0.379682
0.488758
0.462532
0.450611
0.343919
0.543594
0.557899
0.557899
0.497699
0.521541
0.574589
0.405908
0.496507
0.637770
0.673532
0.728965
0.615716
0.755787
0.877976
0.976920
1.002550
1.036525
1.249909
1.405478
3.113747
18.078685
48.900843
130.488873
239.947438
444.062948
595.382452
768.247843
850.683451
837.787986
744.859576
550.075769
395.805836
217.621922
120.305419
44.072866
17.683506
5.723834
4.296899
3.874898
3.710985
3.340840
3.192425
2.848506
3.175735
4.205704
5.659461
9.747744
13.827682
20.955801
28.191805
37.081838
##ZVALUE=370
0.140667
0.204444
0.259876
0.193715
0.453591
0.256896
0.362992
0.229478
0.260472
0.154972
0.110865
0.368953
0.067949
0.284910
0.197887
0.202656
0.328422
0.222921
0.282526
0.319481
0.252724
0.243783
0.309944
0.274777
0.141859
0.224710
0.288486
0.249743
0.295639
0.280738
0.154972
0.343919
0.188947
0.406504
0.338554
0.274777
0.263453
0.517964
0.455976
0.577569
0.358820
0.470877
0.228882
0.234842
0.276566
0.324845
0.471473
0.382662
0.502467
0.277758
0.542998
0.474453
0.349879
0.534654
0.465512
0.550747
0.627637
0.614524
0.724792
0.632405
0.770688
0.868440
0.800490
0.811815
0.939965
1.153946
1.919866
7.283688
37.245750
89.614987
211.093426
334.710479
530.720949
680.725574
817.437768
847.406983
772.748590
642.855763
433.658957
283.061862
132.753849
68.073869
24.419427
9.636879
4.321933
3.901720
3.348589
3.082752
3.023744
2.761483
2.624989
2.897978
3.570914
4.793406
8.040667
12.076497
##ZVALUE=375
0.151992
0.175834
0.205636
0.210404
0.123978
0.213981
0.149608
0.215769
0.237823
0.130534
0.302792
0.174642
0.126958
0.312924
0.315905
0.204444
0.174642
0.246763
0.259876
0.168681
0.224710
0.263453
0.273585
0.174642
0.268817
0.195503
0.197887
0.311732
0.270605
0.155568
0.346899
0.304580
0.323653
0.346899
0.329614
0.506639
0.277758
0.292659
0.328422
0.269413
0.269413
0.366569
0.386834
0.303984
0.369549
0.345707
0.228882
0.407696
0.447631
0.332594
0.488758
0.429749
0.488758
0.462532
0.504851
0.627637
0.412464
0.454783
0.533462
0.518560
0.581741
0.522733
0.642538
0.768900
0.701547
0.765920
0.996590
1.287460
1.300573
4.424453
15.683770
56.952834
123.160481
272.825956
421.782732
628.997684
753.997564
836.620927
817.383528
679.869652
531.543493
326.401591
209.259987
102.607608
50.723553
15.379786
6.392598
3.626943
3.169775
3.192425
2.983809
2.821684
2.608895
2.419949
2.548695
3.136992
##ZVALUE=380
0.144839
0.126958
0.279546
0.171661
0.182986
0.074506
0.188947
0.156760
0.115633
0.115633
-0.005960
0.173450
0.220537
0.158548
0.263453
0.205636
0.140667
0.226498
0.113845
0.208616
0.294447
0.238419
0.074506
0.226498
0.124574
0.509620
0.131726
0.278950
0.264645
0.348687
0.229478
0.162721
0.262856
0.380874
0.391603
0.277758
0.195503
0.427961
0.356436
0.463724
0.445843
0.270605
0.457764
0.422597
0.326633
0.387430
0.336766
0.310540
0.390410
0.298619
0.296831
0.341535
0.325441
0.352859
0.614524
0.275970
0.360608
0.328422
0.284910
0.439882
0.405908
0.397563
0.571609
0.453591
0.479817
0.713468
0.718832
0.692606
0.859499
1.162887
1.210570
2.346635
8.810759
41.171908
94.231963
218.956470
352.611542
548.613667
696.184635
816.071630
823.949575
720.309615
598.114729
419.225693
280.797482
138.134956
70.733428
24.408698
9.480715
4.099607
3.568530
3.187656
2.985597
2.790689
2.483726
2.420545
##ZVALUE=385
0.145435
0.141859
0.172853
0.139475
0.138879
0.339746
0.025630
0.165701
0.099540
0.237823
0.083447
0.085831
0.230670
0.295639
0.100732
0.027418
0.008941
0.122786
0.236630
0.187755
0.128746
0.216961
0.140667
0.221729
0.252724
0.090599
0.182986
0.184774
0.352859
0.321865
0.272989
0.461936
0.398755
0.384450
0.355840
0.438690
0.313520
0.545979
0.463724
0.539422
0.510812
0.452995
0.432730
0.627637
0.609756
0.443459
0.342727
0.282526
0.330806
0.314713
0.391603
0.447631
0.470877
0.520945
0.391603
0.325441
0.401735
0.327826
0.556707
0.464916
0.452995
0.450611
0.523925
0.568628
0.514984
0.560880
0.694990
0.639558
0.767708
0.785589
0.996590
1.026988
1.165867
1.435876
3.974438
22.552609
59.319735
151.184797
266.642570
469.106436
622.047782
774.513483
817.247629
777.305961
685.618520
505.210757
359.987617
197.172761
111.456513
45.261979
17.665625
5.020499
3.492832
3.053546
2.827644
2.773404
##ZVALUE=390
0.115633
0.060797
0.243783
0.145435
0.073910
0.274777
0.299811
0.176430
0.117421
0.126958
0.040531
0.025630
0.174642
0.183582
0.117421
0.173450
0.169873
0.285506
0.123978
0.135899
0.200868
0.209808
0.299811
0.226498
0.166893
0.146627
0.148416
0.257492
0.408888
0.402927
0.530481
0.453591
0.475645
0.677705
0.547767
0.690818
0.773668
0.546575
0.849962
0.591874
0.669956
0.525713
0.600815
0.646710
0.544786
0.421405
0.498891
0.564456
0.429749
0.502467
0.487566
0.528693
0.266433
0.350475
0.399947
0.480413
0.384450
0.408888
0.397563
0.479817
0.319481
0.460744
0.442863
0.445843
0.480413
0.526905
0.481606
0.577569
0.625849
0.687838
0.982881
0.904799
1.013875
0.993609
0.976920
1.120567
1.998544
12.079477
37.937760
114.746690
214.836597
400.644541
542.459488
703.914762
791.905522
813.634992
752.253532
597.154498
456.569791
277.639627
160.674453
65.791607
28.790832
7.716417
3.998876
3.121495
##ZVALUE=395
0.310540
0.252724
0.204444
0.041723
-0.135899
0.280738
0.102520
-0.065565
0.098944
0.087619
0.121593
0.132918
0.258684
0.193715
0.185966
0.155568
0.030994
0.166893
0.078678
0.131726
0.185966
0.143647
0.197887
0.185966
0.187755
0.124574
0.184774
0.201464
0.257492
0.497699
0.354648
0.623465
0.730753
0.686646
0.599623
0.790954
0.702739
0.686646
0.612736
0.680685
0.699759
0.631809
0.638962
0.553727
0.398755
0.485778
0.462532
0.546575
0.500679
0.428557
0.462532
0.412464
0.411868
0.267625
0.447631
0.478625
0.321865
0.344515
0.530481
0.468493
0.396967
0.476837
0.483990
0.539422
0.457764
0.464916
0.457764
0.696778
0.747442
0.649691
0.777841
0.753999
0.887513
1.028776
0.989437
0.900626
0.851750
1.048446
1.410842
6.775856
24.678707
82.707405
156.750679
298.717618
440.034866
639.027953
759.951472
836.321712
812.915564
688.308477
541.944504
333.665609
205.837488
89.947581
42.532682
13.274550
##ZVALUE=400
0.214577
0.425577
0.197887
0.061989
0.123978
0.091791
0.086427
0.072718
0.013709
0.193715
0.183582
-0.053644
0.018477
-0.097752
0.123978
0.003576
-0.054836
0.035763
0.186563
0.008941
0.097752
0.149608
0.018477
0.151992
0.130534
0.084639
0.118613
0.284910
0.351667
0.398755
0.370741
0.396967
0.477433
0.714660
0.499487
0.559688
0.747442
0.707507
0.659823
0.616908
0.520945
0.430942
0.636578
0.656843
0.588894
0.416636
0.488758
0.519753
0.459552
0.372529
0.548959
0.316501
0.400543
0.303984
0.328422
0.424981
0.298619
0.383854
0.370741
0.254512
0.421405
0.361800
0.369549
0.463724
0.428557
0.508428
0.505447
0.603795
0.356436
0.603795
0.645518
0.736713
0.610948
0.563860
0.699759
0.671744
0.554919
0.757575
0.873804
0.978708
1.087785
3.516674
12.938976
47.170520
101.773739
227.340460
362.477899
559.327602
691.651702
804.857612
818.077922
717.098713
592.267513
397.374630
260.877609
130.087733
##END
