##TITLE=FDDW02
##FORMAT=SPECTACLE-ASCII V-1.2
##DATA TYPE=ULTRAVIOLET SPECTRUM
##SECOND TYPE=ULTRAVIOLET SPECTRUM
##DATE=04/11/18
##TIME=16:00:53
##SPECTROMETER/DATA SYSTEM=SPECTACLE
##XUNITS=NM EM
##YUNITS=ENERGY
##YFACTOR=1
##FIRSTX=220
##LASTX=410
##NPOINTS=96
##3DDATA=Equidistant
##ZUNITS=NM EX
##FIRSTZ=210
##LASTZ=400
##ZPOINTS=39
##XYDATA=(Y..Y)
##ZVALUE=210
15.178919
14.869571
12.983680
10.083914
10.085702
9.505749
9.566545
8.766651
6.926656
5.914569
4.422665
3.709793
3.309846
3.308654
2.556443
3.337860
3.390908
2.914667
3.300905
3.179908
3.625751
3.419518
3.840923
4.447699
4.610419
5.905628
7.678866
9.023547
11.611581
12.842417
16.017556
18.506646
18.744469
19.232631
20.950437
22.862554
23.477674
21.355748
21.444559
19.991994
19.926429
18.259883
18.038750
17.703772
16.409755
15.242696
14.761686
13.416409
15.501976
13.478994
11.758804
11.563897
11.813641
10.349751
10.140538
9.935498
9.615421
9.478927
9.957552
8.816719
8.347631
8.119941
8.466840
8.537769
8.457899
7.627606
7.825494
8.033514
8.363724
10.630488
10.471940
11.808872
13.136864
10.790825
14.367700
14.571548
16.161799
14.648438
15.116930
13.389587
12.347698
10.960698
9.849668
9.005666
8.740425
7.504821
7.303953
6.448627
7.771850
8.902550
9.984970
14.679432
18.052459
21.175742
24.321675
28.466582
##ZVALUE=215
38.298965
39.166808
31.534433
25.358796
18.446445
17.712712
16.255975
14.128685
14.959574
12.576580
10.961890
8.472800
8.185506
5.716681
3.749728
3.554821
3.650784
3.145933
3.404617
3.266931
3.080964
4.449487
3.117919
4.232526
5.834699
6.954670
8.744597
10.931492
13.246536
14.655590
19.017458
19.591451
22.663474
25.019646
26.274920
27.460456
25.957823
27.486682
25.417805
23.758411
24.822950
24.706721
21.441579
20.579696
18.040538
17.007589
19.109845
15.978813
14.835000
15.427470
13.781786
13.361573
13.954639
12.173653
11.698604
12.036562
11.992455
10.885596
10.011792
9.894967
10.383725
9.714961
8.974671
8.520484
7.680655
7.835627
9.299517
8.541942
8.438826
10.315776
10.540485
12.264848
12.990832
13.387799
14.651418
15.179515
15.874505
15.204549
13.947487
12.281537
13.000965
10.818839
10.409951
8.365512
8.398890
7.815957
7.708669
6.336570
5.966425
5.821586
6.203651
6.102920
5.813837
7.037520
8.601546
13.055801
##ZVALUE=220
83.943605
85.165501
82.386732
74.538589
61.250925
44.710636
38.632751
27.814507
25.220513
22.916794
22.492409
23.448467
21.795630
19.348860
15.025735
10.336637
7.683635
4.814863
4.031658
3.966689
4.028678
3.884435
4.133582
4.830956
6.113648
7.571578
9.287000
12.427568
15.654564
19.588470
20.543933
25.702715
28.878450
28.868914
29.406548
31.369925
31.880736
33.369660
32.167435
30.196905
30.555725
27.094483
28.344989
25.945902
24.375916
21.815896
21.121502
20.396709
19.645691
18.565655
17.890930
17.004609
15.331507
16.101599
13.754964
13.943911
13.903975
12.509823
12.159944
12.175441
12.770891
10.955930
11.715889
10.285974
10.847449
10.607839
9.802580
11.167526
10.449886
10.663867
12.797713
11.913776
12.745857
13.590455
14.320612
14.418960
13.993979
13.631582
13.185740
13.262630
13.850927
12.674928
11.314750
9.617805
8.743405
8.921623
8.360744
7.054806
6.541610
5.813837
6.601810
5.949736
5.274415
5.465746
6.956458
5.942583
##ZVALUE=225
108.448863
113.368630
130.943656
143.586993
136.390924
127.626657
110.313892
83.398819
61.711669
46.626925
35.889745
34.942627
37.443638
39.943457
35.454631
33.320785
25.470853
21.069646
15.594959
10.246634
7.424951
4.419684
4.440546
5.716681
5.700588
8.306503
9.657741
13.488531
14.812946
19.229650
23.254752
26.105642
29.856563
28.777719
33.455491
29.805899
31.218529
31.159520
33.140779
28.841496
29.125810
28.086901
26.209950
26.087761
22.225976
23.731589
21.656752
21.170974
19.224882
18.313527
18.892884
16.780496
18.714666
18.501878
15.375614
15.969872
15.455484
15.110970
14.253855
13.902783
12.757778
12.787580
12.895465
12.066960
12.389421
12.140870
11.269450
12.807846
13.133883
12.657642
12.188554
12.944937
14.627576
14.550686
14.094710
14.471412
13.954639
13.438463
11.941791
12.382865
13.340712
9.768605
9.756684
9.648800
9.026527
8.275509
7.911921
7.214546
7.228851
6.380677
7.388592
6.392598
5.987883
6.265640
6.901622
5.591512
##ZVALUE=230
72.009563
77.496767
117.087960
167.882442
199.881792
234.059691
237.810612
218.170881
190.026760
139.791965
100.896955
75.611472
59.438944
53.101778
54.152608
56.124926
57.350993
54.247975
47.296882
38.553476
27.523637
19.805431
11.739731
9.302497
8.212924
7.813573
10.043979
11.741519
12.646914
16.430616
17.549992
19.520521
21.713972
24.897456
25.178790
26.525855
24.034977
25.045872
24.784803
23.440719
25.374889
23.095608
22.160411
21.442771
20.476580
20.308495
19.352436
19.516945
18.905997
17.173886
16.573668
16.995668
16.715527
15.920997
15.179515
15.756488
15.776753
15.734434
14.997721
13.721585
15.243888
15.131831
14.930964
14.064908
14.446974
13.655424
13.689995
13.921857
14.407635
13.832450
14.159679
16.339421
14.862418
15.173554
16.166568
16.350746
15.655756
14.787912
15.828609
13.869405
13.392568
12.308955
10.698438
8.798838
10.127425
9.999871
10.342598
9.366870
9.110570
8.217692
8.626580
7.797480
9.076595
7.007718
6.876588
7.759929
##ZVALUE=235
21.737814
24.944544
45.373440
100.438595
153.349638
223.635435
282.180905
351.369977
374.612808
367.531776
303.956866
244.303942
171.444416
124.526620
92.093945
77.667832
73.509812
80.126524
86.773634
82.131624
77.213645
61.969757
50.065517
33.793449
26.033521
15.655756
11.636615
10.217428
10.212660
11.752844
12.402534
13.600588
14.492869
14.273524
16.095638
17.709732
17.430782
17.184615
16.371608
17.207861
17.368793
17.748475
16.393661
16.972423
17.451644
15.449524
15.998483
15.454888
15.251637
15.008450
14.738441
14.441609
14.850497
15.485883
14.057755
13.656616
13.654828
15.113950
13.963580
14.599562
14.275908
14.998913
15.108585
15.195608
14.068484
13.075471
14.210939
15.282631
13.966560
15.131831
14.969707
15.357733
15.898943
17.189980
18.498898
16.830564
16.487837
15.976429
15.778542
14.089942
13.486743
14.012456
12.488961
10.910630
11.088848
10.710955
11.067986
8.672476
8.856654
9.213686
9.767413
10.587573
9.089708
9.728670
8.582473
9.146929
##ZVALUE=240
2.590418
2.390742
8.466840
23.134947
47.927499
112.294555
186.383724
306.357741
396.080017
487.808585
534.297824
522.418618
475.511551
368.926525
291.022658
191.723704
135.025978
103.889704
96.561909
106.980801
112.954974
119.984746
112.159848
103.681684
80.987811
66.715479
47.316551
33.223629
20.447969
15.083551
11.093616
10.939837
12.517571
12.510419
13.485551
13.256669
12.700558
13.566613
15.279651
15.873909
14.554858
15.389919
14.606714
16.247630
17.116666
14.620423
16.100407
14.610887
15.662909
16.360879
14.643669
15.236735
14.167428
15.382767
13.449788
14.125705
14.320612
14.607906
14.200807
14.390945
15.065670
15.877485
13.801455
15.137792
14.610887
15.121698
13.278723
14.256835
13.858676
13.986826
14.445782
16.939640
17.772913
18.046498
17.873645
17.027855
18.016696
16.238689
16.993880
15.212893
15.532970
14.422536
12.344718
14.040470
11.930466
12.395978
12.074709
11.685491
11.734962
10.541677
11.729598
11.396408
10.387897
10.755658
10.528564
10.280609
##ZVALUE=245
1.954436
1.765490
1.923442
2.132654
4.364848
15.389919
36.953688
95.161796
171.759725
260.686874
418.482423
520.940423
619.528890
635.196567
593.870878
511.747003
373.427868
277.000666
201.383829
127.069950
103.626847
102.959871
114.779472
127.010942
132.128000
127.906799
110.567808
90.711713
75.353980
51.175952
37.772655
24.442673
18.004775
14.279485
11.969805
12.582541
11.645555
13.879538
13.868809
14.118552
14.631748
14.908910
14.888644
14.490485
14.702678
14.300942
13.615489
15.227795
14.711618
14.341474
13.605952
15.009642
13.276935
13.610721
13.282895
12.210608
11.873841
12.909770
12.460947
12.018681
12.377501
11.827946
12.638569
12.079477
11.663437
12.146831
12.416840
12.129545
12.725592
11.996627
11.556745
14.290810
15.207529
15.492439
16.177893
15.212893
14.592409
14.765859
13.719797
12.482405
12.834668
12.542605
11.322498
12.117624
10.882616
10.371804
11.058450
9.966493
9.978414
9.655952
9.368658
9.418726
9.831786
9.613633
9.333491
8.512735
##ZVALUE=250
1.665950
1.456738
1.758933
1.738667
1.805425
2.036691
2.380610
9.838939
26.445985
74.754953
142.146945
273.393989
397.472978
557.681918
648.176670
711.936951
708.637834
625.412464
519.269705
354.882479
251.195431
173.075795
107.768774
97.697973
106.112957
120.434761
136.086941
142.882466
134.383440
124.964714
102.670789
80.627799
63.220859
38.996935
29.145479
20.315647
17.889738
15.387535
14.908910
14.965534
16.307831
17.541647
16.761422
17.430782
18.113852
16.011596
15.578866
15.049577
15.365481
14.978647
14.774799
14.898777
13.534427
12.567639
12.451410
13.348460
13.036728
12.021661
11.830926
11.802912
11.545420
10.314584
10.829568
10.266900
10.377765
10.023713
10.965466
10.828972
10.866523
10.878444
10.787845
11.228919
12.087822
12.374520
11.875629
12.068748
12.500882
11.796951
12.000799
11.132956
9.714961
9.315610
9.851456
9.993911
9.321570
8.652806
9.522438
8.849502
9.100437
9.318590
7.902980
8.367896
8.162856
8.304715
7.787943
8.577704
##ZVALUE=255
1.117587
1.340508
1.136661
1.103878
1.474619
1.697540
1.165867
1.382828
2.109408
4.583597
21.506548
49.479008
102.437735
222.085714
348.026752
527.853966
660.654902
767.609477
814.519525
756.456852
656.707883
515.862703
331.518650
213.335752
124.281645
94.458461
88.785887
104.769468
131.279826
143.486857
152.702928
147.030950
136.839747
111.578703
89.597702
67.088604
49.249530
34.639835
27.047992
22.595525
20.438433
19.334555
20.046830
19.221902
19.497871
19.060969
19.380450
18.204451
16.811490
16.021729
15.502572
15.044808
14.511943
13.792515
13.590455
13.379455
12.876987
12.652874
12.037754
11.478662
11.366606
10.336637
10.359883
10.385513
9.980798
10.269880
9.409785
9.500980
9.640455
9.843707
9.558797
10.785460
10.908842
10.204911
10.909438
10.605454
10.573864
10.040998
9.737611
9.209514
8.795857
8.575916
8.649826
7.507801
7.968545
7.238984
7.621646
7.876754
7.504821
6.997585
7.375479
6.971955
7.572770
7.461905
6.790757
7.248521
##ZVALUE=260
1.247525
1.055598
1.063943
1.174808
1.433492
1.089573
1.468658
1.257658
1.605749
1.549721
1.786947
2.714992
7.640719
33.506751
72.882771
178.364515
291.557908
474.802852
628.068447
810.290575
891.168714
892.878771
788.444877
643.889904
429.458618
298.125744
173.384547
114.408731
84.874630
89.807510
109.391809
138.623714
154.290795
168.571472
163.247585
145.225525
126.743913
98.661780
76.261759
55.608749
42.354465
31.804442
26.382804
23.729801
22.461414
21.926761
21.074414
19.842982
20.106435
18.705726
17.760992
16.570687
17.191768
14.938712
14.321804
14.011860
13.528466
12.470484
12.066960
12.382865
10.909438
10.867715
10.455847
10.654926
9.647608
10.108948
8.707643
9.143949
9.385943
8.433461
9.231567
9.718537
9.677410
10.449886
9.087920
8.798838
9.563565
8.485913
8.718967
7.957816
7.808805
7.522702
7.551908
7.661581
7.061958
6.633997
6.334782
6.269813
6.080866
6.376505
6.408691
5.734563
5.913973
6.165504
6.591678
6.082654
##ZVALUE=265
1.010895
1.220703
1.046658
1.192689
1.036525
0.992417
1.148582
1.251698
1.445413
1.346469
1.459718
1.767874
1.649857
1.984835
4.792809
22.007823
53.645968
138.663650
241.991878
439.888835
622.735620
785.231590
951.370001
970.716476
886.643529
770.064592
579.683781
406.943560
230.274796
152.592659
93.291998
85.715652
94.843507
131.454468
152.019858
171.606541
177.870989
170.113444
157.121420
130.109787
104.886889
77.788830
58.019757
40.439963
32.783747
26.885867
24.512410
23.067594
23.469925
21.642447
21.634698
19.068718
18.801689
16.230941
16.346574
15.327930
14.240742
14.382601
13.226867
12.928843
12.821555
11.810660
10.618567
10.353923
10.768771
9.932518
10.283589
10.077953
9.587407
9.921789
9.921789
9.648800
9.864569
9.684563
9.279847
9.415746
9.141564
9.262562
8.276701
7.591844
7.420778
7.778406
6.828904
6.937981
6.905794
6.757975
6.517768
6.248951
6.275773
5.923510
5.912781
6.157756
5.856752
5.805492
6.302595
6.098747
##ZVALUE=270
1.040697
0.954866
1.063943
0.876784
0.715852
0.976920
1.107454
1.002550
1.134872
1.205802
1.156926
1.350641
1.498461
1.503825
1.629591
1.734495
7.966757
9.736419
27.558804
92.512965
185.151696
495.935678
597.821474
770.727992
971.266627
1015.890837
1015.644670
963.938832
737.381577
566.649437
343.628526
123.811960
119.285583
78.845620
83.015561
103.400946
129.714608
158.390999
172.787905
181.462765
173.061490
156.321526
137.407780
105.394721
81.908703
54.648519
41.353703
30.851960
26.119947
22.703409
21.981597
19.756556
19.073486
17.856956
17.631650
16.951561
15.502572
14.955997
14.631748
13.538599
13.279915
12.619495
11.408925
11.176467
10.824800
10.394454
9.833574
10.039806
9.784698
9.582639
9.431839
9.475946
9.906888
9.473562
8.390546
9.254813
8.735657
7.825494
8.605719
8.174777
7.334948
6.815791
6.511807
6.439686
6.230474
6.219745
6.114841
5.578995
5.742908
5.911589
6.001592
5.832911
5.819798
5.541444
5.822778
5.395412
##ZVALUE=275
0.768900
0.874996
0.942945
0.642538
0.767708
0.914931
0.968575
0.756979
0.773668
0.910759
0.830889
1.122952
1.231432
0.872612
1.099706
1.313686
1.398921
1.727939
1.583695
5.373955
18.327832
0.958443
147.796869
274.391770
514.016747
691.788793
905.311704
1015.890837
1015.890837
1014.222503
866.592526
690.420866
449.580550
285.338759
147.100687
89.933872
66.088438
74.398518
103.104711
125.112534
152.058601
165.749788
171.676874
170.289874
148.721933
129.650831
96.914768
76.848865
51.878691
38.527846
27.145743
21.963716
18.703938
18.202662
16.177893
15.399456
14.904737
14.644861
14.545918
12.538433
12.654662
11.849999
11.741519
11.461973
10.260940
9.826422
10.161996
9.567738
9.701848
9.630919
9.779930
9.242892
8.717775
9.836555
9.241700
9.067655
8.521676
8.313656
8.094907
7.663965
7.129908
7.476807
6.840825
6.725788
6.441474
6.114841
6.262660
6.081462
5.541444
5.856752
5.875826
5.902648
6.150603
6.004572
5.805492
5.471706
##ZVALUE=280
0.575781
0.667572
0.695586
0.597835
0.668764
0.694990
0.703931
0.853539
0.723600
0.826716
0.943542
0.749826
1.138449
0.890493
0.947714
1.107454
1.171827
1.215935
1.476407
1.415610
1.483560
2.993941
9.775758
46.432614
108.483434
247.138739
390.867591
632.582903
814.338923
1005.474925
1015.890837
1015.890837
975.710750
751.734972
563.062429
332.574844
200.697780
93.428493
61.401725
53.117871
65.532923
93.973875
117.673874
141.911507
158.580542
164.073706
158.714652
140.412450
120.870471
91.639757
69.552660
47.128797
34.470558
22.060871
17.225742
14.112592
12.638569
12.440681
11.518598
11.507869
11.576414
10.928512
10.705590
10.350943
9.875894
9.929538
9.458661
9.625554
9.189844
9.086728
8.826852
9.686947
9.422898
9.372830
9.322762
8.312464
7.877946
8.114576
8.052588
7.293820
6.942749
7.047653
6.819963
6.862879
6.613731
6.566644
6.227493
5.855560
6.143451
6.035566
5.973577
6.189942
5.722642
6.021857
5.437732
5.694628
##ZVALUE=285
0.714660
0.598431
0.586510
0.568628
0.351667
0.646710
0.707507
0.799894
0.707507
0.709891
0.701547
0.865459
0.736713
0.553727
0.854731
0.953674
0.815988
1.028776
1.138449
1.127720
1.244545
1.339912
1.660585
1.896620
5.853772
19.477606
66.143870
140.925646
305.899978
471.947789
650.625825
907.559991
1015.892029
1015.892029
1015.892029
884.736776
695.479512
440.344810
277.471542
133.355856
73.494911
39.104819
40.814877
60.210824
82.045794
109.516978
128.871799
146.449804
155.171752
149.953961
139.334798
114.326477
91.583729
65.243840
46.801567
28.855801
20.082593
13.991594
11.745691
10.527968
9.630919
9.971857
9.738803
9.122491
8.831620
8.696914
8.852482
8.483529
8.919835
9.007454
8.565784
8.234978
8.875728
8.635521
8.000731
7.801652
7.799864
8.081794
7.491708
6.946921
7.236600
6.876588
6.376505
6.774664
7.151961
6.436706
6.712675
6.661415
6.084442
6.027818
5.875826
5.953908
6.239414
6.000996
5.775690
5.863905
##ZVALUE=290
0.541806
0.527501
0.477433
0.453591
0.587702
0.543594
0.471473
0.739694
0.395775
0.487566
0.672936
0.587702
0.645518
0.803471
0.674725
0.840425
0.638962
0.811815
0.726581
0.928640
0.964999
1.144409
0.900626
1.242757
1.426935
1.793504
2.271533
7.877946
36.921501
87.166429
143.936872
358.762741
548.501611
829.667449
997.758508
1015.845537
1015.845537
987.357497
809.663534
548.404455
367.048979
184.904933
98.580718
40.656924
28.239489
37.272573
51.385760
76.086521
97.726583
123.655796
138.176680
148.363709
147.787929
132.401586
112.676620
85.116625
63.791871
41.364431
28.072000
17.551780
12.520552
9.799600
8.862615
8.192658
7.651448
8.126497
7.897615
7.470846
7.805824
8.073449
7.762909
7.808805
8.396506
7.788539
7.738471
7.782578
7.848740
7.557869
6.917715
6.776452
6.860495
6.628633
6.651878
6.566644
5.999804
6.616712
6.498694
6.092787
6.398559
6.140471
5.912781
6.149411
5.938411
6.240606
6.114841
6.133914
##ZVALUE=295
0.669956
0.537634
0.386834
0.423789
0.462532
0.804663
0.641942
0.485778
0.655651
0.620484
0.722408
0.451803
0.670552
0.623465
0.532866
0.778437
0.862479
0.664592
0.726581
0.870824
0.871420
0.788569
1.006722
1.144409
1.210570
1.168847
1.326799
1.556873
1.788735
4.418492
15.589595
63.000917
132.979751
297.095776
468.474627
727.994442
923.853517
1015.890837
1015.890837
1015.890837
916.821957
656.761527
457.784534
242.965817
136.010647
52.800775
27.322769
22.954941
31.401515
48.928857
67.634583
93.449950
112.395883
131.995678
140.425563
137.015581
123.872757
104.633570
83.227754
58.822632
41.796565
25.417805
17.374754
11.169910
9.095669
7.559657
7.392764
6.889701
6.982684
6.937981
7.152557
7.070899
7.360578
7.574558
7.206798
7.301569
6.845593
6.957650
7.000566
6.804466
6.617904
6.257892
6.245971
6.704926
6.041527
6.535649
6.193519
6.075501
6.191730
6.354451
6.221533
6.261468
6.062984
6.143451
5.827546
6.081462
##ZVALUE=300
0.473857
0.518560
0.200868
0.477433
0.582933
0.375509
0.533462
0.615716
0.547767
0.597835
0.561476
0.412464
0.757575
0.771880
0.365973
0.740886
0.481606
0.294447
0.619888
0.596642
0.685453
0.523925
0.722408
0.926852
1.139641
0.897646
1.014471
1.171827
1.241565
1.296997
1.575947
1.940727
8.398890
28.544664
96.133947
188.927650
382.341743
577.500463
848.000646
1002.121568
1015.890837
1015.890837
984.738469
813.970566
541.006923
353.842974
179.673433
97.595453
37.154555
19.262433
19.314885
26.574731
43.042898
59.039593
84.138513
103.894472
125.601888
130.838752
129.719973
119.868517
99.985003
81.532598
57.259798
42.158961
25.191903
17.223954
10.420680
8.126497
6.938577
6.473660
6.668568
6.557703
6.455779
6.514788
6.418824
6.218553
6.635785
6.391406
6.217957
6.387830
6.208420
6.633997
6.570816
6.142855
6.078482
5.937815
6.287694
5.935431
6.070733
6.081462
5.846620
6.033778
5.800724
5.672574
5.699992
5.909801
##ZVALUE=305
0.436902
0.590682
0.462532
0.418425
0.623465
0.447631
0.358820
0.513792
0.514984
0.427961
0.399947
0.317693
0.395775
0.479817
0.412464
0.518560
0.573993
0.549555
0.643730
0.566840
0.802875
0.812411
0.718832
0.637770
0.858903
0.975728
0.762939
0.953674
1.060963
1.023412
1.440644
1.292825
1.468658
1.829863
3.275871
19.484758
52.884817
150.605440
271.327496
499.663949
698.436499
944.931507
1015.890837
1015.890837
1015.890837
853.028893
667.919517
423.185825
263.989568
121.696591
59.070587
21.118522
14.447570
17.239451
24.522543
41.567683
57.984591
81.956983
99.764466
117.231607
124.807954
121.889710
113.629699
96.371770
79.112649
55.246949
39.293766
24.016500
15.681982
10.137558
7.580519
6.718636
6.097555
6.319880
6.152987
6.121993
6.067753
5.899668
5.960464
5.592704
5.896688
5.786419
5.906820
5.909801
5.582571
5.864501
5.795956
6.054640
5.758405
5.809665
5.736947
5.954504
5.508661
5.615950
5.794764
5.398989
##ZVALUE=310
0.437498
0.477433
0.339746
0.371933
0.492930
0.557899
0.408888
0.514984
0.462532
0.545979
0.394583
0.351667
0.472665
0.551939
0.423789
0.632405
0.615716
0.484586
0.488758
0.484586
0.442863
0.630617
0.451803
0.649691
0.724792
0.775456
0.765920
0.760555
0.940561
1.007915
1.021624
0.837445
1.038909
1.266599
1.442432
1.604557
2.139807
6.509423
34.870505
80.817938
199.562907
341.132879
594.730973
795.709491
1012.873650
1015.890837
1015.890837
999.238491
775.592923
573.961735
334.284902
199.539661
84.494948
39.249659
14.579892
11.353493
16.280413
21.408796
35.393834
49.389005
70.813894
88.975430
106.956959
113.444924
115.259886
109.483600
91.517568
75.508952
52.407980
37.121773
22.603869
15.927553
9.924769
7.680655
6.389618
5.684495
5.832911
5.555749
5.376935
5.130768
5.131960
5.209446
4.953742
5.586743
5.418658
5.570650
5.272627
5.394816
5.581975
5.636811
5.483627
5.370975
5.367994
5.201697
5.250573
5.313754
##ZVALUE=315
0.302792
0.331998
0.329614
0.381470
0.270605
0.343919
0.465512
0.376701
0.424981
0.442863
0.369549
0.425577
0.291467
0.329614
0.360608
0.320673
0.595450
0.397563
0.452995
0.530481
0.543594
0.515580
0.545979
0.562668
0.344515
0.687838
0.615716
0.751615
0.831485
0.843406
0.804663
0.832677
0.845790
1.115799
1.070499
1.063943
1.311898
1.641512
1.514554
3.905892
14.125705
58.304667
127.154589
285.774469
463.475585
742.461681
920.665860
1015.890837
1015.890837
1015.890837
913.185477
662.105680
467.040539
249.693990
136.982799
50.137639
21.001697
10.055900
10.206699
14.494658
19.827485
33.064485
46.460629
65.364838
83.479881
100.969672
109.137893
108.924508
102.870464
86.770654
71.892738
52.829981
38.031936
22.763610
15.212893
9.151697
7.094741
5.808473
5.409718
4.897714
5.141497
4.713535
5.024672
4.816651
5.015731
5.101562
4.991889
5.330443
4.988909
5.321503
5.167723
5.278587
5.126595
5.385876
5.063415
4.878640
##ZVALUE=320
0.288486
0.323653
0.199676
0.438690
0.319481
0.290871
0.209808
0.219941
0.235438
0.219941
0.420809
0.414848
0.343919
0.437498
0.544786
0.271797
0.350475
0.311732
0.338554
0.317693
0.377893
0.516772
0.378489
0.407696
0.402927
0.545979
0.494719
0.526905
0.534654
0.547767
0.573993
0.693798
0.620484
0.775456
0.811815
0.910759
0.933409
1.011491
1.230836
1.179576
1.347661
1.755953
6.162524
32.802820
83.297491
216.012001
359.164476
599.588752
794.677734
1000.372767
1015.809774
1015.809774
993.631482
769.850612
569.517612
319.156647
182.843804
77.617764
34.778714
11.961460
8.065701
8.806586
11.475682
18.166900
26.958585
43.661594
58.416724
77.558756
91.158748
101.388693
103.829503
96.410513
85.308552
65.120459
50.643682
32.318830
22.425652
13.619661
9.276867
6.009936
4.983544
4.785657
4.614592
4.340410
4.459620
4.425645
4.618764
4.519820
4.687905
4.688501
4.770756
4.624724
4.874468
4.816651
4.725456
4.932880
##ZVALUE=325
0.245571
0.229478
0.214577
0.309944
0.155568
0.333786
0.319481
0.240803
0.280738
0.256896
0.355840
0.036955
0.299811
0.284910
0.245571
0.273585
0.353456
0.220537
0.344515
0.295639
0.331998
0.432730
0.393987
0.411868
0.352859
0.635982
0.495911
0.529885
0.539422
0.801682
0.772476
0.549555
0.636578
0.613928
0.635982
0.750422
0.809431
0.767708
0.849962
1.006722
1.180768
1.259446
1.369715
1.522899
3.437996
20.875931
56.301951
146.775842
263.608694
488.672853
680.288672
921.927691
1015.841961
1015.841961
1013.443470
822.315812
626.502037
383.394957
232.391953
101.243854
47.940612
15.339851
8.248687
7.445812
8.153915
11.311769
16.194582
26.752949
38.511753
58.976412
73.241591
88.666677
96.597672
96.727610
90.392828
74.881911
61.590672
44.135451
32.206774
19.378662
12.982488
7.955432
6.197691
4.957914
4.505515
4.375577
4.408956
4.389882
4.346967
4.218817
4.139543
4.546642
4.273653
4.394650
4.248619
4.561543
##ZVALUE=330
0.222921
0.312924
0.292659
0.368953
0.310540
0.298619
0.521541
0.268817
0.205636
0.217557
0.314713
0.251532
0.357628
0.272989
0.289679
0.244975
0.163913
0.445843
0.289679
0.209808
0.344515
0.377893
0.381470
0.437498
0.434518
0.464916
0.461936
0.423789
0.373721
0.477433
0.260472
0.500679
0.552535
0.580549
0.661612
0.734925
0.777841
0.721812
0.662804
0.811815
0.741482
1.025796
0.927448
1.172423
1.233816
1.481771
1.887679
9.148717
30.283928
97.325444
187.942982
376.835465
554.111600
812.915564
971.350670
1015.871763
1015.871763
895.487666
722.828507
471.984744
305.238962
142.802596
72.513819
25.055408
10.373592
6.816983
6.343722
7.754564
10.018945
16.368628
24.397969
38.020611
51.461458
70.172548
81.385970
90.046525
89.665651
83.251595
73.247552
55.486560
42.915940
28.197765
19.704700
12.790561
8.983612
5.838871
4.965663
4.504919
4.137754
4.225969
4.085898
4.139543
4.135966
4.022717
4.147887
4.100800
##ZVALUE=335
0.290871
0.246763
0.207424
0.133514
0.230670
0.170469
0.240803
0.377893
0.195503
0.494719
0.368953
0.218749
0.258684
0.264645
0.340939
0.438690
0.234842
0.219941
0.289679
0.243783
0.452995
0.391603
0.322461
0.379682
0.331998
0.408888
0.542998
0.526905
0.499487
0.549555
0.486970
0.506639
0.523925
0.451803
0.552535
0.715852
0.657439
0.692606
0.700951
0.697970
0.633597
0.866652
0.688434
0.933409
1.022816
1.062751
1.109838
1.475811
1.413822
3.957748
15.189648
59.787631
126.705766
280.424953
450.044870
707.039833
888.515711
1015.892029
1015.892029
949.890614
803.850889
553.900599
376.850963
197.162628
101.870894
35.162568
14.026761
7.192492
6.350875
6.151795
6.890893
9.832978
14.093518
24.537444
34.785867
50.940514
63.512921
77.241659
82.855821
83.768964
78.612566
65.719485
55.027604
41.141510
30.255914
18.896461
13.587475
8.285642
6.160736
5.012751
4.278421
4.246831
4.118681
3.844500
3.976822
4.016757
##ZVALUE=340
0.184774
0.244975
0.165701
0.161529
0.300407
0.358820
0.311732
0.256896
0.272989
0.360608
0.181794
0.180602
0.265837
0.236630
0.219941
0.282526
0.351667
0.316501
0.348687
0.266433
0.280738
0.451803
0.262856
0.336766
0.530481
0.265837
0.428557
0.493526
0.413656
0.380874
0.409484
0.386834
0.586510
0.621676
0.584722
0.517964
0.509620
0.762939
0.649691
0.505447
0.690818
0.674725
0.736713
0.855923
0.915527
0.921488
0.908971
1.129508
1.094937
1.181960
1.086593
2.294779
7.493496
36.604404
89.091659
217.869878
367.819667
602.606535
785.722733
968.509912
1015.892625
985.023975
861.769915
639.014840
453.368425
238.619447
132.904649
53.225756
20.750761
7.463694
6.068945
5.655885
6.003976
7.058978
8.758903
15.069842
21.941662
34.089684
45.584440
61.678886
71.437955
77.959895
78.284740
73.305964
65.259933
51.791668
40.900707
28.197765
20.169616
13.013482
8.543730
5.770922
4.955530
4.301667
3.943443
3.889799
##ZVALUE=345
0.257492
0.414848
0.046492
0.154972
0.028610
0.159740
0.243783
0.294447
0.113845
0.269413
0.411868
0.337958
0.308752
0.295639
0.353456
0.269413
0.347495
0.436902
0.428557
0.397563
0.239611
0.304580
0.291467
0.275970
0.380874
0.355840
0.327826
0.396967
0.141859
0.371933
0.266433
0.278950
0.327826
0.358820
0.375509
0.430942
0.580549
0.612736
0.633597
0.575781
0.529885
0.482798
0.580549
0.503659
0.727773
0.732541
0.644922
0.703931
0.901818
1.031756
0.937581
1.105666
1.288652
1.387596
4.128814
16.716719
65.976977
135.195851
287.932754
446.373820
687.073469
853.173733
995.152593
1014.073491
904.734731
756.794810
517.567992
342.961550
158.088803
77.172518
24.794936
10.934472
6.384850
5.561709
5.240440
5.160570
5.958676
8.062720
12.798905
19.258857
32.031536
41.426420
54.786801
63.568950
71.356893
72.214603
68.393946
62.240958
50.388575
40.147901
27.959943
19.779801
12.352467
8.668900
5.758405
4.900694
##ZVALUE=350
0.295639
0.255704
0.225902
0.279546
0.303984
0.326633
0.398755
0.319481
0.198483
0.137687
0.235438
0.221729
0.133514
0.197887
0.229478
0.290871
0.241995
0.394583
0.309944
0.366569
0.242591
0.421405
0.324845
0.354648
0.394583
0.141859
0.275970
0.289679
0.460744
0.362992
0.352859
0.369549
0.442863
0.198483
0.415444
0.427961
0.505447
0.496507
0.342727
0.514984
0.525713
0.598431
0.456572
0.593662
0.594854
0.472665
0.534654
0.615716
0.644922
0.642538
0.771880
0.833869
0.852942
1.042485
1.113415
1.217723
1.970530
10.576844
32.136440
99.964738
193.894506
388.697982
561.001897
774.917603
908.227563
987.688899
945.464969
779.260993
603.992939
375.706553
226.587653
101.165771
46.129823
13.124943
6.528497
5.521774
5.035996
4.731417
4.841685
5.509853
7.189512
12.157559
17.465949
27.797818
36.518574
48.976541
56.958795
63.837767
66.398978
64.047575
57.064891
46.627522
38.475990
27.316809
20.150542
13.172626
##ZVALUE=355
0.227690
0.212789
0.148416
0.342727
0.211596
0.240803
0.256896
0.192523
0.246763
0.221729
0.402927
0.335574
0.309944
0.291467
0.281930
0.252724
0.280738
0.315905
0.365973
0.363588
0.342727
0.228882
0.374913
0.335574
0.318885
0.243783
0.274777
0.273585
0.360608
0.276566
0.377893
0.337958
0.359416
0.497699
0.331998
0.375509
0.542998
0.447631
0.649691
0.459552
0.533462
0.444651
0.599623
0.561476
0.687838
0.544786
0.551939
0.609756
0.740886
0.616908
0.712872
0.533462
0.838637
0.764728
0.955462
0.984669
1.019835
1.218915
1.562834
3.535748
21.061897
56.023598
148.971677
264.690518
480.878949
651.819706
853.441954
947.760940
941.830873
841.146708
627.925992
461.234450
261.546969
145.437717
55.169463
22.617579
7.728934
5.288720
4.860759
4.551411
4.200935
4.107952
5.057454
6.517768
9.991527
14.514923
23.044944
31.006932
42.656660
50.281882
57.861805
59.466958
58.239698
53.540468
44.007897
36.389828
##ZVALUE=360
0.397563
0.261664
0.326633
0.194907
0.142455
0.298619
0.249743
0.359416
0.382662
0.344515
0.265837
0.248551
0.326633
0.312924
0.223517
0.322461
0.334978
0.227690
0.303984
0.310540
0.402927
0.280738
0.489950
0.409484
0.173450
0.551939
0.435710
0.541806
0.377893
0.525713
0.354648
0.583529
0.542998
0.618696
0.491738
0.321865
0.326633
0.554919
0.647902
0.601411
0.698566
0.604987
0.604987
0.602603
0.548959
0.488758
0.684857
0.730753
0.533462
0.632405
0.631809
0.821948
0.718832
0.937581
0.843406
0.907779
0.909567
1.038909
1.104474
1.215935
1.403689
2.325773
7.814765
35.886765
85.654855
208.885670
343.803763
558.433533
733.619928
901.411772
942.139626
876.519680
746.238828
514.068604
343.821645
169.939995
87.639689
31.213760
12.197495
5.483627
5.009770
4.628897
4.218817
4.090667
3.951788
4.357696
5.583763
8.179545
11.632442
18.200874
25.928617
35.887957
43.694973
51.358938
54.354668
53.874850
##ZVALUE=365
0.179410
0.190735
0.337958
0.209808
0.258684
0.125766
0.145435
0.243783
0.223517
0.388622
0.299811
0.200868
0.350475
0.340939
0.276566
0.288486
0.255704
0.285506
0.269413
0.298619
0.312924
0.238419
0.359416
0.281930
0.248551
0.322461
0.313520
0.307560
0.337958
0.154972
0.350475
0.348687
0.318885
0.362992
0.320673
0.325441
0.439882
0.445843
0.423789
0.544786
0.461936
0.422597
0.553727
0.430942
0.575781
0.500679
0.460744
0.565648
0.678897
0.634789
0.656843
0.609756
0.723600
0.607967
0.772476
0.838637
0.689626
0.726581
0.957847
0.768900
1.010895
1.125932
1.265407
1.377463
3.508925
19.746423
52.155852
138.624907
254.761577
468.636751
633.416772
817.965865
903.989673
894.165635
793.761611
586.570501
419.137478
232.469440
126.165748
45.219660
17.330647
6.041527
4.757643
4.219413
4.159808
3.822446
3.741980
3.394485
3.632903
4.657507
6.377697
10.151863
14.722943
23.194551
29.870868
38.657784
##ZVALUE=370
0.150800
0.281930
0.168681
0.151992
0.163913
0.306964
0.223517
0.217557
0.236630
0.196695
0.327826
0.349879
0.358820
0.483990
0.179410
0.195503
0.130534
0.151992
0.286698
0.137687
0.267625
0.154972
0.209808
0.351667
0.239611
0.238419
0.180602
0.345707
0.309944
0.254512
0.274777
0.308752
0.309944
0.223517
0.347495
0.382662
0.363588
0.420809
0.293851
0.394583
0.371933
0.492930
0.420809
0.396967
0.466704
0.418425
0.402927
0.589490
0.555515
0.493526
0.432730
0.698566
0.525713
0.478625
0.557899
0.713468
0.425577
0.649691
0.556707
0.652671
0.688434
0.830889
0.879765
0.997782
1.075864
1.219511
2.018809
10.420680
34.381747
104.596615
197.478533
375.909805
543.247461
757.886767
865.765810
897.854567
826.966763
656.728745
490.546823
281.594992
160.818696
62.418580
27.601719
8.470416
4.979968
4.283786
3.965497
3.520846
3.729463
3.133416
3.274679
3.534555
4.027486
5.594492
7.877946
12.611747
##ZVALUE=375
0.200868
0.046492
0.171661
0.152588
-0.003576
0.106692
0.135899
0.106692
0.259876
0.348687
0.279546
0.265837
0.275970
0.234842
0.168681
0.297427
0.362992
0.244975
0.185966
0.232458
0.199676
0.350475
0.259876
0.310540
0.156760
0.422597
0.558496
0.378489
0.347495
0.389814
0.478625
0.348687
0.448823
0.242591
0.501871
0.227690
0.268817
0.339746
0.310540
0.507832
0.532866
0.453591
0.459552
0.519753
0.433922
0.470877
0.524521
0.333786
0.360608
0.515580
0.418425
0.465512
0.571609
0.435710
0.457764
0.570416
0.444651
0.623465
0.602603
0.551939
0.609756
0.750422
0.763535
0.776649
0.816584
0.893474
0.955462
1.035929
1.314878
5.152822
18.072724
63.088536
134.374499
295.959711
455.664992
680.926442
813.694000
896.340013
873.235464
728.930831
570.916533
351.444483
220.736861
108.903646
52.776933
16.125441
6.604791
4.277825
3.851652
3.197789
3.373623
3.176928
3.208518
2.952814
3.041625
3.673434
##ZVALUE=380
0.216961
0.057817
0.169873
0.072718
0.098944
0.071526
0.138879
0.048876
0.262856
0.275970
0.162721
0.237823
0.355840
0.216961
0.187755
0.167489
0.227690
0.394583
0.166893
0.314713
0.260472
0.237823
0.131726
0.194907
0.102520
0.339746
0.159740
0.426769
0.310540
0.412464
0.405908
0.377893
0.503659
0.480413
0.615716
0.617504
0.595450
0.589490
0.670552
0.526905
0.486970
0.428557
0.581741
0.458956
0.575781
0.554919
0.497699
0.499487
0.515580
0.430942
0.383854
0.510812
0.509620
0.378489
0.427961
0.492930
0.429749
0.352859
0.498891
0.573993
0.466704
0.541806
0.605583
0.602603
0.627637
0.674725
0.848770
0.888705
1.140833
1.214743
1.401901
2.697706
9.381771
45.550466
103.168488
238.337517
382.391810
592.573881
747.103691
875.387788
882.955790
769.418478
636.129975
443.801880
298.084617
145.659447
73.714852
25.190711
9.984970
4.420877
3.649592
3.258586
3.263950
3.137589
2.952814
2.897978
##ZVALUE=385
0.008941
0.084639
0.169873
0.173450
0.183582
0.257492
0.209808
0.273585
0.313520
0.251532
0.072718
0.166893
0.072718
0.150800
0.305772
0.107884
0.173450
0.215769
0.259876
0.225902
0.274777
0.188947
0.214577
0.276566
0.253916
0.215769
0.569820
0.472665
0.615716
0.593662
0.855923
0.859499
0.815988
0.970960
0.873804
0.814795
0.854731
0.831485
0.957847
0.918508
1.000762
0.779629
0.740886
0.852942
0.799894
0.656843
0.640750
0.621676
0.638962
0.662804
0.641942
0.709891
0.608563
0.658631
0.545979
0.649691
0.560880
0.396967
0.548959
0.579953
0.583529
0.597835
0.570416
0.720620
0.801682
0.695586
0.732541
0.775456
0.926852
1.003742
1.118779
1.199841
1.232624
1.659989
4.480481
25.387406
65.562725
165.726542
291.512609
506.476760
671.339631
829.454660
874.021649
833.995938
733.524561
540.619493
384.114981
209.800601
118.745565
47.551990
18.626451
5.435944
3.979802
3.441572
3.232956
3.282428
##ZVALUE=390
0.008941
0.027418
0.210404
0.220537
0.150800
0.074506
0.101924
0.224710
0.164509
0.183582
0.098944
0.145435
0.217557
0.238419
0.126958
0.272989
0.138879
0.239611
0.164509
0.158548
0.217557
0.174642
0.250936
0.248551
0.375509
0.453591
0.503659
0.773668
0.768900
0.821948
0.957847
1.001954
1.011491
1.229644
1.368523
1.368523
1.498461
1.380444
1.384616
1.253486
1.154542
1.338720
1.037717
0.963807
1.082420
1.004934
0.831485
0.913739
0.817776
0.821948
0.630617
0.622869
0.589490
0.494719
0.587702
0.683665
0.565648
0.693798
0.681877
0.596642
0.665784
0.429749
0.605583
0.618696
0.590682
0.591874
0.611544
0.859499
0.845790
0.913739
0.793934
0.999570
1.072884
0.969768
1.301765
1.285672
2.282858
13.220906
41.413903
124.452710
233.261585
434.222817
587.767959
763.067603
856.973529
878.130794
807.076693
640.012622
489.046574
294.942856
171.463490
68.710446
30.443668
8.208752
4.189610
3.367662
##ZVALUE=395
0.135899
0.264645
0.193715
0.071526
0.071526
0.249743
0.130534
0.068545
0.041723
0.315905
0.158548
0.072718
0.164509
0.347495
0.147820
0.264645
0.170469
0.268817
0.016689
0.145435
0.201464
0.057817
0.159740
0.079870
0.181794
0.387430
0.502467
0.735521
1.171827
1.085997
1.079440
1.406670
1.426935
1.606941
1.552701
1.802444
1.851916
1.740456
1.666546
1.598597
1.608729
1.523495
1.573563
1.354814
1.310706
1.287460
1.228452
1.242757
0.911951
0.942945
0.872612
0.694990
0.919700
0.856519
0.722408
0.633597
0.625849
0.754595
0.660419
0.496507
0.491738
0.519753
0.709891
0.670552
0.714660
0.874996
0.629425
0.735521
0.840425
0.860691
0.847578
1.095533
0.942945
0.957847
1.008511
1.066923
1.047850
1.247525
1.583695
7.063746
25.837421
90.344548
170.126557
325.268507
481.141806
696.157813
821.338892
901.551843
875.517726
744.658709
582.764745
360.157490
222.603679
96.914768
45.264959
14.455914
##ZVALUE=400
0.263453
0.148416
0.202656
0.303984
0.271797
0.174642
0.254512
0.137687
0.270605
0.220537
0.235438
0.228882
0.048876
0.102520
0.086427
0.136495
0.056624
0.283718
0.332594
0.121593
0.073910
0.012517
0.177622
0.278950
0.340939
0.399947
0.681877
0.648499
0.865459
0.923872
1.381636
1.531839
1.575947
1.637936
1.806617
1.852512
1.807809
1.942515
1.784563
1.751781
1.760721
1.653433
1.649857
1.542568
1.476407
1.436472
1.307726
1.182556
1.187921
1.150966
0.990629
0.803471
0.781417
0.751615
0.744462
0.641942
0.552535
0.608563
0.639558
0.730753
0.701547
0.755787
0.618696
0.550747
0.687838
0.629425
0.659823
0.749826
0.878572
0.849962
0.800490
0.778437
0.872612
0.912547
0.621676
0.742674
0.669956
0.975728
1.053810
1.119971
1.290441
3.871918
13.741851
49.834847
108.090639
245.474577
392.541885
605.209470
744.409561
862.450004
874.305964
768.533945
632.088780
419.487953
274.645686
137.372613
##END
