##TITLE=FQP00652
##FORMAT=SPECTACLE-ASCII V-1.2
##DATA TYPE=ULTRAVIOLET SPECTRUM
##SECOND TYPE=ULTRAVIOLET SPECTRUM
##DATE=04/11/18
##TIME=15:40:58
##SPECTROMETER/DATA SYSTEM=SPECTACLE
##XUNITS=NM EM
##YUNITS=ENERGY
##YFACTOR=1
##FIRSTX=220
##LASTX=410
##NPOINTS=96
##3DDATA=Equidistant
##ZUNITS=NM EX
##FIRSTZ=210
##LASTZ=400
##ZPOINTS=39
##XYDATA=(Y..Y)
##ZVALUE=210
3.229976
2.478957
3.174543
2.766848
3.148913
3.739595
2.797842
3.535748
3.239512
3.481507
3.329515
3.146529
3.362894
2.952814
3.581643
3.593564
3.559589
3.860593
4.023910
3.717542
3.769994
3.809929
4.575849
4.033446
5.064607
5.325675
5.249977
6.025434
5.867481
6.213784
7.329583
7.904768
8.326769
7.567406
7.474422
8.567572
8.190870
7.462502
8.755922
8.498430
8.608699
7.749796
7.359982
8.286834
7.763505
7.181764
7.048845
7.463694
7.427931
6.395578
7.456541
6.806850
7.332563
7.237792
7.697940
7.311702
8.519888
7.808805
6.593466
7.122755
7.259846
7.737875
7.969737
7.624626
6.822944
7.894635
8.336902
9.395480
8.679628
11.708736
14.032722
16.293526
17.719865
20.370483
23.321509
22.389889
25.899410
25.407672
25.255680
23.246408
21.772981
19.625425
17.454624
14.274716
12.667775
9.723902
9.687543
8.691549
7.703900
7.317662
6.681681
6.132722
7.319450
6.856918
7.054806
7.909536
##ZVALUE=215
7.969737
6.620884
5.955696
6.600618
4.727840
5.653501
5.058646
4.934669
4.997849
5.012751
4.574656
4.407763
4.738569
3.471971
3.481507
3.450513
3.640652
3.197789
3.645420
4.162788
3.719926
4.358888
3.891587
4.753470
5.635619
5.917549
6.402731
7.580519
8.332729
8.851886
9.198785
10.590553
10.577440
10.332465
12.687445
12.110472
13.095737
11.910796
11.489987
11.369586
11.070967
11.833906
11.169910
10.468960
9.573698
9.584427
8.745790
8.032918
7.875562
8.240938
8.615851
8.474588
7.879734
8.785725
6.614923
7.660985
8.107424
6.642938
7.373691
6.970763
8.245707
7.463694
6.731749
7.477999
8.220673
8.374453
7.867813
8.691549
8.247495
11.154413
11.807680
13.876557
15.542507
18.013716
19.051433
22.630692
21.295547
22.873878
21.756887
21.064878
20.067692
18.505454
14.839768
13.202429
11.379719
9.738803
8.671880
7.607937
6.482601
6.775856
6.517768
7.310510
6.917715
6.157756
6.809831
6.523728
##ZVALUE=220
26.087761
25.248528
25.754571
27.774572
22.470951
19.646883
16.573668
14.325976
12.055635
10.902882
12.264848
11.783838
12.479424
11.271834
9.294748
7.404685
5.730987
4.656911
3.923774
3.907681
4.067421
5.179644
4.564524
4.470944
6.367564
6.637573
8.105636
9.380579
11.654496
12.514591
15.060902
15.092492
17.774701
17.289519
18.938780
18.420815
18.292665
20.007491
18.228889
16.999841
17.893910
15.798807
15.374422
15.222430
14.258623
13.131499
12.401938
9.979606
11.125803
11.441708
10.351539
11.116862
9.681582
10.120869
9.679794
8.551478
9.498000
10.470748
8.799434
8.886456
9.410977
9.583831
8.431673
7.343888
8.203983
8.400679
8.964539
9.487867
9.981990
10.822415
11.784434
12.440681
14.480948
16.756654
17.772913
18.310547
19.910932
21.587610
19.405484
18.683672
18.751621
16.236901
14.178753
12.465715
11.731982
11.025667
9.555817
8.693933
7.997751
7.188916
7.202625
6.978512
7.055998
7.235408
7.159710
6.664991
##ZVALUE=225
44.249892
50.466657
63.512921
78.499913
87.469816
82.896948
76.658726
60.246587
45.800805
33.544898
24.927855
22.880435
23.995638
23.731589
26.318431
24.471879
19.631982
17.471910
11.304617
8.939505
5.988479
5.381703
4.346967
6.088614
5.626678
7.176995
8.077621
9.204745
13.068914
15.218854
15.852451
19.226670
21.114945
22.375584
22.666454
25.007725
21.900535
23.240447
22.861958
21.037459
20.259619
18.819571
18.446445
17.558932
14.846921
14.916658
14.693737
12.542605
13.841987
12.602806
12.035966
11.614561
11.472702
10.974407
11.231899
10.173917
10.454655
10.052919
10.302663
9.625554
8.924603
8.791685
9.849668
9.717941
7.855892
8.993745
8.890629
10.460615
10.533929
12.509823
12.087822
13.818741
14.033914
15.837550
16.589761
17.685890
16.723871
17.061830
17.229915
17.348528
18.126965
14.984608
14.946461
12.761950
12.690425
10.887980
10.332465
8.821487
9.423494
8.581877
9.156466
8.833408
9.462833
7.749796
7.823706
7.424951
##ZVALUE=230
37.286878
39.463639
62.933564
98.747611
127.941966
156.578422
175.163746
172.179937
156.558752
139.546990
93.201995
68.031549
48.443675
43.043494
43.468475
45.242906
49.909949
48.230886
40.459633
34.271479
26.396513
18.198490
11.815429
8.182526
7.480979
6.521940
8.224845
10.349751
12.021661
14.412999
15.387535
15.774965
18.973947
19.623637
21.629930
20.236969
20.625591
19.567609
18.873811
18.959641
18.945932
18.447638
18.528700
17.778873
18.739700
16.745925
15.837550
14.176965
15.176535
14.754534
13.382435
12.584925
13.248920
11.709929
12.316704
12.965798
11.290908
12.546778
12.607574
13.105869
12.189746
10.672808
11.380911
12.448430
11.226535
11.561513
13.029575
12.981892
12.729764
14.278889
16.066432
16.891956
17.463565
18.666983
19.628406
21.351576
21.183491
20.028949
21.506548
22.170544
20.374656
21.048784
18.487573
16.657710
16.517639
15.248656
13.613701
13.466477
12.951493
12.550950
12.387633
11.487603
10.808706
12.112856
12.002587
11.209846
##ZVALUE=235
14.473796
14.033914
39.159656
68.521500
124.116540
181.410909
260.590911
301.377773
348.086953
340.045691
300.815701
248.310566
193.816423
128.652453
92.702508
70.482492
67.822933
74.939728
79.856515
81.997514
75.035691
64.103603
49.948692
37.843585
24.730563
18.118620
12.157559
10.722876
11.076927
11.262894
12.121797
13.136864
13.457537
15.256405
16.241670
15.364885
16.271472
16.904473
16.131997
16.423464
15.262961
17.470717
16.274452
16.740561
16.234517
16.647577
16.255975
16.399622
16.135573
17.932653
14.900565
16.127825
14.974475
15.121698
14.744997
14.507771
14.684796
15.376806
13.568997
15.280843
13.939738
15.034676
14.250875
13.909936
15.445948
14.305711
15.804768
16.982555
17.046928
17.677546
18.609762
21.435618
21.782517
23.641586
24.723411
26.227832
27.373433
26.942492
25.200844
25.067925
24.470687
22.822618
22.034645
21.722913
19.971728
18.412471
17.190576
16.402602
16.096830
16.658902
16.242862
16.390681
15.473962
15.015602
14.598966
14.750957
##ZVALUE=240
2.435446
2.255440
7.744431
19.588470
66.083670
119.154453
230.948925
344.290733
497.368574
592.765808
645.826459
640.450716
591.476560
473.238826
364.157557
235.866904
172.243714
113.292933
103.681684
102.120638
109.758973
115.158558
112.382770
102.298856
80.605745
65.503716
46.366453
34.180880
21.316409
17.207861
12.019873
12.039542
12.130737
13.228655
15.506744
14.365911
16.641617
16.820431
18.338561
17.522573
16.941428
19.843578
18.648505
18.395782
18.194914
17.954707
18.667579
17.978549
17.156601
18.585920
17.077923
16.830564
17.349720
15.652776
14.224648
15.254617
14.017820
15.486479
15.385747
15.803576
16.026497
14.338493
13.460517
16.659498
15.152693
15.876889
16.124845
16.816854
18.109679
20.175576
21.035671
22.070408
25.022626
28.058887
27.533770
28.994679
27.586818
30.183792
27.369857
28.203726
26.750565
24.314523
24.031997
21.812916
21.346807
22.789836
21.290779
21.732450
19.329786
19.102693
20.130873
20.168424
18.379688
18.890500
17.649531
20.280480
##ZVALUE=245
1.889467
1.938939
1.820922
2.491474
6.167889
17.317533
58.239698
116.708875
251.427889
372.846723
551.413894
662.178993
745.834708
751.606822
702.126026
576.508641
465.081930
317.252874
225.263834
144.169927
108.486414
102.852583
111.043453
121.176839
130.969882
126.567483
112.909675
98.399520
77.690482
56.556463
42.643547
26.520491
21.950603
16.879439
15.070438
14.645457
17.449856
17.201900
18.749833
19.484758
20.339489
20.211935
21.053553
20.828843
19.702911
22.177696
19.193888
19.493699
18.241405
17.098784
18.461943
17.788410
17.871857
16.203523
16.198754
15.662909
16.140938
15.161633
15.387535
15.027523
15.293956
14.225841
14.195442
14.371872
14.205575
14.980435
15.578866
16.150475
18.272996
17.655492
19.819736
20.416975
23.623705
21.160841
23.913980
24.760962
25.449991
25.754571
24.495721
23.959875
24.407506
22.429824
22.355914
21.678805
20.305514
21.577477
20.446777
19.515753
19.682646
18.978715
20.068884
19.061565
18.266439
18.351674
18.996000
16.172528
##ZVALUE=250
1.766682
1.910925
1.687407
1.842976
2.248883
2.483726
2.550483
9.552836
28.790832
80.570579
158.157945
307.900906
442.000628
626.886487
747.411847
805.675983
791.850686
717.772841
566.915870
429.227948
260.861516
173.764825
107.721686
96.025467
103.303790
119.428635
136.255622
140.964985
139.518976
125.859976
108.219981
82.491636
64.295530
44.122934
35.170913
25.556684
21.897554
21.177530
21.916628
22.457838
22.930503
22.210479
22.446513
21.969676
22.072792
20.775795
20.644665
20.168424
19.159913
19.353628
17.799735
17.590523
16.293526
15.769601
15.335679
15.092492
14.016628
13.632774
13.839602
13.838410
13.707876
13.316870
12.019873
13.928413
13.071895
12.996793
14.018416
13.731718
14.362931
15.838742
16.036630
17.726421
20.401478
19.652843
20.262599
21.742582
21.053553
20.514727
22.335649
20.942688
20.375848
20.809770
20.973682
20.278692
19.801855
17.299652
18.625855
17.601848
16.799569
18.451810
18.706918
17.930865
17.288923
17.908812
18.860698
17.252564
##ZVALUE=255
1.243949
1.369715
1.379848
1.486540
1.475811
1.713634
1.613498
2.029538
2.106428
4.492998
20.281672
50.525665
104.658604
243.727565
391.742587
616.920590
776.772499
914.717913
965.263844
887.908936
747.928619
586.282015
360.969901
230.761766
127.643943
97.582936
91.329813
105.931759
131.822824
150.057673
153.506994
155.105591
143.331885
119.021535
98.323822
71.958899
58.211684
40.970445
32.642484
26.187897
26.499629
25.028586
24.253726
23.917556
24.559498
23.427606
22.498965
21.082759
21.541715
20.153522
19.633770
18.100739
18.246770
16.718507
14.750957
15.226603
15.128851
13.571978
13.479590
13.368726
13.063550
12.099743
12.715459
11.222959
11.662841
12.728572
12.716651
12.516975
13.171434
13.837814
14.950633
14.856458
16.026497
17.816424
17.476678
18.559694
18.366575
19.243956
20.083785
18.674731
18.310547
18.786788
17.835498
17.288923
17.168522
16.544461
16.085505
16.378760
15.675426
16.699433
17.058849
16.479492
16.186833
16.376972
15.217662
16.280413
##ZVALUE=260
1.073480
0.973940
1.297593
1.309514
1.231432
1.230836
1.331568
1.199841
1.573563
1.490712
1.780987
2.649426
8.982420
33.542514
76.870918
180.576444
301.184654
506.126881
672.003031
873.973966
959.131718
965.221524
843.774676
688.854456
451.888442
310.171843
179.057717
116.693974
87.086558
93.954802
121.577978
140.448809
160.654783
171.339512
170.047879
155.605674
135.778785
104.700923
82.903504
60.999990
48.301816
36.521554
32.066703
26.935935
27.676821
25.200844
23.725629
23.973584
22.029877
20.948648
20.023584
18.039942
17.672777
16.459823
16.109943
13.824701
14.818907
13.529658
13.719797
12.415648
11.903644
11.213422
10.982752
11.147857
10.875463
10.695457
10.413527
11.007786
11.638999
11.607409
11.876822
12.133718
13.043880
13.652444
14.164448
13.735890
13.568997
13.757944
13.666749
13.842583
14.403462
14.145970
14.344454
14.549494
14.176965
13.971925
13.928413
14.257431
14.122725
14.537573
14.669895
14.231801
14.519691
15.354753
15.136600
15.519857
##ZVALUE=265
0.951886
1.087785
0.868440
1.007915
1.075864
0.948906
1.054406
1.318455
1.213551
0.924468
1.339912
1.414418
1.404881
1.854897
4.747510
21.705627
50.970912
129.615664
227.872729
425.247550
578.812957
771.249533
880.585909
911.048651
851.220489
686.693788
542.067885
349.576473
234.893560
136.357546
100.261569
89.640617
105.397701
138.543844
158.650875
180.148482
184.540749
175.039768
162.180662
132.429600
110.047460
82.011819
64.721704
44.084787
35.937428
28.883815
24.815798
23.259521
21.498799
20.405650
19.794703
18.379688
17.034411
16.864538
16.040802
14.290810
13.761520
13.101697
13.171434
12.222528
11.455417
11.780858
10.887980
10.628700
9.998679
9.904504
9.871721
10.095835
10.899901
11.250973
11.202693
11.407733
11.997819
12.400746
12.281537
12.723804
13.263822
13.526678
12.701750
13.101697
12.677908
12.174845
12.773871
13.128519
13.651848
13.085604
13.401508
14.109612
13.347864
13.522506
13.852715
14.226437
13.239980
13.246536
13.458729
13.740659
##ZVALUE=270
1.071692
0.870824
0.878572
0.893474
0.745654
1.075864
1.167655
0.927448
1.170635
1.005530
1.271963
1.130700
1.162887
1.188517
1.412630
1.646876
2.360940
9.983778
29.513836
91.479421
179.666877
313.938856
541.602969
718.993545
912.823677
983.171463
956.739783
860.905647
669.510961
509.679914
364.849567
200.077891
128.688812
87.348819
85.866451
111.835003
135.391951
163.146853
176.083446
183.980465
175.936818
158.909559
135.759711
104.965568
81.215501
53.740740
41.794777
30.597448
24.609566
20.960569
20.209551
18.219948
16.284585
15.809536
14.703870
14.554858
14.229417
12.671947
12.773871
11.515617
11.627674
11.534691
10.861754
10.404587
10.667443
10.683537
10.552406
10.898709
10.080934
11.044741
11.028647
11.210442
11.720657
11.835694
13.133883
12.764931
12.446642
12.562871
13.072491
12.327433
12.414455
12.374520
12.481809
12.579560
12.126565
12.469888
13.071895
13.083816
12.388825
12.267828
12.654662
12.868643
12.578964
13.300776
13.016462
12.540817
##ZVALUE=275
0.822544
0.595450
0.997782
0.824928
0.706911
0.972748
1.058578
1.017451
0.885725
0.760555
1.037717
1.146793
1.203418
1.123548
1.237988
1.214743
1.590848
1.706481
1.975894
4.891753
17.990470
47.660470
142.098665
262.635946
486.322641
661.650896
874.204636
1002.635956
1015.896797
1015.896797
1015.896797
979.315639
778.672695
472.837687
302.237868
147.678852
89.483857
80.235600
98.839998
129.311681
147.593617
167.194009
170.506835
165.607929
150.965452
120.934844
99.361539
69.054961
52.585602
34.336448
25.482774
17.642975
15.738606
13.967752
13.210773
13.065934
13.217926
12.270808
12.101531
11.687875
11.356473
11.237860
10.608435
11.489987
10.826588
10.642409
10.544658
10.601878
10.527968
11.194944
11.951923
12.008548
12.530684
13.160706
12.464523
13.085604
12.940764
12.747645
12.686849
12.249947
12.595654
12.462735
12.085438
12.367964
11.718869
12.696981
11.666417
12.644529
12.148619
12.234449
12.423992
11.460781
12.652874
11.975765
12.643933
12.668967
##ZVALUE=280
0.631809
0.663996
0.542998
0.704527
0.680685
0.794530
0.710487
0.670552
0.729561
0.790954
0.935793
0.852942
0.903606
1.234412
1.103878
0.973940
1.101494
1.220703
1.253486
1.372695
1.734495
2.114773
10.763407
37.203431
112.925768
208.812952
386.398435
566.951632
805.547833
958.390832
1015.880704
1015.880704
1015.880704
966.065526
732.714534
523.095727
295.410752
176.514983
80.426931
56.194663
66.925883
85.557699
115.938783
136.334896
156.510472
161.278844
153.317451
140.103698
115.196705
92.272758
63.713789
46.070814
28.097630
20.136833
14.080405
12.020469
10.927916
10.623932
11.059642
10.330677
10.364652
11.083484
10.657907
10.804534
11.474490
10.988712
10.912418
11.008978
11.418462
11.671782
11.871457
11.985898
12.337565
12.147427
12.086630
12.615919
12.628436
12.921691
12.509823
12.599826
12.075901
12.213588
12.622476
12.453794
12.630820
12.278557
11.874437
11.966825
12.130737
11.769533
11.679530
11.834502
11.992455
11.533499
11.556745
11.567473
##ZVALUE=285
0.671744
0.543594
0.632405
0.649691
0.740886
0.737906
0.733733
0.700951
0.694990
0.703931
0.761747
0.627637
0.744462
0.858903
0.678897
0.767708
0.859499
1.014471
0.984669
1.351833
1.571774
1.489520
1.611710
1.897812
5.207658
19.472837
65.456629
134.482980
282.043815
444.153547
623.318553
858.370662
988.457799
1015.890837
990.890861
808.886886
635.889769
393.792987
245.399475
117.978454
62.882900
35.379529
37.074685
56.616664
76.768994
106.278658
126.128793
144.530535
152.435899
146.319866
137.758851
111.246705
89.771748
63.076615
44.788718
27.064681
19.616485
13.507605
11.372566
10.520816
10.059476
10.173917
10.458827
10.604858
10.780692
10.969639
10.631680
11.768937
11.764765
11.698604
12.340546
12.507439
12.683868
12.992620
13.144612
12.779832
12.768507
12.663603
13.137460
12.805462
12.627840
12.544990
12.458563
12.656450
12.723804
12.212992
11.770725
11.985898
11.761785
11.505485
11.427999
11.868477
11.639595
11.582971
11.333823
11.203885
##ZVALUE=290
0.625849
0.684857
0.569820
0.400543
0.653863
0.586510
0.632405
0.747442
0.654459
0.686646
0.689626
0.769496
0.723600
0.838637
0.831485
0.754595
0.927448
0.824928
0.717640
0.823736
1.058578
0.992417
1.165867
1.494884
1.358986
1.611710
2.246499
8.143783
37.769675
84.822774
135.338902
344.963670
527.529716
786.067843
950.201750
1015.890837
1015.890837
905.919671
744.419694
498.806834
328.740478
166.522861
86.837411
36.252737
26.862621
35.775900
49.925447
74.900985
96.726418
121.808648
136.226416
148.372650
146.314502
130.329728
113.180876
84.723830
62.696934
42.211413
29.607415
19.795895
15.027523
12.087822
11.829734
11.392832
11.626482
11.644959
11.671782
12.141466
12.291670
13.186932
13.134480
12.813807
13.300776
13.802648
13.332963
13.207793
13.550520
13.548732
13.419986
13.361573
13.279915
12.738705
13.263822
13.061762
13.214946
12.282729
12.626648
12.418628
12.081861
11.383891
11.965632
11.858940
11.543632
11.606812
11.306405
11.708736
##ZVALUE=295
0.485778
0.550747
0.514984
0.564456
0.691414
0.613928
0.552535
0.566840
0.491738
0.613928
0.558496
0.831485
0.675917
0.630617
0.777841
0.814795
0.728965
0.759959
0.765920
0.974536
0.941753
0.837445
1.087785
0.960827
1.087785
1.268983
1.328588
1.453757
1.699924
3.275871
12.303591
51.802993
118.938684
278.570652
446.553826
699.470639
870.237947
1015.890837
1015.890837
977.835655
831.750035
596.267581
414.603949
217.503905
119.711757
45.828819
25.703907
22.172928
30.751824
49.300790
66.974759
93.812943
113.135576
132.650733
141.465664
137.890577
127.559900
105.148554
85.856915
60.127974
44.400692
28.162599
21.210909
15.180707
12.940764
12.333989
11.907816
12.463927
12.336969
12.852550
12.990832
13.073683
13.492703
13.924837
13.763905
13.616681
13.894439
13.750792
13.593435
13.682842
13.550520
12.807846
13.134480
13.512969
12.849569
12.862682
12.614727
12.778640
11.945963
11.999607
11.918545
11.278987
11.770725
11.441708
11.766553
11.606812
##ZVALUE=300
0.532866
0.497699
0.576973
0.494719
0.443459
0.426769
0.575781
0.518560
0.520945
0.394583
0.355840
0.620484
0.553727
0.545979
0.725985
0.689626
0.814795
0.605583
0.639558
0.743866
0.816584
0.796914
0.800490
0.890493
1.040697
0.897646
1.110435
1.298785
1.350641
1.256466
1.569986
1.773834
8.296967
27.672648
92.717409
180.818439
374.935865
563.879013
819.591880
970.258713
1015.890837
1015.890837
910.514593
741.986632
492.405891
320.830941
160.046816
86.411834
32.782555
18.387437
19.769669
26.993752
43.436885
59.282780
85.732937
106.292963
125.741959
134.265423
132.435560
124.720931
103.765726
85.522532
61.927438
47.234893
30.676723
22.606850
16.192794
14.139414
12.765527
12.913942
12.539625
12.766719
13.320446
13.421774
14.142990
14.257431
13.698936
13.560653
13.569593
13.686419
13.301969
13.057590
13.024807
12.998581
12.731552
12.962818
12.742877
11.992455
11.995435
12.314916
12.417436
11.728406
11.792779
11.314750
11.385679
11.495948
##ZVALUE=305
0.385642
0.411868
0.407696
0.494719
0.399947
0.420809
0.506639
0.436902
0.396967
0.415444
0.455976
0.474453
0.449419
0.577569
0.576973
0.514984
0.574589
0.640750
0.618696
0.690818
0.641942
0.771880
0.606775
0.673532
0.866652
0.854731
0.990629
0.850558
1.017451
1.267791
1.100898
1.490712
1.529455
1.760721
2.798438
18.588901
50.645471
148.264766
269.751549
490.766764
686.039925
915.738940
1015.892029
1015.892029
987.321734
784.904957
604.915619
378.794670
236.335993
107.844472
53.043962
20.443797
14.059544
18.689632
26.534796
43.493509
59.241652
82.748532
101.995468
120.793581
128.196478
126.507878
117.367506
99.876523
82.189441
57.990551
44.397712
29.620528
20.885468
16.180873
13.892651
12.667775
13.284683
12.585521
13.266802
12.803674
12.347698
12.551546
12.925863
13.319850
13.174415
12.928843
12.928843
12.701750
13.075471
12.691617
13.077855
12.632608
12.069941
12.087822
12.161732
11.529922
11.532903
11.274815
11.248589
10.994673
##ZVALUE=310
0.461936
0.573993
0.446439
0.288486
0.418425
0.438690
0.495911
0.597835
0.596642
0.492930
0.559688
0.689626
0.561476
0.569820
0.431538
0.549555
0.623465
0.590682
0.560880
0.679493
0.478625
0.528693
0.612736
0.596642
0.816584
0.758767
0.705719
0.650883
0.968575
1.031756
1.094937
0.984669
1.005530
1.311898
1.387596
1.593828
1.878738
7.826686
26.041865
89.326501
180.251002
375.119448
562.961698
819.422007
980.919600
1015.890837
1015.890837
910.165906
746.284723
494.180918
328.675508
163.902640
85.943937
32.618642
15.398860
12.837648
15.755892
24.673939
35.581589
54.609776
72.191954
96.093416
110.068917
120.092630
121.317506
112.218857
100.201964
78.989863
61.138868
41.761994
30.764937
21.205544
16.613603
13.231635
12.417436
12.159944
12.230873
11.797547
11.678934
12.004972
12.432933
12.318492
12.323856
12.378693
12.196898
12.219548
12.058616
11.988878
12.045503
11.708736
11.586547
11.801720
11.341572
10.658503
10.801554
10.989904
##ZVALUE=315
0.330806
0.395775
0.320673
0.453591
0.379682
0.326633
0.455976
0.374913
0.434518
0.554919
0.326633
0.476837
0.255704
0.424981
0.488758
0.405908
0.499487
0.535846
0.382662
0.540614
0.538826
0.673532
0.623465
0.700951
0.499487
0.733733
0.552535
0.650883
0.790954
0.637770
0.951886
0.871420
0.838637
1.015663
1.164675
1.002550
1.313686
1.477599
1.561642
3.233552
13.354421
54.838657
125.425458
292.972922
464.429855
733.767748
913.564563
1015.892029
1015.892029
990.598798
842.005610
599.329472
419.492722
221.430659
120.164752
44.830441
20.594001
11.272430
11.785626
16.072989
21.719933
35.457611
47.655702
68.131685
86.011887
104.677677
112.566948
113.520622
106.779933
91.474652
76.719522
57.399869
42.647719
28.032660
20.575523
15.373826
13.181567
11.578798
11.588931
11.409521
12.093782
11.767745
11.410713
11.491776
11.894703
11.852980
11.613965
11.828542
11.522770
11.519790
11.728406
11.465549
11.073947
10.820627
10.870695
10.897517
##ZVALUE=320
0.406504
0.452995
0.240803
0.220537
0.277758
0.449419
0.354648
0.443459
0.442863
0.416636
0.497699
0.612736
0.510812
0.444651
0.540614
0.622869
0.622869
0.480413
0.475645
0.541806
0.553727
0.452995
0.557899
0.465512
0.488758
0.618696
0.631809
0.578761
0.729561
0.727773
0.943542
0.779629
0.842810
0.919700
0.981688
0.991821
1.027584
0.933409
1.169443
1.452565
1.473427
1.924634
6.124973
30.926466
79.151988
210.945606
351.901054
586.727858
779.891014
995.085835
1015.890837
1015.890837
934.349895
705.359578
514.811873
284.509659
162.073970
68.217516
31.033754
12.258887
9.221435
10.827780
13.464689
20.480752
28.999448
46.321750
60.876608
80.576539
95.345974
107.088685
108.956695
101.891756
89.785457
71.134567
55.231452
37.593842
28.372407
19.591451
15.222430
12.546778
11.246800
11.332631
10.639429
11.274815
11.027455
11.293888
10.885596
10.842681
11.093616
11.105537
10.746717
11.250973
10.589957
10.988712
10.755658
10.626912
##ZVALUE=325
0.384450
0.315905
0.452995
0.208616
0.467896
0.398755
0.516772
0.326633
0.544786
0.414848
0.267625
0.292659
0.485778
0.401735
0.424981
0.361800
0.350475
0.435710
0.493526
0.412464
0.536442
0.437498
0.472665
0.423789
0.556707
0.413656
0.566840
0.539422
0.620484
0.808835
0.715852
0.602603
0.764728
0.740886
0.643730
0.726581
0.728965
0.864863
0.830889
1.051426
1.018643
1.369715
1.454949
1.765490
3.395677
20.036697
53.344965
143.309832
260.003805
484.059453
677.662492
914.472938
1015.890837
1015.890837
990.576744
770.116448
572.159886
337.243676
205.824971
93.201995
44.844747
15.389919
9.596944
8.876920
9.635687
13.377666
18.718839
29.679537
42.423606
61.689615
76.010823
93.254447
99.718571
100.899935
95.031857
80.401897
67.548752
49.182773
36.631823
25.256872
18.567443
13.991594
12.327433
11.288524
10.970831
10.921955
10.742545
11.062622
10.634661
10.681748
10.644794
10.405779
10.346770
10.563731
10.461807
10.422468
##ZVALUE=330
0.291467
0.291467
0.073910
0.280738
0.354648
0.242591
0.256896
0.326633
0.379682
0.464916
0.231862
0.428557
0.341535
0.309944
0.339746
0.430942
0.397563
0.375509
0.419617
0.505447
0.483990
0.467896
0.312924
0.450611
0.442863
0.451803
0.426769
0.451803
0.606775
0.552535
0.537634
0.550747
0.689626
0.738502
0.652671
0.641942
0.688434
0.966787
0.843406
0.853539
0.813603
0.956655
0.934601
1.131892
1.330972
1.277924
1.921654
8.953810
29.241443
95.280409
183.878541
371.322036
549.885035
793.219805
945.170522
1015.890837
1006.173491
843.802691
669.251680
427.743793
276.339650
128.725767
64.865947
23.522973
11.427999
8.136630
8.232594
9.604692
12.251735
18.972754
26.728511
41.785836
54.739714
73.976517
85.869431
94.309449
95.279813
89.160800
78.261495
61.472654
47.765970
33.487678
25.940537
18.467903
14.838576
12.141466
11.194944
10.609627
10.623932
10.474920
10.321736
10.318756
10.455847
10.357499
10.207891
10.162592
##ZVALUE=335
0.477433
0.231862
0.313520
0.368953
0.457764
0.426769
0.467896
0.166893
0.365973
0.335574
0.243783
0.350475
0.284910
0.270605
0.304580
0.262856
0.528693
0.200868
0.335574
0.412464
0.348687
0.473857
0.290871
0.521541
0.536442
0.427961
0.497699
0.529885
0.445843
0.655651
0.440478
0.548959
0.436902
0.468493
0.533462
0.536442
0.534654
0.868440
0.949502
0.759959
0.654459
0.839829
0.735521
0.741482
0.723600
1.087785
1.148582
1.287460
1.530647
4.060864
14.617443
58.199763
123.072863
275.416970
442.148447
694.902539
866.478682
999.800563
1006.257534
892.115831
741.735697
502.029657
340.549946
177.436471
93.390942
32.888651
14.722943
8.532405
8.165836
8.277893
9.520650
12.760758
17.619729
28.143525
38.532615
54.837465
67.037940
81.373453
87.209940
88.317990
83.359480
70.816875
60.884953
47.111511
36.440492
25.426745
19.606948
14.506578
12.368560
10.995865
10.489821
10.038614
10.161996
9.558797
9.872913
9.638667
##ZVALUE=340
0.131726
0.111461
0.026822
-0.053644
0.182986
0.115633
0.148416
0.143647
0.114441
0.283718
0.306964
0.123978
0.125766
0.179410
0.203848
0.290871
0.196695
0.192523
0.150800
0.044703
0.090599
0.038743
0.038743
0.101924
0.317693
0.338554
0.209808
0.285506
0.229478
0.279546
0.346899
0.357628
0.290871
0.442863
0.273585
0.259876
0.457764
0.366569
0.457764
0.566840
0.589490
0.474453
0.516772
0.449419
0.576973
0.632405
0.668764
0.901818
0.883937
1.034737
1.172423
1.925826
6.826520
35.652518
86.758733
215.825438
360.413790
583.961010
752.138495
918.916464
968.267918
907.232761
785.988569
577.678680
403.863788
210.826993
117.580891
47.450662
20.033717
8.850694
7.930994
7.923841
8.027554
9.422898
12.066960
18.562675
25.366545
38.106441
50.123930
66.663623
75.750947
82.345605
84.112883
79.421997
71.124434
57.343841
46.378970
33.057928
25.656819
18.203855
14.169812
11.380911
10.392666
9.416938
9.257793
9.189844
##ZVALUE=345
0.205636
0.321865
0.247955
0.236630
0.272989
0.303984
0.389814
0.240803
0.247955
0.181794
0.232458
0.345707
0.155568
0.334978
0.433922
0.419617
0.392795
0.256896
0.373721
0.303984
0.340939
0.291467
0.292659
0.198483
0.393987
0.286698
0.332594
0.142455
0.632405
0.301600
0.481606
0.388622
0.487566
0.592470
0.539422
0.578761
0.440478
0.460744
0.329614
0.672936
0.465512
0.567436
0.730753
0.696778
0.764728
0.721812
0.652671
0.833869
0.628829
0.926852
1.037717
1.206994
1.149774
1.264811
3.844500
15.177727
63.909888
132.663846
283.193588
433.270931
665.393472
824.173689
947.764516
951.978564
832.815766
686.634779
460.602641
300.630927
137.596726
68.462491
24.028420
11.780858
8.199811
7.820725
8.224845
8.057952
8.906722
11.491776
16.577840
23.480654
35.835505
45.635700
59.040785
67.837834
75.658560
77.524781
73.630810
67.278743
54.764748
45.068860
33.485889
25.255680
17.904639
14.180541
11.329651
10.302663
##ZVALUE=350
0.305772
0.205636
0.265837
0.227690
0.329614
0.233650
0.312924
0.235438
0.420809
0.269413
0.275970
0.289679
0.290871
0.319481
0.294447
0.238419
0.355840
0.339746
0.347495
0.384450
0.366569
0.380874
0.255704
0.404716
0.462532
0.308752
0.406504
0.396967
0.408888
0.317693
0.471473
0.478625
0.266433
0.423789
0.475645
0.351667
0.472665
0.590682
0.619888
0.490546
0.554919
0.532866
0.486970
0.550747
0.452995
0.729561
0.528693
0.696778
0.865459
0.842810
0.733733
0.830889
0.792742
0.829697
1.098514
1.174808
2.107620
7.745624
36.812425
84.958673
206.073523
344.641805
569.386482
735.595822
894.885659
935.053825
872.290730
745.216608
513.599515
349.013805
185.928941
99.929571
35.978556
16.227961
8.380413
7.665753
7.172823
7.439852
7.606745
8.457899
11.027455
14.986992
21.781921
29.777884
41.581988
51.185489
61.895847
68.199635
71.268678
69.515705
61.626434
52.920580
41.901469
32.334924
23.412704
17.896891
##ZVALUE=355
0.208616
0.207424
0.260472
0.340939
0.270605
0.250936
0.207424
0.136495
0.239611
0.235438
0.237823
0.371933
0.270605
0.415444
0.362992
0.249743
0.388622
0.232458
0.434518
0.269413
0.362992
0.363588
0.256896
0.374913
0.447631
0.371933
0.455976
0.238419
0.381470
0.605583
0.589490
0.326633
0.357628
0.456572
0.450611
0.446439
0.472665
0.329614
0.435710
0.422597
0.488758
0.418425
0.483990
0.477433
0.475645
0.603795
0.590682
0.542998
0.710487
0.604987
0.708699
0.867844
0.787973
0.995994
0.939965
0.825524
1.043677
1.125932
1.294613
4.560947
16.427636
63.850880
130.304694
272.557735
422.827005
642.962456
791.825652
897.445679
887.818933
764.985681
614.987016
402.996540
254.339576
113.775730
55.312514
18.334985
9.477735
7.228851
6.832480
6.693602
6.601810
7.115602
8.293986
10.104775
12.727976
19.327998
25.928617
36.683679
44.927597
55.733919
61.514974
64.645410
63.412786
57.619810
50.804615
40.907860
##ZVALUE=360
0.327826
0.215769
0.346899
0.419617
0.251532
0.059605
0.282526
0.387430
0.433922
0.398755
0.358820
0.351667
0.292659
0.278950
0.173450
0.250936
0.334978
0.189543
0.299811
0.406504
0.364780
0.404716
0.407696
0.394583
0.297427
0.378489
0.260472
0.421405
0.393987
0.485778
0.332594
0.533462
0.454783
0.450611
0.447631
0.568628
0.415444
0.396967
0.644922
0.308752
0.358820
0.375509
0.542998
0.588894
0.528693
0.540614
0.511408
0.701547
0.716448
0.700951
0.625849
0.720620
0.744462
0.714660
0.742674
0.868440
0.955462
0.876784
1.123548
1.263618
1.348853
2.237558
7.320642
33.138990
81.925988
200.236440
331.161022
533.235669
695.948601
849.261880
880.456567
813.300610
682.605505
466.993451
310.666561
151.467919
79.505444
30.123591
12.855530
6.840825
6.911755
6.424785
6.364584
6.502867
6.561875
7.187724
8.532405
11.513829
15.052557
22.106767
29.198527
39.422512
47.297478
55.262446
58.277845
58.269501
##ZVALUE=365
0.188947
0.208616
0.281930
0.389814
0.237823
0.294447
0.134706
0.057817
0.319481
0.213981
0.272989
0.218749
0.390410
0.219941
0.244975
0.314713
0.256896
0.232458
0.284910
0.340939
0.399947
0.186563
0.335574
0.457764
0.224710
0.189543
0.342727
0.227690
0.528693
0.378489
0.378489
0.309944
0.522733
0.391603
0.384450
0.373721
0.394583
0.491738
0.494719
0.426769
0.577569
0.461936
0.376701
0.396967
0.327826
0.407696
0.523925
0.348687
0.457764
0.616908
0.702739
0.491738
0.479817
0.585914
0.722408
0.760555
0.635982
0.945926
0.815988
0.868440
1.011491
1.073480
1.301765
1.574755
3.029704
16.953945
49.345493
136.416554
246.766806
441.834927
601.101518
776.808858
854.674578
830.189586
730.247498
531.504750
374.525785
205.516815
111.652613
42.376518
17.643571
7.403493
6.161928
6.195903
6.146431
5.933642
6.142855
6.091595
6.281734
7.278919
9.249449
13.191700
17.550588
24.930835
32.287836
40.970445
##ZVALUE=370
0.269413
0.155568
0.395775
0.240803
0.145435
0.175834
0.148416
0.183582
0.198483
0.150800
0.114441
0.289679
0.242591
0.179410
0.261664
0.301600
0.375509
0.301600
0.380874
0.411868
0.270605
0.395775
0.198483
0.425577
0.229478
0.219941
0.420809
0.322461
0.360608
0.355840
0.345707
0.325441
0.401735
0.285506
0.366569
0.230670
0.223517
0.498891
0.274777
0.441670
0.453591
0.331998
0.345707
0.407696
0.475645
0.453591
0.442863
0.375509
0.455976
0.493526
0.352859
0.449419
0.489950
0.494719
0.570416
0.676513
0.677705
0.618696
0.661612
0.876784
0.752807
0.830889
0.841618
1.158714
1.017451
1.161695
1.755953
9.156466
31.003952
99.753737
186.403990
354.347825
516.066551
722.177625
822.169781
841.651559
770.820975
600.623488
440.524817
245.696902
138.202906
55.839419
25.834441
9.834766
6.320477
5.899668
5.595684
5.649924
5.368590
5.413890
5.483627
5.689859
6.397963
8.327961
10.899901
16.335845
##ZVALUE=375
0.213981
0.237823
0.117421
0.138879
0.204444
0.380874
0.249743
0.124574
0.175834
0.280738
0.218749
0.217557
0.292659
0.333786
0.141859
0.290871
0.143647
0.497699
0.222921
0.270605
0.313520
0.329614
0.282526
0.275970
0.220537
0.188947
0.181794
0.310540
0.212789
0.309944
0.330806
0.214577
0.281930
0.395775
0.387430
0.314713
0.425577
0.467896
0.539422
0.354648
0.327826
0.380874
0.354648
0.291467
0.399947
0.342727
0.383854
0.418425
0.412464
0.435710
0.420809
0.358820
0.423789
0.489950
0.408888
0.559688
0.736713
0.408888
0.386834
0.605583
0.420809
0.703931
0.688434
0.519753
0.601411
0.841618
0.833869
1.210570
1.618862
4.030466
21.959543
55.521727
144.106746
255.776644
451.012850
604.331493
765.341520
835.368633
795.103908
687.282681
489.192009
344.209671
190.724730
106.604695
41.797757
18.062592
6.960630
5.350709
5.125999
5.227923
5.321503
5.210638
4.951954
4.847646
5.149841
5.485415
##ZVALUE=380
0.126958
0.359416
0.116825
0.153780
0.204444
0.290871
0.304580
0.168681
0.156760
0.268817
0.221729
0.271797
0.164509
0.226498
0.226498
0.351667
0.185966
0.333786
0.227690
0.175834
0.277758
0.153780
0.130534
0.212789
0.238419
0.308752
0.166893
0.217557
0.292659
0.212789
0.409484
0.255704
0.411868
0.392795
0.273585
0.313520
0.237823
0.284910
0.359416
0.282526
0.408888
0.498891
0.338554
0.324845
0.205636
0.423789
0.418425
0.408888
0.345707
0.342727
0.423789
0.717640
0.324845
0.448823
0.472665
0.290871
0.370741
0.410676
0.342727
0.453591
0.563860
0.636578
0.577569
0.667572
0.641942
0.690818
0.772476
0.774860
0.985861
1.171827
1.367927
2.448559
9.166002
42.361617
97.435713
226.650834
363.772511
565.910935
710.815787
829.335451
830.753446
719.654560
586.242676
393.591523
261.880755
129.096508
66.921711
23.423433
10.581613
5.631447
4.921556
4.710555
4.600883
4.526973
4.650950
4.667640
##ZVALUE=385
0.181794
0.218749
0.151992
0.280738
0.199676
0.163913
0.046492
0.144839
0.255704
0.229478
0.071526
0.211596
0.268817
0.199676
0.172853
0.066757
0.167489
0.250936
0.127554
0.298619
0.306964
0.157952
0.398755
0.340939
0.437498
0.388622
0.253916
0.292659
0.206828
0.185966
0.263453
0.289679
0.311732
0.362992
0.284910
0.363588
0.328422
0.474453
0.293851
0.387430
0.427961
0.280738
0.178814
0.327826
0.327826
0.277758
0.334978
0.333786
0.343919
0.379682
0.237823
0.390410
0.352859
0.438690
0.488758
0.403523
0.386834
0.486970
0.271797
0.434518
0.591874
0.415444
0.590682
0.462532
0.632405
0.576973
0.682473
0.788569
0.818968
0.863671
1.029968
1.130700
1.120567
1.452565
4.956722
17.846823
64.727664
139.570832
300.641656
457.461476
668.644905
783.787966
838.388801
802.459717
664.578676
525.467992
327.715874
206.556916
93.408823
46.648979
15.571713
6.952882
4.588962
4.239678
4.396439
4.147887
##ZVALUE=390
0.104904
0.020862
0.129938
0.267625
0.147820
0.335574
0.146627
0.121593
0.243783
0.310540
0.209808
0.329614
0.336766
0.202656
0.247955
0.233650
0.113845
0.073910
0.191927
0.177622
0.241995
0.031590
0.060797
0.278950
0.118613
0.277758
0.233650
0.336766
0.185966
0.406504
0.303984
0.284910
0.272989
0.319481
0.315905
0.233650
0.315905
0.426769
0.442863
0.407696
0.423789
0.357628
0.320673
0.336766
0.513792
0.139475
0.287890
0.343919
0.354648
0.403523
0.294447
0.195503
0.478625
0.333786
0.302792
0.328422
0.308752
0.311732
0.229478
0.435710
0.456572
0.447631
0.418425
0.651479
0.598431
0.531673
0.559688
0.723600
0.786781
0.861883
0.929832
0.988841
1.131892
1.077652
1.094937
1.251698
1.946688
12.266636
37.518740
113.409758
215.262771
407.672524
563.578010
744.903684
826.646686
842.037797
771.271586
604.110956
458.202958
276.445746
158.940554
64.626932
29.537678
9.613633
5.107522
4.202724
##ZVALUE=395
0.146627
0.160933
0.234842
0.081658
0.256896
0.168681
0.198483
0.157952
0.284910
0.119805
0.157952
0.159740
0.278950
0.219941
0.202656
0.161529
0.247955
0.164509
0.118613
0.207424
0.311732
-0.059605
0.364780
0.208616
0.221729
0.180602
0.265837
0.285506
0.287890
0.417829
0.409484
0.344515
0.432730
0.498891
0.577569
0.395775
0.410676
0.343919
0.282526
0.383854
0.402927
0.481606
0.400543
0.354648
0.395775
0.342727
0.381470
0.347495
0.335574
0.499487
0.482798
0.386834
0.373721
0.392795
0.498891
0.450611
0.307560
0.463724
0.296831
0.442863
0.565648
0.380874
0.473857
0.464916
0.415444
0.474453
0.570416
0.634789
0.693798
0.785589
0.836849
0.905991
0.953674
0.742674
0.831485
0.871420
0.971556
1.181960
1.410842
6.910563
25.059581
85.998774
162.367821
306.048989
454.114676
653.384924
773.433447
844.393969
813.701749
686.397552
534.745455
326.719880
201.714635
86.731911
41.243434
13.971925
##ZVALUE=400
0.205636
0.152588
0.109673
0.177622
0.189543
0.232458
0.215769
0.004768
0.190735
0.262856
0.100732
0.135899
0.066757
0.207424
0.218749
0.256896
0.086427
0.160933
0.129938
0.183582
0.272989
0.168681
0.177622
0.334978
0.342727
0.340939
0.267625
0.241995
0.463724
0.311732
0.277758
0.384450
0.318885
0.413656
0.437498
0.399947
0.290871
0.470877
0.444651
0.127554
0.299811
0.414848
0.246763
0.308752
0.373721
0.197887
0.375509
0.520945
0.490546
0.445843
0.533462
0.348687
0.368953
0.339746
0.447631
0.471473
0.336766
0.407696
0.340939
0.264645
0.318885
0.452995
0.437498
0.449419
0.387430
0.464916
0.491738
0.713468
0.590682
0.615716
0.719428
0.824928
0.737906
0.692606
0.834465
0.622869
0.915527
0.764728
0.848770
1.103878
1.205802
3.796816
13.104677
48.824549
105.438828
233.884454
369.190574
568.227768
695.254803
801.651478
808.499455
704.467893
582.273006
396.466851
261.644721
132.356882
##END
