##TITLE=FQP00651
##FORMAT=SPECTACLE-ASCII V-1.2
##DATA TYPE=ULTRAVIOLET SPECTRUM
##SECOND TYPE=ULTRAVIOLET SPECTRUM
##DATE=04/11/18
##TIME=15:37:56
##SPECTROMETER/DATA SYSTEM=SPECTACLE
##XUNITS=NM EM
##YUNITS=ENERGY
##YFACTOR=1
##FIRSTX=220
##LASTX=410
##NPOINTS=96
##3DDATA=Equidistant
##ZUNITS=NM EX
##FIRSTZ=210
##LASTZ=400
##ZPOINTS=39
##XYDATA=(Y..Y)
##ZVALUE=210
2.480745
2.360940
2.677441
2.274513
2.461672
2.955794
2.698898
3.458858
2.928972
2.629757
2.523661
2.303720
2.409816
2.391934
2.309680
2.779961
2.438426
2.737641
3.171563
3.060699
2.927780
2.859831
2.814531
3.502965
4.099607
3.339648
3.837943
4.405975
4.320741
5.003810
5.878806
5.285740
4.798770
6.168485
5.393624
5.659461
6.242990
5.431771
6.063581
5.707741
5.993843
5.284548
4.764795
5.578995
5.091429
5.820990
4.141927
4.545450
5.898476
5.229712
4.952550
5.177855
4.958510
5.522966
5.018711
4.892945
4.709959
5.107522
5.309582
4.633665
4.733801
4.357696
5.418658
4.870892
4.408956
5.173683
5.472898
5.245805
6.296635
6.579757
7.908940
8.911490
9.616613
9.448528
10.528564
13.033748
11.292696
10.345578
11.207461
10.453463
9.368658
8.736849
7.787943
5.973577
6.558895
6.194711
5.855560
4.775524
4.449487
4.354715
4.788637
4.248619
4.786849
4.601479
4.888773
5.591512
##ZVALUE=215
6.330609
5.822778
5.617738
5.016923
4.536510
5.156994
4.606843
4.391670
5.863905
4.618764
5.337000
4.659891
3.929734
3.923774
3.006458
2.892613
3.056526
2.647638
2.641678
2.543926
3.038645
3.219843
3.614426
3.507733
3.844500
3.802776
4.977584
5.191565
5.314946
5.437732
6.477833
7.122755
8.134842
7.494688
7.707477
8.695722
8.191466
7.452965
7.441640
6.888509
6.142855
7.661581
6.887913
7.356405
6.624460
5.913973
6.998777
6.149411
5.474687
6.342530
5.867481
6.031990
5.703568
5.625486
6.086826
5.714893
5.388856
5.193949
5.409718
5.345941
5.252957
5.709529
5.576611
5.191565
5.247593
5.884767
5.234480
6.503463
5.977750
6.618500
8.189678
8.359551
9.416938
10.709763
10.726452
10.999441
11.682510
10.859966
9.539723
10.457635
9.528995
8.255839
8.041859
7.415414
5.486608
5.589724
5.069971
4.537702
5.480647
5.257726
5.256534
4.288554
4.871488
4.619956
4.948974
4.908442
##ZVALUE=220
20.968914
22.560954
23.202896
19.985437
18.663406
14.264584
12.603998
10.053515
10.265708
10.582805
11.718869
10.916591
12.090802
10.105968
9.221435
7.320642
5.551577
4.446507
4.090667
3.642440
2.895594
3.637671
3.468990
4.055500
4.412532
5.300641
5.862713
6.011724
7.362962
8.850694
9.556413
9.948611
10.965466
11.124611
11.699796
10.808706
13.043880
11.914968
10.468960
9.810925
10.388494
9.736419
9.815693
8.977652
8.866787
7.369518
8.017421
8.388758
7.716417
7.940531
7.750988
7.367730
7.751584
6.898642
6.362796
6.510615
6.917715
6.897449
5.364418
5.570650
6.925464
5.338788
6.071925
6.566644
5.539656
5.437732
6.408691
6.996989
7.288456
7.706881
7.948875
10.149479
10.296702
10.195971
12.085438
12.365580
11.709929
10.972619
10.378957
9.958744
9.772778
8.091927
8.492470
8.214712
7.248521
6.350875
7.178783
5.446672
6.272793
5.836487
5.517602
5.748868
6.023645
4.952550
5.774498
4.723668
##ZVALUE=225
36.729574
40.411949
53.502917
58.814883
66.667795
61.909556
54.958463
44.207573
32.675862
29.115677
21.025538
21.263957
21.996498
23.659468
24.931431
23.925900
20.865798
15.575886
12.866855
7.688999
5.816817
4.714727
4.664660
5.019903
5.069971
6.124973
7.657409
7.380843
8.985996
10.854602
11.370778
12.477636
13.079643
13.487935
14.517903
14.198422
13.788939
15.528798
14.175773
12.811422
13.230443
12.566447
13.005733
12.282729
10.281801
10.839701
11.403561
9.755492
8.473992
8.636713
8.741617
8.715987
8.980632
9.692907
7.646680
7.645488
7.234812
7.102489
8.463860
6.951690
7.497668
7.363558
7.574558
6.596446
7.784963
7.057786
7.641912
7.780790
8.012652
9.306669
10.094643
11.021495
11.812449
12.160540
11.746883
13.826489
12.258887
10.569692
10.496974
12.192726
9.904504
10.139942
9.436607
7.844567
8.248687
8.404851
6.855726
7.116795
6.474853
6.916523
7.524490
7.681847
6.778836
6.651878
6.911755
6.614923
##ZVALUE=230
35.165548
37.438869
64.627528
86.828470
117.611885
139.732957
152.367949
152.437687
132.473707
106.103420
75.617433
55.799484
46.825409
39.762855
40.950775
46.107769
49.317479
48.607588
42.239428
33.314824
25.999546
18.018484
12.460947
8.861423
6.084442
6.030798
5.713701
8.115768
8.704662
10.050535
9.917617
12.038946
13.159513
12.377501
13.269782
13.663769
14.667511
12.397766
13.065934
14.632940
12.924671
13.128519
11.710525
11.602640
11.454821
10.874867
10.296702
10.610819
9.799600
10.088682
9.792447
8.735657
8.501410
9.260774
7.619858
9.404421
8.585453
8.799434
8.451939
9.455681
8.932948
8.334517
8.174777
9.793639
7.813573
9.250641
9.191632
10.105968
10.872483
10.229945
11.927485
11.596680
13.565421
14.533997
16.420484
14.436841
15.777946
14.377832
12.779832
13.852715
12.902617
11.910796
11.562705
11.641979
10.575652
10.109544
9.321570
9.719729
10.786653
10.004640
9.234548
9.401441
10.057688
9.154677
9.155869
9.594560
##ZVALUE=235
11.842847
14.021993
31.773448
71.130991
109.069943
170.233846
222.085714
284.480453
301.460624
295.267701
263.845921
214.282870
154.092908
109.250546
78.454614
70.009828
67.260861
72.458982
78.346729
78.127980
72.483420
62.835813
49.810410
34.728646
24.535656
14.777780
11.149645
9.126663
7.996559
7.909536
8.896589
9.697676
10.885000
11.024475
10.404587
11.105537
10.476708
11.169910
11.215806
12.055635
12.352467
10.612607
11.298656
10.604858
11.079907
9.978414
9.562969
10.343790
11.513829
10.048747
10.251999
9.916425
10.030866
10.107756
10.544658
9.778738
10.366440
9.551644
9.445548
9.162426
10.040998
9.601712
10.245442
10.410547
10.770559
11.496544
13.034940
11.634827
12.328625
12.631416
13.568997
16.302466
15.541911
16.242862
16.498566
17.129779
16.383529
17.118454
16.735792
17.074943
17.271638
15.401840
14.593601
14.072657
14.345646
13.505816
13.448000
12.872815
13.015866
13.324618
13.003945
13.190508
12.662411
12.054443
12.745857
12.353659
##ZVALUE=240
2.004504
3.198981
6.955862
17.093420
37.148595
93.890429
156.420469
265.975595
351.569653
452.786684
487.554669
474.581718
431.662798
345.172882
266.416669
171.382427
127.694607
94.900727
92.647672
98.059773
108.484626
110.244751
111.734867
98.905563
77.428818
67.142844
46.001673
31.864643
19.777417
12.976527
11.359453
9.820461
9.899735
8.903742
10.808706
10.259748
11.154413
10.580420
10.663867
11.471510
11.969805
11.800528
11.707544
11.366606
11.615753
11.008978
10.966659
13.158917
11.239648
11.894703
10.439754
10.351539
11.225939
11.198521
10.993481
12.494922
10.529757
11.222959
12.030602
11.378527
11.641979
11.112690
11.634827
11.274815
12.073517
12.350678
12.509823
13.482571
14.337897
14.865994
16.446710
16.415715
17.759800
18.596649
18.150806
21.360517
20.544529
20.330548
19.518733
18.412471
19.332767
18.172860
18.046498
16.919971
16.793609
16.297698
16.631484
15.574694
17.218590
17.725825
17.478466
14.484525
15.052557
15.091896
14.181733
15.270710
##ZVALUE=245
1.681447
1.763701
1.943707
1.828671
3.819466
11.228919
37.388802
78.493953
171.838999
262.585878
415.409803
512.345433
577.349663
599.460006
568.027496
465.616584
378.849506
250.992775
176.701546
114.488602
98.297596
96.801519
111.503601
122.485757
125.705600
123.930573
108.805895
91.468692
72.651505
54.343939
38.583875
25.043488
16.897917
11.887550
10.556579
11.033416
10.887980
10.815859
12.055635
12.587905
12.556911
13.112426
11.900663
11.671782
11.622906
12.818575
12.213588
12.129545
11.602640
10.246634
11.325479
11.087656
11.708736
12.020469
10.468960
9.872913
8.741617
10.674000
10.817647
10.133982
10.725856
10.164976
10.652542
11.485815
12.092590
11.645555
11.324883
12.501478
13.838410
13.897419
15.425682
16.600490
16.276836
17.871857
18.159747
18.649697
19.109845
19.067526
17.882586
17.378926
17.892718
17.670989
17.988682
16.094446
17.457604
15.887618
18.505454
17.771721
16.284585
17.032623
15.568733
16.746521
16.562939
15.945435
13.981462
15.841722
##ZVALUE=250
1.422763
1.685619
1.310706
1.888871
1.792908
1.718998
3.028512
7.852912
29.955506
66.502690
159.079432
260.433555
376.744866
530.586839
621.353984
691.960454
682.884455
596.359968
508.080721
347.966552
240.528584
161.140561
102.404952
90.761781
104.457736
118.562579
131.789446
133.808851
130.808949
123.128891
105.907917
79.949498
60.487986
37.843585
28.255582
17.934442
15.169978
14.737844
13.507605
13.765693
13.744831
14.263988
13.416409
14.929771
14.262795
13.843775
11.889935
11.431575
11.890531
12.415648
11.784434
11.091828
11.155605
11.255741
11.421442
10.301471
10.421872
10.072589
9.966493
9.771585
10.285974
9.803772
9.613633
9.121895
9.833574
10.365844
10.239482
11.162758
11.832714
13.140440
13.486743
14.503598
15.983582
15.203953
16.237497
16.171932
16.022921
17.561913
16.131997
17.351508
15.439987
16.597509
15.215874
17.351508
15.061498
16.117692
14.945865
15.403628
15.486479
16.317964
15.754700
16.109943
15.279651
15.741587
16.303658
16.060472
##ZVALUE=255
1.425743
1.454949
1.146793
1.356602
1.583695
1.510978
1.782775
1.759529
2.235770
4.383922
20.786524
49.621463
102.326870
218.662620
339.913964
523.427725
644.749999
757.309794
778.572559
728.055835
629.117489
502.070785
316.813588
207.072496
118.202567
94.153881
89.858770
106.523633
126.056671
145.985484
152.400732
148.019791
136.990547
108.590722
89.742541
62.840581
45.991540
30.934811
22.828579
18.087626
16.439557
14.985800
16.799569
15.108585
14.887452
13.581514
13.327599
12.697577
12.583733
12.402534
12.528896
11.249781
11.745691
11.074543
10.929704
10.166764
10.184646
9.518862
9.885430
9.585619
9.435415
9.206533
9.347796
9.371638
8.894801
9.945631
10.124445
10.121465
10.885000
11.044741
12.407899
13.624430
13.211966
13.411641
13.961792
14.449954
14.117956
14.420748
14.489889
14.491677
14.618635
14.444590
14.364719
14.761686
15.015602
15.470982
14.724731
15.089512
14.182925
14.600754
15.091896
14.821887
14.762878
14.152527
14.822483
15.608668
##ZVALUE=260
1.240969
1.334548
1.345873
1.075864
1.226664
0.919700
1.413822
1.240969
1.433492
1.596808
1.890659
2.542734
7.911921
31.425953
72.132945
178.912878
293.119550
481.054783
624.342561
802.163482
872.101784
867.837667
755.001903
616.304874
411.548018
283.790827
165.825486
108.633637
83.079934
87.944865
105.229616
132.539868
152.301788
161.740780
157.410502
144.832730
123.148561
93.033910
70.573688
49.187541
36.695600
25.854707
19.381642
17.331839
17.048717
15.548468
14.845729
15.404820
14.451742
13.263822
12.901425
11.878610
11.777878
11.452436
11.276603
10.362864
10.193586
10.008812
8.919835
9.245872
8.673668
8.592606
8.757710
8.870959
8.500814
9.474754
8.936524
10.266900
9.829998
9.475946
10.584593
10.947585
10.993481
12.490749
12.243986
12.806654
13.017654
13.087988
14.004707
12.688637
13.172626
13.273954
13.484955
13.258457
12.439489
13.786554
12.864470
13.733506
14.051795
13.218522
13.646483
13.508797
13.505816
13.528466
13.824701
14.422536
##ZVALUE=265
1.149774
1.066923
0.969768
0.963807
0.915527
0.835657
1.205802
1.014471
1.529455
1.219511
1.580715
1.571774
1.711845
2.441406
4.291534
22.131801
53.869486
137.949586
239.944458
441.206694
614.990592
778.259635
928.937793
946.537852
862.900615
735.235810
544.204712
390.709639
221.200585
143.465996
95.696449
78.306794
91.309547
125.176907
144.234896
164.906979
172.674656
158.825517
147.298574
120.840669
97.786784
69.066882
50.184727
34.480691
24.845600
18.516779
16.834736
15.516877
15.267730
13.445616
13.732910
13.030767
11.634827
11.465549
10.963678
9.757876
9.823442
9.800792
8.576512
9.628534
9.273887
8.972883
8.328557
8.362532
8.758903
7.979870
8.793473
8.862615
9.725690
9.184480
9.606481
10.120869
10.993481
11.446476
11.147857
11.290908
12.038946
11.431575
12.003779
11.917949
11.596680
11.638999
12.443662
12.074709
12.497902
12.141466
12.923479
12.411475
13.140440
12.665987
13.076663
13.046861
12.841821
12.338758
12.724996
13.123751
##ZVALUE=270
0.745654
0.498891
0.625849
0.512600
0.866652
0.779629
0.633597
0.772476
0.799894
0.951886
0.977516
1.104474
1.232624
1.320839
1.278520
1.340508
2.289414
9.806752
30.594468
94.342828
190.623999
333.713889
571.089983
751.012564
948.197842
1005.216837
969.884992
876.472592
680.601597
508.263707
355.855823
190.032721
117.860436
74.151754
73.619485
97.235441
119.240880
148.905516
162.221789
170.121789
163.453817
144.177675
122.391582
94.116926
69.116950
45.089722
32.883883
21.790862
16.332865
13.759732
13.005733
11.967421
11.722445
11.076927
10.980964
10.283589
9.738803
9.003878
8.883476
8.891821
8.602738
8.791685
7.526875
8.321404
8.199811
7.723570
8.176565
8.669496
8.326769
8.737445
9.391904
10.237694
9.494424
10.409951
10.694861
10.898709
10.875463
11.274815
11.172891
10.557771
11.209846
11.418462
11.074543
11.494756
11.184812
10.696650
11.037588
11.337996
10.685921
10.781884
11.504889
11.890531
11.691451
11.243820
12.273788
11.188984
##ZVALUE=275
0.854731
0.723600
0.951886
0.721812
0.911951
0.856519
0.748634
1.046658
0.989437
1.051426
1.039505
0.997782
1.342893
1.342893
1.087785
1.330972
1.466870
1.576543
1.880527
4.599690
17.617941
51.816702
149.029493
278.280973
506.137609
685.086846
893.078446
1003.540754
1015.887856
987.370014
869.382024
640.066862
457.775593
245.961547
147.840977
74.936748
58.099627
69.472790
87.398887
117.849708
138.146877
157.307982
162.509680
155.313611
143.330693
112.758875
92.543960
63.653588
47.847629
29.875636
20.321608
13.935566
11.638999
10.441542
9.609461
8.935928
8.934736
8.763671
8.924603
8.678436
9.025931
8.410811
8.687973
7.960796
8.940697
8.656979
8.260608
8.908510
8.940697
9.327531
9.608865
9.806752
10.433793
10.792613
10.690689
10.817647
10.452867
10.233521
10.817647
10.846853
11.106730
10.792613
10.636449
11.019707
10.889769
11.514425
11.792779
11.058450
10.984540
10.953546
11.023879
10.658503
11.083484
11.136532
11.014938
10.842681
##ZVALUE=280
0.822544
0.751615
0.921488
0.790954
0.795722
0.810623
0.682473
0.945926
0.741482
0.837445
0.982881
1.038909
0.965595
1.094937
1.125932
1.096725
1.091957
1.262426
1.465678
1.500845
1.598597
2.077818
11.283755
39.037466
118.549466
216.671824
404.993892
582.252741
817.390680
975.036621
1015.890837
1015.890837
953.418612
726.302862
535.185933
305.810571
182.150602
84.973574
52.412748
46.236515
58.159828
84.895492
109.095573
135.580897
151.508451
155.822635
151.921511
135.467649
114.162564
83.524585
63.547492
39.910674
27.728677
16.488433
11.767745
9.698868
8.971691
8.256435
8.390546
7.814765
8.378625
8.362532
8.124709
8.730888
8.779764
8.665919
8.554459
9.050965
9.072423
9.463429
9.800792
9.946823
10.444522
10.518432
10.293722
10.370612
11.182427
10.825992
10.326505
10.578632
10.395646
10.805726
10.454655
10.421872
10.696650
10.797977
10.281801
10.937452
10.696650
11.269450
10.900497
10.337830
10.798573
10.586977
10.502934
10.677576
##ZVALUE=285
0.734925
0.811815
0.796914
0.666976
0.643730
0.844598
0.672936
0.655651
0.781417
0.869632
0.764728
1.048446
0.747442
1.052618
0.895858
1.083612
0.986457
1.010895
0.790954
1.369715
1.308918
1.463890
1.752973
1.923442
5.503893
19.991994
65.882802
136.019588
290.810466
459.887385
646.301508
900.374651
1015.887856
1015.887856
1015.887856
857.310891
669.762492
413.115621
259.180665
123.814940
63.969493
35.495758
37.200451
55.606961
75.330734
103.967786
123.311877
142.669678
149.616599
147.056580
133.825541
109.313726
87.879896
60.516000
43.637753
25.111437
17.765760
11.194944
9.199977
8.612871
8.185506
8.129478
8.482933
8.131862
8.271933
8.361936
8.760691
8.856654
9.067655
10.137558
9.816885
10.797977
10.167956
10.885596
11.080503
10.845661
10.668635
10.282993
10.298491
10.784864
11.101961
10.854602
10.718703
10.498762
10.713935
10.529757
10.810494
10.752678
10.526776
10.167956
10.498762
10.782480
9.919405
10.226965
10.653734
10.655522
##ZVALUE=290
0.660419
0.643730
0.448823
0.630617
0.755787
0.681877
0.763535
0.728965
0.815988
0.400543
0.653863
0.692606
0.705719
0.736713
0.690818
0.695586
0.781417
0.775456
0.892878
0.986457
0.936985
0.941753
1.433492
1.435876
1.617670
1.539588
2.322793
7.670522
36.205649
86.593628
170.819759
359.752774
548.581481
832.268000
996.347666
1015.821695
1015.821695
952.729583
780.466795
526.577830
344.410539
172.720551
89.341998
37.793517
25.971532
36.053658
49.002767
74.785948
95.081925
121.485591
136.587620
147.304535
144.230723
127.494931
109.613538
81.555843
62.729716
39.854646
27.362704
17.344952
12.881756
9.310842
8.326769
8.566976
8.016825
8.669496
9.202957
9.225607
8.966923
10.158420
10.648966
10.198951
10.915995
10.901690
10.784864
11.367798
10.553598
10.887980
10.939837
10.674000
10.453463
10.477901
10.595918
10.548830
10.712743
10.874867
10.783672
10.132790
10.587573
10.474920
9.957552
10.262728
10.105968
9.932518
9.727478
10.530949
##ZVALUE=295
0.512600
0.552535
0.551939
0.406504
0.604987
0.575781
0.704527
0.521541
0.643730
0.716448
0.540614
0.560880
0.716448
0.700951
1.011491
0.889897
0.727773
0.778437
0.818968
0.849962
0.782609
1.049638
1.063943
1.367927
1.211762
1.375675
1.453757
1.586676
1.714826
3.593564
18.920898
53.262711
122.282505
287.190676
462.898016
727.621913
918.917656
1015.877724
1015.877724
1015.877724
896.305442
640.448928
439.768434
231.626630
124.546885
47.720671
25.771856
21.767616
30.303597
48.351884
66.499710
92.605948
112.800598
131.312609
137.840509
134.264827
125.375986
103.212595
82.594752
57.367682
41.987896
25.789738
18.091798
12.566447
10.631680
9.237528
9.853840
9.045601
9.639859
10.252595
9.780526
10.137558
10.364652
10.551810
11.014938
10.911822
11.220574
10.492802
10.898709
10.811687
10.716915
10.308623
10.543466
10.522604
10.380745
10.577440
10.578632
10.591745
10.325909
10.157824
10.350943
10.278821
9.949803
9.583831
9.535551
10.142922
##ZVALUE=300
0.634789
0.487566
0.596642
0.494719
0.740886
0.725985
0.452995
0.749826
0.524521
0.456572
0.553727
0.644922
0.790954
0.789762
0.642538
0.765920
0.842810
0.790954
0.702739
0.712872
0.832677
0.799894
0.830889
0.987649
0.972748
1.127720
1.135468
1.284480
1.208782
1.559854
1.302958
2.027750
5.906820
32.198429
81.145763
207.999945
352.275968
610.508919
817.178488
1012.967825
1015.890837
1015.890837
994.774699
759.935975
549.518466
300.256610
175.311565
78.639984
37.099719
17.996430
18.026829
27.912855
40.454865
62.619448
83.335638
108.452439
122.979879
132.771730
132.527947
117.976665
104.242563
78.443885
62.108636
41.064620
28.910637
18.193722
13.419986
10.760427
9.441972
9.433627
9.453893
10.018945
10.602474
10.741949
10.738969
10.519624
10.980964
10.793805
11.283755
10.493994
11.044741
10.883808
10.631680
11.131763
10.199547
10.786653
10.417700
10.501742
10.378957
10.217428
10.242462
10.298491
9.751916
9.934902
9.445548
9.605885
##ZVALUE=305
0.498891
0.472665
0.651479
0.404716
0.414848
0.534654
0.551939
0.610948
0.420809
0.559688
0.607967
0.589490
0.520945
0.606775
0.461936
0.531673
0.577569
0.569820
0.723600
0.694990
0.801682
0.865459
0.750422
1.003742
0.892878
1.123548
0.993609
1.053810
1.188517
1.208782
1.453757
1.264811
1.464486
1.865625
4.093647
15.182495
61.450601
135.445595
305.727720
477.834940
744.266510
939.797759
1015.892029
1015.892029
1015.892029
885.974765
625.404716
435.055494
227.821469
124.419928
46.097636
22.673607
14.450550
17.033815
26.499629
38.787723
62.770844
79.523921
102.158785
115.755796
126.789808
126.516819
114.519596
100.020766
76.507926
59.736967
39.511919
28.677583
17.945766
13.576746
11.062622
10.808706
10.427833
10.419488
10.413527
10.189414
10.389686
10.404587
10.812879
10.596514
10.483861
10.520816
10.701418
10.906458
10.603666
10.761619
10.545850
11.001825
10.659695
10.313988
9.928942
9.853840
10.288954
9.892583
9.806752
9.877682
##ZVALUE=310
0.292659
0.482798
0.436902
0.381470
0.451803
0.401735
0.455976
0.641942
0.414848
0.597835
0.406504
0.512600
0.546575
0.560880
0.539422
0.528693
0.615716
0.409484
0.609756
0.556707
0.592470
0.757575
0.676513
0.734925
0.838637
0.864863
0.845790
0.891685
0.714660
0.838637
1.099706
1.132488
1.356602
1.381636
1.458526
1.555681
2.008677
8.372664
27.504563
90.464950
182.373524
381.279588
582.131743
860.517025
1015.890837
1015.890837
1015.890837
968.648791
791.171789
521.924496
341.567993
168.761611
88.321567
32.018423
15.167594
11.859536
15.015602
23.957491
33.941865
53.663850
69.484711
92.857480
107.551813
117.836595
119.763613
110.183954
97.388625
75.624585
58.770776
39.096475
29.029846
19.271970
14.643669
11.237860
10.543466
10.603666
10.052919
10.049939
9.995699
10.322928
10.261536
10.701418
10.178685
10.818839
10.736585
10.190606
10.278821
10.606647
10.321736
10.502934
10.302663
10.139942
9.850860
9.483695
10.174513
10.087490
##ZVALUE=315
0.549555
0.502467
0.451803
0.554919
0.470877
0.497699
0.569820
0.259876
0.260472
0.463724
0.413656
0.526905
0.408888
0.486970
0.465512
0.752807
0.432730
0.460744
0.575781
0.456572
0.548959
0.521541
0.690818
0.409484
0.586510
0.603795
0.732541
0.734925
0.823736
0.855923
0.884533
1.020432
1.008511
0.940561
1.136661
1.316667
1.349449
1.572967
1.617670
3.736615
12.809634
56.101680
127.944946
292.130709
466.951728
742.214918
918.108821
1015.890837
1015.890837
1004.737020
865.540504
620.067716
433.616638
229.628682
122.944713
46.734810
19.948483
10.289550
10.814667
14.288425
20.135641
34.452677
46.217442
66.938996
84.474683
102.254748
110.615492
111.376643
106.408596
89.340806
74.488521
53.422451
39.840937
26.343465
19.184947
13.806820
11.590719
10.481477
10.461807
10.195971
10.065436
10.274649
10.404587
10.121465
10.384917
10.526776
10.208488
10.384917
9.895563
10.246634
9.787679
9.703636
10.154843
10.065436
9.691715
9.904504
##ZVALUE=320
0.215769
0.191927
0.205636
0.143647
0.203848
0.351667
0.188947
0.302792
0.377893
0.294447
0.273585
0.353456
0.251532
0.302792
0.424981
0.222921
0.154972
0.310540
0.377893
0.258684
0.349879
0.421405
0.483990
0.316501
0.367761
0.435710
0.681877
0.621676
0.735521
0.577569
0.560880
0.587702
0.713468
0.728965
0.695586
0.790954
1.013875
0.869632
1.043677
1.179576
1.298785
2.061725
6.503463
35.129786
84.434748
215.933919
358.455777
597.585440
792.595744
999.419689
1015.720963
1015.720963
965.797901
731.474757
532.365441
294.026732
167.520642
70.260763
31.156540
11.940002
8.929968
10.363460
12.786984
19.377470
27.777553
45.280457
59.588552
80.173612
94.110966
105.545521
106.444955
99.574924
88.802576
69.496632
53.954720
37.166476
26.868582
18.429756
14.141798
11.421442
10.448694
9.878874
10.430813
9.844899
9.839535
10.348558
9.943843
9.990931
9.834766
9.964705
10.018945
9.792447
9.787679
9.505749
9.833574
9.699464
##ZVALUE=325
0.369549
0.394583
0.467896
0.359416
0.334978
0.449419
0.368953
0.535846
0.398755
0.441670
0.302792
0.410676
0.616908
0.471473
0.313520
0.392795
0.468493
0.398755
0.447631
0.388622
0.436902
0.458956
0.698566
0.478625
0.597835
0.688434
0.470877
0.509620
0.590682
0.718832
0.599623
0.551939
0.629425
0.704527
0.720620
0.831485
1.036525
0.952482
1.008511
1.216531
1.103878
1.202822
1.421571
1.648664
3.171563
21.358728
56.200624
148.279667
266.895890
497.925878
690.960884
929.358602
1015.890837
1015.890837
1003.180742
791.513920
596.857667
362.125635
216.366649
95.278621
45.228601
15.592575
9.211898
8.336902
9.370446
12.723804
18.484592
29.473901
41.911602
59.664845
74.749589
90.953708
99.204779
100.501776
93.884468
79.878569
66.610575
48.611760
36.355853
24.377704
18.756986
13.150573
11.487603
10.603666
10.247827
10.215640
10.175705
10.283589
9.838939
9.714961
9.896755
9.942651
10.187626
9.524822
9.809732
9.962916
##ZVALUE=330
0.473857
0.494719
0.328422
0.479817
0.609756
0.428557
0.618696
0.461936
0.542998
0.440478
0.556707
0.527501
0.448823
0.535846
0.523925
0.650883
0.681877
0.521541
0.532866
0.664592
0.583529
0.605583
0.616908
0.636578
0.638962
0.767708
0.682473
0.710487
0.621676
0.598431
0.661612
0.764728
0.648499
0.620484
0.832677
0.843406
0.857711
1.039505
0.861883
0.983477
1.140833
1.220703
1.092553
1.243949
1.284480
1.551509
2.129674
9.357929
30.017495
98.640919
190.646648
383.142829
567.337871
818.006992
969.761014
1016.019583
1016.019583
865.780711
694.782734
444.064736
284.193754
130.204558
66.186786
23.878813
11.152625
8.081794
8.290410
9.645820
12.133718
19.252896
26.821494
41.042566
54.614544
73.171854
85.358620
95.340610
94.566941
88.479519
78.512430
60.678720
47.545433
32.912493
25.054812
17.793775
14.534593
11.640787
10.857582
10.011792
9.838939
9.950995
9.598732
9.586811
9.344816
9.840727
9.602904
9.183884
##ZVALUE=335
0.278950
0.430942
0.344515
0.215769
0.395775
0.345707
0.341535
0.420809
0.221729
0.278950
0.313520
0.477433
0.234842
0.401735
0.257492
0.263453
0.342727
0.462532
0.367761
0.384450
0.365973
0.491738
0.409484
0.596642
0.427961
0.604987
0.450611
0.417829
0.734925
0.511408
0.534654
0.647902
0.470877
0.556707
0.615716
0.474453
0.614524
0.798702
0.595450
0.796914
0.738502
0.885725
0.836849
0.968575
1.177788
0.999570
1.178980
1.278520
1.323819
4.226565
15.086532
60.478449
130.214691
290.112495
459.706783
719.694495
885.899663
1014.154553
1015.890837
920.172930
771.378875
522.049665
352.460742
181.645751
94.347000
33.136606
15.225410
8.414984
8.107424
8.343458
9.416938
12.209415
16.986728
27.339458
38.165450
55.079460
67.673922
81.395507
87.729692
87.972879
83.233714
71.175694
60.155988
45.291781
35.304427
24.433732
18.679500
13.509989
11.467934
10.166764
9.917617
9.593964
9.171963
9.267926
9.337664
9.232759
##ZVALUE=340
0.256896
0.306964
0.346899
0.385642
0.330806
0.393987
0.285506
0.360608
0.098944
0.350475
0.262856
0.221729
0.412464
0.301600
0.297427
0.339746
0.306964
0.320673
0.308752
0.349879
0.575781
0.371933
0.529885
0.450611
0.505447
0.510812
0.488758
0.468493
0.456572
0.486970
0.493526
0.333786
0.551939
0.461936
0.574589
0.573993
0.682473
0.563860
0.613928
0.583529
0.554919
0.603795
0.724792
0.808835
0.722408
0.849962
0.959635
1.084805
1.178980
1.176596
1.480579
2.249479
7.625818
38.045645
92.824697
233.745575
394.688845
643.654466
816.501975
984.380841
1015.890837
965.064764
833.507776
610.009432
425.136685
220.972896
121.855736
48.298836
20.823479
9.151697
8.062720
8.132458
8.224845
9.516478
11.872649
18.231869
25.377870
37.371516
49.820542
65.955520
75.750947
83.322525
83.267689
77.323914
70.603490
57.147741
46.105981
33.020973
25.359988
17.683506
13.801455
11.370778
9.890795
8.910894
8.929968
8.986592
##ZVALUE=345
0.257492
0.159740
0.403523
0.193715
0.110865
0.374913
0.247955
0.264645
0.295639
0.356436
0.392795
0.354648
0.185966
0.449419
0.285506
0.337958
0.347495
0.178814
0.180602
0.349879
0.362992
0.368953
0.329614
0.439882
0.356436
0.361800
0.498891
0.512600
0.553727
0.535846
0.494719
0.574589
0.416636
0.435710
0.543594
0.531673
0.360608
0.566840
0.516772
0.691414
0.690818
0.588894
0.522733
0.662804
0.655651
0.643730
0.785589
0.881553
0.853539
0.982881
1.028776
1.214743
1.375675
1.446605
3.266931
20.407438
57.521462
154.060721
274.171829
489.625931
667.045712
884.130001
988.577604
1000.839472
913.235545
713.253021
522.075891
298.469663
169.691443
69.129467
31.038523
11.798739
8.380413
7.873774
7.793903
8.217692
8.843541
11.281967
15.070438
23.921728
33.160448
46.997666
58.011413
68.727732
74.759722
77.130795
74.581504
65.601468
56.528449
44.310689
33.887625
23.638606
18.489957
13.546944
11.145473
9.672642
##ZVALUE=350
0.264645
0.236630
0.278950
0.236630
0.384450
0.349879
0.257492
0.215769
0.333786
0.312924
0.308752
0.121593
0.420809
0.433922
0.439882
0.260472
0.258684
0.332594
0.389814
0.538826
0.481606
0.191927
0.249743
0.423789
0.321865
0.475645
0.315905
0.167489
0.312924
0.267625
0.412464
0.360608
0.360608
0.545979
0.648499
0.512600
0.640750
0.454783
0.614524
0.491738
0.444651
0.511408
0.578761
0.535846
0.524521
0.478625
0.760555
0.692606
0.636578
0.785589
0.782609
0.732541
0.889897
1.074672
1.212955
1.415610
2.176762
10.757446
33.104420
102.835894
196.962953
394.100547
566.705465
779.904723
916.330814
982.009768
935.053825
769.847035
587.845445
349.969864
210.482478
90.209842
40.769577
13.496876
8.655787
7.443428
7.189512
7.392764
7.602572
8.451939
10.498762
15.632510
21.288991
30.749440
39.165616
52.642822
61.208606
68.121552
70.708990
68.250895
62.430501
51.060915
42.315722
30.593872
23.813844
16.911626
##ZVALUE=355
0.251532
0.318885
0.331998
0.240803
0.273585
0.224710
0.217557
0.359416
0.346899
0.208616
0.201464
0.354648
0.430942
0.257492
0.457764
0.434518
0.289679
0.410676
0.292659
0.164509
0.270605
0.346899
0.343919
0.357628
0.338554
0.405908
0.459552
0.482798
0.461936
0.451803
0.557899
0.502467
0.375509
0.286698
0.455976
0.359416
0.452995
0.520945
0.399947
0.510812
0.461936
0.577569
0.496507
0.363588
0.518560
0.544786
0.586510
0.643730
0.719428
0.643730
0.701547
0.661612
0.884533
0.694990
0.987649
1.034737
1.023412
1.387000
1.632571
4.831553
17.304420
67.976713
139.977932
294.589996
462.968946
705.706477
855.371952
956.939459
949.113965
799.865723
646.260977
427.416563
267.944932
118.551850
56.551695
18.656850
9.224415
7.219911
7.006526
7.040501
6.972551
7.165670
7.522702
9.698868
12.621880
19.192696
25.523901
36.690831
44.879913
54.015517
61.067939
63.961744
62.494874
56.861639
50.899982
40.733814
##ZVALUE=360
0.190735
0.239611
0.268817
0.405908
0.282526
0.169873
0.203848
0.269413
0.230670
0.236630
0.194907
0.210404
0.310540
0.210404
0.193715
0.425577
0.341535
0.234842
0.354648
0.219941
0.337958
0.344515
0.246763
0.330806
0.228882
0.382662
0.381470
0.322461
0.465512
0.284910
0.446439
0.270605
0.419617
0.335574
0.252724
0.305772
0.390410
0.370741
0.514984
0.467896
0.435710
0.364780
0.671744
0.375509
0.522733
0.508428
0.658631
0.575781
0.596642
0.587702
0.523925
0.588894
0.657439
0.830889
0.755787
0.670552
1.025796
0.938773
1.163483
1.271963
1.348853
1.885891
8.969903
28.774738
96.231699
184.211731
366.451740
538.519025
771.718025
897.590518
940.119624
881.831646
705.999732
534.457564
316.828489
187.080503
79.491735
34.204721
11.161566
7.025599
6.711483
6.582737
6.354451
6.555915
6.303787
7.053614
8.324981
10.290742
15.495420
20.905733
29.952526
37.928820
47.308803
53.762794
58.464408
57.828426
##ZVALUE=365
0.213981
0.133514
0.285506
0.160933
0.362992
0.250936
0.323653
0.310540
0.285506
0.263453
0.234842
0.301600
0.287890
0.341535
0.221729
0.222921
0.181794
0.360608
0.377893
0.307560
0.414848
0.260472
0.422597
0.198483
0.363588
0.326633
0.344515
0.444651
0.459552
0.408888
0.345707
0.415444
0.309944
0.373721
0.390410
0.244975
0.516772
0.558496
0.455976
0.454783
0.449419
0.498891
0.418425
0.585914
0.570416
0.564456
0.618696
0.465512
0.568628
0.639558
0.534654
0.484586
0.620484
0.673532
0.836849
0.705719
0.924468
0.863671
0.941753
0.875592
1.075864
1.396537
1.368523
1.604557
3.290772
19.233823
52.652955
139.073730
256.267786
471.489429
638.190508
818.053484
903.083682
886.556506
780.579448
567.225814
402.380824
218.471885
116.939545
41.950941
17.411709
7.725954
6.345510
5.911589
6.016493
5.897880
5.958676
5.980730
6.363988
7.117987
8.883476
13.042688
17.416477
25.718808
32.783747
41.690469
##ZVALUE=370
0.315905
0.122786
0.243783
0.239611
0.219941
0.299811
0.207424
0.319481
0.221729
0.312924
0.239611
0.153780
0.355840
0.410676
0.383854
0.318885
0.387430
0.311732
0.227690
0.352859
0.489950
0.358820
0.352859
0.441670
0.293851
0.395775
0.388622
0.321865
0.308752
0.395775
0.309944
0.208616
0.457764
0.533462
0.298619
0.344515
0.465512
0.258684
0.413656
0.585914
0.455976
0.425577
0.375509
0.570416
0.485778
0.514984
0.549555
0.450611
0.432730
0.454783
0.647902
0.564456
0.579953
0.687838
0.555515
0.645518
0.781417
0.716448
0.665784
0.966787
0.711679
1.046658
0.992417
1.126528
1.304746
1.353621
1.798868
9.789467
32.648444
101.771951
196.212530
377.033949
548.778772
769.204497
876.742601
899.893641
825.181007
648.095012
479.479432
269.342661
152.257681
59.655905
27.105808
9.401441
6.120801
5.897880
5.571842
5.239844
5.314946
5.425811
5.265474
5.772710
6.385446
8.038878
10.372996
15.602708
##ZVALUE=375
0.204444
0.321865
0.257492
0.350475
0.277758
0.133514
0.265837
0.156760
0.175834
0.289679
0.272989
0.350475
0.430942
0.327826
0.302792
0.350475
0.223517
0.273585
0.254512
0.216961
0.181794
0.353456
0.110865
0.152588
0.322461
0.281930
0.328422
0.174642
0.267625
0.197887
0.067949
0.354648
0.287890
0.337958
0.365973
0.381470
0.347495
0.479817
0.341535
0.340939
0.394583
0.409484
0.463724
0.373721
0.460744
0.430942
0.406504
0.270605
0.478625
0.383854
0.332594
0.367761
0.326633
0.528693
0.443459
0.497699
0.624657
0.445843
0.505447
0.622869
0.504851
0.897646
0.729561
0.720620
0.695586
0.899434
1.097918
1.283884
1.340508
4.917979
17.475486
62.061548
135.224462
299.909711
463.654995
687.513947
820.382833
901.875496
878.351927
721.268654
556.384921
334.867835
209.007859
100.910664
49.471855
16.141534
7.476807
5.298853
5.330443
4.996657
4.929900
4.796982
4.834533
4.801750
5.117655
5.910993
##ZVALUE=380
0.232458
0.230670
0.321865
0.162721
0.284910
0.385642
0.309944
0.344515
0.357628
0.209808
0.345707
0.260472
0.320673
0.232458
0.305772
0.299811
0.159740
0.251532
0.323653
0.174642
0.073910
0.171661
0.186563
0.130534
0.264645
0.195503
0.284910
0.338554
0.218749
0.377893
0.283718
0.391603
0.365973
0.234842
0.291467
0.378489
0.330806
0.374913
0.321865
0.265837
0.311732
0.229478
0.326633
0.364780
0.342727
0.177622
0.294447
0.625849
0.416636
0.566840
0.391603
0.346899
0.298619
0.541806
0.443459
0.457764
0.542998
0.454783
0.490546
0.377893
0.510812
0.651479
0.487566
0.645518
0.765920
0.733733
0.779629
0.887513
1.008511
1.102686
1.477599
2.526641
9.510517
45.498610
105.279684
245.711803
392.447710
609.202981
762.580037
885.563493
887.988806
762.474537
627.259612
432.772636
286.833644
137.875676
69.977641
24.804473
10.755658
5.417466
5.067587
4.738569
4.620552
4.598498
4.520416
4.706979
##ZVALUE=385
0.207424
0.099540
0.215769
0.308752
0.191927
0.180602
0.194907
0.320673
0.234842
0.320673
0.151992
0.291467
0.195503
0.268817
0.142455
0.386834
0.163913
0.285506
0.319481
0.400543
0.135899
0.229478
0.140667
0.282526
0.395775
0.267625
0.262856
0.239611
0.252724
0.318885
0.294447
0.243783
0.271797
0.389814
0.288486
0.261664
0.437498
0.339746
0.278950
0.338554
0.284910
0.433922
0.303984
0.290871
0.373721
0.321865
0.272989
0.303984
0.458956
0.377893
0.370741
0.506639
0.350475
0.425577
0.602603
0.325441
0.525713
0.526905
0.516772
0.567436
0.466704
0.601411
0.610948
0.572801
0.570416
0.633597
0.642538
0.789762
0.855923
1.183748
1.041889
1.256466
1.221895
1.527667
4.593730
25.562644
65.384507
166.952610
293.479562
511.786938
676.680803
834.972858
877.168775
827.323794
721.532702
523.004532
368.027687
197.428465
110.922456
44.648647
18.271804
6.308556
5.020499
4.368424
4.202724
4.046559
##ZVALUE=390
0.190735
0.260472
0.265837
0.227690
0.396967
0.286698
0.319481
0.280738
0.365973
0.370741
0.304580
0.375509
0.374913
0.269413
0.305772
0.264645
0.244975
0.303984
0.426769
0.303984
0.343919
0.433922
0.419617
0.332594
0.483990
0.473857
0.389814
0.352859
0.320673
0.311732
0.446439
0.318885
0.325441
0.526905
0.577569
0.527501
0.381470
0.281930
0.394583
0.425577
0.430942
0.520945
0.485778
0.606775
0.607967
0.474453
0.520945
0.506639
0.450611
0.327826
0.461936
0.341535
0.607967
0.575781
0.485778
0.607967
0.551939
0.578761
0.614524
0.544786
0.496507
0.587702
0.512600
0.648499
0.618696
0.603795
0.798702
0.760555
0.905991
1.030564
1.062751
1.246929
1.159906
1.274943
1.243949
1.503825
2.489686
13.114810
41.316748
125.252604
236.101747
437.504649
590.971708
769.070983
862.493515
878.591537
803.190470
628.793836
474.872589
282.522440
162.147880
65.551996
29.573441
8.971691
5.123615
4.357696
##ZVALUE=395
0.413656
0.345707
0.344515
0.244975
0.368953
0.336766
0.308752
0.264645
0.291467
0.316501
0.324845
0.263453
0.367761
0.351667
0.310540
0.414848
0.445843
0.401735
0.383854
0.320673
0.383854
0.319481
0.361800
0.328422
0.454783
0.365973
0.370741
0.369549
0.404716
0.440478
0.406504
0.429749
0.550747
0.540614
0.449419
0.457764
0.386834
0.424981
0.578761
0.589490
0.562668
0.485778
0.557899
0.362992
0.384450
0.649691
0.596642
0.518560
0.371933
0.559688
0.583529
0.376701
0.592470
0.362992
0.504851
0.554919
0.568628
0.561476
0.458956
0.586510
0.582933
0.606775
0.636578
0.708699
0.696778
0.634789
0.740886
0.720620
0.944734
0.825524
0.991821
1.000762
1.053810
1.238585
1.144409
1.019835
1.323819
1.303554
1.592636
7.320642
27.074814
90.456605
171.975493
323.694944
479.691625
690.788627
815.860629
886.634588
856.391788
716.675520
556.489825
340.581536
209.533572
89.999437
42.683482
14.550686
##ZVALUE=400
0.207424
0.156760
0.154972
0.076890
0.257492
0.187755
0.326633
0.334978
0.319481
0.235438
0.314713
0.318885
0.141859
0.166893
0.090599
0.242591
0.222921
0.318885
0.196695
0.292659
0.234842
0.269413
0.279546
0.120997
0.201464
0.298619
0.295639
0.286698
0.199676
0.350475
0.214577
0.380874
0.274777
0.224710
0.305772
0.386834
0.217557
0.311732
0.260472
0.463724
0.395775
0.414848
0.410676
0.334978
0.231862
0.495911
0.292659
0.324845
0.333786
0.384450
0.334978
0.475645
0.321865
0.435710
0.209808
0.507832
0.419617
0.380874
0.396967
0.357628
0.311732
0.292659
0.387430
0.423789
0.405908
0.563860
0.614524
0.707507
0.670552
0.708699
0.740886
0.897646
0.760555
0.800490
0.927448
0.912547
0.792742
0.946522
0.891685
1.096725
1.165867
3.820658
13.805628
53.937435
116.620660
252.622962
395.335555
601.132512
735.356808
845.669508
851.345658
744.284987
611.652732
416.178703
274.136662
136.851668
##END
