##TITLE=FQP00601
##FORMAT=SPECTACLE-ASCII V-1.2
##DATA TYPE=ULTRAVIOLET SPECTRUM
##SECOND TYPE=ULTRAVIOLET SPECTRUM
##DATE=04/11/18
##TIME=15:47:17
##SPECTROMETER/DATA SYSTEM=SPECTACLE
##XUNITS=NM EM
##YUNITS=ENERGY
##YFACTOR=1
##FIRSTX=220
##LASTX=410
##NPOINTS=96
##3DDATA=Equidistant
##ZUNITS=NM EX
##FIRSTZ=210
##LASTZ=400
##ZPOINTS=39
##XYDATA=(Y..Y)
##ZVALUE=210
2.047420
2.224445
2.192855
2.127886
2.613664
3.465414
2.331734
2.551675
2.713799
2.237558
2.795458
2.605915
2.456903
2.970695
2.285838
2.656579
2.437830
3.031492
3.277659
3.095865
3.000498
3.717542
3.633499
3.706813
4.239678
4.343987
4.296899
4.631877
5.019903
5.539656
5.785823
4.549623
4.921556
5.915761
6.644726
6.164908
6.499887
5.850792
6.163716
6.081462
6.903410
6.867647
6.363988
6.172657
6.007552
6.636977
5.409718
6.204844
6.402731
5.873442
6.313920
6.058812
6.252527
6.265640
5.984902
5.362630
6.239414
7.322431
5.711913
6.013513
6.282926
5.758405
6.541610
6.332994
7.013679
6.785989
7.452965
8.301735
9.077787
8.949637
10.719895
13.039708
14.787912
17.744899
18.663406
19.949675
21.171570
22.582412
21.042824
20.714998
19.421577
17.773509
14.782548
13.191700
10.666847
9.213686
8.069873
7.298589
6.759763
7.334948
6.299615
5.514622
7.047653
6.837845
6.251931
7.606745
##ZVALUE=215
7.402897
7.244945
7.318854
5.450845
4.508495
4.416704
5.493760
4.806519
6.133914
4.779696
4.197955
5.014539
3.892779
3.928542
3.249645
3.401637
3.066659
3.270507
3.149509
2.977848
3.373623
3.912449
3.474951
5.045533
5.163550
5.385876
5.229712
5.142689
5.383492
6.313920
6.927848
6.204844
6.918907
6.981492
7.121563
8.161664
7.034540
6.819963
8.310676
8.107424
6.660819
7.309914
6.490946
7.091761
6.321669
7.162690
7.412434
6.798506
6.561875
7.015467
6.514788
7.081628
6.524920
7.168651
6.575584
6.694794
6.246567
6.524920
6.491542
7.696748
6.751418
7.315874
7.069707
6.792545
6.903410
6.926656
7.151961
7.606745
7.953644
10.320544
10.022521
12.020469
13.724566
15.707612
17.997622
18.127561
18.656850
18.458962
17.488599
18.230677
16.087890
15.515685
14.280677
12.367964
10.655522
9.160638
8.077621
7.532835
7.059574
7.271767
6.609559
7.237792
6.262660
6.171465
6.972551
6.463528
##ZVALUE=220
25.324821
24.876595
25.463700
23.863912
20.711422
16.003847
13.177991
11.554956
10.378957
10.201931
12.336969
12.125969
12.062788
10.390878
9.500980
7.217526
5.479455
4.809499
3.770590
3.909469
3.758669
3.773570
3.846884
3.729463
4.725456
4.224777
5.125999
5.893707
6.377697
7.003546
6.981492
8.309484
7.917881
8.880496
9.481907
8.946657
8.926988
10.012984
10.797977
9.448528
10.212660
9.736419
9.567738
8.209944
9.044409
8.251667
8.083582
7.576942
8.421540
7.841587
7.993579
7.582903
8.656979
7.865429
7.706881
8.421540
8.134842
6.865859
7.528663
8.513927
7.342696
7.149577
6.802678
7.032752
7.370710
8.060932
7.960796
8.218884
10.153651
10.290742
9.654760
12.297630
13.120770
14.683604
16.247630
18.543601
20.113587
16.597509
16.890764
16.100407
14.925599
16.333461
14.730692
13.395548
11.991858
9.917617
9.891987
9.194613
7.915497
7.879734
8.261800
7.750988
7.828474
7.790923
7.341504
6.859899
##ZVALUE=225
43.009520
44.128895
57.789683
70.568919
70.463419
67.206621
61.699748
50.188899
37.642717
28.793812
22.043586
20.741820
23.320913
23.913980
24.811625
23.024678
19.449592
16.013980
12.543797
8.082986
5.423427
4.993677
4.800558
4.420877
4.997849
5.937815
5.855560
7.043481
7.195473
9.405613
9.202957
10.688901
11.581779
11.439919
11.447668
12.354851
12.064576
11.957884
12.100935
12.103915
10.601878
11.506677
11.077523
11.119843
11.266470
10.883808
9.870529
9.243488
9.279847
8.123517
9.287000
9.374619
8.199811
10.569692
8.558631
9.089708
8.223653
9.249449
9.176731
9.315610
8.816719
9.560585
9.084940
8.714795
9.272695
9.266734
9.475946
10.874867
11.175871
11.034608
13.431907
13.196468
14.775991
14.926791
17.464757
17.825961
17.867684
19.162893
17.442703
16.582608
17.029643
14.981627
14.240742
14.563799
12.585521
11.732578
11.904836
10.916591
10.731816
10.446906
9.291768
10.786653
10.737777
11.100769
11.225939
10.124445
##ZVALUE=230
41.021705
38.367510
70.645809
102.587938
129.327774
153.005719
162.113905
164.631009
148.766637
115.764737
90.247989
62.828660
50.586462
39.929748
42.709708
45.729876
50.717592
48.161745
40.876865
32.289624
25.720000
18.333793
12.282729
9.455681
5.924702
6.074905
6.659627
7.284880
6.789565
8.629560
8.643866
10.235906
9.841919
10.732412
11.105537
12.359619
11.881590
11.197925
11.740923
10.875463
12.187958
11.702776
11.736751
10.846853
9.466410
10.955930
10.285974
10.748506
9.693503
8.941889
9.031892
9.941459
10.423660
9.558797
10.882616
10.995865
9.575486
10.868907
9.190440
11.421442
10.582805
10.465980
11.305809
12.043715
12.384653
11.932850
11.143684
12.353659
12.579560
15.923977
15.770793
18.195510
17.850995
20.547509
18.614531
20.052791
20.117760
19.688606
20.426512
19.856691
18.754601
20.396709
18.215775
17.646551
16.228557
18.408895
17.016530
15.208721
15.472770
16.939640
15.010834
15.839934
15.845895
17.232895
15.996695
16.183853
##ZVALUE=235
14.212728
17.320514
33.499599
76.083541
120.407939
188.961625
242.534876
298.728943
323.220491
311.867595
277.206898
226.853490
151.140690
115.039945
81.608891
71.344972
66.548586
70.896745
77.513456
76.284409
73.073506
63.213706
48.641562
36.138892
23.615956
15.683770
11.553764
8.554459
7.618666
6.792545
8.801818
8.896589
9.591579
10.278821
8.613467
9.886622
10.814667
10.787845
11.240840
11.062622
10.177493
10.625720
10.392666
10.005832
10.560751
11.327863
9.541512
9.683967
10.170937
10.235906
9.878874
10.088682
9.723902
10.483861
11.177659
10.498762
10.930896
11.223555
12.457967
11.191964
11.478662
12.550950
12.074709
13.381839
14.159679
14.274716
15.641451
16.103983
16.914606
17.922521
20.263791
18.492937
21.595955
23.543835
25.892854
25.364757
26.359558
26.676655
25.935769
26.817918
26.069880
24.142861
25.810599
24.631619
24.427772
23.853779
23.145676
24.239421
24.993420
23.066998
23.781657
24.298429
21.882653
22.249818
23.221970
22.696853
##ZVALUE=240
2.239943
1.995564
7.478595
19.896626
54.338574
100.694895
187.945962
269.659758
401.119590
468.243957
521.225929
511.566997
467.479825
365.598798
285.824537
185.408592
137.071609
103.727579
92.790723
96.957684
110.454559
114.194751
110.078454
105.214715
80.450773
65.111518
47.435760
34.202933
20.091534
14.694929
10.930896
8.994937
8.951426
10.000467
9.135604
10.931492
10.662675
9.315610
10.574460
9.820461
10.129809
9.814501
11.020899
11.433959
9.815693
9.524822
11.137724
11.110902
9.235740
10.397434
10.225773
10.754466
9.601712
10.384917
11.131763
11.028647
11.577606
12.209415
12.705922
14.094710
12.326837
13.246536
14.398694
14.650822
16.468763
15.427470
17.430782
19.298792
20.013452
20.272732
23.965836
24.328828
25.857687
28.189421
29.147863
31.301975
30.639768
30.644536
31.347871
31.393766
29.531717
29.074550
31.103492
31.717420
30.321479
32.067895
30.153990
29.283762
28.434992
28.968453
29.130578
30.945539
30.308962
30.006766
27.456880
31.259656
##ZVALUE=245
1.591444
1.921654
1.725554
2.067685
5.562901
14.534593
46.197772
91.036558
193.727612
294.445753
439.267755
538.775921
603.019595
631.756783
600.987673
496.544838
393.670797
274.975896
198.125839
126.178861
103.178620
98.436475
110.346675
125.792623
129.748583
124.415755
113.458633
95.109940
74.060559
53.352714
38.456917
24.702549
16.193986
11.309981
9.621978
10.160804
10.386705
8.945465
9.315610
10.017753
9.936690
10.670424
10.534525
10.075569
10.277629
9.395480
10.633469
10.493994
10.231733
8.947849
10.092854
9.950995
11.346936
10.850430
9.094477
10.686517
10.275841
10.162592
11.479855
12.286901
11.991858
12.077689
12.827516
13.101697
13.885498
13.906956
15.445948
16.354918
18.029809
19.793510
19.566417
23.560524
23.918748
24.681687
27.622581
27.598739
29.293895
28.406978
30.142665
28.367639
31.013489
30.572414
29.162765
29.517412
29.961467
29.428601
29.032826
30.626655
30.373931
30.939579
29.877424
29.777884
29.958487
30.261874
28.021932
31.827688
##ZVALUE=250
1.728535
1.622438
1.740456
1.709461
1.655817
1.688600
2.685785
9.302497
37.156940
74.885488
173.492432
283.992887
410.292745
554.726720
652.989745
713.623762
707.353950
621.797442
526.715517
371.191502
262.252688
179.864764
110.699534
93.746781
107.764602
119.011998
135.759711
140.458941
136.472583
122.180581
105.706453
77.424645
61.322451
38.560629
27.199984
18.205643
12.975931
10.648966
10.382533
10.083914
10.628700
11.109710
10.844469
10.447502
10.816455
11.403561
10.948777
11.921525
10.693669
10.003448
10.755658
10.616779
9.930730
9.621978
10.408759
10.488629
9.594560
10.664463
10.832548
10.342598
10.423660
11.486411
10.541677
11.175871
12.817979
13.508797
12.864470
14.212728
14.962554
17.477870
18.533468
19.565821
21.247864
21.699667
24.233460
24.061799
23.467541
26.841760
25.324821
26.011467
25.223494
26.984811
27.971864
27.535558
27.265549
28.686523
28.399825
28.774738
27.916431
29.235482
27.692914
28.170943
27.782917
26.705861
26.853681
29.352903
##ZVALUE=255
1.090765
1.180768
1.389980
1.359582
1.608729
1.564622
1.434684
1.500845
2.020597
4.673600
23.435950
55.772662
110.620856
236.398578
351.411700
537.827015
659.695864
771.903992
802.821517
751.819611
651.664734
524.420738
333.541632
222.132802
127.248764
95.939636
93.834996
104.423761
125.627518
142.032504
147.916675
146.820545
134.776831
106.337667
87.001920
60.748458
44.633746
26.866794
19.780993
13.953447
12.825727
13.107657
12.850761
12.562871
12.552738
12.438893
11.660457
11.680722
12.237430
10.975599
11.676550
11.239648
10.544658
10.068417
9.975433
8.940697
9.465814
10.627508
9.932518
10.132790
11.192560
10.094643
10.937452
10.342598
11.465549
12.006760
12.088418
12.686849
14.762878
15.062690
16.233921
17.056465
17.251968
19.645691
20.679832
22.678971
21.670461
21.246672
22.302866
23.656487
22.458434
24.235845
24.586916
24.902821
24.817586
25.370717
25.812984
26.078820
26.366711
26.344657
26.932955
27.069449
27.062893
26.807785
27.748942
27.459860
##ZVALUE=260
1.127720
1.085997
0.968575
1.173615
1.144409
1.002550
1.271963
1.319647
1.368523
1.610518
1.692772
2.419949
7.982850
34.392476
77.409744
180.930495
295.916796
481.404662
632.773638
800.981522
878.328681
886.854529
780.933499
648.959875
442.723632
309.647918
181.935430
119.094849
83.289742
86.042881
109.118819
133.111477
149.553418
159.453750
157.182813
141.269565
120.851994
88.770986
67.437887
43.442845
31.431913
21.172762
17.216802
14.605522
14.371872
13.984442
13.601780
12.177825
12.783408
11.868477
12.461543
11.525750
12.432933
10.922551
11.293888
10.630488
10.034442
9.941459
9.858608
9.531975
9.895563
10.748506
11.327863
11.524558
11.121631
10.670424
11.866689
12.858510
13.170838
14.270544
15.971661
15.777946
16.272664
17.333627
18.047690
19.397736
19.886494
20.977855
21.115541
21.383762
21.281838
21.519661
23.101568
23.267865
23.155808
23.699999
23.474693
24.012923
23.837686
24.683475
25.051832
24.520755
25.631785
25.437474
26.050806
26.139617
##ZVALUE=265
1.048446
0.927448
0.856519
1.170635
1.180768
0.968575
0.963807
1.315475
1.141429
1.192689
1.266599
1.396537
1.687407
2.093911
4.911423
23.814440
54.837465
140.910745
247.848630
450.122952
621.665716
786.037445
934.999585
966.472626
880.048871
757.218003
578.018427
409.348011
231.198668
150.600672
99.541545
74.874759
86.447001
117.888451
141.331553
156.995654
165.250897
159.476995
144.742727
117.991567
95.512867
67.124963
49.984455
31.563640
22.929907
17.828941
15.958548
13.544559
13.896823
13.183951
13.464689
12.596846
11.865497
11.548996
11.015534
11.315942
11.007786
10.845661
10.429621
10.764599
9.672642
10.713935
10.365844
11.084676
11.051893
11.044741
11.334419
11.608601
12.781620
13.713837
14.039874
15.238523
15.548468
16.252995
17.353892
18.471479
17.654896
19.566417
19.326806
18.871427
20.385981
20.282865
20.697713
21.626949
21.721721
22.327900
22.748709
23.190975
22.253990
23.229718
23.347735
23.670793
23.793578
24.288893
24.472475
24.689436
##ZVALUE=270
0.796914
0.837445
1.077652
0.831485
0.995994
1.020432
1.074672
0.818968
0.925660
1.008511
1.065731
1.213551
1.532435
1.258850
1.450777
1.724958
2.058744
10.549426
32.919645
100.683570
194.814801
335.792899
571.288466
757.983923
951.120853
1012.253761
992.271900
903.846025
713.830590
541.259646
371.721983
205.166936
120.856762
72.232485
68.808794
93.979836
117.125511
144.445896
162.208676
169.384480
164.913535
146.884918
123.781562
94.691515
71.250796
44.481754
32.507777
22.397637
16.925931
14.818907
13.235807
12.489557
12.146831
11.869669
12.084842
12.035966
11.469722
10.746717
10.396838
10.398626
10.369420
10.129809
10.269880
10.777712
10.916591
11.235476
11.353493
11.955500
13.140440
13.073683
13.645887
13.812780
15.173554
15.837550
17.408729
17.411709
18.214583
19.098520
18.906593
19.499660
19.252896
19.508600
20.579696
20.517707
21.259785
21.138787
21.303892
21.931529
20.776987
21.615624
21.439791
22.293925
22.710562
21.322966
22.108555
23.688674
##ZVALUE=275
0.829697
0.928640
0.787973
0.825524
0.838637
0.824928
0.906587
0.754595
0.909567
0.933409
0.931621
0.886917
1.138449
1.114607
1.017451
1.198649
1.212955
1.695752
1.669526
5.029440
18.893480
54.241419
152.383447
284.093618
513.500571
689.520836
882.091522
1003.012657
1015.887856
984.827876
872.187614
650.496483
468.390584
257.860422
152.257681
76.164603
57.590604
67.379475
87.083578
116.973519
138.588548
156.750679
165.198445
159.016848
141.412616
116.393566
93.406439
66.802502
47.382712
29.790998
21.777749
15.586615
12.559891
11.356473
11.265874
10.756850
10.989904
10.321736
9.895563
10.665655
10.747910
11.093616
10.715723
10.743737
11.078715
11.831522
11.340976
12.237430
12.267828
13.958812
13.864636
14.618635
15.152693
15.512705
15.758872
16.997457
18.254519
17.442703
18.017888
19.167662
17.895699
19.691586
19.206405
18.920898
19.399524
19.528866
20.600557
20.600557
20.268559
21.871924
20.502806
20.759702
21.417737
21.255612
20.383000
21.635890
##ZVALUE=280
0.686646
0.544786
0.791550
0.613928
0.784993
0.712872
0.738502
0.851750
0.850558
0.656843
0.707507
0.845790
0.954866
0.926852
1.040697
1.117587
1.315475
1.322627
1.423955
1.599789
1.565814
2.139807
11.980534
38.880706
119.325519
216.068625
401.975513
582.113862
821.263790
966.506004
1015.889645
1015.889645
956.656933
733.684897
548.533797
318.746567
191.136003
89.443922
53.873658
46.812892
60.258508
88.433623
109.093785
137.159824
150.764585
157.857537
153.295994
135.282874
115.432739
86.349845
64.304471
41.979551
29.514432
18.567443
14.554858
11.658669
10.620952
9.778738
10.014772
9.943843
10.145903
10.179877
10.651946
10.892749
11.484623
11.297464
11.556745
12.534857
12.562871
12.946725
14.042854
15.015602
15.496612
15.860796
16.399622
17.202497
16.785860
17.710924
17.985702
18.483996
18.827915
18.888712
19.618869
19.712448
20.197630
20.317435
19.522905
20.484924
20.510554
20.922422
20.915866
20.024776
20.672679
20.850897
21.010637
21.445751
##ZVALUE=285
0.940561
0.916719
0.925660
1.068711
0.736713
0.911951
0.837445
0.753999
1.016855
0.907779
1.151562
1.066923
1.123548
1.087785
0.973940
1.332760
1.167655
1.248717
1.414418
1.210570
1.432896
1.487732
1.749992
2.075434
5.855560
19.950867
66.225529
138.621926
303.785801
460.250974
638.871789
885.650516
1011.723876
1016.108990
1015.826464
848.061442
669.999719
417.139530
259.965658
127.075911
65.730810
36.714673
37.937760
57.942867
77.896714
107.451677
124.930739
143.552423
150.149465
147.135854
135.621428
110.895634
91.629624
62.334538
45.331717
27.232766
19.170642
13.206601
11.004806
10.608435
10.373592
10.056496
10.407567
10.923743
11.259913
11.808872
12.112856
12.759566
13.783574
13.919473
14.627576
14.941692
15.148520
16.853809
16.629696
17.189980
17.553568
17.967820
18.825531
18.385649
18.963814
18.958449
19.451976
19.429922
20.038486
19.900799
20.582676
19.900799
20.305514
20.738840
20.226836
20.108819
20.736456
19.990802
20.418763
20.672679
##ZVALUE=290
0.688434
0.697970
0.522733
0.545979
0.552535
0.759959
0.600815
0.756979
0.653863
0.840425
0.632405
0.730753
0.754595
0.714660
0.760555
0.782609
0.781417
0.917912
0.927448
1.054406
1.068711
1.178980
1.207590
1.509786
1.545548
1.828671
2.390742
11.126995
32.489896
98.381639
190.823674
380.632877
564.574003
825.387836
993.648767
1015.890837
1015.890837
952.425599
786.485672
528.026819
343.591571
171.527863
90.487599
37.686825
26.712418
35.327673
49.937963
74.982643
95.278621
122.069716
135.237575
145.945549
145.388842
130.716562
111.235976
82.484484
63.221455
41.170716
29.074550
18.879771
14.160872
10.818839
10.715723
10.499954
10.942817
11.170506
11.943579
12.689829
13.239980
13.667941
15.227795
15.669465
16.191602
16.319752
17.372966
17.520785
17.551780
18.128753
18.450618
19.123554
18.710494
20.086765
19.994974
19.849539
20.011663
20.266771
20.278692
21.142960
20.400882
20.420551
20.344853
19.821525
20.210743
20.020604
19.804835
20.049810
##ZVALUE=295
0.508428
0.647902
0.436902
0.519753
0.533462
0.499487
0.582933
0.606775
0.517964
0.550747
0.641942
0.723600
0.665784
0.664592
0.726581
0.713468
0.787973
0.692606
0.916719
0.934601
0.871420
0.950694
1.019835
1.097918
1.066923
1.157522
1.410842
1.669526
1.793504
3.536940
19.591451
53.916574
122.345686
283.510685
454.794765
714.699626
901.123881
1015.892029
1015.892029
1007.074714
874.880552
626.918674
433.856845
224.546790
125.523806
48.878789
25.997758
21.777749
29.904842
47.740936
65.634847
92.433691
110.564828
133.633614
139.823556
136.978626
125.672817
102.475882
83.017945
58.754683
43.775439
28.050542
20.369887
15.184879
13.105869
12.124777
12.105703
12.458563
13.337731
13.981462
14.777780
15.819669
15.769601
16.748905
17.646551
17.526746
17.969608
18.697977
18.660426
18.808842
19.412637
19.763708
19.881725
20.287633
20.351410
19.971728
20.501614
20.380616
20.897985
20.450950
20.785928
20.152926
20.176768
20.330548
20.108819
19.932985
##ZVALUE=300
0.611544
0.524521
0.602603
0.467896
0.529885
0.481606
0.453591
0.355840
0.518560
0.456572
0.427961
0.544786
0.607967
0.698566
0.587702
0.680685
0.780821
0.620484
0.902414
0.779629
0.835657
1.001954
1.017451
1.037717
0.957847
1.163483
1.001954
1.147985
1.434684
1.385808
1.509786
2.173781
8.334517
29.683709
97.025633
189.414620
383.504629
572.875738
828.685760
978.924036
1015.890837
1015.890837
940.958858
773.396492
516.043901
340.108871
169.622898
92.069507
36.190748
19.197464
19.519925
27.550459
42.910576
59.577823
84.997416
103.339553
125.457644
132.804513
130.167603
122.419000
103.566647
85.031986
62.457919
45.899749
29.718876
22.138953
16.403794
14.235973
14.037490
14.189482
15.135407
15.847683
16.021729
16.872883
17.674565
18.269420
17.884970
19.122958
19.549727
19.831657
19.891858
20.340681
21.243691
20.963550
21.118522
21.663904
21.277666
21.453500
21.361709
20.863414
20.938516
21.137595
20.743608
20.925999
20.997524
20.399690
##ZVALUE=305
0.512600
0.357628
0.577569
0.481606
0.570416
0.426769
0.538826
0.569820
0.476837
0.678897
0.671744
0.427961
0.608563
0.587702
0.571609
0.553727
0.550747
0.676513
0.590682
0.763535
0.751615
0.662804
0.719428
0.837445
0.970960
0.815988
0.960827
0.850558
1.025796
1.007915
1.266599
1.308918
1.439452
1.847744
3.605485
19.716620
55.980682
152.566433
274.311900
496.405959
689.412951
926.492810
1015.892029
1015.892029
1010.527611
823.158622
640.828013
401.673913
250.034928
112.985969
55.227876
20.668507
13.736486
18.420815
25.037527
41.547418
57.911873
83.871484
99.999905
118.395686
124.679804
124.821663
117.806792
99.751949
82.655549
59.152842
44.555664
30.943751
23.456812
18.136501
16.382933
16.000867
16.331673
17.315745
17.525554
18.051863
18.742681
19.536614
19.337535
20.260811
20.167828
21.245480
21.535754
21.471977
21.592975
22.135973
22.606850
21.550655
21.893978
22.041798
21.752715
21.241903
21.648407
21.060705
20.635724
21.021962
##ZVALUE=310
0.456572
0.346899
0.341535
0.444651
0.394583
0.502467
0.468493
0.455976
0.397563
0.508428
0.367761
0.487566
0.537634
0.677705
0.500679
0.497699
0.449419
0.549555
0.572801
0.578761
0.589490
0.644922
0.604987
0.724792
0.775456
0.858903
0.582933
0.662804
0.777841
0.700951
1.135468
0.935793
1.293421
1.413822
1.120567
1.570582
1.772642
8.127689
28.026700
91.050863
182.391405
372.620821
563.962460
826.913714
991.654992
1015.868783
1015.868783
965.991020
797.532797
527.123809
345.682502
170.868635
89.867711
32.548904
14.774799
12.052655
15.292764
24.740696
35.352707
53.907633
70.975423
94.311833
109.976530
119.919777
120.777488
113.215446
100.973845
81.536770
64.888597
44.666529
34.684539
25.136471
21.117926
19.141436
18.286705
19.158721
19.078851
19.203424
19.866824
20.125508
21.029711
21.739602
22.104979
21.920800
22.475719
22.385716
22.466779
22.667646
22.381544
22.296906
22.095442
22.260547
22.054911
21.360517
21.732450
21.733642
##ZVALUE=315
0.391603
0.293851
0.486970
0.454783
0.342727
0.308752
0.469685
0.445843
0.413656
0.420809
0.482798
0.506639
0.528693
0.471473
0.475645
0.614524
0.475645
0.423789
0.386834
0.598431
0.659823
0.509620
0.575781
0.735521
0.394583
0.751615
0.556707
0.678897
0.777841
0.785589
0.992417
0.890493
0.854731
0.956655
0.997782
1.167655
1.219511
1.298785
1.684427
3.889799
14.411807
59.312582
129.240751
285.867453
458.562970
735.716820
912.004709
1015.890837
1015.890837
1015.890837
899.723768
649.238825
453.475714
239.945650
129.333735
45.986772
20.243526
11.315942
11.439919
15.866756
21.671653
34.986734
48.568845
68.758726
86.156726
104.687810
114.952922
116.120577
110.725760
94.379783
80.261827
61.701536
48.263669
34.756660
27.860999
22.118688
20.932555
20.336509
20.793676
21.194816
20.839572
21.414757
22.125840
22.165775
22.779703
22.880435
23.074746
23.110509
23.284554
22.596717
22.928715
22.258759
22.477508
22.014976
22.038817
21.837950
##ZVALUE=320
0.337958
0.537634
0.284910
0.345707
0.361800
0.330806
0.408888
0.514984
0.415444
0.428557
0.474453
0.442863
0.399947
0.383854
0.501871
0.494719
0.516772
0.424981
0.515580
0.508428
0.403523
0.650883
0.609756
0.503659
0.681877
0.659823
0.689626
0.620484
0.629425
0.590682
0.760555
0.668764
0.656843
0.794530
0.860691
0.965595
0.978708
0.924468
1.299977
1.469851
1.625419
2.096891
6.951690
36.653876
89.071989
221.742988
363.788009
600.593686
785.875916
993.646979
1015.892029
1015.892029
959.081650
732.553005
533.640981
301.057696
168.304443
69.050789
31.737685
13.015866
10.438561
11.831522
14.417768
21.486878
30.928850
48.324466
64.476728
83.900690
98.319650
109.901428
111.610889
106.447935
94.723701
76.728463
62.874556
46.096444
36.848783
27.739406
24.722815
22.481680
21.693707
21.432638
21.587610
21.743774
22.583604
22.461414
22.459626
22.607446
22.961497
22.720695
22.663474
22.207499
22.045970
22.417903
22.177696
22.175908
##ZVALUE=325
0.413656
0.400543
0.413656
0.252724
0.274777
0.389814
0.509620
0.397563
0.139475
0.339746
0.328422
0.183582
0.296831
0.199676
0.416636
0.404716
0.519753
0.357628
0.286698
0.495911
0.421405
0.404716
0.453591
0.515580
0.544786
0.672936
0.411868
0.519753
0.607967
0.683665
0.622869
0.661612
0.573993
0.823736
0.774860
0.934601
0.919700
0.729561
0.903606
1.009703
1.127720
1.190901
1.470447
1.523495
4.167557
27.578473
67.188740
163.816810
287.343860
510.912538
697.890520
920.933485
1015.890837
1015.890837
996.018648
787.324905
598.536730
360.582471
218.262672
95.449686
45.684576
16.425848
10.801554
9.958744
11.246800
15.146732
20.583868
33.380985
45.588613
65.143704
80.790520
97.874999
104.758739
107.876658
101.584792
88.773966
75.038671
58.707595
46.662688
35.105944
28.928518
24.764538
23.225546
22.707582
22.867918
22.398829
22.624731
22.441745
22.838712
22.403598
22.092462
22.366643
21.885633
21.930933
21.477938
22.568703
##ZVALUE=330
0.208616
0.207424
0.232458
0.264645
0.295639
0.175834
0.385642
0.229478
0.263453
0.183582
0.281930
0.298619
0.236630
0.223517
0.487566
0.324845
0.154972
0.466704
0.113845
0.282526
0.379682
0.347495
0.484586
0.464916
0.337958
0.345707
0.491738
0.456572
0.478625
0.448823
0.475645
0.580549
0.401735
0.509620
0.530481
0.649691
0.681877
0.589490
0.638962
0.692606
0.872612
0.777841
0.836849
0.990629
1.164675
1.352429
1.828671
9.537935
31.561852
102.509856
195.662975
387.586951
562.831759
806.217790
959.811807
1015.791893
1012.180448
863.153934
686.290860
440.881848
281.562805
130.653977
65.610409
24.365783
13.053417
9.692907
10.797977
12.175441
15.480518
22.871494
30.712485
46.095848
61.188936
78.327656
91.533661
102.427602
102.177858
96.766949
86.797476
71.301460
57.070851
43.373704
36.225915
29.538870
26.255846
24.027824
22.435784
21.952987
22.124648
22.080541
21.574497
21.818876
21.952987
21.609664
21.501780
21.661520
##ZVALUE=335
0.328422
0.122786
0.178814
0.158548
0.168681
0.071526
0.114441
0.080466
0.165701
0.265837
0.350475
0.199676
0.259876
0.205636
0.276566
0.220537
0.141859
0.158548
0.204444
0.251532
0.280738
0.153780
0.224710
0.238419
0.435710
0.345707
0.267625
0.359416
0.405908
0.295639
0.454783
0.525713
0.478625
0.369549
0.451803
0.429749
0.481606
0.443459
0.494719
0.637770
0.754595
0.685453
0.761747
0.805855
1.054406
1.033545
1.133680
1.201630
1.530647
4.217625
16.563535
65.934658
137.825012
301.228762
474.978685
731.493831
894.445777
1015.793681
1015.793681
925.473571
774.416924
523.991585
351.491570
180.088878
94.297528
33.524632
16.032457
10.785460
10.299683
11.511445
13.241768
16.970634
22.237897
32.140613
43.759942
60.884953
73.823929
87.812543
96.159577
96.249580
92.062950
80.197453
70.389509
56.966543
46.400428
35.966635
30.257702
25.416613
23.255944
21.967888
21.676421
21.068454
20.981431
21.060705
20.231605
20.906925
##ZVALUE=340
0.194907
0.295639
0.297427
0.254512
0.342727
0.154972
0.114441
0.397563
0.302792
0.322461
0.378489
0.303984
0.325441
0.236630
0.381470
0.265837
0.338554
0.379682
0.248551
0.385642
0.293851
0.460744
0.360608
0.334978
0.439882
0.535846
0.252724
0.362992
0.413656
0.266433
0.369549
0.463724
0.520945
0.472665
0.454783
0.597835
0.505447
0.557899
0.549555
0.552535
0.738502
0.604987
0.797510
0.681877
0.665784
0.861883
0.835657
0.751615
0.947714
1.157522
1.287460
2.147555
7.899404
39.417744
96.659660
237.120390
391.438603
631.711483
805.243850
981.782675
1015.892029
957.529545
830.599666
607.958436
422.280431
218.792558
121.379495
49.668550
22.119880
11.525750
10.904670
11.462569
11.861920
14.220476
16.864538
23.857951
30.662417
43.979883
56.212544
74.110627
83.322525
91.447830
91.934800
87.104440
80.225468
66.372752
56.444407
44.342875
36.669970
28.947592
24.585724
22.160411
21.023750
20.914674
20.896792
19.987822
##ZVALUE=345
0.204444
0.229478
0.176430
0.352859
0.309944
0.157952
0.229478
0.094771
0.383854
0.310540
0.391603
0.267625
0.286698
0.241995
0.261664
0.279546
0.442863
0.383854
0.314713
0.387430
0.162721
0.295639
0.307560
0.352859
0.414848
0.395775
0.322461
0.497699
0.383854
0.249743
0.445843
0.489950
0.333786
0.477433
0.477433
0.474453
0.291467
0.604987
0.616908
0.375509
0.470877
0.646710
0.641942
0.667572
0.716448
0.749826
0.730753
0.865459
0.791550
0.871420
1.012683
1.068711
1.278520
1.518726
3.273487
21.965504
59.999824
159.253478
284.120440
504.245758
682.574511
897.419453
992.170572
1000.670791
906.944871
688.861609
509.006977
296.539664
167.436004
67.097545
31.430721
14.291406
11.324883
10.890961
11.579990
12.328625
13.563633
16.512871
21.031499
30.820966
40.375590
55.309534
65.656900
76.549649
82.183480
85.907578
82.795620
74.643493
66.008568
54.564476
44.173002
33.508539
28.401613
23.817420
21.032691
20.585656
##ZVALUE=350
0.120997
0.241995
0.365973
0.242591
0.308752
0.255704
0.267625
0.210404
0.221729
0.311732
0.141859
0.278950
0.277758
0.436902
0.367761
0.514984
0.281930
0.342727
0.409484
0.219941
0.362992
0.401735
0.188947
0.290871
0.282526
0.171661
0.288486
0.276566
0.441670
0.447631
0.358820
0.219941
0.513792
0.554919
0.460744
0.410676
0.572801
0.431538
0.383854
0.514984
0.669956
0.561476
0.508428
0.699759
0.578761
0.544786
0.641942
0.747442
0.793934
0.760555
0.967979
1.096725
0.996590
1.168847
1.185536
1.467466
1.975894
10.379553
33.966899
108.388662
209.652781
416.692495
596.965551
821.695924
956.732035
1013.302803
955.563784
782.110691
594.955683
351.026654
213.712454
96.511841
45.213699
16.503930
11.161566
10.782480
10.665655
11.086464
11.901855
13.573766
16.091466
21.293759
27.549863
37.546754
46.456456
59.549809
68.845749
76.418519
78.756809
77.326894
71.664453
61.088800
51.705837
40.258765
33.070445
26.770830
##ZVALUE=355
0.264645
0.290871
0.250936
0.009537
0.214577
0.222921
0.258684
0.406504
0.291467
0.492930
0.404716
0.342727
0.309944
0.328422
0.394583
0.306964
0.300407
0.313520
0.351667
0.278950
0.329614
0.263453
0.170469
0.388622
0.378489
0.320673
0.291467
0.421405
0.367761
0.278950
0.381470
0.274777
0.472665
0.387430
0.391603
0.552535
0.503659
0.393987
0.589490
0.591874
0.406504
0.707507
0.498891
0.544786
0.661612
0.512600
0.572801
0.534654
0.693798
0.667572
0.769496
0.833869
0.838637
0.936985
0.964999
1.073480
1.143813
1.273751
1.472831
4.877448
18.629432
72.348714
149.045587
314.135551
488.313437
739.998817
893.010497
997.892022
987.740755
837.574005
662.640929
423.976779
260.806680
115.035772
56.988001
21.864772
12.129545
10.075569
10.478497
10.707974
11.151433
12.008548
12.850761
14.943480
18.023849
24.615526
31.747818
42.798519
51.229000
60.978532
67.724586
70.910454
70.235729
65.176487
58.674812
48.112869
##ZVALUE=360
0.171661
0.335574
0.157952
0.350475
0.191927
0.219941
0.381470
0.376701
0.096560
0.405908
0.363588
0.260472
0.292659
0.292659
0.371933
0.304580
0.299811
0.240803
0.292659
0.222921
0.157952
0.180602
0.271797
0.198483
0.357628
0.516772
0.378489
0.527501
0.355840
0.582933
0.404716
0.177622
0.421405
0.347495
0.319481
0.341535
0.340939
0.363588
0.442863
0.556707
0.520945
0.530481
0.480413
0.440478
0.593662
0.515580
0.580549
0.640750
0.681877
0.700951
0.782609
0.743866
0.752807
0.787973
0.763535
0.774860
0.899434
0.976920
1.098514
1.240969
1.603961
2.546906
7.514954
35.300851
86.927414
217.479467
360.887647
587.462783
769.236684
937.472582
971.744657
890.427828
747.023821
501.218438
331.856012
160.177946
82.628727
31.274557
14.778972
9.729862
9.334683
9.929538
9.957552
10.229945
10.841489
11.703968
12.912750
16.774535
20.348430
27.219653
35.255551
45.562983
52.811503
61.089993
64.036846
64.637661
##ZVALUE=365
0.257492
0.233650
0.202656
0.247955
0.181794
0.135899
0.169873
0.094771
0.292659
0.285506
0.238419
0.203848
0.281930
0.259876
0.113845
0.328422
0.336766
0.070930
0.302792
0.354648
0.247955
0.360608
0.467896
0.375509
0.363588
0.279546
0.266433
0.397563
0.249743
0.455976
0.393987
0.237823
0.431538
0.372529
0.328422
0.395775
0.402927
0.329614
0.350475
0.347495
0.362992
0.453591
0.569820
0.410676
0.550747
0.410676
0.291467
0.331998
0.553727
0.562668
0.512600
0.760555
0.700951
0.772476
0.737906
0.647902
0.840425
0.917912
0.656843
1.035929
1.089573
1.104474
1.261830
1.736879
3.464818
19.508600
53.433776
143.034458
267.168880
491.114855
661.260486
846.828818
933.218002
907.106996
790.019631
570.446849
401.219726
218.371749
115.782619
42.643547
18.996000
9.417534
9.003878
8.840561
8.903742
9.236932
9.618998
9.653568
10.339618
11.595488
13.595819
17.959476
22.433996
30.992627
38.354993
47.439933
##ZVALUE=370
0.029802
0.025630
0.108480
-0.026822
0.058413
0.148416
0.187755
-0.002980
-0.006557
-0.041723
0.051856
0.021458
0.230670
0.272989
0.271797
0.077486
-0.030994
0.072718
0.109673
0.156760
0.130534
-0.024438
0.100732
0.138879
0.221729
0.226498
0.312924
0.053644
0.121593
0.277758
0.180602
0.197887
0.038743
0.251532
0.167489
0.162721
0.130534
0.250936
0.127554
0.123978
0.238419
0.146627
0.339746
0.270605
0.383854
0.207424
0.386834
0.211596
0.258684
0.183582
0.276566
0.461936
0.340939
0.497699
0.516772
0.508428
0.428557
0.397563
0.547767
0.533462
0.604987
0.833869
0.818968
0.845790
1.037717
1.310706
1.766682
10.165572
33.443570
110.003948
205.960870
390.450954
569.874644
796.654820
907.324553
927.449465
844.026804
655.025840
476.831794
258.972645
144.309998
56.448579
27.064681
11.588931
8.419752
8.093715
7.998943
8.247495
8.391738
8.643866
8.841753
9.392500
10.249615
12.791753
15.374422
20.629764
##ZVALUE=375
0.088811
0.195503
0.376701
0.160933
0.163913
0.233650
0.255704
0.219941
0.214577
0.203848
0.230670
0.229478
0.197887
0.334978
0.355840
0.273585
0.142455
0.180602
0.279546
0.295639
0.272989
0.284910
0.327826
0.317693
0.204444
0.287890
0.260472
0.295639
0.270605
0.201464
0.174642
0.278950
0.294447
0.276566
0.180602
0.352859
0.265837
0.342727
0.255704
0.404716
0.365973
0.295639
0.435710
0.316501
0.458956
0.298619
0.346899
0.424981
0.357628
0.331998
0.357628
0.432730
0.411868
0.448823
0.453591
0.389814
0.330806
0.483990
0.692606
0.494719
0.771880
0.577569
0.825524
0.789762
0.739694
0.907779
0.860691
1.127720
1.390576
5.675554
18.954873
66.581964
141.471624
311.900973
479.109883
715.100765
853.321552
938.713551
904.247761
738.152862
564.443469
335.062742
209.201574
99.454522
49.411654
17.677546
9.562969
7.497668
7.508993
7.371902
7.637739
8.097887
8.013844
8.362532
8.664727
9.276867
##ZVALUE=380
0.112653
0.211596
0.280738
0.192523
0.152588
0.082850
0.104904
0.141859
0.082850
0.184774
0.353456
0.250936
0.197887
0.186563
0.125766
0.117421
0.305772
0.342727
0.219941
0.318885
0.261664
0.337958
0.341535
0.339746
0.326633
0.257492
0.156760
0.305772
0.267625
0.162721
0.112653
0.331998
0.132918
0.216961
0.416636
0.225902
0.277758
0.227690
0.148416
0.278950
0.365973
0.377893
0.348687
0.384450
0.403523
0.442863
0.207424
0.368953
0.227690
0.475645
0.383854
0.333786
0.413656
0.549555
0.488758
0.646710
0.500679
0.456572
0.464916
0.397563
0.642538
0.568628
0.624657
0.759959
0.850558
0.572801
0.882745
1.076460
0.969768
1.298785
1.688600
3.373623
13.638735
62.697530
138.546824
305.687785
471.294522
695.669651
850.332975
965.168476
955.471992
818.589926
660.059452
436.229706
286.191702
138.123631
70.287585
25.569797
12.278557
7.110834
6.894469
7.038713
6.946921
7.418990
7.217526
7.678866
##ZVALUE=385
0.224710
0.064969
0.224710
0.242591
0.118613
0.286698
0.156760
0.136495
0.129938
0.122786
0.198483
0.150800
0.126958
0.167489
0.108480
0.209808
0.240803
0.211596
0.053644
0.135899
0.247955
0.213981
0.205636
0.266433
0.275970
0.263453
0.169873
0.370741
0.245571
0.409484
0.194907
0.342727
0.280738
0.206828
0.348687
0.301600
0.169873
0.243783
0.430942
0.282526
0.279546
0.287890
0.249743
0.449419
0.439882
0.237823
0.296831
0.352859
0.389814
0.284910
0.441670
0.497699
0.360608
0.349879
0.418425
0.446439
0.361800
0.461936
0.420809
0.523925
0.620484
0.668764
0.415444
0.613928
0.499487
0.698566
0.697970
0.762939
0.854731
1.058578
1.167655
1.287460
1.380444
1.618862
5.563498
35.635829
89.878440
214.701891
367.164016
604.133606
769.158602
920.012593
950.788856
887.922645
769.394636
553.403497
386.286974
204.470754
113.385916
44.860840
19.031763
7.592440
6.343722
6.066561
6.443858
6.284714
##ZVALUE=390
0.171661
0.061989
0.190735
0.204444
0.164509
0.204444
0.233650
0.123978
0.115633
0.202656
0.207424
0.180602
0.138879
0.261664
0.235438
0.236630
0.199676
0.197887
0.399947
0.211596
0.259876
0.065565
0.318885
0.311732
-0.028610
0.283718
0.251532
0.278950
0.230670
0.369549
0.271797
0.358820
0.214577
0.276566
0.243783
0.240803
0.278950
0.221729
0.341535
0.240803
0.305772
0.214577
0.286698
0.345707
0.334978
0.356436
0.199676
0.298619
0.199676
0.383854
0.370741
0.449419
0.366569
0.530481
0.502467
0.365973
0.499487
0.178814
0.378489
0.496507
0.479817
0.550747
0.493526
0.543594
0.565648
0.752807
0.680685
0.777841
0.784993
0.911951
1.006722
1.037717
1.131892
1.110435
1.205802
1.462698
2.564788
16.597509
59.694648
195.604563
372.213721
662.025809
836.111903
1003.109813
1015.890837
1000.367999
883.931518
675.348639
508.055687
300.976634
169.634819
67.105889
29.660463
9.991527
6.505847
5.919933
##ZVALUE=395
0.144839
0.216961
0.038743
0.066757
0.129938
0.206828
0.198483
0.133514
0.275970
0.235438
0.147820
0.207424
0.303984
0.224710
0.195503
0.284910
0.158548
0.307560
0.259876
0.244975
0.278950
0.200868
0.259876
0.105500
0.174642
0.121593
0.284910
0.229478
0.303984
0.318885
0.273585
0.277758
0.267625
0.308752
0.136495
0.320673
0.417829
0.278950
0.377893
0.257492
0.371933
0.325441
0.386834
0.294447
0.347495
0.410676
0.321865
0.320673
0.224710
0.317693
0.426769
0.382662
0.338554
0.160933
0.342727
0.375509
0.313520
0.260472
0.387430
0.469685
0.570416
0.460744
0.422597
0.380874
0.399947
0.503659
0.758767
0.673532
0.671744
0.979900
0.773668
1.005530
0.990629
0.908971
1.123548
0.973940
1.124740
1.161695
1.542568
8.001924
29.961467
99.303722
182.915926
342.623591
504.469872
729.925632
861.577988
942.205787
914.611816
775.373578
602.587461
369.264483
226.719975
96.902847
45.362711
15.432835
##ZVALUE=400
0.281930
0.223517
0.164509
0.279546
0.152588
0.269413
0.201464
0.218749
0.188947
0.178814
0.209808
0.210404
0.178814
0.167489
0.169873
0.205636
0.138879
0.192523
0.173450
0.298619
0.173450
0.246763
0.240803
0.341535
0.262856
0.102520
0.188947
0.142455
0.202656
0.232458
0.152588
0.203848
0.166893
0.179410
0.324845
0.402927
0.328422
0.332594
0.250936
0.279546
0.216961
0.478625
0.282526
0.523925
0.331998
0.262856
0.212789
0.332594
0.296831
0.218749
0.321865
0.412464
0.443459
0.293851
0.365973
0.273585
0.393987
0.231862
0.324845
0.272989
0.363588
0.425577
0.460744
0.491738
0.474453
0.420809
0.584722
0.662804
0.570416
0.712872
0.735521
0.905991
0.896454
0.786781
0.806451
0.873804
0.763535
0.934601
0.921488
1.141429
1.456738
3.925562
13.796687
52.059889
113.412738
251.788497
397.293568
607.829690
748.547912
875.515938
888.184905
784.737468
644.345880
423.371792
276.122689
137.388706
##END
