##TITLE=QP00602
##FORMAT=SPECTACLE-ASCII V-1.2
##DATA TYPE=ULTRAVIOLET SPECTRUM
##SECOND TYPE=ULTRAVIOLET SPECTRUM
##DATE=04/11/18
##TIME=15:44:03
##SPECTROMETER/DATA SYSTEM=SPECTACLE
##XUNITS=NM EM
##YUNITS=ENERGY
##YFACTOR=1
##FIRSTX=220
##LASTX=410
##NPOINTS=96
##3DDATA=Equidistant
##ZUNITS=NM EX
##FIRSTZ=210
##LASTZ=400
##ZPOINTS=39
##XYDATA=(Y..Y)
##ZVALUE=210
2.359748
2.770424
2.247691
2.854466
2.774596
3.571510
2.877712
2.710819
2.428889
2.848506
3.456473
2.324581
2.761483
2.544522
2.596974
2.903938
2.823472
3.061891
3.431439
2.910495
3.175735
3.966689
4.203916
4.213452
4.803538
5.044937
4.414916
4.603863
4.719496
4.140735
5.449653
4.631877
5.998611
5.866885
5.374551
5.466938
6.116629
6.291866
6.556511
6.360412
6.540418
6.648898
7.252693
7.479787
7.363558
7.757545
7.539988
6.955862
7.869601
7.155538
7.626414
8.338690
7.071495
7.079840
9.021759
8.800626
7.317662
8.835793
7.905960
7.127523
9.276867
8.416772
8.099675
8.818507
8.138418
8.784533
9.945631
9.725690
12.540817
12.679696
17.491579
18.569827
22.580624
22.444725
25.684834
26.691556
25.588870
25.786757
26.206970
26.575923
22.927523
21.281838
19.454956
15.998483
13.234615
12.499690
9.857416
9.454489
8.307695
8.413792
8.726716
8.038878
8.468628
8.731484
9.113550
8.323789
##ZVALUE=215
6.660819
7.410645
5.571842
4.886985
4.171729
4.891753
4.673600
5.771518
4.658699
5.784631
4.242659
4.252791
3.874898
2.999902
3.418922
2.571940
2.960563
3.373623
2.840757
3.562570
3.894567
3.661513
3.749728
3.849864
4.130602
4.324913
4.137754
4.461408
5.475879
5.617738
5.573630
6.199479
5.762577
6.854534
7.048845
6.544590
6.965995
6.435513
7.098913
6.821752
7.022619
7.356405
6.815791
7.958412
7.763505
8.311868
7.970929
7.723570
8.033514
8.821487
8.938909
8.829832
8.523464
9.284616
8.740425
8.471608
8.459687
9.240508
9.214878
7.946491
9.448528
8.836985
9.027719
8.443594
9.479523
9.066463
9.803772
10.599494
11.857748
13.350844
16.716719
17.288923
21.009445
21.974444
24.111867
25.059581
26.962757
25.809407
24.473667
24.864674
22.678971
20.095706
18.713474
15.611649
13.191700
10.706782
11.219978
10.232925
8.939505
8.634925
8.702874
8.746982
8.408427
9.239912
8.425713
8.192658
##ZVALUE=220
21.537542
22.644997
23.934841
21.741986
20.740628
17.436743
14.295578
12.284517
9.855628
10.359883
10.396838
12.798905
12.047887
11.193752
9.249449
8.617640
5.882978
5.404949
4.630685
3.196597
3.821850
4.370809
4.393458
3.744960
4.307628
5.130768
4.791617
5.234480
4.706979
5.858541
6.690621
6.408691
7.504821
6.943941
8.236766
6.798506
8.595586
8.516908
9.178519
9.908676
10.411739
10.190606
9.947419
9.927750
9.658933
10.051727
9.968877
8.966923
10.370612
11.026859
10.783672
10.316968
11.402965
9.894967
10.344982
10.985732
9.718537
10.906458
10.568500
11.151433
10.438561
11.506677
11.383891
11.476874
11.344552
11.536479
11.924505
13.821721
12.826920
15.036464
15.247464
20.827651
21.500587
22.790432
25.079846
27.330518
28.049946
26.668906
24.240613
23.879409
23.734570
19.891858
18.339753
15.890598
15.502572
12.149811
12.076497
12.058616
9.650588
10.220408
10.200739
9.805560
8.834600
9.445548
9.481907
9.510517
##ZVALUE=225
39.653778
41.193962
52.678585
66.142678
73.321462
72.993636
63.712001
54.216981
42.021871
32.866001
24.668574
21.334887
23.331642
23.598671
25.594831
24.257898
19.074678
16.247630
13.089776
8.942485
7.428527
4.586577
4.891753
4.224777
5.207658
5.628467
4.945993
5.906820
6.421804
6.332994
6.141663
7.991791
7.414818
9.276867
9.563565
11.265874
11.762977
12.677908
12.241602
12.427568
12.914538
12.618899
13.774633
13.978481
12.045503
12.573600
13.279915
14.043450
13.504624
12.115836
13.772845
13.255477
13.165474
13.150573
15.330911
14.828444
15.470982
16.396642
15.746951
14.260411
15.696883
15.369654
14.269948
15.726686
14.385581
14.953613
15.496612
15.453696
18.040538
18.330812
18.933415
20.562410
23.369789
28.147697
28.446913
26.789904
26.022792
25.560856
24.479628
25.157928
21.482706
20.069480
17.352700
19.668937
17.191768
15.066862
14.664531
14.915466
13.539791
13.839602
13.635755
13.722777
12.718439
14.324784
13.990998
12.468696
##ZVALUE=230
37.038922
41.461587
74.939728
101.818442
146.172643
167.918801
181.842446
179.279447
156.090856
131.698847
94.331503
68.019629
51.331520
39.086938
41.859746
48.339963
49.159527
45.109987
41.174889
34.481883
27.251840
20.159483
12.286901
7.813573
6.045699
6.196499
6.270409
7.326603
7.683635
6.919503
6.416440
8.283854
9.920597
9.489655
11.686683
12.180805
12.396574
12.477636
14.882684
14.450550
15.698671
15.785694
17.725825
15.540719
14.543533
14.015436
15.973449
15.133619
16.175508
14.699697
15.607476
16.979575
16.906857
16.913414
16.974807
19.227862
18.694997
17.737746
19.900799
18.942952
18.609762
18.353462
18.953681
20.524859
18.988848
19.553900
19.706488
20.817518
22.141933
23.004413
24.496913
27.221441
29.555559
29.060841
31.851530
30.906796
30.822754
29.728413
29.595494
29.958487
29.853582
26.851892
24.668574
25.112629
23.377538
21.600723
20.562410
20.551682
21.062493
18.582940
20.185709
19.842982
19.368529
18.814802
19.927621
18.321872
##ZVALUE=235
14.209747
18.616915
35.915971
78.403950
130.488873
206.924677
264.669657
343.146920
378.593802
380.109549
332.859755
277.041793
190.714598
141.554475
93.753934
73.966980
68.225861
72.838664
80.554485
76.556802
76.559782
63.413978
50.503612
35.533905
23.753643
16.350746
11.543632
9.857416
8.239746
7.719994
7.967949
8.540750
9.317994
10.052919
11.405945
11.754632
11.761785
12.805462
14.264584
13.637543
14.577508
13.879538
13.983846
14.445782
14.524460
15.420914
15.947819
13.893843
15.900731
14.536977
15.239716
16.934872
17.642975
18.937588
18.824935
19.919872
19.573569
19.475818
19.765496
20.256639
21.741986
20.628572
22.604465
23.880601
23.633838
21.532774
24.078488
26.777983
27.981997
30.743480
30.277967
35.166740
34.977794
38.144588
38.029552
38.760900
39.831996
39.806962
38.112998
35.293698
34.284592
33.140779
34.682751
31.872988
30.172467
29.138923
26.233792
29.191971
28.129816
29.417872
28.270483
27.800798
26.694536
27.256608
26.786923
27.713776
##ZVALUE=240
2.704859
2.568960
8.997917
23.278594
61.436892
110.445619
217.485428
323.113799
469.715595
568.479896
640.842915
629.826784
574.951768
462.263823
362.748504
219.847560
152.933598
111.064911
96.899867
100.557804
111.956596
116.070509
112.693906
105.075836
86.869001
65.247416
46.612620
32.928586
20.702481
14.754534
10.974407
9.583831
10.216832
11.303425
10.905862
10.890961
13.030767
12.727976
12.247562
12.508631
13.509989
13.865829
13.760924
13.553500
13.473630
13.911724
15.325546
14.745593
15.068650
14.968514
15.601516
17.415881
15.507936
16.687512
18.099546
18.396974
18.067956
18.469691
18.604994
18.897653
21.302700
19.827485
21.607876
22.790432
21.267533
24.193525
25.822520
27.258992
29.462576
30.453801
34.366846
38.125515
39.322972
44.347644
45.138001
43.608546
43.618679
45.204759
45.020580
44.192672
43.603778
41.499734
40.614605
37.466884
38.666725
36.535859
37.284493
36.840439
37.188530
33.882856
37.800670
34.182668
37.853718
33.802986
33.672452
37.505627
##ZVALUE=245
1.863837
1.626611
1.844764
1.933575
5.296469
20.192862
50.743818
131.904483
232.387781
398.667455
535.807610
715.404749
804.764628
823.888779
786.450505
647.655725
522.611737
346.445441
234.567523
142.774582
106.562972
103.535652
112.748742
124.169588
134.564638
127.627850
111.470819
95.051527
69.888830
53.682923
37.378669
25.397539
14.919639
13.172626
9.796619
9.515882
10.683537
10.716915
10.236502
10.671616
11.238456
11.493564
11.664629
12.836456
12.024641
12.049675
11.644959
12.600422
12.731552
11.782646
13.245940
13.196468
13.691783
14.706850
13.695955
13.937950
14.571548
15.049577
15.985966
15.806556
16.887784
17.729998
17.534494
18.656850
19.605756
19.795895
22.002459
24.923682
26.296973
28.252602
29.174685
32.073855
36.099553
36.936998
38.403869
40.165782
41.496754
41.483641
40.310621
38.949847
38.472414
37.734509
35.473704
36.540627
37.637949
36.008954
34.202933
35.909414
36.085844
36.242604
35.510659
34.265518
35.467744
34.359694
33.171773
34.697652
##ZVALUE=250
1.398921
1.688600
1.849532
1.842976
1.802444
2.015829
3.352761
18.792748
47.145486
100.847483
228.038430
373.587012
593.854785
733.194947
892.117620
949.969888
926.808715
836.525559
708.784461
481.451750
326.740742
187.521577
126.882792
96.211433
102.849603
120.503902
133.829713
135.979652
135.849714
120.250583
104.656816
76.359510
56.703687
36.092997
25.047660
15.560985
13.126731
10.731816
11.647940
11.042953
11.450648
11.747479
12.111664
13.143420
11.102557
12.256503
12.609959
12.207627
12.614727
12.459755
13.259649
12.535453
13.371706
13.725758
13.229847
13.930798
14.119744
15.021563
15.025735
15.077591
16.066432
16.021729
15.649796
17.335415
18.345714
18.768907
19.553900
21.082759
21.644831
25.794506
28.505921
29.270649
31.675696
32.592416
35.656691
37.015676
38.209558
39.546490
36.548972
38.049817
36.789775
35.050511
33.851862
32.861829
33.285618
33.158660
33.218861
32.229424
32.331944
33.053756
33.020973
32.488704
33.357739
34.426451
32.624602
32.899976
##ZVALUE=255
1.185536
1.419783
1.343489
1.499653
1.479983
1.976490
1.611710
1.819730
2.463460
6.711483
33.383965
78.844428
156.040788
331.406593
514.776707
781.812668
964.056849
1015.882492
1015.882492
1015.882492
932.186842
732.227564
447.936654
281.432867
147.522688
103.495717
92.424750
104.349852
127.380490
140.406489
147.281885
142.591000
132.604837
108.480453
86.488724
61.504841
43.226480
29.164553
19.707680
15.666485
13.733506
14.178753
13.258457
14.879704
13.127923
15.209913
13.770461
14.190674
13.907552
14.542937
15.455484
15.287995
14.793873
14.817715
14.555454
14.940500
14.645457
15.567541
16.081929
14.618635
16.459823
15.484691
17.104745
16.942620
17.366409
19.246936
20.007491
20.681620
21.781921
24.761558
25.446415
28.384924
30.176640
31.897426
34.143925
33.819675
35.353899
32.266974
32.688975
32.398701
32.690763
32.413602
31.139851
32.505989
32.714605
30.696988
31.063557
32.159686
31.989813
31.108856
31.610727
32.684803
32.393932
32.770634
32.231808
31.401515
##ZVALUE=260
1.427531
1.202822
1.183748
1.330972
1.291633
1.447797
1.463890
1.946688
2.229810
1.808405
2.234578
3.579855
10.957718
44.717789
104.482770
260.599852
442.502499
755.153894
991.221666
1015.890837
1015.890837
1015.890837
1015.890837
988.354683
652.559996
434.055924
238.810778
142.878890
90.197921
87.751746
103.487968
130.834579
144.824982
155.435801
155.127645
138.214827
119.149685
89.153647
70.770979
46.616793
36.197901
24.167895
20.355582
17.956495
17.347932
17.573833
17.523766
17.523766
17.009974
17.584562
17.002821
16.382933
16.870499
17.004609
16.938448
15.595555
17.382503
16.490817
17.046928
17.482638
18.262863
17.735958
18.726587
18.581748
18.630624
20.168424
20.267963
20.475984
20.991564
24.204850
25.500655
26.388764
28.774738
29.155612
30.740499
30.161738
31.323433
30.782819
31.451583
31.076670
29.754639
30.065775
29.746890
30.450821
30.172467
28.658509
30.464530
29.359460
29.787421
29.707551
30.464530
30.200481
29.482841
29.827952
30.763745
29.749870
##ZVALUE=265
1.243949
1.110435
1.140833
1.381636
1.349449
1.236796
1.567602
1.461506
1.527667
1.438856
1.556873
2.135634
2.195835
3.007650
5.785823
29.067993
74.287653
192.961693
357.256532
682.220459
970.202684
1015.892029
1015.892029
1015.892029
1015.892029
1015.892029
867.331028
606.034994
334.018469
189.682841
116.199851
79.373717
87.081790
119.851828
139.948726
161.585808
167.276859
160.370469
150.620937
123.376846
98.881721
69.723725
54.531693
36.876798
29.031634
23.109913
22.952557
20.435452
20.868778
19.889474
20.710826
20.649433
20.414591
19.676685
19.951463
20.943880
19.238591
19.354820
19.266605
20.325780
19.922853
20.614862
21.447539
20.876527
20.711422
20.859838
22.580624
21.964908
22.092462
25.243759
26.474595
27.207732
27.616620
29.946566
30.120611
30.718446
30.307770
30.508637
29.713511
30.505657
29.379725
29.689670
29.301643
28.859973
29.065609
28.781891
28.491616
28.890967
29.709935
28.413534
29.607415
27.991533
29.379725
29.024482
28.957725
30.181408
##ZVALUE=270
0.915527
1.079440
1.004934
0.978708
1.311898
1.128912
1.103878
1.204610
1.492500
1.473427
1.281500
1.596808
1.786947
1.579523
1.752973
2.008677
3.062487
13.591647
43.048859
137.100816
275.280476
487.524867
859.133601
1015.890837
1015.890837
1015.890837
1015.890837
1015.890837
1015.890837
784.263015
530.250669
272.841454
156.901479
81.677437
75.567961
97.696781
120.470524
150.347948
167.047977
176.968575
174.206495
153.493881
133.812428
100.865960
79.167485
54.474473
42.724609
31.697750
27.808547
24.586916
24.304986
23.440719
23.226738
22.971630
23.594499
22.675991
22.367835
23.527741
22.784472
22.994876
22.527575
23.471713
23.403764
23.563504
23.547411
24.716854
23.543835
24.662614
24.091601
25.806427
26.876926
28.403997
29.283762
29.997826
30.216575
29.695630
29.341578
29.939413
29.284954
29.549599
29.119849
29.135942
28.764606
28.390884
28.574467
28.085709
28.583407
27.693510
27.801991
28.287768
28.422475
27.157664
27.426481
27.176738
27.855635
27.386546
##ZVALUE=275
0.945926
1.042485
0.811815
0.859499
0.798702
1.015663
1.054406
1.186728
0.969768
1.081824
1.180768
1.351833
1.234412
1.468658
1.578927
1.635551
1.678467
1.908541
2.227426
6.189942
25.085807
72.074533
215.637684
403.673649
750.941634
999.622941
1015.881896
1015.881896
1015.881896
1015.881896
1015.881896
981.778502
710.439682
389.849544
232.622623
111.149549
75.605512
76.300502
97.704530
129.836798
148.436427
170.628428
176.591873
172.528625
156.826973
128.602982
105.730891
80.027580
61.389804
43.940544
34.124851
28.941631
26.624799
25.052428
24.924874
25.727749
26.170611
25.153756
26.566982
25.134683
25.289655
25.768876
26.547909
26.474595
26.678443
26.039481
26.771426
26.359558
27.951598
28.183460
29.634833
30.135512
30.705929
31.271577
31.023622
31.410456
31.571984
30.754805
29.918551
29.060841
29.911995
28.843880
29.077530
29.060841
28.488636
28.366446
28.678775
27.812719
28.129816
26.769638
28.019547
27.605891
27.285814
26.688576
26.544929
26.600957
##ZVALUE=280
0.976920
1.020432
0.755787
0.976920
0.934601
0.720620
0.983477
0.831485
1.032948
1.066923
1.038909
1.203418
1.252890
1.215935
1.212955
1.352429
1.418591
1.721978
1.674891
1.806617
2.170801
2.837777
15.936494
52.927732
175.109506
324.621797
615.502000
887.261033
1015.890837
1015.890837
1015.890837
1015.890837
1015.890837
1015.890837
865.494013
508.870482
311.191678
146.528482
85.787773
61.655641
72.931647
99.539757
120.504498
148.718953
162.734985
170.286894
165.080428
148.963928
127.475858
99.027753
76.393485
55.631995
43.708682
33.330917
28.837919
25.712848
25.850534
26.128888
26.575923
26.061535
26.615858
27.004480
27.238727
27.475953
28.034449
28.037429
27.127862
28.991699
27.896762
28.749704
29.690862
30.486584
30.385852
29.881001
31.254888
31.302571
30.855536
30.494928
30.610561
29.694438
29.205680
29.693842
28.345585
28.201938
27.663708
27.942657
28.180480
26.282668
27.692914
27.086735
26.676655
26.444793
25.580525
25.893450
25.993586
25.822520
##ZVALUE=285
0.630617
0.818968
0.890493
0.928640
0.866652
0.961423
0.947714
0.875592
1.011491
0.760555
0.854731
0.981688
1.114607
1.168847
1.138449
1.130700
1.113415
1.334548
1.457930
1.599789
1.597404
1.652837
2.162457
2.481937
8.188486
28.465986
99.410415
208.076835
453.602076
723.450780
997.318029
1015.893817
1015.893817
1015.893817
1015.893817
1015.893817
1015.893817
723.301768
472.073555
233.325958
123.124719
55.903792
46.906471
65.543652
86.972713
117.533803
137.542486
155.066848
160.602927
158.804655
145.752430
121.297836
101.298690
74.706674
56.840777
40.578842
32.220483
26.635528
25.046468
25.299788
24.694800
25.166869
26.446581
25.529861
26.421547
26.755929
27.157664
27.168989
27.547479
28.160810
28.857589
29.953718
28.794408
30.894876
30.322671
30.416846
29.595494
29.828548
30.047894
29.621720
29.016733
28.809905
28.589964
27.779937
27.307868
26.838779
27.127862
26.823878
27.202964
26.740432
27.202964
25.978684
25.902987
25.705695
25.850534
25.456548
##ZVALUE=290
0.811815
0.619888
0.622869
0.804663
1.019835
0.824928
0.920892
0.824928
0.695586
0.781417
0.882745
0.738502
0.749826
1.132488
1.097918
1.034737
0.968575
1.257658
1.282692
1.297593
1.533628
1.746416
1.542568
1.961589
2.116561
2.195835
3.649592
10.866523
53.799748
132.644773
266.695619
566.411018
875.929594
1015.890837
1015.890837
1015.890837
1015.890837
1015.890837
1015.890837
957.973599
655.557513
344.136953
182.926655
69.793463
37.035942
41.444898
55.615902
80.141425
101.421475
128.850937
145.452619
154.229999
152.547956
137.517452
120.097995
92.676878
74.154735
51.888824
40.073991
30.539632
25.887489
23.470521
23.297668
23.550987
23.508668
23.646951
24.572611
24.598837
25.027990
26.003718
26.837587
26.708841
27.082562
28.408766
27.550459
28.584599
27.935505
28.072000
28.362870
27.478933
26.847720
27.100444
27.088523
27.375817
27.035475
26.795864
26.860833
26.786923
26.224852
26.552677
26.105642
25.243759
25.423765
25.209785
25.034547
23.901463
##ZVALUE=295
0.614524
0.616908
0.575781
0.578761
0.852942
0.914931
0.566840
0.704527
0.718832
0.764728
0.751615
0.828505
0.746846
0.833869
0.737906
1.025796
0.953674
1.078844
1.063943
1.186728
1.365542
1.191497
1.411438
1.411438
1.632571
1.676679
1.926422
2.124906
2.689958
5.267859
19.372702
84.462762
191.584826
458.749533
738.129020
1015.890837
1015.890837
1015.890837
1015.890837
1015.890837
1015.890837
1015.890837
886.265635
493.572950
272.312760
96.667409
42.597651
26.864409
33.269525
51.845908
71.803927
98.031759
118.557811
138.387680
145.274997
142.722726
131.986737
111.345649
93.118548
67.578554
51.825643
35.685897
28.787851
22.680759
21.187663
20.462871
20.589828
20.880699
21.285415
22.628903
23.041964
24.167895
24.499893
24.930835
25.525689
26.343465
25.718808
25.720596
25.532842
25.519729
25.625825
25.580525
25.538802
25.580525
25.593638
25.872588
25.507808
25.392771
24.348497
24.742484
24.727583
24.464726
24.597645
22.936463
23.749471
24.254918
##ZVALUE=300
0.573993
0.575781
0.524521
0.508428
0.613928
0.570416
0.615716
0.647902
0.757575
0.628829
0.749826
0.737906
0.819564
0.860691
0.825524
0.684857
0.992417
0.941753
1.052618
0.986457
0.963807
0.879765
1.132488
1.181960
1.371503
1.400709
1.708865
1.640916
1.808405
2.062917
2.477765
2.758503
13.413429
49.251914
167.455673
330.975652
682.574511
992.543697
1015.892029
1015.892029
1015.892029
1015.892029
1015.892029
1015.892029
1001.619697
708.433986
374.906659
205.934644
72.576404
29.266477
23.270845
30.047894
47.127604
64.111948
89.200735
107.870698
129.543543
135.786533
134.992599
127.827525
109.928846
90.634823
65.578818
51.395893
35.267472
27.677417
21.749735
19.458532
19.281507
19.145608
20.648837
21.370649
22.310615
22.583604
23.212433
23.577809
23.406744
23.830533
24.073720
24.580956
23.976564
24.503469
24.428964
25.235415
24.748445
24.561882
24.165511
24.444461
24.762750
24.594665
24.267435
23.435950
24.141669
23.023486
22.922754
23.563504
##ZVALUE=305
0.489950
0.540614
0.668764
0.644922
0.679493
0.613928
0.634789
0.775456
0.718832
0.742674
0.676513
0.616908
0.739694
0.544786
0.746846
0.715852
0.815988
0.838637
0.886917
0.960827
1.002550
0.881553
0.833869
1.189709
1.295805
1.074672
1.248717
1.221895
1.573563
1.682639
1.772642
1.986623
2.308488
2.591610
6.794930
27.771592
111.661553
238.602757
525.649786
820.745826
1015.890837
1015.890837
1015.890837
1015.890837
1015.890837
1015.890837
1015.890837
851.558447
485.129952
278.230906
106.277466
44.071674
18.733740
20.646453
30.514598
42.878985
64.323545
83.780885
105.904937
119.818449
130.900741
131.176710
120.745897
106.305480
84.160566
65.596700
47.513843
36.373734
26.196837
22.304654
20.757914
20.444989
20.627975
21.440983
22.323728
22.987723
22.280812
22.271872
23.128986
23.457408
23.636818
24.793744
24.773479
24.433732
25.263429
24.958849
25.436878
24.457574
24.075508
24.062991
24.245977
24.021864
23.856759
23.478866
23.034811
22.894740
##ZVALUE=310
0.573993
0.562668
0.347495
0.488758
0.617504
0.614524
0.624657
0.638962
0.736713
0.652671
0.603795
0.702739
0.508428
0.492930
0.679493
0.534654
0.710487
0.634789
0.767708
0.934601
0.891685
0.854731
0.968575
1.023412
0.904799
0.954866
1.280904
1.131892
1.306534
1.244545
1.391768
1.252890
1.642704
1.910925
2.131462
2.434850
3.174543
14.482737
53.115487
178.594589
350.541472
719.862580
1015.849710
1015.849710
1015.849710
1015.849710
1015.849710
1015.849710
1015.849710
989.874601
685.722828
341.422558
176.474452
61.543584
24.945736
15.625954
19.090772
27.456880
38.288832
58.104992
75.377822
98.432899
111.935735
123.339891
124.464631
116.923451
103.272796
84.365606
66.968799
48.008561
37.617683
29.046535
25.148988
22.523999
22.133589
21.988750
22.045970
22.993684
22.898912
23.360848
23.858547
23.691654
24.091601
24.722815
24.822950
24.420619
25.351644
25.099516
24.758577
25.357604
24.984479
24.013519
24.040937
23.166537
24.119616
24.103522
##ZVALUE=315
0.549555
0.545979
0.552535
0.605583
0.482798
0.482798
0.452995
0.494719
0.430942
0.779629
0.580549
0.691414
0.495911
0.692606
0.648499
0.583529
0.670552
0.747442
0.862479
0.792742
0.732541
0.819564
0.813603
0.833869
1.042485
0.839829
1.036525
0.897646
0.948906
1.370907
1.296997
1.395941
1.340508
1.435876
1.690984
1.758933
2.102852
2.580881
2.701879
6.624460
27.534962
115.544796
252.537727
563.381910
902.851820
1015.890837
1015.890837
1015.890837
1015.890837
1015.890837
1015.890837
1015.890837
855.016708
457.995534
245.702863
88.494420
35.478473
15.066862
14.416575
18.388629
24.516582
38.407445
51.824450
72.643757
90.250969
108.862519
117.977858
119.677782
113.261938
98.581910
83.073974
65.242648
51.148534
37.159920
30.432940
25.173426
23.608804
23.491979
23.219585
23.668408
23.813844
24.039745
24.710894
24.718642
24.403930
25.428534
24.965405
24.938583
25.316477
24.671555
24.828911
23.966432
24.637580
24.195910
24.296641
24.327636
##ZVALUE=320
0.335574
0.389814
0.475645
0.524521
0.378489
0.563860
0.679493
0.700951
0.600815
0.609756
0.639558
0.485778
0.706911
0.472665
0.493526
0.591874
0.560880
0.662804
0.743866
0.624657
0.581741
0.868440
0.720620
0.872612
0.828505
0.811815
0.788569
0.874996
0.841618
0.959635
0.910759
1.095533
1.110435
1.171827
1.389980
1.442432
1.722574
1.936555
1.653433
2.243519
2.489686
3.724694
13.984442
76.199770
183.751583
452.769399
742.471814
1015.880704
1015.880704
1015.880704
1015.880704
1015.880704
1015.880704
1015.880704
993.032455
574.880838
331.472754
137.090683
59.055686
18.285513
13.468862
13.989806
17.186999
24.540424
33.281446
50.782561
66.267848
86.710453
102.120638
112.484694
114.296675
109.959841
98.441839
79.349875
65.126419
48.145652
39.097667
30.720830
27.184486
24.636984
23.473501
24.069548
24.043918
24.520755
24.748445
24.781823
24.922490
24.533868
25.025606
25.175810
24.950504
24.652481
24.360418
24.246573
24.320483
23.895502
##ZVALUE=325
0.396967
0.505447
0.464916
0.438690
0.463724
0.566840
0.612736
0.396967
0.469685
0.407696
0.447631
0.467896
0.600815
0.629425
0.566840
0.613928
0.616908
0.512600
0.681877
0.550747
0.659823
0.725985
0.724792
0.664592
0.728965
0.833869
0.883937
0.898838
0.843406
0.952482
0.890493
0.923872
1.097918
1.170635
1.090765
1.406670
1.239777
1.322627
1.453757
1.631975
1.602769
2.109408
2.353787
2.796650
7.146001
49.628615
130.533576
335.598588
589.796901
1008.922458
1015.890837
1015.890837
1015.890837
1015.890837
1015.890837
1015.890837
1015.890837
741.686821
448.939800
197.200775
90.698004
27.143955
14.418960
12.678504
14.069676
18.307567
23.480654
34.665465
47.771931
68.990588
82.828999
100.554824
108.114481
109.431744
103.521943
91.134906
79.298615
60.740709
49.225688
37.058592
30.918717
26.972890
25.324821
24.654865
24.826527
24.801493
25.594831
25.241971
24.721622
24.052858
24.279952
24.402738
24.273992
24.119616
23.711920
23.684502
##ZVALUE=330
0.464916
0.421405
0.405908
0.545979
0.509620
0.379682
0.619888
0.493526
0.650883
0.589490
0.390410
0.447631
0.470877
0.613928
0.531673
0.602603
0.554919
0.759959
0.642538
0.706911
0.600815
0.726581
0.768900
0.568628
0.784993
0.754595
0.645518
0.779629
0.745654
0.703931
0.875592
0.923872
0.932813
0.930429
0.921488
1.132488
1.176596
1.172423
1.332760
1.343489
1.490712
1.827478
1.820922
1.846552
2.239943
2.434850
4.273653
17.912984
92.517734
215.664506
503.440499
813.844800
1015.890837
1015.890837
1015.890837
1015.890837
1015.890837
1015.890837
1015.890837
957.177877
520.028472
290.910006
115.073919
49.361587
16.520619
12.590885
12.674928
14.056563
18.677711
24.396777
36.809444
48.087835
65.419674
80.034733
95.242858
102.134943
103.800893
100.035667
86.480975
74.460506
58.088899
48.172474
37.522912
32.502413
27.746558
25.718808
24.258494
23.933649
23.943782
24.102926
23.871660
23.099780
23.372769
23.361444
23.505688
23.590922
##ZVALUE=335
0.614524
0.404716
0.439882
0.421405
0.294447
0.505447
0.443459
0.289679
0.359416
0.451803
0.455976
0.521541
0.478625
0.502467
0.398755
0.407696
0.549555
0.415444
0.448823
0.669956
0.613928
0.681877
0.720620
0.688434
0.407696
0.568628
0.479817
0.773668
0.782609
0.617504
0.746846
0.700951
0.841618
0.833869
0.912547
0.821948
0.906587
1.005530
1.001954
1.216531
1.326799
1.242757
1.361966
1.376867
1.659989
1.961589
2.322793
2.527833
2.768636
7.246733
51.546693
138.184428
370.852351
644.282699
1015.892029
1015.892029
1015.892029
1015.892029
1015.892029
1015.892029
1015.892029
1015.892029
686.303973
408.023596
168.079734
73.904991
22.820830
13.723969
13.087988
13.651848
15.601516
18.801689
25.215745
33.067465
47.767758
59.682727
77.602863
90.200901
97.777843
99.624991
93.571544
85.369945
71.330667
60.080886
46.809912
38.940907
30.890703
27.318001
24.937987
24.190545
23.383498
23.402572
23.121834
22.863746
23.100972
22.657514
##ZVALUE=340
0.392795
0.370741
0.279546
0.377893
0.418425
0.478625
0.467896
0.313520
0.594854
0.499487
0.394583
0.368953
0.571609
0.421405
0.489950
0.629425
0.518560
0.441670
0.457764
0.535846
0.399947
0.551939
0.516772
0.680685
0.610948
0.504851
0.565648
0.631809
0.607967
0.680685
0.628829
0.677705
0.718832
0.838637
0.796914
0.779629
0.887513
0.945926
0.869632
0.922680
1.183748
1.165867
1.205802
1.300573
1.356602
1.516938
1.724958
1.805425
1.936555
2.290606
2.576709
4.416704
17.755628
97.092986
242.449045
592.446923
964.770913
1015.890837
1015.890837
1015.890837
1015.890837
1015.890837
1015.890837
1015.890837
841.435790
440.246463
230.708718
84.302425
34.625530
15.741587
13.660789
13.928413
14.639497
16.547441
19.489527
26.298761
33.647418
46.342611
58.521628
74.004531
85.398555
93.563795
95.068812
88.799000
81.679821
68.056583
58.396459
46.667457
38.668513
31.048656
26.161671
23.587942
22.544861
22.434592
22.214651
22.193789
##ZVALUE=345
0.403523
0.338554
0.369549
0.358820
0.253916
0.491738
0.472665
0.362992
0.368953
0.523925
0.600815
0.472665
0.436902
0.481606
0.404716
0.424981
0.348687
0.473857
0.465512
0.472665
0.427961
0.487566
0.549555
0.515580
0.650883
0.603795
0.674725
0.724792
0.620484
0.574589
0.699759
0.585914
0.565648
0.712872
0.684857
0.544786
0.851750
0.751615
0.794530
0.886917
0.877976
0.966787
1.049638
1.145601
1.153946
1.287460
1.171827
1.458526
1.675487
1.725554
1.860857
2.019405
2.488494
2.822876
8.629560
36.206841
163.093805
350.683928
761.665702
1015.890837
1015.890837
1015.890837
1015.890837
1015.890837
1015.890837
1015.890837
985.671878
660.298467
295.032859
143.396854
46.649575
21.604896
14.165640
13.726950
13.751984
14.410615
15.327930
17.920732
24.017692
30.613542
43.464899
54.314733
67.815781
77.582598
86.658597
87.549686
84.619522
77.971816
65.493584
56.073666
45.030713
36.828518
28.853416
25.433898
22.951961
21.906495
##ZVALUE=350
0.514984
0.445843
0.335574
0.417829
0.433922
0.321865
0.584722
0.473857
0.320673
0.320673
0.417829
0.404716
0.491738
0.307560
0.373721
0.360608
0.441670
0.431538
0.599623
0.469685
0.458956
0.685453
0.515580
0.598431
0.460744
0.486970
0.576973
0.569820
0.749826
0.579953
0.575781
0.727773
0.686646
0.526905
0.784993
0.870824
0.673532
0.750422
0.806451
0.903606
0.875592
0.879765
0.853539
0.955462
1.079440
1.170635
1.238585
1.290441
1.234412
1.528859
1.553893
1.469851
1.703501
2.079606
2.139807
2.634525
3.984571
21.314621
72.327852
239.057541
469.378829
943.085551
1015.899777
1015.899777
1015.899777
1015.899777
1015.899777
1015.899777
1015.899777
690.758824
407.758951
177.953839
81.696510
24.695992
14.547706
12.829900
12.971759
13.203621
13.569593
15.310645
17.944574
23.195744
28.817654
38.948655
48.844814
61.381459
69.589615
78.068972
80.140829
77.875853
71.776509
61.657429
53.587556
42.806864
35.291910
28.621554
##ZVALUE=355
0.468493
0.547767
0.440478
0.438690
0.380874
0.425577
0.327826
0.320673
0.395775
0.519753
0.639558
0.491738
0.311732
0.475645
0.537634
0.456572
0.608563
0.396967
0.523925
0.493526
0.597835
0.555515
0.546575
0.503659
0.797510
0.639558
0.627637
0.610948
0.777841
0.616908
0.589490
0.701547
0.641942
0.733733
0.472665
0.727773
0.758767
0.720620
0.777841
0.753999
0.782609
0.755787
0.911951
1.030564
1.199841
1.127720
1.130700
1.259446
1.139641
1.122952
1.200438
1.463890
1.437664
1.534820
1.692772
1.890659
2.252460
2.458692
2.770424
9.520650
35.392642
144.884586
302.270651
646.685958
984.695554
1015.928984
1015.928984
1015.928984
1015.928984
1015.928984
1015.928984
903.643966
557.473898
240.901709
111.494660
33.980608
15.950799
12.398958
12.545586
12.544990
13.090968
13.538599
14.343858
17.129779
20.125508
26.478767
33.966899
44.170618
52.558780
63.069463
69.361925
73.540807
72.609782
66.947937
60.116649
49.805641
##ZVALUE=360
0.431538
0.427961
0.487566
0.298619
0.514984
0.473857
0.436902
0.562668
0.418425
0.343919
0.378489
0.415444
0.410676
0.575781
0.585914
0.424981
0.541806
0.493526
0.446439
0.496507
0.662804
0.566840
0.553727
0.640750
0.695586
0.697970
0.691414
0.443459
0.629425
0.559688
0.662804
0.633597
0.715852
0.801682
0.788569
0.660419
0.766516
0.910759
0.735521
0.950694
0.873804
0.917912
0.915527
0.872612
0.928640
0.956655
0.941753
0.968575
1.151562
1.137853
1.210570
1.333952
1.326799
1.452565
1.678467
1.668930
1.866817
2.136827
2.164841
2.828836
2.991557
5.009770
15.926957
75.956583
187.804699
480.780602
788.134933
1015.892029
1015.892029
1015.892029
1015.892029
1015.892029
1015.892029
977.384448
654.212832
326.434970
163.333416
56.475997
23.338795
12.142658
11.559725
11.865497
12.010932
12.237430
12.310743
13.368726
14.553666
17.739534
21.217465
29.148459
36.236644
47.072768
54.416656
63.079596
66.620708
67.316890
##ZVALUE=365
0.330806
0.442863
0.573993
0.402927
0.506639
0.496507
0.539422
0.462532
0.386834
0.471473
0.489950
0.421405
0.465512
0.508428
0.448823
0.384450
0.438690
0.509620
0.578761
0.563860
0.534654
0.522733
0.660419
0.645518
0.296831
0.540614
0.680685
0.471473
0.528693
0.574589
0.433922
0.514984
0.498891
0.660419
0.717640
0.502467
0.711679
0.661612
0.660419
0.794530
0.682473
0.732541
0.758767
0.856519
0.816584
0.924468
0.987649
1.034737
1.082420
1.089573
1.135468
1.243949
1.118779
1.553893
1.310706
1.422763
1.465678
1.664758
1.657605
1.994967
2.198815
2.452731
2.833605
3.209710
7.236600
43.540001
117.684603
311.619639
585.250854
1012.187600
1015.896797
1015.896797
1015.896797
1015.896797
1015.896797
1015.896797
840.370655
442.047715
229.062438
78.671575
31.153560
12.346506
10.667443
10.485649
10.779500
10.854602
11.103749
11.403561
11.626482
13.275743
15.112758
20.017624
24.606586
32.530427
39.937496
49.705505
##ZVALUE=370
0.314713
0.331998
0.398755
0.418425
0.422597
0.485778
0.566840
0.489950
0.437498
0.380874
0.474453
0.437498
0.613928
0.350475
0.334978
0.312924
0.673532
0.395775
0.436902
0.389814
0.396967
0.486970
0.534654
0.432730
0.486970
0.459552
0.419617
0.561476
0.599623
0.635982
0.607967
0.648499
0.646710
0.570416
0.590682
0.558496
0.596642
0.474453
0.734925
0.577569
0.752807
0.823736
0.718832
0.675917
0.693798
0.747442
0.769496
1.111627
0.847578
0.916719
0.863671
0.962615
0.932813
1.037717
1.023412
1.245737
1.421571
1.401901
1.480579
1.559854
1.640916
1.644492
2.053976
2.235770
2.527833
2.760887
4.195571
23.056865
77.085495
247.166753
463.345051
882.368684
1015.893817
1015.893817
1015.893817
1015.893817
1015.893817
1015.893817
1015.893817
586.821437
316.936970
117.051601
50.492883
17.711520
11.038780
9.900928
10.062456
10.012984
10.382533
10.515451
10.634661
11.383891
12.871623
15.505552
18.870831
24.976730
##ZVALUE=375
0.458956
0.501871
0.644922
0.611544
0.435710
0.414848
0.534654
0.483990
0.507832
0.499487
0.491738
0.372529
0.464916
0.540614
0.512600
0.660419
0.499487
0.627637
0.522733
0.542998
0.465512
0.634789
0.467896
0.788569
0.639558
0.536442
0.626445
0.544786
0.577569
0.582933
0.644922
0.729561
0.697970
0.757575
0.692606
0.715852
0.803471
0.705719
0.568628
0.755787
0.563860
0.795722
0.739694
1.046658
0.924468
0.941753
0.851750
0.971556
1.007915
0.993609
1.149774
0.962615
1.014471
1.106858
1.016855
1.149774
1.196861
1.289845
1.342893
1.444817
1.438856
1.461506
1.588464
1.672506
1.955628
2.284646
2.525449
2.996922
3.377795
11.417866
40.900707
147.288442
320.890546
730.750561
1016.016603
1016.016603
1016.016603
1016.016603
1016.016603
1016.016603
1016.016603
824.315548
501.470566
232.070684
107.160807
31.311512
14.022589
9.825826
9.827614
9.583831
10.135770
10.434985
11.051893
12.109876
13.124943
14.391541
##ZVALUE=380
0.535846
0.398755
0.453591
0.466704
0.386834
0.334978
0.545979
0.565648
0.462532
0.413656
0.456572
0.464916
0.690818
0.494719
0.531673
0.486970
0.674725
0.609756
0.451803
0.582933
0.527501
0.513792
0.502467
0.562668
0.664592
0.530481
0.570416
0.705719
0.552535
0.606775
0.646710
0.633597
0.634789
0.563860
0.807643
0.665784
0.770688
0.673532
0.731945
0.655651
0.623465
0.851750
0.769496
0.701547
0.869632
0.777841
0.895858
0.866652
0.926852
0.960827
0.853539
0.973940
1.080632
1.015663
0.929832
1.081824
1.046658
1.179576
1.268983
1.275539
1.337528
1.318455
1.288652
1.486540
1.610518
1.844764
1.957417
2.239943
2.730489
3.151894
3.684759
6.182790
23.942590
114.759803
264.821649
626.855493
985.857844
1016.041636
1016.041636
1016.041636
1016.041636
1016.041636
1016.041636
1016.041636
780.226588
358.172655
173.008442
53.466558
21.192431
10.562539
10.005832
10.600686
10.976791
12.034774
12.750626
13.914704
##ZVALUE=385
0.301600
0.330806
0.219941
0.401735
0.375509
0.312924
0.479817
0.231862
0.287890
0.387430
0.382662
0.319481
0.476837
0.382662
0.349879
0.145435
0.453591
0.443459
0.338554
0.349879
0.330806
0.311732
0.458956
0.508428
0.327826
0.354648
0.444651
0.341535
0.396967
0.479817
0.541806
0.519753
0.649691
0.377893
0.508428
0.512600
0.564456
0.485778
0.409484
0.528693
0.544786
0.593662
0.605583
0.591874
0.495911
0.669956
0.683665
0.701547
0.585914
0.748634
0.714660
0.813603
0.705719
0.755787
0.843406
0.815988
0.746846
1.007915
0.960827
1.047850
1.176000
1.076460
1.089573
1.362562
1.332760
1.342893
1.641512
1.726747
2.017617
2.228618
2.682805
2.843738
3.168583
4.060864
11.597872
67.117810
172.204971
438.030958
774.917006
1015.890837
1015.890837
1015.890837
1015.890837
1015.890837
1015.890837
1015.890837
1015.890837
608.914495
326.802731
109.000802
40.546656
13.143420
10.997653
11.384487
12.281537
13.553500
##ZVALUE=390
0.260472
0.383854
0.302792
0.287890
0.414848
0.352859
0.349879
0.158548
0.357628
0.405908
0.311732
0.266433
0.326633
0.291467
0.355840
0.286698
0.285506
0.250936
0.435710
0.482798
0.429749
0.423789
0.456572
0.226498
0.329614
0.523925
0.353456
0.333786
0.389814
0.454783
0.435710
0.469685
0.495911
0.428557
0.376701
0.427961
0.384450
0.373721
0.525713
0.451803
0.621676
0.471473
0.697970
0.698566
0.626445
0.666976
0.742674
0.595450
0.708699
0.603795
0.778437
0.790954
0.618696
0.646710
0.621676
0.684857
0.714660
0.758767
0.781417
0.975728
0.928640
1.121759
1.058578
1.251698
1.145601
1.274943
1.341701
1.607537
1.757741
2.092719
2.268553
2.443790
2.401471
2.492666
2.774000
3.065467
5.456805
34.428835
108.966827
330.268741
624.402761
1015.892029
1015.892029
1015.892029
1015.892029
1015.892029
1015.892029
1015.892029
1015.891433
833.111405
465.122461
178.696513
76.859593
21.946430
13.576746
13.039708
##ZVALUE=395
0.343919
0.270605
0.368953
0.436902
0.184774
0.204444
0.193715
0.257492
0.358820
0.317693
0.342727
0.358820
0.472665
0.275970
0.348687
0.353456
0.375509
0.268817
0.302792
0.403523
0.339746
0.443459
0.505447
0.270605
0.361800
0.254512
0.549555
0.322461
0.304580
0.320673
0.342727
0.473857
0.372529
0.550747
0.344515
0.325441
0.503659
0.646710
0.460744
0.498891
0.450611
0.466704
0.565648
0.482798
0.580549
0.473857
0.565648
0.678897
0.719428
0.762939
0.623465
0.753999
0.890493
0.744462
0.781417
0.748634
0.628829
0.665784
0.873804
0.881553
0.912547
1.034737
0.882745
0.903606
1.183748
1.098514
1.272559
1.471639
1.677871
1.976490
2.010465
2.086759
2.167821
2.199411
2.218485
2.272725
2.471805
2.895594
3.567934
18.916726
74.377656
260.136724
509.415865
971.326828
1015.890837
1015.890837
1015.890837
1015.890837
1015.890837
1015.890837
1015.890837
985.213518
643.370748
298.449397
139.597654
44.225454
##ZVALUE=400
0.257492
0.335574
0.375509
0.248551
0.326633
0.313520
0.356436
0.182986
0.384450
0.272989
0.265837
0.263453
0.219941
0.299811
0.283718
0.327826
0.346899
0.297427
0.399947
0.242591
0.492930
0.224710
0.361800
0.346899
0.440478
0.440478
0.575781
0.277758
0.251532
0.324845
0.420809
0.329614
0.371933
0.531673
0.420809
0.497699
0.419617
0.401735
0.562668
0.518560
0.417829
0.628829
0.577569
0.461936
0.567436
0.513792
0.668764
0.668764
0.605583
0.519753
0.459552
0.545979
0.737906
0.646710
0.688434
0.678897
0.733733
0.791550
0.931621
0.716448
0.660419
0.929832
0.868440
1.104474
1.170635
1.156926
1.333952
1.345873
1.565814
1.883507
1.964569
1.918674
1.963973
1.815557
1.878738
1.992583
2.219677
2.248883
2.122521
2.900958
3.130436
10.131598
40.019751
153.780580
336.425900
756.539702
1015.892029
1015.892029
1015.892029
1015.892029
1015.892029
1015.892029
1015.892029
1015.892029
853.830576
420.937538
##END
