##TITLE=QP00652
##FORMAT=SPECTACLE-ASCII V-1.2
##DATA TYPE=ULTRAVIOLET SPECTRUM
##SECOND TYPE=ULTRAVIOLET SPECTRUM
##DATE=04/11/18
##TIME=15:29:28
##SPECTROMETER/DATA SYSTEM=SPECTACLE
##XUNITS=NM EM
##YUNITS=ENERGY
##YFACTOR=1
##FIRSTX=220
##LASTX=410
##NPOINTS=96
##3DDATA=Equidistant
##ZUNITS=NM EX
##FIRSTZ=210
##LASTZ=400
##ZPOINTS=39
##XYDATA=(Y..Y)
##ZVALUE=210
2.682805
2.444983
2.640486
2.722740
2.745986
3.046989
2.853870
3.203750
3.647804
2.818704
2.921820
3.192425
3.377795
3.457665
2.802610
3.219843
3.418922
3.158450
3.993511
4.425645
4.290938
4.529953
4.836917
5.049706
4.772544
5.503893
6.594658
5.887747
5.586743
7.061958
6.811619
6.596446
7.438660
6.933808
6.400943
9.047985
7.269979
7.991791
7.246733
8.673668
8.562803
8.209944
8.024573
9.221435
7.903576
7.844567
7.616878
7.981658
9.488463
8.933544
9.310842
9.145737
8.939505
9.284616
10.599494
10.211468
9.833574
10.141730
10.198951
8.918643
10.717511
11.173487
10.698438
10.245442
11.421442
11.638999
13.112426
13.348460
14.620423
18.311739
21.025538
25.786757
31.117797
34.018755
37.992597
40.480494
42.538643
44.154525
46.332479
45.350790
39.759874
37.458539
33.153892
27.079582
21.705627
18.675923
14.196634
13.401508
11.643767
11.782646
10.445714
10.910630
10.610819
11.313558
11.584759
11.279583
##ZVALUE=215
9.107590
9.050965
8.724928
6.648898
5.987883
4.970431
5.589724
5.136728
5.281568
5.415678
5.160570
4.953742
4.145503
3.900528
3.969669
3.974438
4.172921
3.514886
4.304647
5.201697
5.237460
4.956722
5.321503
4.999638
6.102920
5.777478
6.215572
5.393624
5.652905
6.169677
6.828904
6.743670
7.370710
6.852746
7.315874
7.120967
7.656813
7.116795
7.278919
7.551908
7.630587
8.653998
7.815957
6.915927
8.658767
8.383989
8.817911
7.863641
8.929968
8.069873
8.437634
8.409619
9.156466
9.423494
10.311604
9.277463
9.032488
9.056926
9.755492
9.489655
9.480715
10.258555
9.200573
10.518432
10.218620
10.668635
9.931922
12.786984
13.932586
15.939474
20.378828
23.314953
25.766492
31.168461
32.625794
36.765933
38.961768
38.718581
37.509799
37.431717
32.256842
30.486584
26.526451
22.233725
19.483566
14.961958
13.835430
11.325479
10.890961
9.773970
10.014772
9.407997
8.566976
9.375811
8.501410
9.501576
##ZVALUE=220
30.078888
30.006766
33.694506
27.513504
26.880503
18.540621
17.306805
13.318658
11.233687
12.478828
13.241768
12.430549
12.062788
11.872649
9.544492
8.302927
5.997419
4.986525
5.191565
4.478693
4.529953
5.133748
5.734563
5.292892
5.633831
6.790757
5.470514
6.771684
6.638765
5.914569
7.121563
7.113814
7.375479
6.658435
7.503629
7.526875
7.339716
7.335544
7.953644
8.410811
9.069443
7.321835
8.763671
8.274913
9.177923
9.031892
8.565784
9.131432
9.400845
10.113716
9.275675
9.479523
9.606481
9.733438
9.650588
8.708835
11.379719
9.872913
9.191632
10.423660
10.688901
10.849833
9.887815
10.279417
10.942817
11.836886
11.832714
12.215972
14.697909
15.839934
17.770529
22.517443
25.473833
28.782487
29.945970
32.330751
32.123923
33.377409
31.701922
31.584501
32.357574
28.244853
26.043653
22.827983
20.237565
16.984940
13.771653
12.860894
11.260509
10.453463
11.626482
10.639429
11.216998
11.036992
10.429621
9.825826
##ZVALUE=225
48.483610
48.798919
70.408583
83.571672
88.932514
92.132688
86.091757
64.654946
50.795674
35.559535
26.396513
23.145676
22.850633
25.986433
26.779771
24.057627
21.730661
15.019774
13.071895
10.990500
7.306933
5.129576
5.522966
5.878806
5.494952
5.928874
6.240606
5.750656
6.253719
6.205440
6.662607
6.716847
6.869435
7.282495
7.859468
6.894469
8.891821
7.263422
7.801652
7.446408
8.000731
8.057952
8.316636
7.960796
8.414984
8.552670
9.550452
9.144545
9.624958
9.754896
9.683967
10.254979
10.308623
11.071563
10.430813
10.205507
10.041595
10.073781
10.581613
11.045933
11.632442
10.504723
10.094643
11.220574
10.961890
11.620522
12.898445
14.620423
14.624000
16.574860
18.181801
20.380616
22.773743
27.878881
29.218793
29.760599
30.236840
29.249787
29.474497
27.210712
24.624467
25.498867
23.292899
21.058917
18.193722
17.523766
14.321804
14.593601
12.840629
12.478828
10.999441
12.004972
11.556745
12.257695
12.057424
12.230873
##ZVALUE=230
45.525432
50.818920
79.502463
137.604475
180.834532
229.014754
247.652531
259.847641
238.731503
202.030540
134.566426
91.003776
58.172941
47.996640
45.333505
50.111413
50.687790
49.636960
40.864944
34.692883
28.126836
19.593835
13.159513
10.258555
6.825924
7.167459
6.937981
7.315874
7.602572
8.938909
6.740689
7.162690
8.109808
8.644462
8.008480
8.079410
8.532405
9.001493
10.759830
9.760857
9.899735
10.076761
8.988976
9.989738
10.649562
9.616613
10.699630
10.038614
11.177659
10.122657
11.936426
10.829568
12.544990
11.612773
12.766719
10.670424
11.430979
11.959672
12.865663
11.562705
13.055801
14.150739
12.663603
14.656782
13.727546
14.805794
14.617443
15.426874
16.990900
19.157529
20.875931
25.297999
27.404428
28.100610
30.105710
33.231974
33.321977
31.157732
30.221939
28.324723
28.545856
26.179552
24.103522
21.643639
19.264817
17.970800
16.508698
15.305877
16.495585
13.989806
14.433861
14.590621
14.017820
14.591813
14.042854
13.857484
##ZVALUE=235
16.676784
19.118786
40.851831
107.723475
169.628859
275.488496
363.397002
469.484925
513.744950
512.943864
439.950824
360.114574
239.065886
162.957907
104.632974
77.669621
72.214603
74.635744
79.507828
84.970593
79.806447
66.057444
50.981641
36.230683
25.295615
16.193986
11.992455
8.990765
8.369684
7.643700
8.246899
8.450747
8.206964
8.980632
9.756684
9.177923
9.705424
8.506775
7.586479
9.091496
8.620620
9.095669
9.470582
8.999705
9.039640
9.501576
8.597970
8.733869
9.661913
9.958744
9.647608
11.676550
10.681748
9.605885
9.920597
9.834766
9.938478
12.221932
10.726452
11.713505
11.674762
12.336969
13.382435
13.342500
12.705922
12.848973
13.765693
16.547441
17.680526
19.545555
21.499991
26.368499
26.941895
27.511716
30.249953
31.250715
30.119419
31.254888
28.501749
27.718544
26.204586
23.433566
23.922920
20.930767
19.770861
18.238425
16.541481
17.369986
17.399788
16.579628
16.871691
16.471744
17.262697
17.567873
16.285777
18.113852
##ZVALUE=240
2.841949
2.900958
8.538961
18.717647
60.207844
122.010708
248.547792
371.346474
562.993884
684.417486
748.665929
735.396743
667.611957
515.956879
390.191674
235.816836
161.002874
110.082626
94.743967
99.006891
110.149980
118.611455
114.672780
101.190805
82.722902
67.459941
49.511790
32.248497
22.171736
14.240742
11.887550
9.098649
8.589625
8.335710
9.128451
9.312630
9.040833
8.792877
8.846521
8.121729
9.163618
8.096695
8.644462
8.941889
8.142591
9.129643
10.549426
8.698702
9.374619
9.271502
10.662675
9.791851
9.537935
9.712577
10.088682
9.592772
12.023449
9.716749
10.122657
10.512471
12.278557
12.221932
12.510419
12.363791
13.365746
15.423894
15.453696
15.391707
16.160607
19.440651
19.934773
23.645759
24.992824
28.429627
29.947758
27.396679
27.393699
27.943850
27.535558
25.948882
24.596453
21.954775
23.072958
20.872951
18.653870
20.421743
19.713640
19.366741
20.073652
19.781590
20.043850
19.590855
21.117926
22.136569
21.536946
21.838546
##ZVALUE=245
2.158880
1.867414
1.966953
2.275705
4.661679
16.140938
40.621758
109.970570
205.031633
323.543549
541.657805
692.558885
830.426812
844.069719
785.176754
681.256652
485.178828
358.066559
237.906575
142.018795
106.815696
100.880861
112.621784
127.304792
133.948922
122.598410
113.285780
90.250969
73.952675
50.948858
35.518408
22.927523
14.035702
9.582639
7.464886
8.381605
7.733703
7.580519
7.765889
7.590652
8.694530
8.238554
8.256435
7.736683
7.672906
7.763505
8.117557
8.188486
7.652640
7.668734
7.449985
8.340478
8.117557
9.024739
9.341836
10.034442
9.174943
9.552836
10.121465
9.866953
10.180473
10.368824
11.079907
9.994507
12.462735
12.224913
13.144612
13.796687
14.162660
16.819835
19.577742
19.697547
23.121834
22.405982
24.101734
23.904443
24.278760
21.752715
22.607446
23.281574
21.286607
19.656420
20.259619
18.676519
17.731786
18.496513
18.400550
18.689632
19.362569
19.074678
20.646453
19.938946
20.202994
22.023916
23.086667
23.478866
##ZVALUE=250
1.749992
1.930594
1.719594
1.550913
2.005696
2.309680
2.705455
9.085536
35.950541
76.601505
187.463760
317.633748
473.250747
699.604750
829.254985
926.667452
929.220915
816.845894
679.286718
453.312993
306.133628
199.519992
114.236474
97.728968
105.612874
119.962692
136.265755
141.551495
133.171678
120.491982
103.959441
80.331564
57.434440
36.001801
23.718476
13.632774
9.868741
8.071661
7.556677
7.411838
8.285642
7.428527
6.820560
7.114410
7.947683
7.178783
7.528663
7.188916
7.326603
7.516742
7.815957
7.666945
7.657409
7.274747
8.020997
8.137822
7.375479
7.779598
8.394718
8.485913
8.773804
8.665919
8.694530
8.813739
9.740591
10.070801
10.841489
11.351705
12.909770
15.072823
15.814900
17.562509
18.531680
20.128489
19.951463
22.143722
21.060705
21.821856
21.258593
20.432472
19.471645
19.180775
18.908978
17.599463
19.151568
17.170906
17.714500
17.263889
17.394423
19.039512
19.771457
20.427704
20.916462
21.677613
24.172664
24.973750
##ZVALUE=255
1.394749
1.272559
1.533628
1.687407
1.806617
1.658797
1.526475
2.000928
2.455711
4.481673
24.920702
59.266686
122.661591
264.711380
421.358943
666.302443
835.067034
1003.875732
1015.889645
989.134908
856.443644
666.113496
415.878892
257.525444
137.034655
98.110437
90.631843
101.821423
128.927827
140.351653
146.575570
144.203901
131.404996
103.250742
82.123876
55.162907
37.294626
20.780563
13.590455
9.386539
6.815791
6.778836
6.128550
6.092787
6.348491
6.526709
6.159544
6.570816
6.848574
6.629825
6.192923
6.186962
6.531477
7.249713
6.430745
6.892681
7.220507
6.314516
7.016659
7.189512
7.274747
6.702542
7.632971
7.897615
7.962584
7.995963
9.053946
9.400845
9.721518
11.923909
13.034940
13.046861
15.335679
16.021729
16.054511
17.029643
16.632676
16.634464
18.682480
17.551780
16.659498
16.053915
15.104413
16.002655
15.600920
15.288591
14.730692
15.680790
15.484691
17.799735
17.252564
18.696785
20.449758
23.136735
25.806427
26.217699
##ZVALUE=260
1.312494
1.125932
1.496673
0.918508
1.325607
1.337528
1.733899
1.473427
1.607537
1.490712
1.763701
3.090501
12.607574
32.948852
93.480945
185.194612
373.831987
543.317795
736.313462
986.712575
1015.890837
1015.890837
1010.309458
787.050724
573.699474
323.738456
203.917623
110.000968
81.167817
85.347891
101.844668
127.492547
141.382813
152.577758
149.207711
132.843852
112.966895
83.266497
58.924556
36.476851
23.339987
13.436675
8.775592
6.585717
5.895495
6.647706
5.792975
6.501675
5.369782
6.278753
6.419420
6.662607
5.963445
6.045699
6.022453
5.923510
6.088614
6.125569
6.362796
6.425977
6.588697
6.726980
6.657839
6.733537
7.427931
7.460713
7.914901
8.824468
8.717775
10.086894
10.534525
11.634827
12.019873
13.318658
13.646483
14.172792
14.495850
13.800859
13.619661
13.030767
12.826920
13.601780
12.632608
12.935996
13.845563
13.744831
14.193654
13.606548
14.555454
15.199780
16.420484
16.988516
19.278526
20.572543
21.539927
23.606420
##ZVALUE=265
1.222491
1.130700
1.144409
1.098514
0.975728
0.930429
1.358986
1.405478
1.027584
1.230836
1.671910
1.271963
1.423955
2.238750
4.481673
24.966598
62.596798
156.883597
274.553895
509.350896
717.135668
909.041762
1015.892029
1015.892029
1006.944776
872.050524
638.529658
449.771881
242.266655
147.835612
82.622766
70.949793
79.510808
109.810829
130.983591
149.663687
155.755877
146.983862
133.394003
108.227730
86.195469
55.695772
37.555695
20.685792
12.858510
8.419752
6.673932
5.495548
5.649924
6.276965
5.101562
6.107688
6.014705
5.485415
5.793571
5.930662
5.839467
6.296635
5.526543
5.964637
6.235838
6.277561
6.015897
6.513596
6.402731
6.689429
7.165670
7.644892
8.020997
9.484887
9.797812
10.435581
10.872483
11.548996
12.217760
12.124777
12.144446
12.164712
11.709929
12.204647
11.974573
12.012720
11.613965
11.815429
11.961460
11.943579
11.749864
11.570454
11.606812
12.488961
12.209415
12.156963
13.159513
11.803508
13.300776
13.110638
##ZVALUE=270
0.897646
1.096725
0.981688
0.895858
1.003742
1.102686
0.851750
1.083612
1.063943
1.242757
1.208782
1.220703
1.458526
1.751781
1.457930
1.568794
2.792478
9.536743
42.462945
102.054477
205.211639
426.312685
638.362765
925.038457
1015.890837
1015.890837
1015.890837
1015.883684
861.085653
591.018796
403.050780
208.061934
119.833946
66.451430
64.327717
85.679889
107.747912
136.812925
150.885582
156.081915
151.148438
134.442449
113.145709
82.035661
59.878826
34.976602
22.746921
12.581944
8.907914
5.907416
5.387664
5.772710
5.794764
5.795956
5.497932
5.412698
5.899668
5.564690
5.849600
5.683899
5.227923
5.617738
5.995631
5.771518
6.130934
6.646514
6.437898
6.711483
7.186532
8.072853
8.193851
9.029508
9.776950
10.696650
10.984540
10.991693
11.439919
10.688901
10.632873
10.215640
10.714531
10.245442
10.179877
10.199547
10.813475
10.484457
10.329485
11.049509
10.838509
10.831952
10.839701
11.071563
11.528730
11.789799
11.740923
11.539459
##ZVALUE=275
0.818968
0.772476
1.020432
0.861883
0.951886
0.820756
0.874996
1.052618
1.004934
1.040697
1.057982
1.010895
1.274943
1.306534
1.460910
1.353621
1.398921
1.810789
2.054572
5.918741
21.473765
57.178736
174.177885
324.275494
598.149896
814.438462
1015.892029
1015.892029
1015.892029
1015.892029
995.134711
791.904926
563.264489
299.623609
172.017813
75.870752
53.483844
58.718920
79.676509
109.054446
128.072500
146.231651
155.154467
146.571994
135.267973
105.598569
82.783699
57.429671
39.984584
23.034811
15.139580
8.594990
7.006526
5.848408
5.425811
5.587935
5.112886
5.256534
5.545616
5.925894
6.153584
5.846620
5.844831
6.274581
6.120801
5.866885
6.437898
6.805658
7.461905
7.691979
8.331537
8.633733
9.270906
10.099411
10.355711
10.531545
10.391474
9.871721
9.742975
9.765625
9.790659
9.964705
10.361671
9.123683
9.666681
9.458661
10.248423
10.068417
10.098815
9.793639
9.689927
9.965897
10.117888
9.732842
10.648966
10.595918
##ZVALUE=280
0.847578
0.746846
0.761747
0.718832
0.837445
0.760555
0.843406
0.816584
0.829697
0.910759
0.685453
1.009703
1.031756
1.115799
1.061559
1.182556
1.284480
1.266599
1.533628
1.585484
1.991987
2.759695
13.363957
43.846965
139.779449
261.111856
487.988591
710.076690
995.346904
1015.890837
1015.890837
1015.890837
1015.890837
897.993445
655.149817
370.325446
217.924714
97.983479
54.242611
43.503642
55.398941
81.538558
106.308460
130.801797
146.157742
153.764486
146.225691
128.451586
110.423565
79.827905
60.562491
36.245584
24.584532
14.051795
9.520650
6.467700
5.627871
5.534887
5.572438
5.539656
5.681515
5.932450
5.648732
5.623698
5.868673
6.390810
6.922483
7.167459
7.365942
7.777810
7.810593
8.651614
9.128451
9.272695
10.338426
10.163784
9.853840
9.918809
9.665489
9.381771
9.570718
9.285808
9.724498
9.517670
9.246469
9.264946
9.444952
10.106564
9.876490
9.861588
9.469986
9.430647
9.912848
9.260774
9.820461
9.930730
##ZVALUE=285
0.701547
0.765920
1.006722
0.798702
0.749826
0.626445
0.595450
0.782609
0.765920
0.876784
0.867844
0.944734
0.773668
0.986457
1.035929
0.976920
1.150966
1.117587
1.287460
1.259446
1.455545
1.371503
1.779795
2.143979
6.734729
23.441911
80.130696
163.952708
349.342823
557.880402
789.489746
1015.890837
1015.890837
1015.890837
1015.890837
1015.890837
827.126503
512.730479
317.494869
148.275495
76.269507
35.983920
34.894943
54.637790
74.577928
103.884935
122.882724
140.956640
147.489905
144.572854
132.406950
107.680559
87.068677
59.969425
41.171908
23.795962
15.607476
9.403825
6.884933
5.748868
5.848408
6.177425
5.836487
5.826950
6.243587
6.350875
6.883740
6.994605
7.383823
7.803440
8.233786
8.395910
9.064674
9.359717
9.513497
9.670854
9.583831
9.577870
9.453893
9.385943
9.361506
10.054708
9.474754
9.131432
9.072423
9.137988
8.919835
9.514689
9.235740
9.618998
9.270906
9.140968
9.281635
9.215474
9.344816
9.180903
##ZVALUE=290
0.718832
0.616908
0.706911
0.802875
0.787973
0.761747
0.744462
0.804663
0.691414
0.668764
0.773668
0.711679
0.877976
0.864863
0.835657
0.870824
1.082420
0.818968
1.164675
1.059771
1.194477
1.323819
1.143813
1.815557
1.833439
2.150536
2.797842
9.426475
43.848753
103.593469
207.671523
440.177917
681.540966
1002.160907
1015.887856
1015.887856
1015.887856
1015.887856
1015.887856
827.210546
550.237894
270.187855
131.813884
44.836998
26.997924
34.708977
49.219728
72.806478
94.064474
120.624900
136.253834
142.509937
142.753720
126.762986
107.795596
80.489516
59.558749
38.239956
25.742650
15.208721
10.277629
7.572770
6.728768
6.692410
6.578565
6.517768
6.795526
6.277561
7.112622
7.884502
7.643700
8.290410
8.819699
9.530783
9.346604
9.632707
9.355545
9.552836
9.203553
9.198785
9.283423
9.067655
9.094477
8.833408
8.671880
8.998513
9.230971
9.143949
9.208918
9.352565
9.383559
8.839965
8.954406
8.897781
9.301901
8.514524
##ZVALUE=295
0.544786
0.430942
0.473857
0.576973
0.632405
0.431538
0.431538
0.524521
0.482798
0.683665
0.516772
0.803471
0.660419
0.907779
0.771880
0.813603
0.561476
0.868440
0.758767
0.690818
0.920892
1.167655
1.229644
1.072884
1.311898
1.309514
1.528859
1.735687
2.187490
4.170537
14.813542
65.064430
149.284601
352.686644
573.604703
916.912556
1015.786529
1015.786529
1015.786529
1015.786529
1015.786529
1015.786529
817.930698
428.989530
235.003829
77.503920
31.875968
23.085475
30.287504
48.216581
63.605905
91.233850
109.581947
130.386949
138.688684
136.503577
125.321746
101.442933
81.788898
56.209564
40.413737
24.191737
16.104579
10.532737
8.085966
7.028580
6.667972
6.747842
6.929636
7.504821
8.026958
8.194447
8.708835
9.202957
9.094477
9.512901
9.359717
8.781552
9.020567
9.306669
8.832812
8.805990
8.965731
9.169579
8.949637
8.585453
9.098649
8.750558
8.893609
8.848906
8.741617
8.994937
8.596778
8.753538
8.801818
8.913875
##ZVALUE=300
0.610948
0.589490
0.760555
0.503659
0.581741
0.738502
0.673532
0.634789
0.732541
0.832677
0.879765
0.832677
0.726581
0.706911
0.834465
0.733733
0.920892
0.962615
0.855923
0.782609
0.975728
0.962615
0.985861
0.875592
1.344681
1.358986
1.320839
1.129508
1.540780
1.882911
2.037883
2.202988
10.125637
34.632683
115.902424
230.839849
481.257439
734.639764
1015.890837
1015.890837
1015.890837
1015.890837
1015.890837
1015.890837
864.627957
589.532852
314.442515
169.562697
56.127906
23.348927
19.007921
26.549697
42.587519
59.469938
84.574819
102.271438
123.410821
130.316615
129.314661
120.173693
99.630952
81.635714
57.853460
41.477680
25.718808
17.478466
11.646748
8.795857
7.958412
7.861853
8.067489
8.335710
8.696914
9.021759
9.205937
8.946657
9.079576
8.891821
8.992553
9.058714
8.877516
9.031892
9.464622
9.261966
9.160638
9.117723
8.901954
9.214878
8.696914
8.714795
8.547902
8.337498
8.574724
8.470416
8.780956
8.723736
##ZVALUE=305
0.569820
0.530481
0.672936
0.555515
0.615716
0.472665
0.573993
0.635982
0.527501
0.592470
0.677705
0.616908
0.772476
0.519753
0.644922
0.729561
0.652671
0.613928
0.708699
0.764728
0.788569
0.861883
0.862479
0.975728
1.114607
1.000762
1.125932
0.936985
1.256466
1.239777
1.433492
1.666546
1.770854
2.093911
3.568530
23.646951
66.370964
191.010833
343.752503
637.120008
894.427896
1015.892029
1015.892029
1015.892029
1015.892029
1015.892029
863.556862
540.809631
331.004858
148.557425
71.627498
24.731755
14.158487
17.891526
24.963617
40.733814
57.534575
81.858635
99.343657
117.798448
123.719573
123.445988
116.352439
95.489621
77.582002
53.782463
39.606690
17.642975
15.877485
11.848807
9.177923
9.051561
8.651614
8.817911
9.270906
9.086728
8.577704
8.920431
9.033680
8.546710
9.223819
9.313822
8.877516
9.236932
8.918643
8.584857
9.180903
8.657575
8.779764
8.962750
9.210706
8.707643
8.591413
8.432865
8.537769
8.356571
##ZVALUE=310
0.506639
0.411868
0.495911
0.431538
0.332594
0.563860
0.505447
0.691414
0.518560
0.446439
0.544786
0.401735
0.589490
0.572801
0.648499
0.658631
0.606775
0.683665
0.613928
0.652671
0.809431
0.686646
0.902414
0.693798
0.704527
0.959635
1.067519
1.138449
0.954866
1.118779
1.122952
1.206994
1.468658
1.664758
1.396537
1.761913
2.554655
8.707643
45.286417
105.830431
259.876847
444.318652
772.154927
1007.578969
1015.890837
1015.890837
1015.890837
1015.890837
1004.678607
758.276582
424.796939
248.092413
100.055933
44.757724
15.639663
11.730790
15.926957
22.749901
35.110712
49.069524
71.309805
88.738799
107.294917
116.008520
116.629601
111.660957
94.551444
78.624487
54.542422
39.483905
25.065541
18.289685
13.411641
10.999441
9.285808
9.367466
8.672476
8.851886
8.770823
8.696914
9.361506
9.472966
9.520650
9.192824
9.014606
9.041429
9.190440
8.950830
9.139776
9.514689
8.977652
8.480549
9.081960
8.628964
8.815527
9.052753
##ZVALUE=315
0.379682
0.576973
0.658631
0.513792
0.460744
0.447631
0.552535
0.467896
0.602603
0.521541
0.523925
0.517964
0.589490
0.448823
0.446439
0.648499
0.621676
0.425577
0.786781
0.582933
0.767708
0.824928
0.695586
0.604987
0.916719
0.761747
0.753999
0.799894
1.030564
0.880957
0.927448
1.040697
0.986457
1.046658
1.298785
1.434684
1.580715
1.882911
2.010465
4.932880
19.229650
78.933835
168.218017
371.975899
604.852438
966.421962
1015.890837
1015.890837
1015.890837
1015.890837
1015.890837
882.868767
615.858436
318.547487
168.733001
58.574677
23.943782
11.201501
11.064410
14.672875
20.429492
33.885837
45.952797
67.762733
85.252523
102.334619
110.530853
111.101866
105.147958
89.776516
73.671937
54.712892
40.080547
25.303960
19.083619
12.813807
11.320710
9.239912
9.400845
9.353757
9.236932
9.310842
8.959770
9.183884
9.061694
9.348989
9.017587
9.053946
9.236932
9.022951
9.123683
8.812547
9.092689
8.715987
8.524656
8.815527
##ZVALUE=320
0.423789
0.362992
0.401735
0.542998
0.479817
0.326633
0.332594
0.405908
0.538826
0.406504
0.365973
0.432730
0.552535
0.730753
0.715852
0.483990
0.496507
0.521541
0.488758
0.510812
0.618696
0.480413
0.558496
0.632405
0.679493
0.652671
0.734925
0.610948
0.719428
0.708699
0.868440
0.633597
0.867844
1.001954
1.108646
1.109838
1.238585
1.414418
1.305938
1.532435
1.886487
2.240539
11.329651
40.369630
133.471489
259.556770
513.956547
751.800537
1015.890837
1015.890837
1015.890837
1015.890837
1015.890837
1015.890837
777.105689
501.235723
227.715969
113.869905
38.339496
15.980601
9.433627
9.901524
13.531446
18.622875
30.351877
42.929649
62.472820
78.251958
96.132755
103.823543
107.105970
101.562738
86.597800
73.062778
52.418709
39.795637
26.620626
18.656850
13.194680
11.138916
9.424686
9.471774
9.399652
9.435415
9.202957
9.347796
8.957982
9.351969
9.371638
9.265542
9.016991
9.120703
9.032488
8.970499
8.897781
8.765459
##ZVALUE=325
0.501871
0.480413
0.525713
0.380874
0.564456
0.397563
0.304580
0.429749
0.267625
0.487566
0.487566
0.441670
0.509620
0.507832
0.519753
0.473857
0.491738
0.493526
0.476837
0.586510
0.582933
0.615716
0.554919
0.503659
0.778437
0.668764
0.650883
0.763535
0.640750
0.586510
0.756979
0.776649
0.767708
0.982881
0.912547
0.862479
1.077652
0.970960
0.941753
1.329780
1.455545
1.529455
1.665950
2.016425
6.156564
25.389791
96.069574
199.040771
431.303978
669.243932
995.001793
1015.890837
1015.890837
1015.890837
1015.890837
1015.890837
834.743977
580.426455
303.442478
165.907741
59.878826
23.516417
9.898543
9.425879
10.404587
12.553930
19.283891
27.392507
44.390559
59.428811
79.462528
90.644956
99.259615
100.258589
93.002915
82.273483
65.044761
50.207973
34.693480
25.230646
16.991496
12.794733
10.704994
9.972453
9.485483
9.521842
9.271502
9.047985
8.892417
9.210706
8.947849
8.694530
9.340644
8.738637
8.628964
8.754730
##ZVALUE=330
0.309944
0.254512
0.483990
0.329614
0.425577
0.369549
0.506639
0.438690
0.418425
0.402927
0.402927
0.414848
0.420809
0.391603
0.456572
0.723600
0.506639
0.395775
0.530481
0.518560
0.556707
0.489950
0.620484
0.581741
0.481606
0.580549
0.583529
0.594854
0.740886
0.659823
0.618696
0.782609
0.735521
0.721812
0.806451
0.819564
0.808835
0.855923
1.065731
0.972748
1.051426
1.133680
1.179576
1.589656
1.635551
1.878738
2.748966
16.336441
52.173734
163.886547
306.592584
600.054860
868.127942
1015.890837
1015.890837
1015.890837
1015.890837
1015.890837
993.146896
650.995970
417.715907
191.367865
92.945695
31.255484
13.201833
9.054542
8.716583
9.768605
12.501478
19.027591
27.257800
41.851997
55.436492
73.703527
84.955692
93.454719
94.485879
87.070465
76.535940
60.721636
47.485828
33.335686
24.600625
17.258525
13.565421
10.736585
9.985566
9.571910
9.075999
9.013414
8.857846
8.265972
8.657575
8.415580
8.473992
8.693933
##ZVALUE=335
0.530481
0.336766
0.326633
0.403523
0.477433
0.318885
0.460744
0.293851
0.345707
0.454783
0.501871
0.435710
0.266433
0.465512
0.485778
0.426769
0.504851
0.552535
0.488758
0.427961
0.426769
0.584722
0.369549
0.504851
0.401735
0.612736
0.686646
0.584722
0.645518
0.646710
0.581741
0.662804
0.661612
0.780821
0.639558
0.754595
0.803471
0.844598
0.870824
0.978708
1.156926
1.059771
1.093745
1.247525
1.332760
1.442432
1.564622
1.916885
2.251863
6.797910
26.796460
107.634664
224.370956
491.309762
773.088932
1015.890837
1015.890837
1015.890837
1015.890837
1015.890837
1015.890837
801.198483
530.814528
269.053578
137.490630
44.877529
18.286705
9.256601
8.871555
9.124875
10.087490
12.839437
17.018914
28.092861
38.591623
55.414438
67.380667
81.698895
86.823702
87.965727
82.432628
70.119500
59.617758
46.011806
34.923553
23.940802
18.376708
13.030767
11.066794
9.676814
9.184480
8.802414
8.501410
8.735657
8.482933
8.237958
##ZVALUE=340
0.330806
0.238419
0.241995
0.329614
0.258684
0.335574
0.381470
0.250936
0.294447
0.314713
0.296831
0.420809
0.429749
0.411868
0.411868
0.469685
0.253916
0.422597
0.520945
0.475645
0.424981
0.530481
0.490546
0.528693
0.509620
0.575781
0.450611
0.550747
0.421405
0.539422
0.643730
0.513792
0.629425
0.575781
0.502467
0.717640
0.649691
0.708699
0.768900
0.737906
0.796914
1.026988
1.003742
0.814795
1.147985
1.050830
1.024604
1.425743
1.547933
1.713634
1.811981
3.250837
12.144446
62.834620
153.286457
380.186439
627.262592
985.355973
1015.879512
1015.879512
1015.879512
1015.879512
1015.879512
894.454718
624.628663
318.675637
173.745751
67.767501
26.786923
10.627508
8.846521
8.634925
8.866787
10.127425
12.012720
17.979741
24.785995
37.773848
48.821568
65.895915
75.710416
82.566738
82.602501
77.183843
68.974495
55.580735
45.126677
32.737851
24.718642
17.263889
13.306737
10.633469
9.611845
8.765459
8.490682
8.530617
##ZVALUE=345
0.375509
0.496507
0.234842
0.310540
0.122786
0.367761
0.357628
0.423789
0.426769
0.176430
0.253916
0.445843
0.342727
0.411868
0.362992
0.239611
0.282526
0.402927
0.362992
0.406504
0.393987
0.644922
0.365973
0.507832
0.439882
0.539422
0.617504
0.544786
0.576973
0.827909
0.574589
0.390410
0.630617
0.570416
0.491738
0.542998
0.608563
0.719428
0.787973
0.663996
0.623465
0.624657
0.804663
0.871420
0.966787
0.991821
0.843406
0.982881
1.321435
1.242757
1.400709
1.721978
1.658797
2.184510
5.160570
33.777952
95.899701
261.455774
452.966690
818.199515
1015.892029
1015.892029
1015.892029
1015.892029
1015.892029
1006.476879
766.772628
442.661643
246.870518
98.674893
42.816997
14.001727
9.642839
8.810759
8.418560
8.642673
9.180903
11.296868
15.592575
25.046468
33.740997
47.943592
58.862567
68.623424
74.609518
76.316595
73.074698
65.651536
56.406856
43.559670
33.645630
23.249984
17.630458
12.653470
10.635853
8.827448
##ZVALUE=350
0.262856
0.334978
0.331998
0.395775
0.462532
0.388622
0.328422
0.335574
0.215769
0.328422
0.385642
0.249743
0.457764
0.356436
0.522733
0.527501
0.252724
0.362992
0.386834
0.362992
0.552535
0.437498
0.494719
0.427961
0.440478
0.432730
0.460744
0.576973
0.613928
0.408888
0.531673
0.449419
0.686646
0.597835
0.627637
0.578761
0.650883
0.608563
0.722408
0.722408
0.584722
0.645518
0.733733
0.735521
0.772476
1.032948
1.106858
1.060963
0.971556
0.982881
1.113415
1.377463
1.355410
1.333952
1.804829
1.928806
2.918839
18.204451
58.527589
183.966756
348.713994
683.566928
976.893902
1015.890837
1015.890837
1015.890837
1015.890837
1015.890837
942.486525
537.979007
318.134427
141.173601
61.716437
17.979741
9.903908
8.259416
7.879734
7.821918
7.834435
8.941889
10.681748
15.542507
20.733476
30.657649
39.658546
52.383542
60.716867
68.577528
70.845485
68.416595
61.610937
51.006675
42.362809
31.802654
24.057627
17.404556
##ZVALUE=355
0.433922
0.412464
0.447631
0.348687
0.373721
0.343919
0.299811
0.218749
0.359416
0.365973
0.301600
0.409484
0.338554
0.374913
0.520945
0.438690
0.528693
0.436902
0.609756
0.301600
0.352859
0.605583
0.352859
0.392795
0.571609
0.608563
0.535846
0.575781
0.497699
0.538826
0.363588
0.466704
0.457764
0.479817
0.530481
0.494719
0.456572
0.527501
0.686646
0.758767
0.740886
0.627637
0.786781
0.684857
0.799894
0.854731
0.928640
0.837445
0.978708
1.049638
1.042485
1.237988
1.238585
1.229644
1.486540
1.442432
1.596808
1.851916
2.271533
8.045435
31.717420
121.510625
255.361795
540.940762
837.686658
1015.890837
1015.890837
1015.890837
1015.890837
1015.890837
990.806818
638.362765
380.586982
159.772635
74.934959
22.966862
11.100769
8.000731
7.734895
7.321835
7.081628
7.763505
8.080602
10.176897
12.700558
19.256473
25.444627
35.755634
44.439435
54.367781
59.860945
63.993931
62.076449
56.612492
49.161911
39.408803
##ZVALUE=360
0.365973
0.385642
0.386834
0.465512
0.399947
0.386834
0.266433
0.409484
0.221729
0.274777
0.220537
0.345707
0.294447
0.096560
0.301600
0.435710
0.222921
0.243783
0.495911
0.408888
0.505447
0.216961
0.471473
0.468493
0.418425
0.444651
0.330806
0.411868
0.455976
0.460744
0.564456
0.433922
0.524521
0.537634
0.511408
0.679493
0.584722
0.732541
0.597835
0.369549
0.694990
0.551939
0.589490
0.760555
0.694990
0.638962
0.730753
0.797510
0.880957
0.739694
0.759959
1.016855
0.911951
1.041889
1.070499
1.210570
1.292825
1.353621
1.728535
1.756549
2.170801
3.542900
12.306571
60.752630
149.018764
365.120769
607.595444
969.337821
1015.838981
1015.838981
1015.838981
1015.838981
1015.838981
745.418668
479.515791
222.283602
111.929774
39.515495
16.191602
7.987618
7.330775
7.327795
6.903410
6.718636
6.801486
7.175803
8.318424
11.368990
14.529824
21.261573
28.726459
39.479733
46.599507
53.518414
57.502985
57.791471
##ZVALUE=365
0.287890
0.379682
0.342727
0.396967
0.354648
0.207424
0.371933
0.420809
0.192523
0.352859
0.321865
0.375509
0.387430
0.228882
0.315905
0.190735
0.155568
0.354648
0.361800
0.259876
0.461936
0.355840
0.457764
0.494719
0.584722
0.575781
0.622869
0.563860
0.412464
0.482798
0.507832
0.316501
0.458956
0.491738
0.609756
0.548959
0.466704
0.549555
0.679493
0.825524
0.707507
0.600815
0.661612
0.584722
0.500679
0.828505
0.660419
0.813603
0.710487
0.803471
0.851750
0.778437
0.835657
0.877976
1.053810
1.000762
1.290441
1.288652
1.352429
1.545548
1.383424
1.972914
1.978874
2.413392
5.297661
31.448603
86.583495
235.150456
444.078445
824.519992
1015.879512
1015.879512
1015.879512
1015.879512
1015.879512
909.672976
624.621511
327.051878
169.849992
59.014559
22.854805
8.699894
7.041693
6.557703
6.433725
6.309748
5.816817
5.768538
6.377697
7.206798
9.099841
13.150573
17.633438
25.865436
32.606721
41.858554
##ZVALUE=370
0.332594
0.239611
0.253916
0.371933
0.209808
0.476837
0.331998
0.448823
0.253916
0.343919
0.411868
0.366569
0.408888
0.238419
0.485778
0.476837
0.229478
0.423789
0.400543
0.273585
0.412464
0.366569
0.377893
0.332594
0.538826
0.575781
0.390410
0.456572
0.610948
0.451803
0.470877
0.390410
0.559688
0.508428
0.667572
0.441670
0.368953
0.592470
0.529885
0.513792
0.557899
0.632405
0.595450
0.540614
0.743866
0.718832
0.696778
0.772476
0.756979
0.730753
0.941753
0.694990
0.666976
0.729561
0.695586
0.805855
0.813603
1.080632
1.042485
1.136661
1.293421
1.302958
1.507998
1.665950
1.843572
2.248883
3.503561
12.526512
65.655708
162.335634
388.432741
628.373623
982.075930
1015.890837
1015.890837
1015.890837
1015.890837
1015.890837
768.661499
496.773720
227.870941
114.212632
38.866997
14.465451
7.259846
6.471872
6.019473
5.774498
5.799532
5.610585
5.624890
5.625486
6.687641
8.167624
11.413693
15.082955
##ZVALUE=375
0.231862
0.182986
0.242591
0.267625
0.294447
0.361800
0.307560
0.288486
0.335574
0.251532
0.305772
0.208616
0.301600
0.408888
0.340939
0.261664
0.278950
0.541806
0.355840
0.345707
0.293851
0.233650
0.283718
0.321865
0.325441
0.235438
0.431538
0.408888
0.433922
0.381470
0.293851
0.445843
0.472665
0.512600
0.634789
0.390410
0.374913
0.456572
0.695586
0.460744
0.587702
0.389814
0.291467
0.684857
0.462532
0.438690
0.563860
0.661612
0.647902
0.652671
0.598431
0.721812
0.691414
0.609756
0.658631
0.711679
0.722408
0.705719
0.872612
0.867844
0.878572
0.961423
1.016855
1.179576
1.230836
1.428723
1.614690
1.992583
2.477765
6.482601
36.654472
92.185736
245.607495
449.953675
825.464725
1015.890837
1015.890837
1015.890837
1015.890837
1015.890837
891.063809
608.457923
326.805711
174.844861
65.107942
26.286840
8.571744
6.329417
5.564690
5.505681
5.378723
5.424619
4.968643
4.920959
5.196929
5.655885
##ZVALUE=380
0.449419
0.397563
0.406504
0.358820
0.265837
0.430942
0.323653
0.141859
0.364780
0.344515
0.269413
0.172853
0.281930
0.304580
0.375509
0.288486
0.393987
0.264645
0.470877
0.284910
0.301600
0.252724
0.341535
0.368953
0.274777
0.376701
0.365973
0.461936
0.521541
0.541806
0.610948
0.403523
0.418425
0.487566
0.422597
0.522733
0.408888
0.443459
0.594854
0.608563
0.556707
0.438690
0.514984
0.503659
0.408888
0.324845
0.464916
0.446439
0.616908
0.775456
0.584722
0.616908
0.538826
0.786781
0.708699
0.716448
0.727773
0.855923
0.853539
0.886917
0.885725
0.666976
0.905991
0.949502
0.854731
1.263618
1.297593
1.340508
1.662970
1.861453
2.264977
4.138947
14.742613
71.257949
167.840719
414.228439
686.956644
1015.965939
1015.965939
1015.965939
1015.965939
1015.965939
1015.965939
768.985748
493.429899
224.786997
110.410452
35.898685
14.144778
6.510615
5.500913
5.373955
5.257726
5.215406
5.154610
5.096793
##ZVALUE=385
0.140667
0.244975
0.171661
0.221729
0.228882
0.186563
0.182986
0.394583
0.200868
0.212789
0.289679
0.245571
0.379682
0.301600
0.172853
0.196695
0.154972
0.216961
0.230670
0.255704
0.226498
0.257492
0.281930
0.152588
0.251532
0.292659
0.326633
0.309944
0.517964
0.360608
0.355840
0.357628
0.410676
0.297427
0.282526
0.316501
0.196695
0.369549
0.188947
0.387430
0.351667
0.347495
0.535846
0.395775
0.429749
0.366569
0.363588
0.449419
0.432730
0.474453
0.578761
0.705719
0.510812
0.672936
0.574589
0.630617
0.615716
0.622869
0.677705
0.618696
0.667572
0.666976
0.628829
0.755787
0.780821
0.797510
1.087785
1.302958
1.294613
1.568794
1.569986
1.776814
1.944900
2.564788
6.659627
39.787889
104.023814
277.584791
507.783890
915.197730
1015.864015
1015.864015
1015.864015
1015.864015
1015.864015
968.011618
668.013692
344.572663
186.454654
70.634484
26.800632
7.646680
5.560517
4.982948
4.789829
4.954934
##ZVALUE=390
0.117421
0.129938
0.033975
0.132918
0.140667
0.119805
0.222921
0.277758
0.318885
0.256896
0.204444
0.135899
0.155568
0.053644
0.337958
0.178814
0.381470
0.350475
0.268817
0.367761
0.307560
0.137687
0.370741
0.351667
0.148416
0.274777
0.290871
0.220537
0.303984
0.319481
0.197887
0.366569
0.462532
0.230670
0.288486
0.447631
0.298619
0.354648
0.291467
0.277758
0.279546
0.245571
0.251532
0.292659
0.247955
0.426769
0.295639
0.486970
0.499487
0.502467
0.469685
0.405908
0.560880
0.450611
0.227690
0.510812
0.440478
0.627637
0.643730
0.636578
0.507832
0.721812
0.662804
0.589490
0.820756
0.713468
0.843406
0.808835
0.998974
1.416802
1.441836
1.551509
1.593828
1.699924
1.739860
1.942515
3.470778
20.502806
65.758824
204.061866
386.057496
729.098916
992.057920
1015.864611
1015.864611
1015.864611
1015.864611
1015.864611
850.650668
498.962998
279.570818
108.021498
45.538545
12.376904
5.956888
4.947782
##ZVALUE=395
0.330806
0.140667
0.288486
0.228882
0.271797
0.361800
0.470877
0.192523
0.301600
0.201464
0.282526
0.225902
0.050664
0.178814
0.205636
0.083447
0.228882
0.224710
0.121593
0.254512
0.306964
0.279546
0.396967
0.389814
0.318885
0.352859
0.298619
0.430942
0.268817
0.401735
0.290871
0.298619
0.393987
0.323653
0.313520
0.323653
0.097752
0.373721
0.349879
0.467896
0.419617
0.453591
0.407696
0.386834
0.426769
0.480413
0.496507
0.335574
0.488758
0.402927
0.373721
0.432730
0.462532
0.434518
0.421405
0.443459
0.644922
0.606775
0.644922
0.561476
0.649691
0.848770
0.582933
0.659823
0.544786
0.700951
0.712872
0.964999
1.092553
1.249909
1.203418
1.231432
1.399517
1.346469
1.385808
1.470447
1.707673
1.778603
2.342463
11.345744
40.082932
142.920613
280.001760
556.360483
818.008780
1015.890837
1015.890837
1015.890837
1015.890837
1015.890837
962.560773
587.575436
365.839005
167.602897
78.087449
23.776889
##ZVALUE=400
0.279546
0.121593
0.318885
0.215769
0.337958
0.215769
0.353456
0.210404
0.348687
0.208616
0.304580
0.162721
0.267625
0.342727
0.230670
0.189543
0.178814
0.233650
0.310540
0.304580
0.240803
0.327826
0.318885
0.204444
0.263453
0.298619
0.441670
0.376701
0.359416
0.181794
0.394583
0.207424
0.191927
0.242591
0.236630
0.185966
0.204444
0.264645
0.373721
0.228882
0.307560
0.136495
0.349879
0.431538
0.353456
0.412464
0.517964
0.535846
0.328422
0.406504
0.508428
0.415444
0.407696
0.537634
0.418425
0.416636
0.460744
0.484586
0.502467
0.599623
0.757575
0.663996
0.676513
0.496507
0.529885
0.730753
0.806451
0.871420
1.069903
1.108646
1.237988
1.178980
1.158714
1.256466
1.270771
1.199841
1.393557
1.565814
1.570582
1.666546
2.026558
6.473660
23.871660
88.797808
189.280510
425.317883
678.413510
1011.240482
1015.890837
1015.890837
1015.890837
1015.890837
1015.890837
741.522908
476.052761
233.217478
##END
