##TITLE=DDW02
##FORMAT=SPECTACLE-ASCII V-1.2
##DATA TYPE=ULTRAVIOLET SPECTRUM
##SECOND TYPE=ULTRAVIOLET SPECTRUM
##DATE=02/28/18
##TIME=14:44:33
##SPECTROMETER/DATA SYSTEM=SPECTACLE
##XUNITS=NM EM
##YUNITS=ENERGY
##YFACTOR=1
##FIRSTX=220
##LASTX=410
##NPOINTS=96
##3DDATA=Equidistant
##ZUNITS=NM EX
##FIRSTZ=210
##LASTZ=400
##ZPOINTS=39
##XYDATA=(Y..Y)
##ZVALUE=210
20.899773
18.598437
15.789866
13.087988
10.782480
9.749532
9.646416
7.875562
6.836653
5.438924
4.467964
3.939867
2.835989
2.705455
2.864599
3.131628
3.232956
2.794862
3.336668
4.131794
4.110932
4.365444
4.300475
6.282926
5.189776
5.174875
5.354881
6.589890
7.337928
6.474853
8.534789
8.630753
8.643866
9.008646
9.564757
10.858774
11.065602
10.030866
11.723638
11.700988
11.852980
10.788441
12.316704
12.057424
12.095571
11.538863
12.904406
12.422800
12.172461
13.107657
13.334751
12.695789
15.452504
15.240908
15.506744
15.501976
16.535521
16.779900
16.121864
17.119646
17.637610
16.713738
17.387867
16.669631
16.366839
16.829967
17.434955
17.964840
20.743608
23.284554
23.701787
26.559830
32.774806
34.257770
37.998557
40.389895
43.352842
40.470958
40.143728
40.526986
33.998489
33.711791
29.135942
25.485754
21.125674
18.424988
14.448762
14.219880
14.051795
15.254617
20.420551
25.875568
32.904744
41.601658
55.607557
61.572790
##ZVALUE=215
69.260001
67.958832
54.425597
35.764575
28.855801
21.892786
18.139482
16.963482
16.798973
13.919473
13.224483
8.238554
8.347631
5.725622
4.422665
4.168749
3.588796
4.106760
3.912449
4.248619
3.405809
4.705787
4.599690
5.296469
5.481839
5.903840
6.779432
7.396936
7.154942
7.757545
8.214712
9.276867
9.287596
10.035634
11.160970
11.943579
13.434887
14.405847
13.040900
14.384985
13.794899
14.683604
14.688969
14.870763
13.984442
15.350580
15.336871
14.762878
15.034676
16.203523
15.632510
17.084479
17.504692
17.063618
17.961860
17.201900
19.248724
20.206571
20.531416
21.193624
19.308925
19.425750
19.803643
20.084977
20.309687
18.799901
19.710660
19.851923
21.464825
23.616552
25.595427
28.561950
30.085444
31.339526
36.922693
37.119985
36.530495
37.397742
35.810471
34.559965
32.657981
29.691458
25.489926
22.229552
18.857718
17.057657
14.094710
13.106465
13.486743
11.570454
11.834502
10.864735
12.227893
14.683604
15.698671
21.703839
##ZVALUE=220
167.380571
162.941813
155.246854
120.539665
100.189447
73.819757
56.457520
41.926503
33.790469
28.867722
25.268793
26.462674
22.876859
19.608736
15.355945
11.947751
7.620454
6.007552
4.932880
4.672408
4.918575
4.304647
4.753470
4.993677
5.656481
6.579757
6.771684
7.868409
8.492470
7.583499
8.357763
9.596944
10.526776
12.253523
12.816787
14.734864
15.041828
15.415549
16.984940
17.800927
18.270612
17.588735
18.064976
18.024445
18.468499
16.939640
17.221570
18.020868
18.064976
19.000769
19.083619
19.781590
19.393563
21.329522
21.779537
22.350550
23.750663
22.219419
21.740794
23.865700
23.501515
23.615956
23.137927
23.828745
23.099780
24.362803
24.120808
21.927953
24.637580
24.242997
27.394891
30.541420
31.131506
34.565926
35.084486
36.419630
37.350655
37.935972
38.440824
36.633611
32.288432
30.775666
27.740598
25.653839
21.289587
17.901659
15.412569
15.748739
12.571812
11.998415
11.925697
11.356473
12.051463
11.226535
10.341406
11.574626
##ZVALUE=225
219.052434
239.983797
268.715620
284.621716
282.090902
244.575739
202.154517
138.929486
106.237531
76.226592
52.829981
43.684840
44.268966
42.229891
39.890409
37.050843
28.424859
23.578405
17.218590
11.559725
8.667707
6.156564
7.067919
5.350709
5.834699
6.710887
8.433461
7.951856
7.636547
8.654594
9.570718
11.638999
10.606647
12.980700
14.350414
16.037822
18.948913
17.945766
20.927787
20.749569
21.184683
21.232963
20.711422
21.986961
21.181703
22.892952
21.239519
21.480918
22.235513
21.810532
24.150610
26.112795
23.608804
24.906993
25.279522
27.295947
27.393699
27.142763
28.399825
27.878881
27.761459
26.869774
30.152798
29.022694
29.029846
29.414892
28.055906
29.849410
30.521750
32.057762
30.722618
32.086968
33.960938
36.818981
39.312840
38.850904
40.323734
37.736893
33.957958
33.776760
30.201674
26.629567
25.901794
23.946762
19.607544
18.843412
16.427636
16.710758
15.958548
14.800429
13.743639
14.400482
13.969541
11.818409
13.214946
11.627674
##ZVALUE=230
143.659711
156.652927
227.389932
349.211693
414.581895
467.377901
465.365648
410.802960
336.537957
264.607668
168.125629
110.946894
73.408484
63.495636
63.410997
65.546632
63.463449
59.330463
52.226782
42.543411
33.125877
21.665692
15.446544
10.560751
8.725524
7.513762
8.200407
8.729696
8.807778
9.129643
8.781552
10.356903
11.616945
13.171434
14.035702
15.550852
17.488599
19.147992
19.186735
19.419789
20.427704
23.734570
21.442771
22.709966
22.861958
21.911860
22.093654
22.732615
22.250414
24.726987
24.565458
26.619434
27.704835
29.215813
30.875802
31.413436
33.836961
35.981536
34.326911
33.896565
35.064816
34.402609
35.402775
34.025908
31.569600
34.798980
34.329891
33.909678
35.925508
34.311414
36.866665
38.834810
41.474700
41.017532
41.992664
43.484569
40.784478
41.214824
39.430857
34.177899
34.787655
31.041503
28.003454
25.515556
24.166703
20.963550
19.834638
18.482804
17.493963
15.759468
15.260577
16.084909
14.958978
14.329553
15.148520
14.007688
##ZVALUE=235
32.403469
37.540793
90.758801
227.832794
367.824435
571.230650
714.933872
835.390687
849.604607
776.495934
660.615563
474.497676
350.672603
224.085450
164.336562
124.990940
103.778839
96.584558
99.700689
99.454522
85.751414
71.758628
59.965849
41.806698
29.578805
21.109581
13.798475
13.450980
12.135506
11.402965
12.145638
13.146996
12.611747
14.062524
14.742613
17.047524
18.211603
18.057823
18.165708
19.448996
20.205975
19.278526
20.013452
21.741986
20.118952
22.642612
22.706985
26.219487
24.834871
28.231740
28.622746
33.296943
31.880736
37.447810
38.545728
37.446618
38.927794
44.235587
42.728782
42.389631
45.676827
43.880939
44.932961
43.767691
44.627786
43.333769
43.889880
46.633482
47.508478
48.610568
47.051907
54.099560
54.734945
57.325959
57.897568
58.306456
58.169961
56.238770
51.916838
49.828887
46.144724
41.577816
39.502978
34.315586
31.221509
28.675795
25.993586
25.252700
23.024678
22.303462
22.674799
19.115806
21.493435
18.955469
18.919706
18.213987
##ZVALUE=240
2.548695
3.305674
8.456707
40.856600
97.890496
257.427692
461.331010
794.847012
1015.710831
1015.710831
1015.710831
1015.710831
1015.710831
952.509642
659.959912
438.174605
245.504975
173.851848
187.055469
112.351775
117.956996
123.581886
117.629766
101.394653
90.846419
69.572926
53.339601
36.191940
27.958751
18.994808
16.861558
14.621615
15.174747
15.248656
15.101433
16.195774
16.528964
16.653538
16.927719
17.003417
16.092658
17.900467
16.454458
17.652512
18.383861
17.594695
19.371510
21.495819
24.407506
26.097894
26.500821
30.019879
31.162500
34.336448
37.632585
37.427545
38.263798
42.409897
42.203665
45.250654
46.541691
46.515465
44.967532
46.810508
45.226812
45.443773
46.516657
45.730472
50.388575
46.561956
48.013926
51.045418
52.099824
55.088997
55.276752
52.059889
51.237941
47.094822
47.824979
44.196844
41.427612
37.431717
34.836531
29.600859
28.835535
26.295781
26.236773
23.676753
22.047758
21.441579
22.038817
18.359423
19.179583
20.580888
18.125772
18.192530
##ZVALUE=245
1.371503
1.307726
2.126694
1.296401
6.993413
24.536848
87.055564
194.555521
475.040674
738.058686
1015.169621
1015.169621
1015.169621
1015.169621
1015.169621
1015.169621
817.282796
502.278805
321.455002
175.087452
126.684904
108.321905
115.787983
132.766962
139.077902
127.248764
116.126537
100.533962
73.589683
56.077838
41.924715
28.386712
21.394491
17.727613
15.334487
14.853477
13.896823
14.700890
14.940500
14.215708
15.154481
15.639663
15.504956
15.433431
16.183853
16.350746
16.317964
18.853545
20.033717
25.225878
26.166439
29.611588
30.365586
33.410788
34.073591
36.973953
38.820505
40.230751
43.005943
42.229891
45.503974
42.372942
44.625998
43.557882
44.142604
43.034554
43.928623
44.746995
46.718717
43.587685
46.254992
45.446754
48.218966
49.088001
47.393441
47.109723
46.356916
46.180487
42.236447
41.516423
36.837459
34.103990
33.059716
27.694702
25.953650
24.598837
23.178458
21.529794
20.729899
19.517541
20.285845
18.446445
18.141866
17.409921
17.904639
16.516447
##ZVALUE=250
1.556873
1.484752
1.856685
1.713634
2.328753
2.213717
3.566742
14.576912
68.345666
156.175494
407.317877
677.225590
977.600813
1015.710831
1015.710831
1015.710831
1015.710831
1015.710831
1015.710831
760.276914
498.926640
304.579735
162.007809
116.029978
112.676620
125.912428
137.184858
141.762495
136.509538
123.634934
107.638836
80.626607
62.831640
39.896965
30.437708
21.143556
16.970634
15.771985
15.152693
15.873909
15.742779
15.660524
15.766621
15.592575
15.723705
16.798973
17.193556
17.536879
19.451976
21.608472
23.479462
24.527907
27.666688
28.433800
29.061437
30.461550
31.090975
34.662485
34.464598
34.560561
37.446618
36.727786
37.365556
37.336946
38.081408
36.452413
36.287904
36.591887
38.659573
36.547780
37.034750
38.634539
38.005710
37.964582
38.173795
37.348866
36.338568
35.917759
35.589933
33.401847
29.332638
27.077794
24.273992
21.971464
21.845698
19.213557
18.965602
16.960502
15.650988
16.758442
16.026497
15.513897
14.632940
15.301704
15.180707
13.433695
##ZVALUE=255
1.160502
1.511574
1.339912
1.453757
1.722574
1.489520
1.764894
1.781583
2.376437
5.302429
29.305816
77.330470
173.547864
406.754613
646.001697
996.253490
1015.710831
1015.710831
1015.710831
1015.710831
1015.710831
940.446854
561.439991
347.901583
178.292990
116.949677
97.534657
105.551481
129.849911
140.707493
145.351887
139.690638
129.396915
102.670789
84.382892
58.249831
43.142438
28.186440
22.334456
17.627478
16.666651
16.298890
15.810728
15.263557
16.433001
16.808510
16.685724
16.629696
18.101931
18.257499
20.691752
20.871758
22.694468
25.024414
24.141669
25.227666
26.443601
27.990937
28.520823
29.970407
30.682683
30.383468
29.205680
29.612780
29.889941
28.794408
30.222535
29.543638
28.619766
29.381514
28.311610
28.625727
30.515790
28.877854
29.439926
28.928518
27.508736
26.988983
24.925470
23.137927
20.371675
19.390583
18.954873
17.006993
16.098619
15.550852
14.508963
13.993979
12.770891
13.442636
12.722611
12.630820
12.691617
12.029409
11.687875
11.794567
##ZVALUE=260
1.137853
1.319647
1.251698
1.136661
1.332760
1.323819
1.216531
1.589656
1.651645
1.965761
1.902580
2.827644
7.163882
32.774806
82.487464
221.788883
396.356583
700.604916
963.075757
1015.712023
1015.712023
1015.712023
1015.712023
1015.712023
876.884460
611.828566
352.432728
214.270949
117.764473
95.085502
101.919770
126.932859
141.448975
151.844621
147.350430
129.642487
112.848878
83.475709
65.578818
44.939518
33.906698
24.675727
20.916462
19.812584
18.560886
19.180775
19.145608
19.483566
19.806623
22.071600
22.801757
23.566484
22.618771
24.867654
26.040673
26.187897
27.384758
28.621554
29.881001
29.881001
30.800700
31.366944
30.947924
29.487610
30.105710
30.532479
31.134486
31.396747
29.565692
28.991699
28.838515
30.475855
30.134916
29.116869
28.398633
28.162599
26.896000
24.873614
23.309588
22.678971
20.657778
19.298792
18.888712
16.488433
15.513897
15.427470
14.997721
14.246702
13.965964
13.453960
11.784434
12.233853
12.349486
11.378527
11.128783
11.362433
##ZVALUE=265
0.982881
0.941753
0.985861
1.033545
1.239777
1.048446
1.438856
1.284480
1.330972
1.727939
1.808405
1.564622
2.066493
2.239943
5.053878
15.496612
59.903860
134.832859
324.938893
561.428666
966.432691
1015.710831
1015.710831
1015.710831
1015.710831
1015.710831
1015.710831
890.427828
485.127568
281.945467
129.524469
86.122751
89.756846
108.305812
135.330558
150.189996
158.923864
152.887702
134.753585
118.483901
91.657639
72.953701
49.160719
37.842989
28.853416
24.087429
22.241473
22.776723
23.241639
24.387836
26.181936
27.214885
28.357506
28.690696
29.850602
31.171441
32.272935
33.059716
33.049583
34.701824
34.504533
35.841465
35.738945
35.079718
34.970641
33.747554
32.697916
33.637881
32.665730
33.653975
32.820702
31.734705
30.823946
31.174421
30.694604
28.620958
27.214885
25.092959
23.979545
22.980571
21.438599
20.018816
18.531680
18.061996
16.337633
15.997887
15.208721
14.751554
13.516545
13.461709
12.279749
12.753606
11.972785
11.748672
11.252761
10.818839
##ZVALUE=270
1.027584
0.891685
1.016855
0.991821
0.793934
0.991821
1.155734
1.201630
1.150966
1.296997
1.374483
1.437664
1.466870
1.461506
1.583695
1.876950
2.317429
8.730888
27.331710
107.526779
232.977867
426.359773
759.924650
1015.126705
1015.710831
1015.710831
1015.710831
1015.710831
1015.710831
1015.710831
719.597936
447.753668
196.777582
98.624825
73.215961
87.304711
117.540956
138.065815
157.001615
162.277818
155.807734
143.951774
118.636489
99.877715
71.352720
55.944920
39.289594
34.030676
29.247999
29.045939
29.190779
31.545758
32.460690
33.444762
35.069585
34.388900
36.071539
37.401915
38.392544
39.601922
40.168762
38.691759
39.641857
40.085912
38.433671
38.680434
37.525892
37.697554
36.294460
36.848783
36.203861
35.333633
34.863949
34.057498
33.191442
32.114983
30.016899
29.355884
25.965571
24.491549
23.229718
21.838546
19.581914
19.523501
17.609596
17.036796
16.769767
15.910864
14.320612
13.937950
13.434887
12.906790
12.829900
12.515783
12.025833
12.424588
##ZVALUE=275
0.870824
0.990629
0.776649
0.896454
0.921488
1.012683
0.760555
1.086593
0.953674
1.096725
1.378655
1.129508
1.212955
1.210570
1.548529
1.648664
1.989603
1.927614
2.395511
4.366636
13.745427
61.236620
156.492591
393.390656
649.029613
1002.239585
1015.710831
1015.710831
1015.710831
1015.710831
1015.710831
1015.710831
957.285762
599.817634
280.453563
144.034624
72.451830
69.063902
93.146563
114.327669
134.945512
155.505538
160.478950
155.558586
141.408443
118.551850
97.126961
73.981881
58.728456
47.472715
39.135814
37.468672
36.770701
36.482811
37.688613
38.445592
40.486455
41.380525
43.359995
44.278502
45.662522
44.801831
45.520663
44.177771
43.687820
42.196512
43.204427
41.535497
41.027665
40.499568
39.449930
38.672686
37.103891
36.430955
35.252571
34.126639
32.981634
30.362606
27.957559
26.784539
25.350451
23.704767
21.918416
20.890832
19.777417
18.515587
17.947555
17.501712
16.168952
15.385747
14.046431
14.143586
13.891459
13.798475
13.195872
12.702942
##ZVALUE=280
0.684857
0.701547
0.755787
0.720620
0.716448
0.767708
0.958443
0.814795
0.854731
0.913739
0.955462
1.012683
1.039505
1.141429
1.147985
1.251698
1.268983
1.392961
1.232624
1.697540
1.722574
2.383590
13.138652
39.860606
127.278566
251.056552
497.070551
748.599768
1015.743613
1015.743613
1015.743613
1015.743613
1015.743613
960.511565
602.268577
381.883979
182.081461
102.532506
57.252645
52.230954
68.638921
86.336732
113.703609
132.208467
149.162412
155.517459
148.808956
138.480663
118.016005
98.910928
75.375438
62.745810
51.554441
46.135783
42.251945
42.249560
42.560697
42.938590
46.694875
46.973825
48.831701
48.547983
48.302412
47.498941
47.365427
46.639442
46.497583
45.213699
44.839978
43.476820
42.710900
41.017532
38.751960
38.298965
36.335588
34.176707
32.517910
32.312870
29.243827
27.428865
25.294423
24.425983
23.115873
21.957755
19.906759
19.061565
17.978549
17.405748
15.932918
15.822649
14.892817
14.461875
14.453530
13.449788
13.080835
12.917519
##ZVALUE=285
0.570416
0.565648
0.602603
0.438690
0.384450
0.559688
0.557899
0.562668
0.428557
0.591874
0.811815
0.818968
0.704527
0.708699
0.658631
0.720620
1.070499
0.808835
1.084805
1.235604
1.186728
1.179576
1.587868
1.816750
7.925630
25.627613
74.030757
141.886473
302.771926
494.951606
745.890737
1015.603542
1015.603542
1015.603542
1015.603542
1015.603542
879.455805
500.382781
290.052891
129.575729
69.341660
41.268468
41.488409
58.047771
77.959895
106.321573
123.252869
142.281651
151.048899
150.639415
142.622590
124.693513
107.956529
86.187720
71.416497
58.110952
52.811503
49.817562
50.020814
51.018000
51.989555
52.624941
52.975416
52.418709
51.333904
50.795674
50.551891
50.155520
47.881603
46.942830
45.738816
44.912696
43.094754
41.415691
38.431883
37.754774
35.005808
33.676624
30.246973
28.993487
27.116537
25.367737
24.466515
22.915602
21.144748
19.868612
19.279718
17.871857
17.612576
16.176701
16.134977
14.941692
14.935732
14.561415
14.119744
13.329983
##ZVALUE=290
0.595450
0.720620
0.624657
0.614524
0.552535
0.536442
0.576973
0.608563
0.737906
0.731945
0.921488
0.801682
0.697970
0.851750
0.905991
0.952482
0.874996
0.975728
1.041889
1.164675
1.257658
1.029968
1.399517
1.587868
1.557469
1.905560
3.168583
12.759566
54.184794
108.173490
171.201825
411.905050
677.362680
1015.710831
1015.710831
1015.710831
1015.710831
1015.710831
1015.710831
750.246644
445.771813
195.156932
93.766451
39.523840
29.463768
38.274527
52.790642
75.853467
98.066926
125.788450
142.366886
156.272650
156.816840
146.401525
133.304596
110.217929
95.438957
79.473853
69.715977
62.581897
59.440732
57.073832
56.548715
55.791736
54.872632
54.310560
54.205656
52.721500
52.367449
49.765706
49.348474
46.247840
45.416951
42.213798
40.621758
38.104653
36.694407
34.582615
32.664537
30.110478
28.475523
26.704669
25.092959
23.471713
22.462606
21.118522
19.186735
18.888712
17.936826
16.856790
16.483665
15.829802
14.786720
14.290810
14.144778
13.685822
##ZVALUE=295
0.512600
0.598431
0.526905
0.592470
0.482798
0.593662
0.653863
0.738502
0.693798
0.850558
0.570416
0.748634
0.822544
0.781417
0.780821
0.841618
0.922680
1.050830
0.913739
0.991821
1.115799
1.313686
1.216531
1.343489
1.523495
1.615882
1.731515
2.037883
2.140999
4.562736
18.785596
72.769523
148.996711
337.670445
577.466488
998.909473
1015.710831
1015.710831
1015.710831
1015.710831
1015.710831
1015.710831
724.149942
315.490961
147.324800
52.941442
31.648874
27.980804
38.793683
59.894919
80.617666
108.328462
129.364729
150.529742
160.180926
160.790682
152.011514
136.767626
122.098923
101.894736
89.407563
75.532794
67.858696
61.551929
57.830811
56.969523
55.744648
54.919720
53.327680
52.284002
49.700737
47.841668
45.531988
44.133663
41.729808
38.914680
36.883950
34.803748
32.647848
30.791759
28.980970
26.454926
24.469495
23.401976
22.718906
20.644665
19.241571
18.535852
17.733574
16.737580
15.854836
15.722513
15.123487
13.886690
13.943911
13.438463
##ZVALUE=300
0.624657
0.627637
0.517964
0.544786
0.651479
0.498891
0.605583
0.596642
0.795722
0.825524
0.601411
0.660419
0.638962
0.724792
0.664592
0.683665
0.845790
0.713468
1.067519
0.778437
0.898838
0.982881
1.200438
1.166463
1.260638
1.369715
1.273751
1.592636
1.537800
1.947880
2.015829
2.186894
9.453893
33.797622
106.244683
199.350715
416.422486
682.896972
1015.710831
1015.710831
1015.710831
1015.710831
1015.710831
1015.710831
768.387914
456.450582
202.955604
103.091598
45.203567
33.507943
38.359761
48.899651
67.739487
85.091591
111.617446
132.608414
154.712796
163.445473
165.071487
160.791874
141.759515
124.494433
102.483630
86.721778
72.431564
64.841509
58.031678
55.527687
51.618814
50.475597
48.556924
45.798421
44.090748
41.356683
39.758682
37.939548
34.896731
33.306479
30.783415
29.662848
26.786923
25.622845
23.969412
22.390485
20.826459
19.636750
18.684864
17.447472
16.850829
15.652776
14.995933
14.439821
13.532639
12.960434
12.321472
12.185574
##ZVALUE=305
0.445843
0.406504
0.553727
0.472665
0.514984
0.463724
0.382662
0.511408
0.481606
0.438690
0.493526
0.401735
0.490546
0.656843
0.630617
0.461936
0.668764
0.527501
0.709891
0.624657
0.735521
0.679493
0.721812
0.870824
0.858903
1.076460
1.201630
1.179576
1.230836
1.299977
1.611710
1.340508
1.829863
2.055764
3.176928
16.116500
43.931603
123.993754
233.567953
466.364622
681.957006
965.963006
1015.702486
1015.702486
1015.702486
850.151777
651.136637
405.559540
256.536603
127.473474
74.038506
43.345690
38.851500
45.282841
54.850578
72.378516
90.569854
114.353895
131.654739
151.170492
158.919692
158.749819
149.077773
131.823421
114.475489
92.255473
78.019500
62.549710
56.030750
47.602654
44.666529
41.740537
39.708614
36.752820
34.839511
33.158660
31.819940
29.966831
27.420521
25.998950
24.496913
22.179484
21.316409
19.736886
18.687844
17.493963
16.713738
15.755892
15.036464
14.102459
12.739897
12.339950
12.008548
11.440516
11.032820
10.387897
##ZVALUE=310
0.371933
0.509620
0.362992
0.425577
0.293851
0.444651
0.512600
0.496507
0.306964
0.488758
0.421405
0.376701
0.408888
0.533462
0.499487
0.524521
0.530481
0.541806
0.574589
0.469685
0.453591
0.628829
0.599623
0.798702
0.785589
0.891685
0.777841
0.761747
0.695586
0.957847
0.876784
1.099706
1.172423
1.338720
1.325607
1.593828
1.826882
6.662607
21.152496
72.082877
148.781538
330.476761
527.383685
820.833445
1009.622812
1015.710831
1015.710831
992.227793
806.821585
525.937676
347.645879
184.659958
110.571980
56.232810
39.733648
38.302541
43.683648
53.019524
64.437985
83.554983
99.953413
119.856000
133.730769
141.642690
141.364932
131.505728
118.720531
101.059675
83.707571
63.642859
52.757859
42.693615
36.622882
31.643510
29.277802
27.677417
25.734901
23.969412
23.016930
21.019578
19.481778
18.314719
17.323494
16.290545
15.665889
14.221668
14.234781
13.109446
12.604594
12.176633
11.777878
10.717511
10.549426
10.254979
9.876490
9.117723
##ZVALUE=315
0.342727
0.308752
0.516772
0.315905
0.420809
0.548959
0.455976
0.404716
0.522733
0.483990
0.544786
0.549555
0.567436
0.408888
0.411868
0.452995
0.451803
0.620484
0.634789
0.618696
0.749826
0.633597
0.599623
0.564456
0.672936
0.631809
0.619888
0.566840
0.877976
0.620484
0.763535
1.044869
0.777841
1.148582
1.038909
1.104474
1.215935
1.420975
1.523495
2.895594
10.919571
44.646859
105.823874
263.581872
437.600613
721.419454
919.956565
1015.710831
1015.710831
1015.710831
890.051723
629.090667
442.888737
241.442919
142.290592
67.039728
41.464567
33.464432
35.104752
40.056705
45.268536
57.769418
68.500638
86.705685
100.388527
116.682649
123.576522
122.905970
116.832852
100.321770
86.349845
68.420768
53.611994
38.366914
30.867457
24.109483
21.373630
19.334555
17.976761
16.343594
15.714765
14.513731
13.660789
13.072491
12.755990
11.922717
11.586547
11.151433
10.471940
9.891987
9.603500
9.150505
9.172559
8.852482
8.393526
8.256435
##ZVALUE=320
0.255704
0.361800
0.402927
0.268817
0.336766
0.387430
0.451803
0.273585
0.316501
0.287890
0.322461
0.430942
0.418425
0.497699
0.422597
0.599623
0.513792
0.385642
0.290871
0.415444
0.485778
0.540614
0.541806
0.467896
0.620484
0.586510
0.431538
0.563860
0.606775
0.780821
0.722408
0.757575
0.763535
0.834465
0.978708
0.892878
0.976920
1.159906
1.033545
1.350641
1.329780
1.891851
4.844666
24.317503
65.619946
193.445683
340.843797
596.421957
811.481476
1015.710831
1015.710831
1015.710831
995.630026
747.690797
536.620617
300.192833
178.782940
85.531473
46.090484
26.596785
24.157763
24.771690
26.364923
32.321811
39.911866
54.475665
66.443682
83.448887
95.931888
105.470419
105.773807
98.317862
87.469816
68.891644
54.826736
38.531423
29.195547
20.557642
15.930533
13.136864
11.595488
10.316968
9.780526
9.366870
8.663535
8.406639
7.955432
7.641912
7.887483
7.525682
7.281899
7.170439
7.339716
7.178783
7.196665
7.174611
##ZVALUE=325
0.328422
0.248551
0.346899
0.374913
0.498891
0.508428
0.389814
0.355840
0.381470
0.271797
0.266433
0.440478
0.295639
0.342727
0.395775
0.588894
0.405908
0.508428
0.473857
0.469685
0.457764
0.417829
0.428557
0.543594
0.564456
0.575781
0.716448
0.512600
0.627637
0.727773
0.614524
0.688434
0.955462
0.770688
0.741482
0.697970
0.813603
1.118779
1.046658
0.888705
1.007915
1.178980
1.411438
1.620650
3.144741
10.688901
45.907497
109.318495
280.410647
474.282503
781.118870
990.935564
1015.710831
1015.710831
1015.710831
887.219906
586.203933
400.525928
214.812756
121.945739
48.822761
23.217797
12.791753
12.222528
12.952685
15.041828
19.802451
28.089881
42.352676
56.460500
71.664453
82.072616
89.384913
90.276599
83.161592
73.151588
57.838559
44.039488
29.095411
20.701885
13.625622
9.667873
7.641912
6.785989
6.257892
5.928874
5.522966
5.820990
5.410910
5.631447
5.574822
5.337596
5.615950
5.751848
6.070733
5.969405
##ZVALUE=330
0.302792
0.371933
0.278950
0.374913
0.464916
0.307560
0.273585
0.296831
0.408888
0.239611
0.372529
0.388622
0.324845
0.308752
0.462532
0.432730
0.393987
0.396967
0.581741
0.421405
0.419617
0.497699
0.408888
0.528693
0.422597
0.496507
0.513792
0.545979
0.486970
0.657439
0.491738
0.496507
0.375509
0.630617
0.687838
0.660419
0.688434
0.740886
0.759959
0.820756
1.000762
1.108646
0.998974
1.293421
1.297593
1.458526
1.972914
6.343722
20.827651
59.310794
183.498859
350.169539
647.311807
884.190798
1015.710831
1015.710831
1015.710831
957.419872
687.723756
489.921570
272.156000
155.924559
64.913630
29.411912
9.944439
7.409453
7.039905
7.787943
10.837913
15.013814
24.318695
33.834577
49.544573
61.537623
73.819757
80.078840
80.436468
76.185465
64.072609
52.190423
36.403537
27.031898
17.943978
12.510419
7.963777
6.136894
5.204678
4.780889
4.837513
4.992485
4.823804
4.698634
5.194545
5.144477
5.286932
5.403757
##ZVALUE=335
0.397563
0.416636
0.457764
0.415444
0.383854
0.289679
0.430942
0.330806
0.319481
0.371933
0.494719
0.532866
0.298619
0.377893
0.335574
0.557899
0.460744
0.518560
0.423789
0.386834
0.376701
0.590682
0.378489
0.402927
0.278950
0.499487
0.493526
0.603795
0.648499
0.601411
0.755787
0.510812
0.542998
0.582933
0.616908
0.564456
0.831485
0.523925
0.840425
1.025796
0.904799
0.724792
0.800490
0.953674
1.013875
1.099706
1.112819
1.480579
1.585484
3.213882
10.072589
44.717789
110.203624
294.515491
505.196452
837.342739
1015.732884
1015.732884
1015.732884
997.951627
816.122890
534.636974
357.859731
185.081959
98.591447
34.714937
14.086962
6.867647
6.362796
6.387830
6.955862
9.502769
13.510585
22.240877
31.280518
46.108961
56.329966
68.570971
74.960589
74.954629
69.845915
58.465600
49.593449
37.075877
27.496815
18.060803
12.685657
8.367896
6.750822
5.422831
4.896522
5.140901
4.923940
5.208850
5.067587
5.537868
##ZVALUE=340
0.416636
0.391603
0.414848
0.321865
0.244975
0.337958
0.384450
0.260472
0.327826
0.351667
0.335574
0.358820
0.402927
0.494719
0.501871
0.254512
0.442863
0.340939
0.363588
0.430942
0.407696
0.443459
0.415444
0.454783
0.305772
0.537634
0.543594
0.529885
0.589490
0.528693
0.578761
0.561476
0.661612
0.674725
0.628829
0.586510
0.538826
0.652671
0.662804
0.711679
0.626445
0.683665
0.708699
0.866652
0.847578
0.880957
1.008511
1.059771
1.138449
1.342893
1.497865
2.043843
5.315542
26.211739
72.835684
226.212740
417.437553
727.856755
959.767699
1015.730500
1015.730500
1015.730500
908.317566
637.512803
434.230566
225.479007
127.474666
52.327514
20.554662
7.663965
6.286502
5.778670
5.826950
6.784797
8.734465
13.699532
19.599795
30.633807
41.034818
55.006742
63.320994
70.221424
70.175529
65.611601
58.580637
46.875477
37.254691
26.124716
18.940568
12.465715
9.335876
6.727576
6.150603
5.714893
5.420446
5.575418
##ZVALUE=345
0.327826
0.145435
0.360608
0.204444
0.244975
0.318885
0.367761
0.292659
0.468493
0.374913
0.423789
0.418425
0.300407
0.307560
0.438690
0.335574
0.274777
0.301600
0.366569
0.315905
0.310540
0.252724
0.407696
0.339746
0.420809
0.624657
0.403523
0.413656
0.600815
0.589490
0.428557
0.500679
0.529885
0.516772
0.426769
0.567436
0.431538
0.497699
0.564456
0.451803
0.703931
0.572801
0.606775
0.797510
0.708699
0.799894
0.716448
0.724792
0.877976
0.835657
1.041889
1.114607
1.216531
1.454949
3.182888
10.516644
47.714710
120.807886
315.184593
526.078939
857.474804
1015.712023
1015.712023
1015.712023
1000.261903
811.999440
527.891517
341.991782
159.469843
81.309676
29.043555
11.739731
6.286502
5.948544
5.379915
5.255938
5.882978
7.614493
12.198687
17.688870
28.213859
37.277937
48.744678
56.752563
63.895583
65.355897
61.830878
56.738853
45.579672
37.131906
26.370883
19.690990
12.881756
9.761453
7.618666
7.019639
##ZVALUE=350
0.353456
0.349879
0.341535
0.296831
0.432730
0.268817
0.289679
0.475645
0.296831
0.373721
0.245571
0.309944
0.289679
0.219941
0.395775
0.407696
0.284910
0.372529
0.660419
0.445843
0.403523
0.444651
0.553727
0.418425
0.519753
0.301600
0.475645
0.331998
0.462532
0.500679
0.513792
0.462532
0.525713
0.504851
0.538826
0.340939
0.553727
0.531673
0.679493
0.628829
0.625849
0.576973
0.669956
0.730753
0.686646
0.735521
0.689626
0.800490
0.718832
0.872612
0.924468
0.911951
1.046658
1.228452
1.240969
1.330972
1.942515
7.098913
22.708774
85.325837
191.380978
453.311801
702.803731
1002.603769
1015.710831
1015.710831
1015.710831
923.702717
675.954819
384.009480
234.373808
109.878778
50.516725
14.178753
7.140636
5.597472
4.969835
4.679561
4.917979
5.525947
7.234812
11.399984
15.919805
23.998618
32.111406
43.289661
51.347613
57.927966
60.420632
58.000684
53.367615
43.808818
35.763979
25.979877
19.908547
14.365911
##ZVALUE=355
0.231862
0.345707
0.411868
0.344515
0.384450
0.286698
0.333786
0.261664
0.359416
0.417829
0.282526
0.256896
0.388622
0.263453
0.477433
0.389814
0.300407
0.432730
0.479817
0.359416
0.399947
0.605583
0.196695
0.297427
0.377893
0.407696
0.458956
0.449419
0.520945
0.480413
0.387430
0.323653
0.639558
0.416636
0.536442
0.646710
0.593662
0.564456
0.539422
0.657439
0.554919
0.636578
0.530481
0.494719
0.625849
0.589490
0.626445
0.826716
0.694990
1.039505
0.947714
0.873804
0.969768
1.085997
1.216531
1.265407
1.113415
1.381636
1.606941
3.916621
12.244582
51.814914
121.358037
307.188630
541.359782
902.889967
1015.710831
1015.710831
1015.710831
991.773605
764.241815
463.013649
283.141732
128.916502
64.436793
22.081733
9.080768
5.369782
4.884601
4.666448
4.430413
4.646778
5.014539
6.562471
8.739829
14.259815
20.022988
29.482841
37.532449
46.751499
52.698851
55.996776
54.687858
49.926639
43.628812
35.027862
##ZVALUE=360
0.359416
0.292659
0.252724
0.277758
0.335574
0.369549
0.235438
0.260472
0.423789
0.258684
0.451803
0.569820
0.260472
0.423789
0.473857
0.541806
0.563860
0.482798
0.376701
0.526905
0.390410
0.558496
0.379682
0.478625
0.383854
0.417829
0.482798
0.481606
0.442863
0.305772
0.318885
0.548959
0.458956
0.441670
0.490546
0.612736
0.715852
0.528693
0.709891
0.643730
0.549555
0.636578
0.558496
0.523925
0.551939
0.734925
0.632405
0.564456
0.753999
0.854731
0.869632
0.952482
0.817776
0.882745
0.964999
0.919700
1.082420
1.298785
1.388788
1.685619
1.550913
2.312660
5.471706
24.261475
65.953732
194.374919
366.068482
686.281919
961.318016
1015.734673
1015.734673
1015.734673
929.853916
593.790412
381.646752
187.695622
101.345778
37.206411
14.163852
5.732775
4.748702
4.681945
4.265904
4.051924
4.101992
4.653931
5.345941
8.027554
11.525750
17.978549
24.075508
33.688545
40.338635
48.047900
51.427484
51.821470
##ZVALUE=365
0.435710
0.326633
0.271797
0.373721
0.191927
0.242591
0.258684
0.254512
0.229478
0.393987
0.453591
0.258684
0.303984
0.399947
0.455976
0.497699
0.295639
0.369549
0.396967
0.322461
0.331998
0.449419
0.472665
0.406504
0.540614
0.397563
0.301600
0.309944
0.536442
0.453591
0.435710
0.497699
0.442863
0.478625
0.471473
0.473857
0.326633
0.397563
0.637770
0.444651
0.416636
0.576973
0.561476
0.543594
0.541806
0.656843
0.647902
0.654459
0.646710
0.735521
0.510812
0.613928
0.570416
0.696778
0.856519
0.911951
0.850558
1.047850
1.014471
0.952482
1.251698
1.365542
1.535416
1.940727
2.768636
12.033582
36.444664
119.314790
239.607692
485.108495
714.041591
982.518792
1015.710831
1015.710831
953.853726
681.579709
470.879674
254.722834
142.544508
55.743456
22.776723
6.797910
4.966855
4.617572
4.234910
4.190803
4.228950
4.076958
4.468560
5.460978
7.124543
11.099577
15.029907
22.172928
28.528571
36.540627
##ZVALUE=370
0.308752
0.337958
0.349879
0.252724
0.254512
0.272989
0.332594
0.293851
0.296831
0.348687
0.305772
0.190735
0.374913
0.307560
0.288486
0.341535
0.263453
0.402927
0.236630
0.309944
0.367761
0.272989
0.318885
0.392795
0.384450
0.404716
0.127554
0.358820
0.340939
0.265837
0.400543
0.348687
0.423789
0.386834
0.516772
0.362992
0.425577
0.472665
0.449419
0.466704
0.396967
0.403523
0.550747
0.489950
0.398755
0.564456
0.422597
0.362992
0.601411
0.719428
0.627637
0.787973
0.559688
0.557899
0.645518
0.782609
0.731945
0.704527
0.660419
0.699759
0.843406
0.906587
1.148582
1.161695
1.329780
1.324415
1.723766
6.711483
21.396875
80.925822
170.491934
357.685685
554.456711
828.001499
973.866582
1015.712023
947.636962
748.140812
549.536943
308.922529
177.970529
73.957443
34.514666
11.291504
5.392432
4.409552
4.403591
4.224777
4.207492
4.212856
4.404783
5.084872
5.853772
8.288622
10.688901
15.168786
##ZVALUE=375
0.258684
0.293851
0.290871
0.207424
0.413656
0.300407
0.127554
0.213981
0.249743
0.363588
0.329614
-0.031590
0.254512
0.261664
0.344515
0.265837
0.258684
0.287890
0.304580
0.178814
0.237823
0.140667
0.397563
0.222921
0.228882
0.234842
0.299811
0.412464
0.422597
0.326633
0.269413
0.434518
0.376701
0.350475
0.440478
0.331998
0.296831
0.436902
0.313520
0.510812
0.501871
0.511408
0.450611
0.410676
0.491738
0.499487
0.494719
0.440478
0.451803
0.525713
0.436902
0.510812
0.481606
0.617504
0.733733
0.541806
0.619888
0.773668
0.588894
0.587702
0.699759
0.819564
0.939965
0.844598
0.995994
1.057982
1.051426
1.282692
1.476407
3.531575
11.128783
43.306947
104.422569
267.305970
441.160798
699.980855
866.668820
977.391601
962.730646
808.300972
637.517571
396.404862
253.681540
122.772455
63.014627
20.905733
8.072853
4.509687
4.559755
4.613996
4.720688
4.889965
5.142689
5.594492
5.849600
6.622672
##ZVALUE=380
0.257492
0.345707
0.162721
0.396967
0.208616
0.146627
0.335574
0.205636
0.139475
0.244975
0.381470
0.215769
0.222921
0.166893
0.208616
0.271797
0.245571
0.346899
0.059605
0.392795
0.137687
0.365973
0.403523
0.310540
0.345707
0.339746
0.390410
0.414848
0.233650
0.243783
0.278950
0.405908
0.363588
0.471473
0.359416
0.431538
0.426769
0.409484
0.525713
0.428557
0.439882
0.487566
0.412464
0.455976
0.440478
0.406504
0.473857
0.684857
0.541806
0.538826
0.557899
0.653863
0.489950
0.447631
0.550747
0.481606
0.512600
0.503659
0.801682
0.706911
0.607967
0.507832
0.686646
0.719428
0.742674
0.860691
0.992417
0.993609
1.146793
1.299977
1.284480
2.521873
6.266832
29.971600
77.701807
207.704902
355.426669
595.629811
784.845948
952.890515
971.760750
856.453776
710.785985
499.447584
340.183973
174.027681
93.383789
34.478903
14.288425
5.610585
5.190969
5.090833
5.329847
5.797744
5.768538
6.268620
##ZVALUE=385
0.273585
0.217557
0.369549
0.275970
0.061989
0.273585
0.288486
0.169873
0.119805
0.207424
0.230670
0.346899
0.433922
0.262856
0.210404
0.358820
0.188947
0.207424
0.221729
0.321865
0.130534
0.204444
0.291467
0.229478
0.298619
0.351667
0.289679
0.227690
0.336766
0.471473
0.356436
0.504851
0.387430
0.227690
0.519753
0.530481
0.703931
0.586510
0.534654
0.411868
0.539422
0.561476
0.672936
0.650883
0.461936
0.511408
0.526905
0.566840
0.568628
0.607967
0.432730
0.379682
0.629425
0.495911
0.473857
0.650883
0.802875
0.466704
0.629425
0.790954
0.539422
0.695586
0.581741
0.575781
0.623465
0.684857
0.730753
0.855923
0.995994
1.092553
1.123548
1.318455
1.417994
1.538992
3.344417
16.302466
45.036674
132.317543
258.718729
495.837927
695.906878
909.859538
976.455808
942.908525
828.533769
613.199472
435.906649
243.321657
143.823624
63.153505
26.653409
8.142591
5.594492
5.715489
5.642772
5.937815
##ZVALUE=390
0.197887
0.234842
0.262856
0.274777
0.242591
0.295639
0.178814
0.307560
0.202656
0.282526
0.232458
0.124574
0.068545
0.259876
0.394583
0.255704
0.218749
0.256896
0.263453
0.107884
0.192523
0.324845
0.272989
0.184774
0.259876
0.244975
0.242591
0.386834
0.295639
0.266433
0.332594
0.327826
0.524521
0.338554
0.390410
0.471473
0.514984
0.525713
0.482798
0.485778
0.511408
0.576973
0.727773
0.461936
0.571609
0.577569
0.501871
0.530481
0.607967
0.491738
0.687838
0.681877
0.603795
0.589490
0.452995
0.593662
0.620484
0.458956
0.619888
0.630617
0.665784
0.661612
0.610948
0.603795
0.595450
0.743866
0.729561
0.612736
0.752807
0.924468
0.965595
1.262426
1.168847
1.419783
1.286864
1.427531
1.922846
8.414984
26.505589
93.313456
197.342634
410.634875
592.284799
819.000006
953.806639
1013.205647
949.198008
759.523511
581.424832
356.289744
212.002993
91.990829
43.757558
13.813972
7.098913
6.000996
##ZVALUE=395
0.312924
0.300407
0.236630
0.159740
0.299811
0.213981
0.224710
0.346899
0.302792
0.221729
0.367761
0.267625
0.151992
0.280738
0.306964
0.190735
0.227690
0.444651
0.297427
0.242591
0.237823
0.230670
0.228882
0.187755
0.183582
0.349879
0.334978
0.382662
0.389814
0.350475
0.454783
0.475645
0.534654
0.508428
0.518560
0.529885
0.543594
0.497699
0.682473
0.525713
0.642538
0.496507
0.632405
0.623465
0.551939
0.546575
0.598431
0.644922
0.742674
0.513792
0.567436
0.723600
0.622869
0.685453
0.713468
0.624657
0.735521
0.783801
0.595450
0.711679
0.708699
0.563860
0.749826
0.591874
0.685453
0.729561
0.819564
0.802875
0.789762
0.987649
1.005530
1.179576
1.054406
1.254678
1.197457
1.234412
1.139641
1.290441
1.641512
5.218983
17.098784
64.937472
136.858821
296.502709
471.963882
749.330521
933.859944
1015.718579
1015.718579
905.420780
721.549392
455.488563
295.594931
145.756602
122.239590
25.756955
##ZVALUE=400
0.299811
0.239611
0.198483
0.183582
0.096560
0.218749
0.250936
0.257492
0.154972
0.192523
0.105500
0.239611
0.073910
0.255704
0.356436
0.248551
0.188947
0.104904
0.161529
0.115633
0.288486
0.227690
0.230670
0.275970
0.129938
0.396967
0.202656
0.111461
0.361800
0.349879
0.400543
0.408888
0.392795
0.345707
0.327826
0.355840
0.489950
0.495911
0.620484
0.655651
0.518560
0.394583
0.574589
0.651479
0.631809
0.568628
0.535846
0.695586
0.532866
0.480413
0.637770
0.641942
0.618696
0.410676
0.631809
0.609756
0.474453
0.529885
0.654459
0.617504
0.691414
0.711679
0.812411
0.645518
0.604987
0.902414
0.856519
0.899434
0.994802
1.010895
0.988841
1.054406
1.004934
0.963807
1.034737
0.919700
0.855923
1.165867
1.137853
1.101494
1.420975
2.803802
8.979440
33.472776
77.615976
197.729468
341.803432
570.975542
742.450953
902.201533
943.603516
856.605768
712.587833
481.347442
321.776867
170.707703
##END
