##TITLE=FDDW02
##FORMAT=SPECTACLE-ASCII V-1.2
##DATA TYPE=ULTRAVIOLET SPECTRUM
##SECOND TYPE=ULTRAVIOLET SPECTRUM
##DATE=02/28/18
##TIME=14:50:54
##SPECTROMETER/DATA SYSTEM=SPECTACLE
##XUNITS=NM EM
##YUNITS=ENERGY
##YFACTOR=1
##FIRSTX=220
##LASTX=410
##NPOINTS=96
##3DDATA=Equidistant
##ZUNITS=NM EX
##FIRSTZ=210
##LASTZ=400
##ZPOINTS=39
##XYDATA=(Y..Y)
##ZVALUE=210
18.129945
15.280843
13.173819
13.078451
10.963678
10.854602
9.983778
7.511973
6.916523
4.619956
4.229546
3.166795
2.333522
2.305508
2.171993
2.195835
2.447963
2.542734
2.598763
2.421737
2.438426
2.859831
2.963543
3.676414
4.751682
6.481409
8.711815
10.090470
13.390779
16.770959
19.966960
24.399757
25.703907
26.705861
29.376745
29.448867
30.100942
30.268431
30.946732
30.128956
28.849840
25.435686
26.531816
22.831559
22.189617
21.137595
19.953847
19.594431
18.032789
18.021464
17.086864
17.787814
15.746951
15.504956
15.006661
16.252995
13.716817
14.390945
14.032722
13.354421
14.497638
13.266802
12.029409
12.639761
11.886954
11.950731
11.892915
12.457967
12.155771
13.395548
13.330579
14.828444
16.080737
18.052459
16.736984
18.934608
17.851591
19.539595
17.572641
19.286871
17.284751
15.759468
14.711618
13.100505
10.633469
9.275675
7.315874
7.504821
8.731484
8.235574
12.718439
15.053749
18.906593
23.609996
29.350519
34.782887
##ZVALUE=215
46.636462
47.609806
38.075447
27.901530
25.108457
18.453598
16.869903
16.265512
16.336441
14.978647
12.224913
9.676814
7.318854
4.953742
4.503727
3.069639
2.903938
3.184676
2.744794
2.996922
2.685785
3.364682
3.310442
3.856421
4.752874
7.804632
9.813905
12.549758
16.403794
21.155477
26.639700
28.647780
32.377839
33.867955
35.123825
37.972927
35.001636
37.014484
34.918785
34.238696
34.174919
30.576587
31.769872
28.711557
29.084682
23.728609
24.065971
23.713708
22.679567
21.679997
20.938516
19.363761
18.728971
18.750429
17.569661
17.145872
16.093850
17.227530
16.246438
17.372966
17.595887
15.992522
14.920831
14.344454
13.851523
12.573600
14.216900
13.200641
14.657974
14.377832
14.144778
16.757846
16.648769
17.281771
19.384623
18.661618
20.435452
20.599961
20.390749
19.059777
18.295646
14.979839
14.549494
13.601780
10.456443
9.610653
7.898808
7.774830
6.726980
5.710721
6.480813
6.197691
6.227493
7.507801
9.116530
13.545752
##ZVALUE=220
103.046894
104.231834
95.316768
85.804462
73.658824
53.754449
39.718747
31.274557
30.400753
28.113723
27.337670
25.591850
22.329688
19.298792
14.911890
10.893941
7.081628
4.629493
4.313588
3.584623
3.711581
3.583431
3.822446
4.818439
5.482435
8.497834
11.648536
17.008781
18.089414
23.621917
28.914809
34.871697
35.713911
41.894913
41.034818
43.245554
42.066574
44.098496
41.203499
43.637753
39.688945
36.298633
38.616657
34.208894
33.208728
30.952692
28.654933
27.514696
26.413798
24.497509
24.642944
22.897720
23.171902
21.004677
21.497607
20.516515
21.363497
19.506812
19.594431
19.461513
19.502640
17.970800
19.138455
17.139912
17.976761
17.345548
16.885996
14.615655
15.995502
16.495585
17.953515
16.269684
19.825697
18.190742
20.281672
21.415949
20.703673
18.672943
20.058751
19.775629
18.226504
18.230677
16.662478
13.091564
13.208985
11.088848
9.134412
8.590817
7.605553
8.169413
7.885695
8.179545
7.890463
6.636977
6.459951
6.785989
##ZVALUE=225
127.313733
133.773685
155.273676
180.437565
177.273750
159.027576
135.331750
97.885728
75.977445
55.250525
43.390989
42.619705
43.270588
41.916966
38.229823
35.491586
26.367903
20.778775
14.337897
11.041760
6.502867
4.907846
4.110932
5.863905
6.211996
7.915497
11.213422
15.721917
18.393993
22.793412
26.741624
33.312440
35.426617
41.443706
40.688515
42.280555
42.444468
42.567849
44.332743
41.305423
39.138794
35.366416
35.789609
33.907890
33.646822
32.406449
30.201674
27.148724
26.925802
27.484894
27.755499
26.731491
25.466681
24.981499
25.319457
24.522543
24.060607
23.561716
23.191571
22.088885
22.388697
22.750497
22.100806
22.286773
21.530986
21.839738
20.221472
19.442439
19.033551
21.372437
22.635460
20.092726
22.077560
21.379590
22.658706
20.435452
21.156669
20.640492
19.444823
19.467473
18.138885
16.721487
15.427470
13.908744
12.914538
11.657476
11.334419
9.320974
9.845495
10.149479
9.013414
9.175539
8.761883
8.866787
8.128881
7.743835
##ZVALUE=230
84.854960
94.654560
135.819912
211.947560
252.256989
298.439860
312.951803
284.905434
246.456861
201.552510
135.959983
96.315742
69.575906
61.053634
64.296722
64.844489
63.235760
60.149431
54.526925
41.575432
31.066537
19.808412
14.433861
9.029508
7.978678
8.126497
8.778572
13.090968
13.867617
17.908812
20.116568
21.183491
25.590658
28.995872
28.264523
30.135512
31.521916
32.912493
28.668642
30.984879
27.261972
27.268529
28.081536
27.053952
24.945736
25.874972
25.679469
25.061965
25.567412
25.176406
23.396611
25.094748
25.175810
28.218627
25.917888
28.088689
28.879642
27.208924
28.213859
28.891563
27.968884
30.577779
27.577877
27.066469
26.469827
28.311610
26.145577
25.067925
26.316643
25.319457
26.457906
25.725961
26.477575
25.409460
25.186539
25.310516
22.125840
23.783445
21.336675
20.121932
20.158887
19.114614
18.272996
15.331507
14.824867
14.708638
13.210773
12.572408
12.423992
10.162592
11.894703
10.631680
10.750890
11.315942
10.569692
10.006428
##ZVALUE=235
16.930699
20.560622
53.605437
97.525716
191.634893
272.094607
385.192633
451.558828
484.183431
453.710556
382.221937
304.945707
234.755874
156.885982
117.301941
92.944503
91.076493
90.551972
92.880726
92.488527
84.266663
75.279474
55.287480
39.478540
26.984811
18.495917
13.670921
11.259913
10.191798
12.693405
13.785958
13.887882
15.520453
16.286969
19.293427
19.563437
19.347668
19.448996
19.063950
19.940734
21.294951
20.612478
20.492673
21.230578
21.490455
20.135641
20.675659
20.189881
23.407936
23.260713
26.086569
28.522611
28.459430
28.348565
29.296875
32.276511
33.637881
36.062598
35.766959
36.239624
38.231611
36.687851
36.494732
36.310554
35.684705
34.223795
33.529997
34.097433
33.526421
32.861829
33.513904
33.739805
31.922460
33.164620
31.341910
31.794906
31.826496
30.108690
29.681921
25.019646
23.190975
24.183989
19.749999
20.334721
19.325614
16.223788
15.919805
16.204715
15.231967
15.525818
14.887452
13.401508
14.042854
12.269616
13.442636
11.227727
##ZVALUE=240
1.335740
1.998544
4.644990
17.750859
42.259693
93.705654
164.484978
279.722810
385.282636
473.515987
548.368692
544.924736
484.036803
397.748947
281.149745
194.337964
127.327442
98.740458
94.139576
99.846721
111.929774
118.388534
113.241673
104.552507
85.517764
63.740611
50.572753
31.571984
24.460554
16.901493
13.622642
13.091564
13.273954
12.872815
13.066530
13.795495
13.826489
14.198422
16.124845
16.322732
16.119480
16.968846
16.567707
16.223788
14.988780
17.521977
16.431808
18.896461
20.858645
23.696423
25.028586
28.340816
29.274821
31.366944
31.568408
34.370422
36.577582
36.106706
38.714409
41.335821
38.801432
42.045712
41.496754
38.098693
39.676428
38.010478
38.924813
37.937760
37.968755
35.569668
35.467744
34.938455
34.824610
34.414530
33.889413
32.329559
32.129884
31.238794
29.615760
27.368665
27.217865
23.323894
22.189617
22.010803
22.562742
19.555688
19.473433
16.237497
16.925931
14.592409
15.902519
16.230941
15.545487
15.661716
13.072491
12.698770
##ZVALUE=245
1.156926
1.431704
1.384616
1.630783
3.075600
10.408759
29.849410
84.491968
154.025555
284.421444
410.192013
557.609797
645.220876
673.836470
639.472008
518.985987
413.001776
267.784595
179.623961
115.442872
98.637938
98.286867
114.726424
125.813484
132.529736
131.392479
112.558603
97.282529
75.326562
58.974624
40.153861
28.185844
22.119880
17.774701
16.263723
15.171766
16.836524
16.527772
16.684532
16.928911
17.850995
17.487407
16.900897
18.010736
17.666817
16.719699
18.587708
20.798445
23.437738
23.112893
25.048852
28.199553
29.821992
30.296445
31.147599
33.964515
33.662915
34.543872
37.314892
37.298799
39.862990
39.433837
38.513541
39.188862
38.308501
35.461783
36.333799
35.602450
36.668777
35.071969
34.666657
33.375621
33.541918
31.639934
31.075478
30.118823
30.972958
26.959777
27.926564
26.928782
26.090741
22.649765
21.071434
19.284487
19.832850
19.110441
17.837882
17.149448
15.826821
14.672875
13.709664
12.904406
13.412833
12.260675
13.392568
13.537407
##ZVALUE=250
1.174808
0.961423
1.066923
1.108646
1.300573
1.657605
2.086759
5.655885
24.291873
57.518482
145.263672
254.303813
383.538604
577.631593
701.381564
794.293880
784.307718
676.406622
563.653708
381.368995
260.325670
162.366629
102.362633
95.677972
107.600689
122.515559
140.392780
144.832730
140.168667
129.516721
110.027790
84.671974
67.869425
45.375824
33.584833
26.118755
22.400618
21.099448
20.735860
20.649433
19.021630
21.728873
19.908547
20.150542
20.083785
19.857883
18.993616
20.403862
20.493865
22.917986
22.838712
26.713610
26.525855
27.085543
29.049516
29.182434
30.525923
31.257868
32.134652
31.892657
33.231974
32.194853
31.641722
31.018853
30.984879
29.330850
30.813813
28.150678
30.004978
27.767420
27.458668
29.103756
26.803613
26.877522
25.636554
25.383830
24.660826
23.426414
23.134947
20.239949
20.129681
17.859936
17.354488
15.745759
15.406609
14.443994
14.526844
13.823509
13.292432
13.325810
11.941791
10.916591
11.444688
10.575652
11.790991
10.041595
##ZVALUE=255
0.968575
0.892878
1.121759
1.005530
1.237988
1.032948
1.333952
1.225471
1.746416
3.129840
14.288425
36.273003
78.667998
190.371871
315.792561
533.911586
684.923530
852.195024
917.896032
880.441666
770.828724
620.109439
398.925543
262.001753
146.395564
110.680461
95.869899
107.237697
132.930875
146.422982
154.974461
151.230693
140.178800
114.507675
95.292926
70.046782
54.097772
39.989948
33.084750
26.692748
26.865602
25.133491
25.941730
23.551583
23.328662
23.335814
22.567511
22.276640
22.385716
22.682548
23.922920
25.323629
24.806857
24.341941
25.650859
24.656653
24.889708
26.408434
25.404692
27.384758
27.090907
26.261806
26.627779
25.017858
23.732781
24.413466
24.344921
22.925735
22.997856
22.034645
22.053719
22.209883
21.284819
20.975471
20.582676
19.031763
18.055439
17.752647
17.190576
15.645623
14.519691
14.341474
13.041496
12.697577
12.145638
11.172891
10.916591
11.336803
10.575652
10.064840
9.922981
9.884834
9.050965
9.667873
8.900762
9.524822
##ZVALUE=260
0.815988
0.948906
1.020432
0.718832
1.193881
0.859499
1.011491
1.207590
1.142621
1.143813
1.204610
1.683831
4.858971
20.923615
49.889684
125.505924
217.637420
383.939743
529.405475
720.356703
826.950669
857.150555
781.434774
654.478669
443.783998
306.814909
182.885528
123.786926
88.903904
94.181895
110.870004
140.272975
152.896643
166.606903
164.885521
147.822499
129.303932
100.586414
83.826780
60.095787
49.219728
37.823915
31.984448
29.499531
27.929544
27.013421
27.750731
26.946664
26.909709
26.563406
26.494861
25.607944
26.626587
25.936961
26.049614
25.637746
25.942922
26.462674
26.629567
25.858879
26.236773
25.946498
25.417805
24.361610
23.368001
23.457408
22.405982
21.569729
22.500753
21.136999
21.108985
20.225644
19.242764
18.148422
17.278790
16.483665
16.211867
15.422702
14.720559
13.773441
13.627410
12.431741
11.880994
11.180639
10.855794
9.923577
9.597540
9.651780
9.454489
8.727908
9.179711
8.880496
8.938909
8.090734
7.969737
8.147955
##ZVALUE=265
0.754595
0.723600
0.777841
0.891685
0.724792
0.868440
0.871420
0.897646
0.908971
0.869632
1.062751
1.235604
1.132488
1.261830
2.887845
13.659596
33.058524
87.475777
162.435770
317.119956
457.694530
600.330830
741.942525
766.937733
701.822639
608.766675
458.336473
325.259566
193.818808
132.174492
99.580884
87.537766
98.938942
127.436519
148.486495
171.594620
178.622603
171.948671
157.754421
132.892728
110.330582
84.880590
66.470504
50.244927
38.745999
34.450889
32.058954
30.328631
29.249787
28.802752
30.701756
29.122829
28.434992
28.940439
28.088689
29.407740
28.231740
28.879642
28.784871
29.405951
28.044581
28.861761
28.456450
27.356744
26.402473
25.813580
24.060607
24.148822
23.873448
22.211671
22.094846
21.357536
20.862818
19.651651
18.490553
17.834902
16.603470
15.485883
15.484691
15.271902
13.913512
12.839437
12.147427
11.946559
11.306405
10.292530
10.078549
10.897517
9.290576
8.728504
8.920431
9.019971
8.569956
8.247495
8.058548
8.616447
##ZVALUE=270
0.650883
0.712872
0.682473
0.713468
0.889897
0.723600
0.689626
0.636578
0.778437
0.905991
1.005530
1.003742
0.946522
0.918508
1.048446
1.487732
1.563430
5.788803
18.673539
60.540438
126.429796
222.135782
396.682620
538.557768
684.874654
740.150809
714.116693
641.048551
502.800941
377.096534
260.054469
148.689747
100.830793
76.644421
82.941651
108.745694
130.589604
159.297585
172.104836
180.157423
177.106857
157.311559
137.243867
106.459856
84.871650
59.946775
48.914552
37.846565
34.306645
31.720996
31.331778
31.450987
31.766891
31.891465
30.952692
30.771494
31.973720
31.152964
32.490492
33.231974
32.809973
32.125711
31.927824
29.612780
30.005574
28.945804
27.513504
27.101636
26.374459
24.694800
24.373531
23.533702
22.942424
21.208525
20.814538
18.950701
19.288659
18.367767
17.174482
16.374588
15.278459
13.155937
13.413429
12.808442
12.307763
11.691451
11.403561
10.963678
10.651946
9.830594
9.678602
9.680986
9.054542
8.956790
8.803606
9.204745
##ZVALUE=275
0.699759
0.803471
0.718832
0.674725
0.612736
0.497699
0.737906
0.781417
0.674725
0.788569
0.908971
0.673532
0.836849
0.966787
0.885725
1.156926
0.989437
1.133680
1.537800
3.076792
11.257529
32.591820
101.144910
192.672610
368.822813
505.780578
658.653975
738.262534
764.521956
713.774562
620.122552
453.849435
325.622559
182.702541
117.155910
73.718429
67.970753
78.900456
99.445581
127.288699
146.470666
164.222717
171.187520
164.347887
148.962736
120.834708
100.698471
75.931549
61.039925
46.745539
40.055513
34.302473
32.191873
32.892823
32.836795
32.828450
34.486651
34.558773
35.805702
36.215782
36.145449
34.806728
34.559965
33.982992
33.509731
31.996965
31.288862
31.448603
30.778646
29.402971
27.690530
27.087927
25.890470
24.271607
23.563504
21.766424
20.458698
20.165443
18.785596
17.894506
16.417503
15.735626
14.735460
14.444590
13.799667
12.573600
12.628436
11.696815
11.265874
10.994673
10.686517
10.392666
9.981990
9.710789
9.787679
9.092689
##ZVALUE=280
0.628829
0.705719
0.614524
0.543594
0.779629
0.539422
0.582933
0.798702
0.654459
0.667572
0.750422
0.743866
0.667572
0.818968
0.722408
0.983477
0.865459
0.945926
1.026988
1.177788
1.277924
1.591444
6.591678
23.563504
83.393455
161.412954
309.199691
454.622507
637.580752
740.149021
782.439709
755.865574
667.888522
499.521494
367.308855
212.984681
132.543445
70.621967
51.139593
53.540468
65.602660
90.929866
112.827420
137.844682
149.493814
155.314803
150.864720
136.732459
120.315552
93.812943
76.517463
58.553815
47.861934
39.155483
35.548806
34.948587
36.002994
37.615895
37.982464
39.197803
38.752556
39.091706
38.391948
38.397908
37.429929
37.179589
35.407543
35.550594
34.974813
33.149719
31.550527
29.784441
28.616786
27.841926
26.731491
24.914742
24.117827
22.210479
21.380782
19.110441
18.705726
18.207431
17.274618
15.929937
14.955997
14.517903
13.366938
12.558699
12.399554
12.558699
11.638999
11.470914
10.766983
10.467768
10.249615
10.121465
##ZVALUE=285
0.539422
0.608563
0.530481
0.515580
0.607967
0.397563
0.541806
0.501871
0.755787
0.424981
0.636578
0.655651
0.736713
0.678897
0.794530
0.742674
0.740886
0.774860
0.886917
0.753999
0.800490
1.007915
1.275539
1.455545
3.597736
11.708736
43.042898
98.929405
229.575634
365.779996
511.221886
689.501762
768.876672
783.581734
715.349913
563.578010
435.331464
269.787908
172.904730
86.856484
49.853921
33.542514
38.011670
56.513548
74.795485
104.364753
123.307705
141.225457
149.930716
149.352551
138.916969
121.098757
105.151534
81.678629
67.213774
52.899718
47.907829
44.084787
44.726729
45.384765
44.925809
45.711994
44.892430
43.815970
43.542981
42.283535
42.441487
41.349530
39.826632
39.017797
37.087798
35.135746
33.993721
31.013489
30.780435
28.233528
27.724504
25.750995
24.345517
22.870898
22.002459
20.730495
19.171834
18.116832
17.492771
16.744733
15.595555
14.621615
14.193654
13.751984
12.861490
12.587905
11.752844
11.653900
11.241436
11.158586
##ZVALUE=290
0.501871
0.423789
0.621676
0.498891
0.589490
0.389814
0.362992
0.485778
0.431538
0.416636
0.475645
0.397563
0.526905
0.749826
0.525713
0.560880
0.686646
0.696778
0.903606
0.728965
0.787973
0.835657
0.978708
0.985861
1.038909
1.038909
1.470447
4.680753
23.340583
58.994889
120.727420
266.137719
414.200425
613.521934
719.680786
771.912932
736.680031
612.108707
493.170619
325.413942
215.334892
109.825730
60.111880
30.103922
24.787784
36.204457
50.307512
75.175762
96.768737
125.222802
143.772960
155.119896
157.859921
146.392584
132.188797
108.147860
92.359781
76.269507
67.292452
58.956742
55.283904
53.234696
52.307844
51.153898
49.754977
49.456954
48.698783
47.178864
46.567917
44.324994
43.290854
40.826797
39.206743
36.369562
35.182834
31.872988
31.834841
29.427409
27.946830
26.721954
24.782419
22.819638
22.245646
20.054579
19.803643
18.362999
17.195940
16.352534
16.262531
15.563965
14.641881
13.509989
13.034940
12.523532
11.934638
12.204647
##ZVALUE=295
0.492930
0.485778
0.534654
0.503659
0.468493
0.623465
0.668764
0.464916
0.443459
0.423789
0.526905
0.479817
0.538826
0.496507
0.501871
0.618696
0.525713
0.625849
0.665784
0.799894
0.600815
0.731945
0.833869
0.735521
0.739694
1.014471
0.976920
1.282692
1.156926
2.097487
7.487535
32.815933
75.983405
186.086893
302.022696
478.765965
596.568584
693.884492
706.672668
636.659861
542.384982
381.734967
264.875889
140.876770
79.352856
34.573674
23.683906
26.390553
37.030578
57.691932
78.553557
106.459856
127.076507
152.238607
160.216689
160.195827
154.289603
136.203766
120.882988
101.001859
87.497830
72.551966
66.072941
60.200691
56.656599
53.822994
52.848458
51.808953
51.019788
48.647523
46.363473
44.464469
42.212605
39.503574
37.731528
36.220551
34.069419
33.166409
30.793548
29.088855
27.468801
24.762750
23.461580
22.242665
20.895600
20.185709
19.236803
17.571449
17.083883
16.064644
15.106797
14.624596
13.889670
13.176799
12.781620
12.009740
##ZVALUE=300
0.408888
0.378489
0.430942
0.407696
0.410676
0.533462
0.388622
0.429749
0.477433
0.480413
0.565648
0.656843
0.501871
0.566840
0.506639
0.494719
0.524521
0.624657
0.570416
0.575781
0.651479
0.618696
0.624657
0.703931
0.739694
0.859499
0.808835
0.948906
0.857711
0.854731
1.170635
1.220703
4.394650
16.006827
54.745674
106.994510
221.013427
333.849788
490.071774
580.985546
649.263859
646.469593
559.843779
459.771752
305.607915
202.189684
106.388927
62.079430
33.922791
28.636456
36.728978
47.366619
67.222714
85.226893
112.815499
132.649541
155.105591
164.917707
167.128444
161.786675
143.117905
126.023889
105.670691
90.109706
74.171424
65.171719
58.385730
55.684447
51.759481
50.686002
47.332644
46.231747
42.896867
40.844679
38.345456
36.953688
34.183860
33.685565
30.114651
29.723644
26.974678
25.540590
24.471879
23.138523
21.599531
20.807981
18.819571
18.363595
17.121434
16.034842
15.161633
14.703870
13.811588
12.826920
11.966825
12.178421
##ZVALUE=305
0.393987
0.441670
0.358820
0.410676
0.321865
0.378489
0.295639
0.470877
0.443459
0.346899
0.555515
0.446439
0.513792
0.566840
0.471473
0.429749
0.476837
0.543594
0.533462
0.552535
0.561476
0.446439
0.594854
0.632405
0.640750
0.592470
0.635982
0.684857
0.654459
0.955462
0.685453
0.898838
1.191497
1.289845
1.886487
10.551810
29.788613
87.326765
156.930685
289.685726
404.608846
545.855761
619.522929
643.906593
599.359870
478.037596
373.404622
240.270495
156.165957
82.672834
51.606894
38.315654
36.849976
45.210719
53.472519
73.079467
90.082884
114.757419
134.328604
154.315829
161.576867
162.206888
151.313543
133.987665
117.534995
94.928741
80.078840
65.379739
56.641698
50.357580
46.147704
42.869449
39.865971
38.560629
36.176443
33.690929
32.110810
30.359626
28.527975
26.702881
25.904775
24.167895
22.561550
21.156669
20.139813
18.739700
18.068552
17.015934
16.307831
14.967918
14.215708
13.462901
13.000965
12.309551
11.385679
11.169910
##ZVALUE=310
0.429749
0.413656
0.416636
0.472665
0.372529
0.401735
0.425577
0.398755
0.260472
0.396967
0.463724
0.521541
0.414848
0.493526
0.459552
0.300407
0.352859
0.415444
0.484586
0.506639
0.411868
0.397563
0.539422
0.466704
0.474453
0.572801
0.683665
0.539422
0.679493
0.727773
0.798702
0.823736
0.869632
0.824928
1.078844
1.118779
1.169443
4.461408
15.017986
51.069856
102.569461
211.694837
322.806835
472.158790
567.714572
633.488894
622.016788
539.999008
448.240638
310.390592
216.105580
121.271610
76.904893
46.352744
37.380457
38.839579
44.090748
55.142641
67.149997
84.602833
101.596713
122.597814
133.567452
144.045949
143.877864
135.254860
122.583508
102.321506
86.027980
66.621900
55.876970
44.158697
37.846565
33.084750
30.481815
28.119683
26.772618
25.218725
23.895502
22.282600
21.348000
20.218492
19.102693
17.828941
16.898513
16.341805
15.500784
14.485717
13.899803
12.963414
12.972951
11.838675
11.114478
10.593534
10.321736
10.009408
##ZVALUE=315
0.364780
0.350475
0.429749
0.465512
0.287890
0.317693
0.204444
0.456572
0.286698
0.401735
0.343919
0.541806
0.472665
0.447631
0.424981
0.312924
0.353456
0.390410
0.419617
0.478625
0.461936
0.727773
0.676513
0.493526
0.539422
0.743866
0.632405
0.688434
0.471473
0.647902
0.728965
0.652671
0.746846
0.721812
0.827909
0.768900
0.793934
1.107454
0.934601
1.803637
9.304881
27.286410
81.023574
146.940947
277.348757
392.341614
531.670451
599.700809
629.159808
590.885878
484.035611
381.892920
246.758461
161.815882
86.778998
53.889751
35.290718
33.084750
35.645962
39.983988
46.736002
56.580901
71.982741
86.034536
105.071664
117.688775
127.466917
126.635432
118.584633
105.589628
84.468722
70.890784
52.692890
41.053891
30.939579
25.871992
22.293925
20.502806
18.881559
18.305779
16.943812
16.114712
14.773607
14.610887
13.962984
12.983680
12.497902
11.826754
11.334419
10.937452
10.637641
9.721518
9.461641
9.567738
9.189844
9.048581
##ZVALUE=320
0.690818
0.644922
0.456572
0.432730
0.474453
0.585914
0.544786
0.478625
0.555515
0.491738
0.712872
0.723600
0.684857
0.714660
0.742674
0.714660
0.599623
0.600815
0.589490
0.637770
0.656843
0.738502
0.633597
0.676513
0.637770
0.687838
0.672936
0.722408
0.709891
0.953674
0.817776
0.916719
0.840425
0.974536
1.004934
0.882745
0.920892
1.062751
0.884533
1.209974
1.346469
1.622438
3.715754
17.641783
45.322776
118.613839
197.669864
328.583717
437.014699
559.645891
610.062480
602.778792
542.158484
417.099595
310.862660
178.671479
109.484792
56.620836
35.126805
24.586916
23.433566
24.499893
26.611686
32.372475
39.576888
54.102540
67.871809
84.842443
97.634792
106.445551
107.168555
101.124644
89.175701
70.955753
56.380630
39.452910
30.159950
21.076798
17.195940
13.819933
12.359619
11.088848
10.842681
9.903908
10.124445
9.578466
9.462833
9.056926
8.564591
8.491874
8.156896
8.122921
7.776618
7.740855
7.943511
7.543564
##ZVALUE=325
0.565648
0.574589
0.502467
0.511408
0.576973
0.547767
0.532866
0.548959
0.654459
0.629425
0.673532
0.660419
0.727773
0.773668
0.625849
0.620484
0.526905
0.745654
0.478625
0.650883
0.591874
0.583529
0.666976
0.753999
0.557899
0.709891
0.797510
0.749826
0.642538
0.819564
0.718832
0.739694
0.780821
0.643730
0.760555
1.024604
0.751615
0.756979
0.887513
0.948906
0.917912
1.104474
1.151562
1.270771
2.192855
11.471510
29.983521
80.518723
144.242644
269.173980
375.634432
505.826473
572.424531
597.210526
554.368496
439.450741
333.930850
206.063986
127.713680
60.841441
32.782555
16.244650
12.253523
11.702776
12.212992
15.233755
19.520521
29.723644
40.190816
57.765841
70.201755
84.759593
91.191530
91.926455
85.966587
72.276592
59.657693
43.851733
32.044649
20.498633
14.789701
10.122657
8.514524
7.485747
6.683469
6.492734
6.660819
6.398559
6.358624
6.122589
6.285906
6.548762
6.301999
6.220937
6.080866
6.374717
##ZVALUE=330
0.399947
0.376701
0.223517
0.277758
0.333786
0.254512
0.223517
0.332594
0.348687
0.262856
0.388622
0.402927
0.288486
0.313520
0.353456
0.330806
0.323653
0.382662
0.333786
0.333786
0.483990
0.461936
0.488758
0.519753
0.458956
0.330806
0.428557
0.488758
0.453591
0.430942
0.390410
0.410676
0.477433
0.508428
0.607967
0.538826
0.615716
0.630617
0.610948
0.555515
0.584722
0.584722
0.756979
0.840425
0.873804
1.030564
1.321435
4.838705
15.494823
52.446723
100.562572
202.761889
299.905539
437.301993
520.550609
573.843718
557.187796
471.526980
374.676585
243.268609
157.464743
75.098872
39.684772
15.616417
8.708835
6.197691
6.357431
7.450581
9.364486
15.445948
22.359490
34.098625
47.214627
63.617826
74.703693
82.035661
82.965493
77.242851
67.456961
51.631927
40.012002
26.421547
19.206405
12.561679
9.052753
6.431937
5.718470
5.217791
5.236864
5.311966
5.224943
5.231500
5.404949
5.226731
5.480647
5.421638
##ZVALUE=335
0.207424
0.202656
0.249743
0.299811
0.408888
0.277758
0.336766
0.242591
0.275970
0.366569
0.233650
0.295639
0.249743
0.270605
0.219941
0.316501
0.257492
0.324845
0.331998
0.490546
0.382662
0.298619
0.252724
0.393987
0.437498
0.478625
0.398755
0.363588
0.436902
0.428557
0.572801
0.393987
0.472665
0.422597
0.484586
0.419617
0.500679
0.441670
0.580549
0.489950
0.741482
0.625849
0.725985
0.660419
0.788569
0.678897
0.688434
0.846982
0.972748
1.789927
9.914637
27.334690
76.128840
136.698484
252.160430
357.022882
483.946800
540.459752
552.779436
512.996912
403.517485
306.453705
182.324648
111.606717
48.350692
23.363829
8.927584
5.865693
5.232692
5.328655
6.345510
8.150935
13.376474
19.946694
32.420754
43.209791
58.303475
68.123937
76.658726
76.813698
71.493983
62.236786
49.468875
39.129853
27.445555
19.540787
12.642741
8.860826
6.573796
5.492568
5.274415
5.089641
5.003810
4.931688
5.155802
5.253553
##ZVALUE=340
0.236630
0.201464
0.228882
0.216961
0.379682
0.431538
0.358820
0.217557
0.376701
0.422597
0.176430
0.232458
0.252724
0.225902
0.367761
0.280738
0.159740
0.284910
0.246763
0.232458
0.477433
0.239611
0.359416
0.489950
0.429749
0.383854
0.434518
0.473857
0.419617
0.354648
0.481606
0.101924
0.381470
0.389814
0.458956
0.395775
0.353456
0.281930
0.410676
0.437498
0.529885
0.555515
0.569820
0.411868
0.667572
0.640750
0.578761
0.789762
0.817776
0.720620
0.865459
1.242757
3.814697
18.682480
46.064854
115.942955
193.712711
320.085883
414.568782
507.686734
538.650751
509.823561
443.695784
324.450731
230.816603
121.025443
67.307949
28.096437
12.528896
6.026626
5.180836
4.744530
4.872680
6.022453
7.775426
13.328791
19.542575
30.790567
41.376948
55.818558
64.934492
71.572661
71.510673
66.712499
59.757829
47.735572
38.314462
26.289821
19.412637
12.786984
8.888841
6.503463
5.589724
5.275607
4.999638
4.820824
##ZVALUE=345
0.344515
0.266433
0.290871
0.226498
0.390410
0.273585
0.304580
0.215769
0.357628
0.251532
0.284910
0.245571
0.363588
0.352859
0.287890
0.437498
0.263453
0.084639
0.237823
0.392795
0.182986
0.254512
0.246763
0.242591
0.358820
0.316501
0.407696
0.433922
0.328422
0.487566
0.134706
0.344515
0.304580
0.408888
0.453591
0.447631
0.326633
0.446439
0.480413
0.266433
0.512600
0.467896
0.424981
0.409484
0.608563
0.451803
0.588894
0.593662
0.609756
0.513792
0.713468
0.915527
0.699759
1.034737
1.936555
10.277629
29.749870
79.567432
139.286518
249.078870
342.442989
457.168818
507.127643
513.904691
466.879010
359.028578
266.289711
156.156421
89.476705
35.539865
16.549826
6.866455
5.101562
4.639626
4.283786
4.775524
5.174875
7.542968
10.979772
18.390417
26.848912
39.600730
49.077868
58.304667
63.990951
66.350698
64.240694
55.947900
48.363805
37.067533
28.155446
18.361807
13.542771
8.754730
7.198453
5.372763
##ZVALUE=350
0.265837
0.433922
0.304580
0.184774
0.391603
0.308752
0.255704
0.296831
0.198483
0.405908
0.335574
0.361800
0.150800
0.445843
0.318885
0.355840
0.267625
0.246763
0.149608
0.296831
0.235438
0.219941
0.258684
0.165701
0.252724
0.370741
0.356436
0.384450
0.424981
0.474453
0.308752
0.319481
0.285506
0.486970
0.405908
0.548959
0.430942
0.379682
0.341535
0.442863
0.390410
0.424981
0.424981
0.392795
0.582933
0.442863
0.513792
0.578761
0.602603
0.492930
0.671744
0.592470
0.715852
0.778437
0.780821
0.917912
1.171827
4.732609
15.992522
49.988627
96.527934
193.798542
280.830860
394.896865
460.531712
499.144793
475.518703
385.255814
297.155976
182.160735
110.092759
50.012469
24.182796
8.394718
5.377531
4.511476
4.380941
4.113913
4.357696
4.825592
6.628633
10.640621
15.640855
24.812818
32.240748
44.241548
52.090883
58.992505
60.447454
58.983564
53.838491
43.784976
36.420822
26.102662
19.483566
13.292432
##ZVALUE=355
0.332594
0.198483
0.282526
0.372529
0.113845
0.217557
0.287890
0.151992
0.167489
0.266433
0.180602
0.363588
0.206828
0.293851
0.211596
0.186563
0.272989
0.225902
0.244975
0.195503
0.424981
0.459552
0.408888
0.263453
0.260472
0.356436
0.159740
0.316501
0.281930
0.336766
0.237823
0.287890
0.362992
0.210404
0.428557
0.393987
0.336766
0.378489
0.346899
0.399947
0.408888
0.352859
0.339746
0.449419
0.560880
0.427961
0.529885
0.425577
0.406504
0.425577
0.461936
0.613928
0.518560
0.442863
0.616908
0.624657
0.831485
0.732541
1.150966
1.919866
9.781718
27.064681
72.462559
129.742622
235.668421
322.024822
420.165658
464.931726
460.869670
410.107970
310.405493
225.248933
120.925903
68.432689
29.067993
13.224483
5.760789
4.364848
4.046559
3.837943
3.926754
3.795624
4.631877
5.934834
8.923411
12.863874
20.687580
28.357506
38.642883
46.033859
52.899718
54.874420
53.843856
49.637556
41.405559
34.945607
##ZVALUE=360
0.167489
0.151992
0.105500
0.124574
0.303984
0.318885
0.197887
0.191927
0.282526
0.140667
0.361800
0.180602
0.329614
0.313520
0.335574
0.238419
0.245571
0.387430
0.415444
0.349879
0.390410
0.295639
0.327826
0.278950
0.385642
0.337958
0.387430
0.390410
0.425577
0.261664
0.427961
0.456572
0.386834
0.303984
0.370741
0.142455
0.247955
0.253916
0.314713
0.421405
0.374913
0.523925
0.399947
0.595450
0.518560
0.406504
0.268817
0.516772
0.416636
0.346899
0.410676
0.304580
0.405908
0.584722
0.577569
0.576973
0.606775
0.605583
0.529885
0.854731
0.681877
1.161695
3.609657
16.839504
41.273832
102.731586
169.419646
274.447799
359.360576
437.387824
455.853939
417.887568
351.487994
239.115953
162.474513
84.017515
44.162869
15.904903
7.512569
4.326701
4.005432
3.706813
3.918409
3.655553
3.410578
4.053712
4.987717
7.428527
10.389686
16.482472
22.968650
32.489896
39.615631
46.733618
49.853921
50.541759
##ZVALUE=365
0.166893
0.237823
0.302792
0.251532
0.274777
0.241995
0.179410
0.292659
0.180602
0.305772
0.218749
0.166893
0.046492
0.195503
0.262856
0.234842
0.235438
0.326633
0.354648
0.298619
0.401735
0.335574
0.337958
0.417829
0.152588
0.321865
0.298619
0.170469
0.266433
0.244975
0.151992
0.264645
0.446439
0.356436
0.494719
0.470877
0.315905
0.433922
0.295639
0.455976
0.355840
0.321865
0.400543
0.324845
0.346899
0.324845
0.298619
0.403523
0.426769
0.460744
0.384450
0.479817
0.473857
0.495911
0.401735
0.511408
0.517964
0.552535
0.421405
0.398755
0.549555
0.555515
0.783801
0.885725
1.867414
9.393692
25.506616
68.116784
124.811530
229.126811
306.485891
392.494798
432.523489
424.089432
372.477770
274.847746
195.598602
107.604861
59.660673
23.248792
10.532737
4.696846
3.855824
3.525615
3.456473
3.238916
3.113747
3.374815
3.472567
4.408956
5.857944
9.452701
13.247728
20.384789
26.889443
34.619570
##ZVALUE=370
0.225902
0.148416
0.377893
0.306964
0.303984
0.144839
0.162721
0.074506
0.274777
0.162721
0.223517
0.215769
0.280738
0.398755
0.235438
0.248551
0.484586
0.431538
0.259876
0.371933
0.251532
0.193715
0.169873
0.325441
0.264645
0.321865
0.261664
0.200868
0.344515
0.275970
0.358820
0.463724
0.442863
0.416636
0.226498
0.391603
0.293851
0.386834
0.373721
0.312924
0.485778
0.403523
0.498891
0.349879
0.380874
0.318885
0.374913
0.419617
0.423789
0.421405
0.347495
0.411868
0.280738
0.167489
0.206828
0.373721
0.346899
0.421405
0.505447
0.560880
0.536442
0.451803
0.593662
0.775456
0.852942
0.872612
1.113415
4.518628
15.481710
49.685836
93.364716
176.934600
257.579684
362.175703
409.159660
422.391891
388.987660
305.360556
226.039886
127.553940
72.803497
29.834509
14.511943
6.122589
4.103780
3.633499
3.555417
3.059506
3.228784
3.101826
3.073812
3.425479
3.690720
5.275607
7.783771
12.117624
##ZVALUE=375
0.239611
0.199676
0.320673
0.423789
0.303984
0.362992
0.125766
0.228882
0.232458
0.233650
0.231862
0.344515
0.228882
0.292659
0.237823
0.086427
0.183582
0.078678
0.218749
0.097752
0.291467
0.211596
0.290871
0.214577
0.329614
0.403523
0.495911
0.247955
0.364780
0.382662
0.314713
0.400543
0.513792
0.318885
0.462532
0.353456
0.435710
0.478625
0.546575
0.387430
0.450611
0.413656
0.315905
0.452995
0.343919
0.431538
0.428557
0.457764
0.468493
0.454783
0.585914
0.493526
0.436902
0.542998
0.402927
0.462532
0.492930
0.436902
0.429749
0.442863
0.491738
0.561476
0.520945
0.533462
0.626445
0.596642
0.719428
0.741482
0.629425
2.306700
7.983446
28.660893
62.724948
139.258504
214.729905
318.490863
380.039811
417.459607
404.425859
332.928896
258.245468
159.802437
102.371573
51.397681
26.149750
9.191632
4.635453
3.266931
3.290772
3.116727
2.999902
3.013611
2.999902
2.953410
3.058910
3.587604
##ZVALUE=380
0.279546
0.306964
0.206828
0.217557
0.298619
0.171661
0.203848
0.198483
0.219941
0.217557
0.368953
0.233650
0.130534
0.219941
0.354648
0.155568
0.344515
0.232458
0.309944
0.162721
0.228882
0.227690
0.376701
0.299811
0.336766
0.319481
0.341535
0.262856
0.477433
0.487566
0.443459
0.513792
0.612736
0.515580
0.525713
0.574589
0.754595
0.692606
0.676513
0.668764
0.761747
0.512600
0.590682
0.541806
0.451803
0.494719
0.558496
0.472665
0.634789
0.489950
0.509620
0.509620
0.426769
0.553727
0.452995
0.489950
0.447631
0.569820
0.550747
0.620484
0.511408
0.494719
0.421405
0.467896
0.403523
0.611544
0.585914
0.569820
0.548959
0.766516
1.031756
1.340508
4.296899
20.219684
47.461987
110.873580
177.385807
276.289582
348.070860
404.697657
406.301618
354.380012
291.324854
202.180743
137.398839
69.053769
36.387444
13.539791
6.451607
3.530979
3.268719
3.044605
3.063679
3.013611
2.734661
2.591610
##ZVALUE=385
0.210404
0.176430
0.258684
0.274777
0.287890
0.269413
0.125766
0.254512
0.376701
0.259876
0.345707
0.201464
0.163913
0.134706
0.227690
0.188947
0.223517
0.180602
0.126958
0.226498
0.156760
0.195503
0.229478
0.279546
0.241995
0.339746
0.456572
0.490546
0.562668
0.758767
0.852942
0.833869
1.004934
0.908971
0.933409
0.999570
1.223683
1.078844
1.076460
1.129508
1.090765
1.041889
0.890493
0.898838
0.925660
0.653863
0.721812
0.736713
0.665784
0.729561
0.752807
0.582933
0.648499
0.599623
0.572801
0.599623
0.668764
0.531673
0.563860
0.559688
0.496507
0.383854
0.513792
0.458956
0.528693
0.440478
0.576973
0.752807
0.635982
0.716448
0.824928
0.865459
0.832677
1.028776
2.198815
11.356473
28.971434
74.205995
131.043792
229.768753
305.608511
377.524495
400.039554
378.869772
334.454775
247.089863
175.222754
96.833706
55.394769
23.486614
10.437965
4.072785
3.157854
2.916455
3.003478
3.105998
##ZVALUE=390
0.290871
0.262856
0.252724
0.140667
0.221729
0.246763
0.114441
0.237823
0.143647
0.281930
0.154972
0.093579
0.214577
0.319481
0.270605
0.219941
0.141859
0.088811
0.268817
0.352859
0.335574
0.328422
0.330806
0.265837
0.400543
0.294447
0.433922
0.638962
0.662804
1.098514
1.350641
1.359582
1.476407
1.835823
1.863837
1.871586
1.932979
1.873970
1.653433
1.659989
1.620650
1.453757
1.199841
1.140833
1.287460
1.196861
1.143813
0.958443
1.014471
0.960827
1.002550
0.853539
0.905991
0.815988
0.642538
0.711679
0.717640
0.771880
0.605583
0.607967
0.702739
0.487566
0.697970
0.532866
0.555515
0.726581
0.584722
0.585914
0.577569
0.676513
0.681877
0.603795
0.717640
0.681877
0.811815
0.770688
1.255870
5.923510
18.204451
55.898428
104.791522
196.346641
265.434980
344.909430
384.918451
395.876765
365.775824
289.682746
221.593976
135.506988
79.890490
33.636689
15.659928
5.407929
3.321767
2.975464
##ZVALUE=395
0.348687
0.212789
0.323653
0.219941
0.206828
0.214577
0.168681
0.304580
0.119805
0.128746
0.104904
0.171661
0.342727
0.126958
0.187755
0.086427
0.199676
0.328422
0.300407
0.361800
0.227690
0.262856
0.400543
0.227690
0.435710
0.450611
0.716448
0.784993
0.941753
1.333952
1.367927
1.745820
1.979470
2.253652
2.108812
2.248883
2.291799
2.145767
2.337694
2.156496
2.223849
1.971722
1.840591
1.769662
1.729727
1.461506
1.395941
1.089573
1.065731
1.146793
1.059771
1.075864
1.054406
0.883937
0.883937
0.807643
0.845790
0.665784
0.727773
0.759959
0.593662
0.611544
0.631809
0.670552
0.645518
0.596642
0.520945
0.789762
0.531673
0.614524
0.696778
0.728965
0.696778
0.771880
0.683665
0.721812
0.783801
0.758767
0.855923
3.434420
11.695623
40.223598
76.036453
145.993829
215.451717
312.346816
369.585752
404.238701
393.409729
333.224535
263.589621
163.783431
102.811456
46.170950
22.586584
8.447766
##ZVALUE=400
0.478625
0.462532
0.294447
0.224710
0.218749
0.269413
0.326633
0.208616
0.270605
0.295639
0.180602
0.276566
0.204444
0.206828
0.228882
0.203848
0.333786
0.230670
0.236630
0.188947
0.221729
0.285506
0.165701
0.218749
0.324845
0.511408
0.706911
0.903606
1.198649
1.446605
1.568794
1.863837
2.075434
2.171993
2.172589
2.504587
2.376437
2.413988
2.503991
2.142787
2.372861
2.081990
2.031922
1.831651
1.780987
1.678467
1.293421
1.376867
1.362562
1.260638
1.135468
1.163483
1.135468
0.824928
0.934601
0.936985
0.958443
0.917912
0.848770
0.812411
0.820756
0.755787
0.645518
0.609756
0.573993
0.581741
0.738502
0.772476
0.805855
0.590682
0.746846
0.704527
0.731945
0.655651
0.598431
0.714660
0.865459
0.682473
0.636578
0.769496
0.813603
1.722574
6.221533
22.831559
48.934817
110.164881
176.129937
271.395445
335.496664
386.346579
393.791795
347.875953
289.781690
200.420618
133.951902
68.697929
##END
