##TITLE=DWF15
##FORMAT=SPECTACLE-ASCII V-1.2
##DATA TYPE=ULTRAVIOLET SPECTRUM
##SECOND TYPE=ULTRAVIOLET SPECTRUM
##DATE=12/21/17
##TIME=13:55:05
##SPECTROMETER/DATA SYSTEM=SPECTACLE
##XUNITS=NM EM
##YUNITS=ENERGY
##YFACTOR=1
##FIRSTX=220
##LASTX=410
##NPOINTS=96
##3DDATA=Equidistant
##ZUNITS=NM EX
##FIRSTZ=210
##LASTZ=400
##ZPOINTS=39
##XYDATA=(Y..Y)
##ZVALUE=210
12.840629
14.559627
11.299849
10.223985
10.444522
11.196733
10.222793
7.517934
6.120801
5.537868
3.871918
2.921820
2.838969
2.242923
2.509952
2.160668
1.911521
1.985431
2.091527
2.268553
2.641678
2.959967
3.379583
4.773736
6.284714
9.563565
15.061498
21.305680
29.846430
36.972761
48.933625
53.300858
59.637427
65.824986
70.533752
74.439645
77.076554
73.006749
71.692467
69.204569
65.386891
63.537955
57.668686
53.558946
49.045682
47.171712
43.325424
39.999485
35.595894
36.414862
32.733679
32.286644
26.530623
27.053952
22.732615
23.667812
20.634532
18.483996
19.750595
19.339919
16.648769
16.282797
14.918447
15.357733
13.279915
13.190508
12.230873
13.072491
12.397766
11.474490
11.769533
12.603998
14.136434
12.648702
14.049411
13.798475
12.968779
12.184978
11.870861
11.825562
10.776520
8.874536
9.662509
7.907748
6.793737
6.264448
5.766749
5.979538
5.425811
7.561445
8.005500
10.300875
14.562607
18.027425
21.574497
25.213957
##ZVALUE=215
34.355521
35.503507
28.860569
23.449659
18.065572
15.906692
15.430450
14.939904
13.888478
12.802482
10.910630
10.099411
7.699728
4.844666
3.915429
2.479553
2.193451
2.810955
2.766848
2.791882
3.262758
3.469586
3.928542
5.143881
7.785559
11.418462
18.292665
26.046634
36.175847
45.101643
55.551529
68.100691
74.410439
82.583427
85.905790
87.122917
91.714859
87.800622
89.026690
81.678629
80.089569
73.547959
69.621801
68.702698
64.380765
59.785843
53.743720
49.510002
46.170950
42.015910
39.908886
36.118627
34.315586
32.107830
31.052828
28.150678
28.588772
23.370981
23.617744
22.561550
21.448731
19.226670
17.702579
16.359687
16.599894
16.035438
14.480948
14.889836
14.807582
14.010668
13.789535
15.035868
14.538765
14.633536
14.583468
14.254451
15.144944
13.628602
11.873841
11.640787
11.807680
10.598898
8.847713
8.746982
7.852912
6.976724
6.406903
5.553961
5.595684
5.735755
5.526543
5.949736
6.146431
6.722808
7.667542
10.259748
##ZVALUE=220
76.118708
74.804425
73.550940
62.575936
57.092905
41.951537
35.682917
27.789474
25.243759
24.235845
24.270415
25.598407
20.508766
18.974543
13.571978
10.081530
6.402731
5.088449
3.693700
2.875924
3.411770
3.167987
3.835559
5.071759
7.484555
14.888644
19.984841
30.626655
40.543675
53.102970
66.738725
76.818466
91.563463
96.404552
105.958581
101.873875
106.674433
108.199716
106.349587
100.418925
100.359917
92.641711
85.994601
75.102448
73.576570
67.774653
62.853694
58.183670
54.366589
52.244663
46.171546
43.603778
42.076707
39.373636
35.683513
34.366846
30.334592
29.798746
27.419925
26.589632
24.627447
23.973584
23.013949
21.394491
19.008517
17.716885
18.470883
17.228723
17.138720
16.823411
16.565919
16.317964
15.358925
16.822815
16.419888
16.104579
14.639497
16.961694
14.092922
13.900995
14.561415
11.517406
10.941625
10.305643
10.280609
9.579659
7.959604
6.627440
7.113814
6.990433
6.956458
6.814599
6.985664
5.778670
6.610751
6.143451
##ZVALUE=225
100.982785
103.741884
123.274922
131.798983
133.672953
119.437575
103.646517
75.263977
60.787797
46.904683
37.864447
38.378835
37.603974
39.135814
37.436485
34.624934
27.249455
20.879507
13.527870
9.404421
7.820725
4.462600
4.021525
5.257726
8.262992
12.605786
19.572973
29.304624
37.477612
50.874949
62.900782
70.341825
80.171824
89.794993
96.206665
96.842647
97.302794
96.682906
94.832778
90.933442
87.977648
83.968639
83.256960
74.183941
69.701672
64.895749
62.621832
52.998662
49.900413
47.229528
43.594837
42.796731
40.051937
39.009452
37.320852
33.341646
35.318732
30.395985
31.259656
29.961467
29.009581
28.603673
25.146604
24.339557
23.663640
21.526814
20.805597
19.758940
18.586516
18.364787
18.715858
18.374920
18.378496
18.280745
18.873811
17.212629
18.008947
16.123652
16.228557
14.739633
13.461709
12.401938
11.512637
11.636615
10.904670
9.436607
8.554459
8.264780
8.388758
8.402467
8.023977
7.895827
7.853508
7.169843
7.908940
6.630421
##ZVALUE=230
65.469742
73.560476
105.895996
157.194734
192.215443
215.191841
216.990709
206.344724
179.773569
143.812895
105.074644
77.996850
59.720874
58.091879
57.367682
59.892535
62.286854
56.938529
50.825477
39.411783
31.048656
18.277764
12.709498
8.879900
8.269548
10.757446
13.536811
19.043684
24.286509
32.858849
37.416816
47.954917
50.871968
57.319999
59.246421
65.584779
65.068603
66.472888
63.168406
60.599446
59.077740
56.599975
52.835941
52.677989
48.759580
45.421720
41.175485
39.753914
38.013458
39.991736
33.657551
36.652684
34.466982
34.607649
30.537844
31.036735
29.459596
31.264424
28.780699
28.384924
28.108954
27.090907
25.625825
25.326610
26.843548
24.077892
22.997856
22.111535
21.795630
21.138787
21.904707
21.401644
19.873977
18.649697
20.052791
19.633770
18.229485
17.828941
16.549826
16.096830
15.186667
14.859438
14.174581
11.540651
12.376904
11.170506
11.528730
9.855628
10.212660
9.612441
9.584427
9.642839
9.798408
9.311438
10.483861
8.598566
##ZVALUE=235
18.666983
18.557906
49.261451
84.815621
152.880549
210.183859
288.472772
332.930684
355.040431
346.463919
300.544500
241.873860
187.053680
121.265650
90.062618
82.280636
81.110597
84.655881
86.741447
91.207623
79.486966
69.780946
55.270791
40.113926
24.357438
17.932653
14.946461
11.818409
13.448596
16.007423
18.463731
20.674467
23.401976
27.798414
28.688908
32.288432
33.166409
32.334924
34.240484
32.210946
30.958652
30.037761
28.615594
31.867623
29.353499
29.504895
27.456880
26.994944
26.934743
26.282668
26.198626
23.725629
25.898814
24.511814
26.937723
24.984479
26.889443
25.019646
25.644898
24.165511
26.139617
24.615526
24.471879
22.125840
23.010969
21.625757
21.667480
20.602942
22.597909
19.649863
19.523501
20.839572
19.739866
20.674467
20.660758
19.936562
20.454526
19.436479
17.953515
16.883612
16.892552
13.565421
14.002919
14.162660
13.396740
12.323856
13.373494
11.857748
12.568831
11.881590
11.513829
11.019707
12.524724
10.289550
11.873841
11.589527
##ZVALUE=240
1.597404
2.337694
5.326867
20.306706
43.826699
96.832514
155.288577
259.519815
331.793427
426.197648
459.137559
459.641814
410.223603
348.982811
252.779722
182.762742
123.225451
99.263787
89.685917
95.689893
106.322765
112.728477
108.505487
97.591877
78.347921
63.974857
47.232509
32.736659
24.459958
17.613769
14.767647
15.161633
16.242862
16.424656
18.984675
18.659830
19.415617
21.329522
20.394921
20.866990
22.626519
21.020770
22.068620
20.764470
20.750761
20.294785
19.575953
19.934773
19.282699
19.144416
19.582510
18.111467
19.397736
19.650459
20.175576
19.738674
19.911528
20.201802
20.110607
21.587610
18.742681
18.583536
18.735528
18.996000
18.031597
18.899441
17.707944
18.857718
17.513633
18.021464
18.693805
18.012524
19.773841
19.898415
19.198656
18.840432
17.772913
16.742945
17.639995
16.277432
16.822815
15.422702
15.194416
13.448000
14.376640
11.922717
14.086962
12.280941
12.892485
12.560487
12.711883
11.787415
11.706948
10.360479
11.194944
11.400580
##ZVALUE=245
1.706481
1.390576
1.536608
1.420975
3.327727
12.120605
30.226707
79.764724
140.447617
249.142647
343.652964
457.701683
523.071885
541.288853
517.135859
420.879722
340.721011
231.636763
164.595842
110.471845
91.838837
92.965961
104.604959
115.979910
122.436881
122.313499
110.584497
96.558928
73.245764
57.410002
40.731430
32.853484
26.325583
23.210645
21.831989
21.310449
23.104548
23.614764
23.457408
23.829937
24.736524
24.386644
23.736954
23.473501
22.992492
22.719502
21.262765
21.673441
21.003485
19.883513
19.284487
21.693707
20.218492
19.380450
18.668771
18.757582
17.638803
17.591715
17.994642
16.950965
18.001795
17.182827
17.020702
16.697645
16.928911
14.672875
15.018582
15.266538
15.727878
15.931726
14.619827
16.143918
17.206669
15.538931
16.723871
16.330481
16.888976
15.279651
14.555454
15.218854
12.829900
13.041496
12.898445
12.290478
12.557507
11.474490
11.734962
11.357665
11.017919
10.618567
10.870695
10.828972
10.210872
10.975599
10.670424
10.054708
##ZVALUE=250
1.315475
1.326799
1.628995
1.349449
1.262426
1.555681
1.882911
8.104444
22.871494
61.477423
116.864443
229.658484
326.622725
466.118455
548.493862
604.401827
596.591830
529.309511
446.511507
313.002467
220.400691
148.758888
99.066496
88.195801
100.015998
115.303993
129.554868
134.713650
136.696696
129.102468
113.188624
92.793703
70.199966
60.567856
45.319796
40.363669
36.879778
33.388734
35.193563
34.778714
34.447908
34.270883
33.028722
34.027696
31.239986
32.053590
29.631853
28.589964
26.758909
25.935769
24.615526
24.801493
24.488568
22.834539
21.642447
20.679832
20.778775
19.624829
20.449758
19.308925
18.385649
17.003417
17.514825
16.683936
17.111897
15.451908
15.676618
14.446974
14.694929
14.790893
14.472604
14.903545
14.403462
14.231801
13.463497
14.226437
14.251471
12.919903
12.930632
12.818575
12.387633
11.011958
11.074543
10.771751
10.748506
10.738969
10.165572
9.648800
9.490848
9.565949
9.604692
9.816885
8.620620
9.057522
9.895563
9.275675
##ZVALUE=255
1.342893
1.067519
1.495481
1.465678
1.548529
1.334548
1.325607
1.419783
1.938939
3.237724
16.505718
42.111874
86.782575
186.687708
287.321806
447.187424
550.241470
649.964809
687.785745
637.809634
549.129844
440.349579
280.708671
184.772611
108.680725
86.955428
88.432431
104.262829
133.769512
145.639777
162.116885
164.437890
158.055425
138.942599
117.920637
95.335841
82.193613
65.924525
58.433414
52.293539
51.515698
49.524903
47.063828
46.591759
43.701530
41.973591
40.097833
37.145615
36.544800
34.574866
32.583475
29.516816
29.949546
27.769804
26.270747
24.637580
24.570823
23.159981
22.796988
21.303892
20.039678
19.998550
19.167662
18.876791
17.137527
16.562939
16.745925
15.915632
15.112758
14.349818
14.336705
14.354587
14.319420
14.483929
14.868975
12.791753
12.074709
12.601614
12.154579
10.960698
10.715723
9.983778
9.983778
9.441972
8.534789
9.509921
9.537935
8.426905
8.593798
8.333921
8.288622
7.967949
8.592606
7.422566
8.664727
7.670522
##ZVALUE=260
1.094937
1.358986
1.187921
1.280904
1.283884
1.392961
1.501441
1.588464
1.611710
1.544952
1.682639
2.374649
6.833673
28.524995
61.007738
148.097873
240.848660
394.885540
524.684787
672.565699
742.473006
743.466616
652.411580
541.235805
365.994573
256.333947
154.327750
110.503435
94.525814
104.760528
68.879724
160.177946
185.827613
202.718973
201.605558
189.885497
171.437860
144.569874
124.129653
100.445747
91.008544
75.651407
70.315599
63.249469
60.426593
58.537722
54.439902
50.785542
47.989488
44.660568
44.599771
39.567947
37.299991
35.584569
32.908916
30.909777
29.323697
27.971864
27.187467
24.291873
23.985505
23.626685
22.232533
20.279884
19.397736
18.255711
17.928481
16.621947
16.488433
15.857816
16.057491
15.378594
15.079975
14.158487
13.437867
13.304949
12.498498
12.381673
11.659861
10.916591
10.516644
9.919405
9.562969
9.329915
9.049773
8.628964
8.604527
8.504987
7.830858
8.809566
7.887483
8.695722
7.684827
7.353425
7.557869
7.500648
##ZVALUE=265
1.110435
0.946522
0.929832
0.836849
1.200438
1.173615
1.134872
1.193881
1.461506
1.236796
1.229644
1.561642
1.701713
1.769662
4.495978
15.698671
52.692890
106.349587
185.739994
352.292657
500.367880
685.368776
777.999759
805.851817
748.841763
610.321760
493.822694
329.736471
234.227777
149.429440
119.836926
120.355487
141.363740
174.074769
201.654434
221.843719
227.200985
223.585963
209.797621
183.073878
161.639452
131.028891
112.079978
92.839599
81.346631
70.066452
64.532757
61.259866
57.140589
53.534508
50.885677
46.395659
44.664741
41.054487
37.881732
36.305785
34.166574
31.344891
29.625893
28.248429
26.924610
24.052858
23.234487
22.177696
21.623969
19.085407
19.163489
18.206835
16.513467
16.044974
15.855432
15.154481
15.078783
15.102625
13.919473
12.903810
12.190938
11.959672
11.630654
10.681748
10.377765
10.212660
9.212494
9.500980
8.553863
8.541942
8.173585
7.991791
7.760525
7.093549
7.632971
7.428527
7.106662
7.325411
7.345676
7.342696
##ZVALUE=270
0.882745
0.958443
0.716448
0.913739
0.704527
0.953674
1.065731
1.045465
0.983477
1.173615
1.222491
1.227856
1.245737
1.485944
1.341701
1.888871
2.196431
8.127689
23.780465
77.821612
154.589415
272.361636
473.091006
632.826686
799.983740
860.944986
855.009556
778.662562
623.847842
477.647781
345.162749
218.039751
160.159469
130.244493
135.315657
162.289739
186.393857
212.510824
224.678516
233.145952
225.684643
206.830502
186.927915
153.374672
128.893852
101.614594
85.331798
71.759820
63.427687
56.463480
52.751899
49.284697
46.846867
42.684674
41.200519
36.772490
34.830570
32.231808
30.721426
29.076934
27.254820
24.593472
23.798943
22.966862
20.970702
20.073652
18.560886
17.861724
17.619729
16.686916
16.173720
15.521646
14.766455
14.471412
14.750957
12.814999
12.607574
11.692643
11.508465
11.165738
10.833740
9.072423
9.208918
8.802414
8.513927
8.681417
8.186698
7.798672
7.632971
7.748604
7.205606
7.254481
6.910563
7.134676
6.724000
6.858706
##ZVALUE=275
0.919700
1.025796
0.794530
0.745654
0.780821
0.667572
0.778437
0.953674
0.916719
0.910759
1.168847
1.119971
1.176596
1.335740
1.248717
1.285672
1.394749
1.424551
1.614690
3.895760
14.378428
42.988658
122.620463
229.644775
421.155691
578.057766
742.638707
854.579806
898.736715
856.838822
766.207576
586.903691
435.785651
265.960693
183.546543
126.093626
110.681653
120.471716
139.832497
167.105794
185.555816
201.192498
207.031965
197.938681
178.639889
152.672529
128.468871
103.521943
83.443522
63.738823
54.279566
45.319796
41.490793
37.600994
34.136772
32.788515
31.076670
29.102564
28.294921
25.863647
24.569631
22.890568
23.116469
21.736622
20.641685
18.954873
18.861890
17.583966
16.151667
15.824437
15.697479
15.709996
14.442801
14.173985
13.407469
13.055801
12.970567
11.922717
11.058450
10.592937
10.456443
9.680986
9.604692
9.302497
8.682609
8.349419
8.270741
7.971525
7.843971
7.726550
7.635951
7.306933
6.875992
7.056594
7.079840
7.081628
##ZVALUE=280
0.781417
0.754595
0.788569
0.726581
0.999570
0.928640
0.927448
0.972748
0.787973
1.042485
1.011491
1.031756
1.051426
1.003742
1.146793
1.287460
1.054406
1.184940
1.351833
1.571774
1.539588
1.947880
8.931756
31.332970
97.233653
179.361701
333.732963
486.542583
701.197982
822.257996
911.212564
907.966495
824.889541
638.698936
483.899713
292.630792
189.044476
106.434822
78.165531
71.673989
84.220767
108.533502
131.312609
152.500868
166.844726
170.853734
166.313648
147.987604
128.459930
102.318525
81.094503
57.904720
46.458840
35.510659
30.139685
25.931597
24.517775
22.754669
22.793412
21.813512
20.864606
20.515919
19.028783
18.485785
17.904639
16.886592
16.865730
16.499758
14.863610
14.899969
14.842749
13.968945
13.126731
13.299584
12.715459
12.286901
11.405945
10.924935
10.666847
10.672808
9.741783
9.147525
9.268522
8.733869
8.524656
8.399487
7.997751
7.730722
8.092523
7.865429
7.267594
7.759929
7.264614
6.931424
7.203817
6.930828
##ZVALUE=285
0.878572
0.709891
0.692606
0.755787
0.763535
0.852942
0.949502
0.852942
0.918508
1.047850
0.904799
0.799894
0.949502
0.958443
0.863671
0.781417
0.940561
1.141429
0.957847
1.059771
1.258850
1.222491
1.527667
1.752973
4.712939
16.244650
54.261684
114.440918
243.557692
383.659005
541.737676
748.935938
864.923596
925.343633
874.978900
716.697574
565.425754
354.727507
227.725506
115.796924
67.046881
41.200519
42.521954
59.624910
79.598427
106.399655
122.922659
142.997503
148.212910
147.137642
135.304928
110.892653
93.383789
68.367720
51.635504
34.294724
27.394891
21.266937
18.825531
17.113686
16.871691
16.457438
15.886426
15.727878
14.876723
14.482737
14.505982
13.726950
14.271736
12.905598
13.201833
12.502670
12.446642
11.663437
11.976957
11.547804
10.830760
10.436773
10.550618
9.727478
9.761453
9.174943
9.239912
9.400845
8.587837
8.222461
8.545518
7.717609
7.260442
7.416606
8.022785
7.271767
7.187724
7.437468
6.864667
6.833673
##ZVALUE=290
0.766516
0.547767
0.700951
0.651479
0.797510
0.672936
0.645518
0.638962
0.735521
0.644922
0.668764
0.746846
0.578761
0.968575
0.830889
0.794530
0.990629
0.970960
0.917912
1.014471
0.943542
1.154542
1.340508
1.236796
1.468658
1.511574
2.402663
6.360412
30.646920
73.028803
142.343640
296.237469
453.123450
680.157542
823.677778
927.307606
915.877819
791.513920
650.596023
441.944003
294.854641
148.136616
82.307458
37.522912
27.771592
37.208796
49.173832
69.755912
90.573430
116.027594
129.525661
138.411522
137.876868
124.590993
107.728839
83.921552
63.525438
43.864846
32.456517
22.441745
17.708540
15.168786
14.015436
13.248920
12.943745
12.447834
12.217760
12.578964
11.779666
11.578798
11.984706
11.416674
11.598468
10.910630
11.086464
10.647774
10.300875
9.748936
9.828806
9.522438
8.886456
8.539557
8.599758
8.379817
8.129478
8.228421
7.520914
7.460713
7.468462
7.025599
7.190704
7.272959
7.047653
7.313490
6.987453
7.063746
##ZVALUE=295
0.666976
0.762939
0.767708
0.624657
0.957847
0.717640
0.782609
0.690818
0.703931
0.683665
0.764728
0.707507
0.656843
0.713468
0.683665
0.824928
0.890493
0.669956
0.956655
0.927448
0.888705
1.132488
1.007915
1.173615
1.112819
1.310706
1.501441
1.669526
1.708865
3.196597
15.039444
43.473840
99.884868
238.474607
382.753015
602.912903
753.287673
896.022916
930.557847
860.551000
737.935901
535.125732
368.749499
194.627643
108.220577
44.538975
25.267601
22.604465
29.447675
45.945644
63.004494
87.940693
105.204582
123.183727
131.359696
129.812956
118.438601
97.370744
81.666708
59.711933
43.349862
28.021932
20.902753
14.576912
12.254715
10.932684
10.433793
9.830594
10.477901
9.951591
10.006428
10.098815
9.882450
9.781718
9.984970
9.517670
9.325743
8.987784
8.963943
8.129478
8.361936
8.401871
7.932782
7.689595
7.801652
7.946491
7.663965
7.566810
7.682443
7.401705
7.101893
7.203817
7.182956
6.666780
6.739497
6.440878
##ZVALUE=300
0.526905
0.604987
0.738502
0.571609
0.584722
0.573993
0.656843
0.626445
0.809431
0.546575
0.568628
0.893474
0.772476
0.741482
0.667572
0.623465
0.647902
0.688434
0.785589
0.824928
0.847578
1.027584
1.090765
1.125932
1.015663
1.141429
1.238585
1.173615
1.360774
1.410842
1.618862
2.085567
6.878972
23.704767
77.713728
151.140690
313.027501
474.706888
695.348978
830.314755
921.225548
914.752483
789.370537
645.460486
426.971912
282.377601
144.396424
78.578591
31.779408
18.534660
18.928647
26.180744
40.482879
55.392981
78.642964
96.296668
115.986466
122.985840
121.233463
113.384724
96.258521
79.154968
57.139993
41.692853
26.397705
18.612742
13.026595
10.769963
9.349585
8.616447
8.895993
8.746982
8.704662
8.510947
8.240938
8.023977
8.493662
8.490682
7.733703
7.666945
7.738471
7.772446
7.715821
8.121729
7.429719
7.186532
7.132888
7.230639
7.211566
7.340908
7.414818
6.989837
6.961823
6.686449
6.892681
6.644726
##ZVALUE=305
0.647902
0.728965
0.638962
0.610948
0.489950
0.793934
0.577569
0.809431
0.591874
0.756979
0.697970
0.649691
0.749826
0.659823
0.820756
0.660419
0.779629
0.830889
0.782609
0.800490
0.776649
0.960827
0.882745
1.004934
0.970960
1.057982
0.850558
1.057982
1.137853
1.234412
1.201630
1.401901
1.507998
1.688600
2.940893
15.306473
42.478442
121.769905
222.506523
408.895016
574.646592
775.906444
884.826779
922.990441
858.401656
685.975552
531.998873
331.768990
208.299756
95.512867
48.844814
18.985868
13.292432
16.967654
24.177432
38.057566
53.051710
75.828433
91.307759
109.711885
116.001964
114.035606
107.357502
91.055632
74.066520
52.401423
38.944483
24.412870
17.483830
11.504889
9.272695
8.481741
7.894635
8.228421
7.787943
7.617474
7.837415
7.805824
7.412434
7.482767
6.856918
7.211566
7.395744
7.616878
7.293820
6.992817
6.949902
7.044673
6.771684
7.022619
6.927848
6.823540
7.130504
6.770492
6.491542
6.352663
##ZVALUE=310
0.649691
0.669956
0.600815
0.582933
0.620484
0.727773
0.589490
0.654459
0.725985
0.696778
0.702739
0.485778
0.490546
0.556707
0.630617
0.693798
0.625849
0.778437
0.848770
0.737906
0.841618
0.919700
0.820756
0.828505
0.855923
0.820756
0.919700
0.903606
1.089573
1.145601
1.151562
1.057982
1.120567
1.395941
1.381636
1.501441
1.959801
6.829500
21.494627
73.853731
146.608949
304.045677
459.666848
673.069954
815.365911
920.825601
907.717943
795.449615
656.012893
439.928770
291.923881
145.881772
78.355670
30.479431
15.006661
11.666417
14.246702
22.141933
31.817555
49.182773
63.966513
85.134506
98.579526
108.020902
109.853745
100.829601
89.424849
70.517659
55.018663
35.545826
26.220679
16.461611
12.021661
8.856654
7.848740
7.336736
7.229447
6.761551
6.537437
6.737709
6.689429
6.761551
7.091761
6.675720
6.971955
6.804466
6.479621
6.937981
6.846786
6.889701
6.957650
6.498694
6.517768
6.324649
6.538630
6.157756
##ZVALUE=315
0.646710
0.444651
0.664592
0.704527
0.646710
0.551939
0.607967
0.618696
0.677705
0.544786
0.598431
0.554919
0.771880
0.566840
0.768900
0.803471
0.584722
0.598431
0.740886
0.576973
0.761747
0.677705
0.655651
0.818968
0.919700
0.981688
0.786781
0.716448
0.950694
0.932813
0.949502
1.104474
1.043677
1.238585
1.155734
1.356602
1.242757
1.448989
1.653433
3.058910
11.065006
47.291517
103.285909
233.354568
378.362536
609.126687
752.079487
879.269838
912.480950
844.037533
723.569989
522.656441
367.009640
196.245909
107.073784
40.769577
18.687844
10.029674
10.037422
13.745427
18.702745
30.876994
42.638779
60.035586
75.184703
92.296004
100.697875
102.876425
96.485615
81.743598
68.110824
49.418807
36.801696
23.039579
15.891790
10.395646
8.158684
7.503629
6.651878
6.678700
6.387830
6.354451
6.268620
6.239414
6.674528
6.381869
6.546974
6.622672
6.473660
6.568432
6.419420
6.230474
6.142855
6.605983
6.366968
6.214976
##ZVALUE=320
0.547767
0.536442
0.667572
0.570416
0.680685
0.640750
0.690818
0.705719
0.717640
0.601411
0.653863
0.719428
0.694990
0.703931
0.726581
0.619888
0.724792
0.726581
0.659823
0.803471
0.701547
0.879765
0.759959
0.702739
0.919700
0.743866
0.725985
0.978708
0.828505
0.937581
0.900626
1.054406
0.979900
1.096725
1.144409
1.143813
1.061559
1.257658
1.299977
1.462698
1.727939
1.789927
4.917979
26.152730
67.107677
174.319744
287.013650
477.212667
636.335015
817.283988
894.361734
884.622931
793.851018
608.283877
443.396568
249.116421
141.645670
62.260628
28.486848
11.449456
8.410811
8.964539
11.271834
17.086864
25.125742
40.686727
53.741932
71.736574
85.096955
94.547868
96.145868
89.702606
81.472993
62.863827
48.487782
31.995773
22.905469
14.779568
11.091828
7.838607
6.668568
6.548762
6.500483
6.451607
6.259680
6.368756
6.383657
6.190538
6.202459
6.242990
6.067753
6.448627
6.157756
6.315708
6.267428
6.224513
##ZVALUE=325
0.686646
0.559688
0.701547
0.589490
0.692606
0.707507
0.539422
0.787973
0.729561
0.606775
0.873804
0.533462
0.560880
0.565648
0.701547
0.892878
0.744462
0.746846
0.885725
0.783801
0.803471
0.755787
0.780821
0.811815
0.800490
0.900626
0.846982
0.800490
0.996590
0.864863
0.971556
0.986457
1.101494
0.913739
1.044869
1.107454
0.935793
1.062751
1.195669
1.268983
1.309514
1.337528
1.554489
1.662970
3.397465
12.844801
48.965812
104.064941
232.251883
375.277996
590.976477
734.580755
866.367817
893.954635
816.205740
684.407949
469.758511
324.134827
170.965791
93.918443
35.307407
16.150475
8.163452
7.444620
8.109808
10.430813
16.215444
22.933483
38.720965
52.078962
69.751740
80.041885
88.754892
89.421868
83.688498
73.533654
57.923794
45.170784
30.315518
21.547675
13.475418
9.944439
7.539988
6.539822
6.368756
6.038547
6.147623
6.168485
6.028414
5.822778
6.073713
5.956888
6.048679
5.970597
5.879998
5.606413
##ZVALUE=330
0.617504
0.695586
0.765920
0.699759
0.710487
0.649691
0.672936
0.669956
0.693798
0.759959
0.618696
0.651479
0.601411
0.875592
0.645518
0.856519
0.838637
0.808835
0.842810
0.798702
0.699759
0.719428
0.821948
0.869632
0.909567
0.953674
0.906587
0.858903
0.889897
0.954866
0.832677
1.085997
1.000762
1.179576
0.917912
1.166463
1.002550
1.177788
1.176000
1.219511
1.383424
1.354814
1.259446
1.154542
1.716614
1.682639
2.114773
7.405877
23.252964
77.409744
150.746703
303.994417
449.377894
655.063987
784.374475
869.199634
841.185451
715.898871
572.029948
369.282961
238.053799
111.936927
56.822896
20.698905
9.917617
6.549954
6.566644
7.280707
9.518862
15.512705
22.344589
35.291910
47.510862
64.783692
74.816942
83.209872
84.328651
78.056455
69.002509
53.223968
41.742921
27.887821
20.193458
13.654828
10.388494
7.641912
6.629825
6.257892
5.943775
5.721450
5.917549
5.791783
5.655885
5.561709
5.763769
5.544424
##ZVALUE=335
0.557899
0.632405
0.635982
0.600815
0.705719
0.515580
0.729561
0.752807
0.691414
0.558496
0.664592
0.791550
0.696778
0.798702
0.589490
0.627637
0.535846
0.652671
0.546575
0.737906
0.633597
0.625849
0.714660
0.759959
0.741482
0.781417
0.717640
0.772476
0.740886
0.773668
0.681877
0.935793
0.827909
1.011491
0.921488
0.704527
1.094937
1.038909
1.012683
1.002550
1.079440
0.984669
1.170635
1.124740
0.993609
1.349449
1.325607
1.520514
1.726747
3.502965
11.982918
47.393441
101.088881
225.524902
362.163782
571.815968
710.602999
823.774934
839.983821
751.628876
628.879666
430.316925
292.362571
151.010752
79.580545
27.366877
12.164712
6.535649
6.350875
6.247759
6.879568
9.352565
13.097525
22.823811
32.165647
47.142506
58.827996
70.710778
76.889992
77.668428
74.172616
62.450767
52.484870
39.607882
30.720830
19.727945
14.261603
9.391904
7.525682
6.476641
5.862713
5.599856
5.383492
5.506873
5.507469
5.543828
##ZVALUE=340
0.274777
0.372529
0.445843
0.344515
0.386834
0.445843
0.432730
0.402927
0.348687
0.358820
0.328422
0.329614
0.262856
0.410676
0.380874
0.350475
0.452995
0.390410
0.384450
0.383854
0.323653
0.323653
0.327826
0.429749
0.378489
0.462532
0.379682
0.499487
0.518560
0.369549
0.637770
0.523925
0.604987
0.647902
0.636578
0.397563
0.459552
0.667572
0.605583
0.633597
0.535846
0.641942
0.605583
0.847578
0.857711
0.898838
0.807643
0.973940
0.942945
1.233816
1.170635
1.864433
5.658865
28.438568
69.483519
175.363421
292.957425
480.557680
624.478459
770.347714
817.172527
774.242878
673.272610
496.220589
349.879861
180.362463
100.294948
40.555000
16.929507
7.267594
5.723834
5.526543
5.612969
6.461740
8.658767
13.610721
20.227432
31.315684
41.479468
56.693554
65.172911
71.766973
72.200894
68.542957
61.976910
49.681664
39.765835
27.584434
20.298958
13.316870
9.654760
6.662607
5.821586
5.284548
5.221963
5.012751
##ZVALUE=345
0.200868
0.253916
0.125766
0.169873
0.152588
0.092983
0.156760
0.173450
0.315905
0.129938
0.111461
0.157952
0.109673
0.198483
0.134706
0.258684
0.220537
0.308752
0.206828
0.263453
0.128746
0.146627
0.221729
0.260472
0.229478
0.207424
0.327826
0.184774
0.335574
0.409484
0.506639
0.435710
0.475645
0.440478
0.480413
0.306964
0.481606
0.319481
0.485778
0.534654
0.363588
0.553727
0.602603
0.428557
0.542998
0.535846
0.626445
0.553727
0.620484
0.745654
0.705719
0.920892
0.919700
1.166463
2.571940
15.542507
43.667555
116.750598
211.694837
382.345915
524.915457
695.495605
774.739981
784.993768
718.004704
550.937653
412.381887
243.046880
136.129856
53.730607
24.169683
9.051561
6.101727
5.097985
4.968643
5.159974
5.551577
7.803440
11.150837
19.027591
26.771426
39.809942
49.583912
58.627725
64.575672
68.302751
64.628720
57.335496
49.341917
37.404895
28.110743
18.655658
13.512969
8.737445
6.783605
5.390644
##ZVALUE=350
0.312924
0.446439
0.483990
0.408888
0.351667
0.330806
0.320673
0.426769
0.305772
0.393987
0.365973
0.481606
0.263453
0.285506
0.375509
0.366569
0.258684
0.435710
0.255704
0.415444
0.280738
0.410676
0.404716
0.473857
0.533462
0.433922
0.462532
0.509620
0.443459
0.418425
0.440478
0.582933
0.337958
0.620484
0.584722
0.710487
0.586510
0.581741
0.593662
0.527501
0.477433
0.630617
0.593662
0.789762
0.645518
0.569820
0.711679
0.647902
0.833869
0.879765
0.880957
0.801682
0.980496
1.055598
1.113415
1.085997
1.596808
7.647872
24.838448
78.476667
149.723887
297.565460
432.199836
606.164932
713.093877
771.884918
734.182596
606.426001
467.125773
277.668834
170.162916
77.355504
36.109686
11.393428
6.169677
5.265474
4.886985
4.562736
4.675984
5.488992
6.996989
11.194944
15.959740
24.269819
32.302737
44.155717
51.710606
59.075952
61.305761
59.399605
53.688884
44.531822
36.420822
25.379658
19.550920
12.881756
##ZVALUE=355
0.412464
0.629425
0.499487
0.307560
0.461936
0.483990
0.506639
0.440478
0.389814
0.533462
0.397563
0.477433
0.474453
0.532866
0.568628
0.457764
0.477433
0.407696
0.598431
0.484586
0.676513
0.556707
0.630617
0.476837
0.609756
0.541806
0.526905
0.611544
0.479817
0.685453
0.585914
0.755787
0.674725
0.717640
0.612736
0.708699
0.676513
0.591874
0.701547
0.591874
0.639558
0.708699
0.685453
0.792742
0.770688
0.844598
0.742674
0.747442
0.794530
0.913739
0.887513
0.990629
0.931621
0.912547
0.978708
1.116991
1.210570
1.314878
1.489520
3.564954
13.348460
52.116513
107.679963
219.784975
343.920588
528.659821
651.222467
743.299723
735.633969
635.810494
512.952805
334.482789
212.263465
93.941689
45.192838
14.942884
7.151961
5.149841
4.713535
4.761815
4.317760
4.524589
5.153418
6.775856
9.307861
15.049577
20.548701
28.767586
37.074685
46.905875
52.636862
56.424737
55.210590
50.151944
43.541789
35.119653
##ZVALUE=360
0.516772
0.456572
0.414848
0.509620
0.579953
0.432730
0.581741
0.474453
0.448823
0.595450
0.472665
0.514984
0.491738
0.534654
0.504851
0.486970
0.397563
0.583529
0.579953
0.595450
0.498891
0.591874
0.489950
0.443459
0.430942
0.584722
0.522733
0.521541
0.615716
0.516772
0.562668
0.488758
0.582933
0.612736
0.683665
0.580549
0.666976
0.629425
0.686646
0.589490
0.703931
0.664592
0.796914
0.626445
0.571609
0.646710
0.593662
0.717640
0.713468
0.689626
0.764728
0.697970
0.798702
0.898838
0.822544
0.778437
1.096725
0.947714
1.085997
1.169443
1.364946
1.973510
5.689859
26.413798
63.022971
158.922672
264.882445
431.526899
566.409826
693.674684
724.819899
669.710636
566.024780
386.669636
257.819891
124.921799
65.055490
24.244785
10.528564
5.027652
4.709959
4.275441
4.115701
4.098415
4.327893
4.436970
5.293489
7.739663
10.797977
16.744733
22.913814
33.085942
40.454865
46.783686
50.511956
50.623417
##ZVALUE=365
0.368953
0.595450
0.533462
0.448823
0.545979
0.445843
0.394583
0.430942
0.372529
0.476837
0.407696
0.418425
0.544786
0.580549
0.551939
0.662804
0.617504
0.524521
0.482798
0.549555
0.557899
0.397563
0.405908
0.514984
0.509620
0.511408
0.587702
0.563860
0.582933
0.494719
0.564456
0.516772
0.635982
0.658631
0.628829
0.597835
0.567436
0.761747
0.794530
0.591874
0.633597
0.617504
0.588894
0.647902
0.626445
0.824928
0.722408
0.695586
0.623465
0.839829
0.792742
0.848770
0.872612
0.769496
1.036525
0.999570
0.886917
0.876784
0.899434
1.046658
1.084805
1.188517
1.220703
1.555681
2.841949
14.643669
39.356947
104.017854
192.802548
359.028578
486.125946
626.520514
694.601536
681.695938
602.060556
440.567732
312.968493
174.984932
94.788671
34.261942
14.504790
5.813837
4.611611
4.029870
4.037619
3.723502
3.744960
3.798604
3.931522
4.575849
6.316900
9.802580
14.040470
21.570921
27.993917
35.854578
##ZVALUE=370
0.468493
0.424981
0.445843
0.527501
0.403523
0.494719
0.362992
0.363588
0.526905
0.395775
0.410676
0.348687
0.530481
0.483990
0.532866
0.542998
0.584722
0.426769
0.538826
0.438690
0.351667
0.396967
0.544786
0.654459
0.519753
0.517964
0.536442
0.563860
0.550747
0.560880
0.502467
0.489950
0.527501
0.446439
0.546575
0.540614
0.761747
0.624657
0.602603
0.523925
0.571609
0.681877
0.529885
0.622869
0.632405
0.630617
0.521541
0.666976
0.643730
0.765920
0.676513
0.595450
0.642538
0.641942
0.650883
0.645518
0.798702
0.845790
0.736713
1.002550
0.915527
0.972748
1.034737
1.090765
1.095533
1.244545
1.802444
7.226467
23.767948
78.118443
147.193670
282.361507
412.872434
582.775474
665.738583
687.586665
632.707477
499.343872
370.497704
207.310915
116.990805
46.590567
21.111965
8.137822
4.724860
4.107952
4.015565
3.794432
3.513694
3.573895
3.401637
3.617406
4.058480
5.726814
7.826686
12.387633
##ZVALUE=375
0.408888
0.458956
0.529885
0.518560
0.453591
0.504851
0.506639
0.423789
0.417829
0.397563
0.477433
0.429749
0.552535
0.225902
0.481606
0.522733
0.389814
0.421405
0.458956
0.481606
0.381470
0.517964
0.416636
0.504851
0.514984
0.492930
0.595450
0.655651
0.581741
0.600815
0.668764
0.823736
0.852942
0.837445
0.797510
0.743866
0.787973
0.908971
0.823736
0.695586
0.793934
0.776649
0.741482
0.712872
0.699759
0.769496
0.875592
0.803471
0.827909
0.810623
0.819564
0.751615
0.662804
0.680685
0.896454
0.886917
0.886917
0.836849
0.821948
0.824928
0.825524
0.830889
0.828505
0.812411
0.971556
1.128912
1.101494
1.182556
1.276731
3.657937
12.603402
46.480894
99.655986
224.098563
347.438455
517.385602
622.815490
686.575770
670.622587
560.710430
438.462496
270.682573
168.529749
76.892972
38.764477
12.944937
6.127954
4.117489
3.683567
3.576875
3.551841
3.356934
3.275871
3.228784
3.233552
3.619790
##ZVALUE=380
0.448823
0.665784
0.568628
0.534654
0.489950
0.379682
0.603795
0.491738
0.392795
0.425577
0.540614
0.458956
0.524521
0.499487
0.502467
0.485778
0.506639
0.526905
0.442863
0.337958
0.428557
0.471473
0.456572
0.658631
0.704527
0.649691
0.695586
0.832677
1.022816
0.985861
1.062751
1.277924
1.400709
1.407862
1.558661
1.459718
1.310706
1.413822
1.254678
1.325607
1.379848
1.337528
1.289845
1.297593
1.159906
1.263618
1.106858
0.958443
1.007915
1.012683
1.000762
1.002550
1.071692
1.002550
0.882745
1.098514
0.932813
0.930429
0.897646
0.875592
0.894666
0.902414
0.969768
0.943542
1.085997
1.198649
0.896454
1.186728
1.228452
1.343489
1.506805
2.068877
8.623004
27.329922
83.141923
155.610442
298.502445
429.521799
587.241054
662.799478
672.577024
608.528852
477.797985
357.663631
208.729506
122.463703
51.427484
23.374557
7.487535
4.350543
3.447533
3.397465
3.403425
3.297925
3.070831
3.125668
##ZVALUE=385
0.358820
0.336766
0.441670
0.328422
0.361800
0.274777
0.393987
0.396967
0.330806
0.348687
0.491738
0.436902
0.506639
0.455976
0.412464
0.387430
0.448823
0.488758
0.393987
0.444651
0.394583
0.391603
0.573993
0.530481
0.544786
0.726581
0.744462
0.935793
1.261830
1.649857
2.017617
2.014637
2.336502
2.532601
2.605915
2.771616
2.727509
2.623796
2.723932
2.530813
2.573729
2.240539
2.222657
2.193451
1.916885
2.004504
1.619458
1.649857
1.694560
1.484752
1.514554
1.311898
1.342893
1.234412
1.242757
1.117587
1.098514
0.981688
1.045465
0.925660
1.048446
1.000762
0.993609
1.020432
1.057982
0.935793
0.990629
1.041889
1.173615
1.158714
1.145601
1.240969
1.476407
1.516938
4.180670
13.648868
51.557422
109.886527
236.003995
360.742807
524.913669
615.945458
665.649772
646.222830
542.210937
429.535508
272.665620
173.521638
78.005791
38.674474
13.659596
5.805492
3.716946
3.230572
3.269911
3.158450
##ZVALUE=390
0.427961
0.553727
0.408888
0.311732
0.334978
0.368953
0.259876
0.464916
0.371933
0.448823
0.369549
0.499487
0.308752
0.413656
0.272989
0.467896
0.474453
0.481606
0.507832
0.322461
0.397563
0.477433
0.591874
0.504851
0.693798
0.767708
1.239777
1.525879
2.057552
2.433658
2.701879
3.472567
3.719926
3.948808
4.068613
4.314780
4.331470
4.188418
4.280806
4.141927
3.733635
3.672838
3.464818
3.131628
3.041625
2.832413
2.627969
2.361536
2.386570
2.169609
2.063513
1.968741
1.586676
1.744628
1.615882
1.336932
1.386404
1.230836
1.141429
1.185536
1.226664
1.209974
1.106858
1.011491
1.199841
1.071692
1.038909
1.169443
0.987649
1.113415
1.094937
1.129508
1.151562
1.310706
1.258850
1.272559
2.085567
9.348989
29.563904
114.471912
177.441835
314.734578
434.138775
574.922562
644.167662
666.589737
616.602898
375.403762
366.357565
224.733949
129.897594
31.727552
19.116998
5.242825
3.694892
3.221631
##ZVALUE=395
0.488758
0.589490
0.356436
0.526905
0.370741
0.453591
0.322461
0.383854
0.482798
0.460744
0.440478
0.427961
0.342727
0.540614
0.424981
0.415444
0.545979
0.480413
0.432730
0.425577
0.331998
0.556707
0.536442
0.695586
0.819564
1.306534
1.343489
1.915693
2.353787
3.357530
3.665686
4.694462
4.817843
5.359650
5.579591
5.719662
5.655885
5.594492
5.730987
5.448461
5.337000
4.410744
4.516840
3.938675
3.921986
3.859997
3.387928
3.158450
2.870560
2.651811
2.500415
2.299547
2.197623
1.973510
1.885891
1.870990
1.720786
1.571774
1.325607
1.381636
1.333952
1.287460
1.170635
1.204610
1.199841
1.026988
1.090765
1.180768
1.106858
1.259446
1.207590
1.170635
1.192689
1.128912
1.160502
1.148582
1.215935
1.199841
1.643896
4.308820
22.406578
103.846788
128.603578
239.082575
354.129672
616.130829
626.768470
674.384832
660.604835
562.433004
443.293452
274.803638
175.408721
50.733685
33.718944
5.537868
##ZVALUE=400
0.493526
0.401735
0.544786
0.533462
0.425577
0.753999
0.419617
0.328422
0.371933
0.506639
0.414848
0.352859
0.341535
0.387430
0.339746
0.348687
0.293851
0.376701
0.531673
0.464916
0.500679
0.389814
0.424981
0.544786
0.714660
1.012683
1.483560
1.996756
2.656579
3.462434
4.206896
4.799962
5.280972
5.680919
6.070733
6.178617
6.545782
6.321669
6.253719
6.010532
5.559921
5.441904
5.004406
4.798770
4.462600
4.054904
3.776550
3.379583
3.319979
3.019571
2.877712
2.598763
2.407432
2.143979
1.913905
1.936555
1.754761
1.500845
1.464486
1.594424
1.380444
1.387596
1.324415
1.312494
1.258850
1.200438
1.116991
1.039505
1.182556
1.291633
1.105666
1.087785
1.118779
1.143813
1.098514
1.100898
1.084805
1.068711
1.223683
1.352429
1.353621
3.006458
10.146499
36.759973
80.315471
179.763436
289.015770
451.036692
558.183789
647.413731
658.849478
582.644939
479.902625
318.175554
209.372640
103.917718
##END
