##TITLE=DWF10
##FORMAT=SPECTACLE-ASCII V-1.2
##DATA TYPE=ULTRAVIOLET SPECTRUM
##SECOND TYPE=ULTRAVIOLET SPECTRUM
##DATE=12/21/17
##TIME=13:51:05
##SPECTROMETER/DATA SYSTEM=SPECTACLE
##XUNITS=NM EM
##YUNITS=ENERGY
##YFACTOR=1
##FIRSTX=220
##LASTX=410
##NPOINTS=96
##3DDATA=Equidistant
##ZUNITS=NM EX
##FIRSTZ=210
##LASTZ=400
##ZPOINTS=39
##XYDATA=(Y..Y)
##ZVALUE=210
15.269518
13.781786
11.251569
9.908676
10.227561
9.098649
9.566545
8.250475
7.098913
4.716516
4.101992
2.998710
2.180934
1.893640
1.926422
2.345443
2.536774
2.290606
1.913905
2.858639
2.731681
2.835989
3.798604
3.573895
5.406737
6.973743
9.120703
13.228655
17.937422
21.074414
23.942590
28.470755
30.762553
34.710765
36.963820
37.551522
38.848519
39.595962
36.968589
36.875606
36.111474
31.387806
31.060576
30.302405
27.891994
26.860833
25.474429
23.895502
21.639466
18.552542
20.091534
18.442869
17.791986
16.735792
14.661551
16.741753
13.000965
13.152957
12.827516
11.450648
12.555718
10.529757
10.811687
10.566711
10.088682
10.223985
8.178949
9.385943
9.304881
9.603500
10.083914
11.040568
11.052489
12.744665
12.829900
11.508465
11.828542
11.462569
11.176467
10.941625
10.466576
9.656549
8.299947
8.121729
7.205606
5.922914
5.881786
5.770922
5.064607
7.107854
7.996559
12.017488
13.995767
18.634796
23.011565
28.211474
##ZVALUE=215
34.900904
34.313798
30.816793
25.446415
19.692779
16.994476
15.124679
14.149547
15.410781
12.899637
11.159778
8.687973
7.128716
5.552769
4.393458
2.402663
2.334714
2.535582
2.747774
2.317429
2.970695
2.913475
3.159642
3.770590
4.775524
9.132624
10.163784
16.230941
19.649863
25.126934
29.503703
35.743713
37.222505
42.552948
45.434833
46.285987
48.966408
51.299930
46.604872
44.852495
43.630600
41.247606
41.582584
37.416816
34.979582
31.909943
29.099584
28.064847
25.898814
23.716688
22.921562
21.378994
20.553470
20.125508
17.956495
16.856790
17.273426
15.640855
15.507936
13.393760
14.058948
12.586713
12.968779
12.150407
10.380745
11.206865
10.449886
9.495616
11.507869
11.401772
11.869669
11.523962
11.625886
13.629794
12.477636
12.541413
11.436939
12.023449
11.093616
10.191798
10.030866
8.793473
8.754730
8.427501
6.468892
5.850792
6.185770
5.334616
5.516410
5.687475
4.914999
6.022453
5.288720
6.536841
8.088946
10.205507
##ZVALUE=220
72.838664
78.694820
72.401762
61.679482
52.173734
42.246580
33.503771
26.941895
24.824739
26.016831
23.763776
24.643540
22.590756
18.088818
14.020801
9.150505
6.622672
5.323887
4.054904
3.418922
3.293753
3.492832
3.643632
4.218817
6.510615
9.666681
12.826920
18.145442
24.278760
28.052926
38.426518
40.841699
46.685934
50.415993
53.762794
57.718754
58.296919
54.907799
55.257678
53.116679
53.818822
49.118996
49.050450
44.989586
41.082501
37.645698
36.939979
33.749938
30.846000
28.634667
27.347803
27.390718
25.450587
24.320483
22.452474
21.717548
20.376444
19.416809
19.636750
19.560456
17.166734
17.236471
15.761852
15.884638
15.375614
13.703704
13.179779
12.946725
13.392568
13.625622
13.262630
13.428926
14.089942
14.037490
14.217496
12.624860
13.341904
12.856722
12.461543
12.108684
10.613799
11.865497
9.874701
9.388924
7.459521
7.004738
7.327795
6.224513
6.170869
5.399585
6.359816
5.200505
5.395412
5.385876
5.603433
5.208850
##ZVALUE=225
98.745823
99.963546
113.160610
125.208497
129.405856
115.221739
98.902583
74.901581
56.623816
50.851703
37.192702
39.380789
42.759776
38.802624
37.237406
31.433702
26.110411
21.611452
13.795495
9.842515
6.953478
4.634857
3.429651
5.264878
5.933642
8.053780
10.300875
16.562939
22.464991
28.302670
32.723546
39.999485
45.937896
50.808787
51.622987
55.613518
53.134561
54.715872
54.674745
51.548481
50.427914
47.320724
43.818951
42.495728
40.308833
39.534569
33.059716
32.096505
30.736923
29.724836
28.806925
26.951432
27.820468
26.199818
26.691556
25.053620
24.322867
21.889806
22.733808
23.760796
22.731423
19.805431
19.683838
19.151568
19.899607
17.657876
16.540885
15.948415
16.136765
17.540455
16.293526
15.748739
16.019940
15.078783
14.764667
15.898943
14.981627
14.653802
13.843775
12.314916
12.667775
10.693669
10.351539
10.179877
9.493828
9.021759
7.964969
7.274747
6.822944
6.410480
7.268786
7.389784
6.807446
6.710887
6.155968
6.950498
##ZVALUE=230
66.584945
72.575808
103.267431
153.194666
189.403892
213.063955
224.891901
206.063986
177.879930
143.308640
100.510716
75.606704
59.191585
55.990815
57.380795
60.621500
64.439774
58.614612
51.455498
40.460825
30.806661
17.969608
13.161898
7.932782
6.563663
8.478761
10.061860
12.025833
14.376640
19.858479
25.190711
27.870536
30.106902
33.478737
35.762787
38.038492
39.867759
37.957430
38.206577
38.499832
35.770535
34.075975
33.810735
29.680729
30.546784
28.173923
27.958751
26.319623
25.173426
25.197864
23.730993
25.191903
24.263859
25.779605
26.085973
23.936629
24.425983
23.848414
23.532510
25.075674
24.527907
23.063421
22.305846
21.921992
20.282865
20.545721
18.977523
18.775463
18.005967
17.862916
18.852949
18.476844
18.167496
17.303824
17.500520
17.090440
17.046928
15.175939
14.747977
15.042424
14.484525
13.021827
11.135936
11.044741
9.484887
10.509491
8.446574
9.281635
9.599924
8.109808
8.889437
7.615685
8.498430
7.593632
7.909536
8.085966
##ZVALUE=235
19.753575
21.112561
45.270920
95.591545
146.594644
217.989683
272.256732
326.093435
347.260833
338.182449
292.476416
233.361721
164.234638
121.077895
90.105534
79.046488
80.806613
83.356500
89.828968
87.918639
87.312460
71.095824
56.915879
38.310885
26.738644
16.017556
12.764931
10.127425
12.301803
11.324883
13.921857
15.537739
17.567873
19.948483
19.800663
21.027923
21.939874
20.809770
23.146868
23.161769
21.770597
21.669865
20.612478
19.246936
19.892454
19.405484
20.110607
17.860532
19.137859
17.269850
20.486712
19.594431
20.427704
20.829439
21.191835
22.179484
23.470521
20.203590
21.244884
22.527575
21.525621
21.716952
21.265745
19.683838
19.169450
19.664764
19.211769
18.872619
18.225908
17.381907
20.195842
19.037724
18.264651
18.658638
17.857552
18.181801
17.844439
15.807748
16.338825
15.450716
14.839768
13.274550
13.085604
13.277531
11.770725
12.186766
11.381507
10.920763
11.939406
10.017753
10.311604
9.861588
9.087920
9.687543
9.828806
10.765791
##ZVALUE=240
1.884699
1.884699
7.160902
17.709732
48.502684
87.033510
164.929628
234.486461
347.114801
404.122472
455.374718
446.219444
413.741469
317.004919
252.114534
160.103440
120.898485
93.967915
88.517666
98.578930
105.677843
108.834505
109.703541
97.866654
77.171922
62.958002
46.044588
30.003786
19.261837
15.893579
12.201667
12.221932
11.309981
12.081861
13.482571
13.885498
14.338493
13.962984
15.626550
14.616847
13.635755
15.358925
15.561581
15.774965
16.030669
15.523434
15.202761
14.082789
14.110804
14.609694
15.890598
15.802979
15.123487
16.613603
15.009642
16.660690
14.686584
17.666817
15.492439
16.216636
15.729666
15.202761
15.152693
16.124845
14.661551
14.734864
14.478564
15.778542
14.754534
14.849901
16.206503
16.272664
17.489791
17.469525
16.888976
15.632510
15.911460
15.323758
15.895963
12.318492
13.492703
13.415813
13.311505
12.695789
12.325644
10.629892
11.021495
10.993481
10.180473
11.624694
10.429621
9.815693
9.163618
10.111928
9.737611
9.447932
##ZVALUE=245
1.409650
1.370907
1.659989
1.688600
2.759695
12.530684
33.327937
81.974864
142.772794
245.667696
338.180661
452.697873
505.880713
515.132546
493.170619
405.912995
325.917006
222.773552
159.996748
107.129812
91.728568
91.615915
103.220940
116.905570
122.306943
120.541453
102.915764
92.331767
64.776540
52.556992
34.571886
26.263595
19.767880
16.166568
14.594793
14.852881
15.974641
15.864968
14.901757
16.175508
16.781688
15.632510
15.668869
17.087460
15.289783
15.623569
15.519857
14.452934
14.069676
14.899969
14.952421
14.963746
14.886856
14.141798
14.387965
13.340712
15.040636
13.595819
14.901757
13.906956
14.527440
13.327599
14.536977
13.172626
12.074709
12.112856
12.900829
13.369918
13.476610
13.152957
13.206601
13.386607
14.180541
14.003515
14.824867
14.434457
12.796521
12.624860
13.267994
11.938810
12.196898
10.850430
10.403991
10.296702
10.784864
9.805560
10.059476
10.528564
9.779930
9.700656
9.074807
8.808970
8.511543
8.590817
9.015799
7.908940
##ZVALUE=250
1.199841
1.344681
1.359582
1.205802
1.469851
1.168847
2.505779
6.860495
26.909709
53.764582
127.763748
212.421417
314.005613
443.446636
531.349778
590.507984
582.181811
512.959957
436.533689
299.678445
211.586952
140.391588
95.271468
86.270571
98.995566
109.545588
125.154853
131.806731
128.535628
121.903419
99.435449
82.746744
65.424442
45.005679
34.772754
26.669502
23.386478
22.516847
20.799637
21.729469
20.649433
22.816658
21.789670
21.780729
19.721985
18.889904
18.610954
18.650889
18.288493
17.537475
17.251968
17.442703
15.674829
16.715527
15.552640
16.177893
15.730858
14.836788
13.780594
14.021993
14.089942
14.505982
12.554526
12.531877
11.119843
11.490583
11.684895
11.930466
11.598468
12.367964
11.512637
12.862682
12.267828
12.450814
12.294650
12.055635
12.416840
11.855960
10.907650
10.705590
10.620952
10.043979
9.725690
9.304881
9.422898
8.950830
8.291602
7.838607
8.220673
8.096695
7.915497
8.000731
8.152723
8.213520
7.446408
8.017421
##ZVALUE=255
0.927448
1.075864
1.197457
1.097918
1.254678
1.522899
1.513958
1.164675
1.394749
3.210902
16.917586
43.185949
86.940527
182.357430
284.644961
432.739854
529.717803
622.953773
653.131008
616.482496
524.306893
423.844457
270.590782
178.254843
105.167627
85.338950
84.825754
99.967718
124.378800
138.511658
145.816803
148.077607
138.981938
115.809441
96.184611
73.894858
58.164001
43.850541
38.763881
33.866763
29.903650
29.938817
28.918982
28.548837
27.548671
24.735928
26.641488
24.565458
24.661422
22.869706
22.103786
20.696521
20.946860
20.129681
18.881559
17.396808
17.013550
16.829967
15.849471
16.335845
15.144944
15.081763
14.706850
13.777614
14.089942
13.209581
12.579560
11.862516
12.832880
11.183619
12.230873
12.508631
11.623502
12.013912
11.310577
10.876656
11.846423
10.131598
9.388924
9.529591
8.964539
8.599758
8.313656
8.338690
7.910728
8.266568
8.430481
7.027984
6.710887
7.105470
7.205606
7.031560
6.516576
7.482767
6.887913
6.692410
##ZVALUE=260
0.855923
0.938773
1.202822
0.922680
1.015663
1.066923
1.143813
1.282692
1.351833
1.260638
1.381636
2.027750
6.192923
25.940537
58.664680
141.574740
234.564543
385.566950
503.820777
652.717948
718.433857
714.306831
627.612472
518.773794
344.447494
240.374804
145.472884
100.378990
79.664588
90.876818
109.304786
140.903592
160.057545
171.441436
169.763565
156.039000
139.096975
112.330914
93.258619
71.673989
60.265660
47.560930
42.315722
40.022731
36.779642
36.279559
34.370422
31.909943
29.343963
29.064417
27.618408
26.029944
25.262833
25.041699
22.452474
20.873547
20.153522
18.635988
18.296838
17.745495
17.552972
16.145706
16.719699
14.395714
14.042854
14.137626
12.409687
13.553500
12.990832
12.200475
11.585951
12.357831
12.291670
12.191534
11.687875
11.342764
11.075735
10.255575
9.793639
9.426475
8.966923
8.708835
7.864833
7.481575
7.571578
7.769465
6.915927
6.622672
6.226897
6.903410
6.705523
6.280541
6.664991
6.358624
6.502867
6.401539
##ZVALUE=265
0.954866
0.886917
0.823736
0.749826
0.961423
1.068711
1.270771
1.061559
1.085997
1.049638
1.128912
1.322627
1.459718
1.731515
3.403425
17.807484
43.383837
107.281804
192.630887
356.347561
496.318936
630.741715
755.449533
772.996545
708.254576
616.089702
455.542803
328.798890
192.542672
132.933855
93.233585
91.510415
105.339885
137.882829
159.321427
184.437633
189.585686
184.716582
170.425773
143.252611
125.008821
97.058415
78.955889
61.652660
52.558780
43.814778
41.206479
38.780570
36.840439
33.583641
32.031536
29.977560
30.076504
27.865767
26.202798
24.265647
23.889542
21.884441
21.535754
20.199418
19.210577
17.829537
17.202497
16.668439
17.181635
15.944839
14.310479
14.169812
13.117790
13.080835
12.889504
12.689829
11.976957
11.879802
11.547804
11.809468
10.932684
10.469556
9.400845
9.651780
9.124875
7.833838
7.922649
7.690787
7.339716
7.262826
7.689595
6.735921
6.594658
6.611943
6.740689
6.430745
6.323457
6.358624
6.501675
6.176829
##ZVALUE=270
0.947714
0.770688
0.804663
0.804663
0.749826
1.124740
0.902414
1.107454
1.210570
1.251698
1.319647
1.176000
1.059771
1.485944
1.526475
1.424551
2.343655
6.764531
22.014976
71.784854
143.354535
293.624401
439.037681
630.425811
749.837756
832.163692
813.833475
713.012815
599.044561
425.245762
297.886729
174.155831
120.504498
92.601776
97.337961
121.655464
143.635869
171.208978
184.893608
191.968679
187.229514
172.917843
152.238607
121.953487
98.903775
73.009729
59.562922
47.455430
40.722489
37.182570
34.874678
32.264590
31.138659
28.532743
27.833581
25.995970
24.488568
23.582578
22.595525
20.725727
21.167994
19.521713
18.268824
17.319918
17.070770
15.941858
15.743971
14.731884
13.670921
13.144612
13.098717
12.569427
12.809634
12.557507
11.916757
11.263490
10.643601
10.480881
9.233952
9.593964
8.539557
8.280873
8.329749
7.910728
7.832646
7.114410
6.844997
6.751418
6.736517
6.658435
6.537437
6.515980
6.622672
6.506443
5.861521
6.135702
##ZVALUE=275
0.819564
0.855923
0.975728
0.820756
0.746846
0.955462
0.776649
0.805855
0.770688
0.831485
1.053810
0.887513
1.013875
1.060963
1.210570
1.160502
1.401901
1.373887
1.622438
3.708601
14.103651
41.324496
121.295452
222.584605
409.471989
557.024479
719.859004
818.690658
857.336521
809.286833
678.340793
539.963841
397.548676
226.564407
148.763657
92.458725
79.934597
91.383457
109.544992
138.691664
155.869722
173.925757
176.268816
170.430541
155.339837
130.477548
108.698606
83.255768
66.426992
48.888922
39.354563
32.941699
29.048920
27.141571
25.118589
23.716688
22.320747
21.108985
21.284819
20.452738
19.669533
19.120574
18.419623
17.580986
17.418861
15.871525
15.301704
14.874935
13.969541
13.537407
12.725592
13.096929
12.036562
12.121797
11.711717
11.373758
10.819435
10.663867
9.869933
9.049773
8.708835
8.840561
7.951856
7.622838
7.665753
7.201433
7.089972
6.971955
6.960630
6.583929
6.333590
6.356835
6.173849
6.242990
6.144643
5.989671
##ZVALUE=280
0.984669
0.844598
0.942945
0.983477
0.905991
0.724792
0.822544
0.727773
0.752807
0.633597
0.884533
0.793934
0.912547
0.842810
1.250505
1.043677
1.061559
1.128912
1.434684
1.262426
1.391768
2.348423
7.830858
35.941601
86.632967
194.867849
310.796499
499.765873
639.765859
801.562667
872.375965
851.284862
772.607923
594.473481
448.800921
268.780589
167.972445
86.487532
61.052442
59.170723
70.337653
95.361471
115.764737
139.169693
152.202845
158.433914
153.080821
134.952664
117.208958
91.315508
72.264671
51.681995
39.801598
28.372407
24.234653
20.778775
19.469857
18.817782
18.281937
17.953515
17.569661
16.571879
15.868545
15.720725
15.580654
14.535785
14.550686
13.734698
13.535619
12.730956
13.062954
12.313724
11.632442
11.808872
11.443496
10.959506
11.248589
10.185838
9.735823
9.319782
8.843541
8.646846
7.839799
7.582903
7.924438
7.446408
7.015467
7.186532
7.006526
6.736517
6.519556
6.663799
6.190538
6.454587
6.433725
6.084442
##ZVALUE=285
0.792742
0.750422
0.789762
0.824928
0.851750
0.658631
0.695586
0.782609
0.759959
0.790954
0.868440
0.852942
0.902414
0.726581
0.881553
0.926852
0.873804
0.840425
1.037717
1.297593
1.389980
1.177788
1.461506
1.611710
4.855990
15.144944
52.584410
113.543868
241.992474
372.328758
567.966700
709.068775
827.273726
885.908008
838.409662
690.127015
541.651845
339.480639
215.721726
106.976628
60.538650
37.083626
39.092898
57.448745
75.365901
102.131963
120.101571
135.256648
143.924952
139.301419
131.249428
107.175708
89.254975
64.645410
48.551559
31.772852
23.567677
17.715693
15.991926
15.267730
14.589429
14.473796
13.887882
13.868809
13.333559
13.220906
12.770891
13.058782
12.628436
11.520982
11.700988
11.443496
10.885000
10.839701
10.487437
10.142922
10.001659
9.569526
9.110570
8.992553
8.244514
8.002520
8.114576
7.592440
7.645488
7.255673
7.411838
6.836653
6.571412
6.617904
6.404519
5.967617
6.145835
6.391406
6.148815
6.101727
##ZVALUE=290
0.725985
0.820756
0.774860
0.814795
0.802875
0.907779
0.892878
0.981688
1.024604
0.873804
0.864863
0.940561
0.795722
0.953674
0.909567
0.965595
0.948906
0.900626
0.911951
1.120567
1.068711
1.231432
1.211762
1.429915
1.662970
1.720786
2.495646
6.845593
30.368567
70.505738
164.134502
284.062624
437.536836
653.244853
789.936781
895.013809
887.134671
767.001510
630.852580
423.706770
279.152989
141.857862
75.423717
33.337474
25.621653
34.120679
47.052503
69.442987
88.749528
112.319589
126.434565
137.891769
134.851933
123.528838
106.239915
80.114603
61.959624
41.721463
30.432940
21.179914
16.122460
13.417602
12.595654
12.215972
11.711717
11.064410
11.135936
11.122823
10.790825
10.692477
10.599494
10.581613
10.450482
10.032654
9.865761
9.301901
9.261966
9.358525
8.486509
8.442998
8.203983
7.773638
7.392764
7.525682
7.519722
6.946921
7.067919
6.917715
6.749630
7.122755
6.364584
6.307960
6.557703
6.651878
6.265640
6.105900
##ZVALUE=295
0.643730
0.646710
0.506639
0.791550
0.804663
0.813603
0.670552
0.732541
0.781417
0.691414
0.736713
0.784993
0.624657
0.502467
0.747442
0.727773
0.832677
0.755787
0.854731
0.914931
0.867844
0.892878
0.992417
1.137853
1.190901
1.246929
1.277924
1.585484
1.725554
3.033876
14.734864
42.403936
96.244812
225.339532
362.720490
571.849942
717.857480
859.937668
891.688466
820.941925
704.867840
507.018566
349.735618
182.315707
102.796555
42.330623
23.801923
20.861626
27.701855
44.095516
59.960485
84.275603
102.311969
120.303631
127.637982
127.291679
116.532445
96.436739
78.987479
56.596994
42.539835
26.664734
19.125938
13.511777
11.304617
9.622574
9.305477
9.258986
9.334683
8.796453
9.257793
8.813739
8.624792
8.809566
8.637905
8.292794
8.270741
7.881522
7.984638
7.549524
7.436872
6.967783
6.825924
7.125735
6.812811
6.524920
6.646514
6.769896
6.472468
6.450415
6.445646
6.039739
6.020665
6.099939
5.737543
5.624890
##ZVALUE=300
0.725985
0.614524
0.543594
0.560880
0.579953
0.681877
0.412464
0.451803
0.735521
0.671744
0.653863
0.656843
0.546575
0.651479
0.646710
0.662804
0.714660
0.664592
0.659823
0.734925
0.739694
0.918508
0.946522
1.040697
1.036525
1.043677
1.100898
1.137853
1.139641
1.393557
1.682639
1.558661
5.987883
21.907687
75.176954
145.366788
299.548507
452.119708
661.477447
784.421563
882.557034
873.522758
758.376718
629.195571
415.068865
272.634625
137.571692
73.638558
28.654933
17.310977
18.135905
25.358796
39.484501
54.834485
78.290701
94.409585
114.181638
120.549798
120.105743
111.542940
94.903708
77.639818
54.357648
40.095448
26.050806
18.163919
12.064576
9.562969
7.900596
7.824898
7.840991
7.402897
7.833838
7.184744
7.685423
7.413626
7.522702
6.973743
6.944537
7.338524
6.780624
7.097721
6.518960
6.576777
6.337762
5.988479
6.285906
6.124973
6.273985
5.978942
5.877614
5.999804
6.013513
5.738735
5.846620
5.879998
##ZVALUE=305
0.503659
0.571609
0.555515
0.620484
0.460744
0.608563
0.431538
0.519753
0.650883
0.510812
0.640750
0.533462
0.763535
0.627637
0.700951
0.688434
0.749826
0.700951
0.783801
0.701547
0.860691
0.873804
0.934601
0.884533
0.953674
0.976920
1.158714
1.054406
1.000762
1.020432
1.115799
1.182556
1.251698
1.536608
2.711415
15.201569
42.394996
118.287802
212.740898
394.078493
551.703572
747.759938
847.011805
882.158875
826.456547
656.217933
513.973832
329.054594
205.521584
93.308687
47.365427
19.195676
12.940764
16.500950
23.032427
38.279891
51.797628
73.539615
90.307593
106.157660
112.981796
113.635659
104.650855
88.475943
73.158741
51.266551
36.695600
24.326444
16.238689
10.227561
8.614659
7.606745
7.204413
6.838441
6.862879
6.724000
6.553531
6.534457
6.682873
6.254911
6.513596
6.397963
6.115437
6.378889
5.968809
5.969405
6.028414
5.761981
5.927682
5.983710
5.733967
5.776882
5.518794
5.644560
5.751848
5.415678
##ZVALUE=310
0.503659
0.491738
0.508428
0.711679
0.544786
0.421405
0.546575
0.608563
0.442863
0.605583
0.558496
0.597835
0.562668
0.550747
0.592470
0.691414
0.638962
0.556707
0.607967
0.793934
0.568628
0.812411
0.673532
0.745654
0.696778
0.905991
0.686646
0.781417
0.928640
1.023412
0.904799
1.035929
1.012683
1.154542
1.215935
1.547933
1.755953
6.352663
21.627545
71.196556
140.588880
289.310813
440.251827
650.745034
780.737996
873.823762
865.075588
758.000612
625.405908
421.422720
278.729796
139.676929
75.513721
28.285980
14.169812
11.197925
13.653636
22.040606
31.244755
47.539473
62.156916
83.323717
96.076727
104.798675
106.737614
99.113584
87.782741
68.772435
53.613782
34.525990
24.103522
14.896989
10.892749
7.861853
6.863475
6.401539
6.136894
6.061792
5.922914
5.818605
5.847812
5.959868
5.883574
5.867481
6.120801
5.250573
5.850792
6.014705
5.869865
5.735755
5.498528
5.585551
5.444884
5.413890
5.567670
5.306602
##ZVALUE=315
0.355840
0.339746
0.484586
0.430942
0.461936
0.596642
0.521541
0.529885
0.528693
0.426769
0.523925
0.552535
0.537634
0.490546
0.674725
0.601411
0.705719
0.595450
0.527501
0.490546
0.626445
0.721812
0.747442
0.803471
0.753999
0.689626
0.833869
0.894666
0.909567
0.911951
0.979900
0.955462
0.913739
0.867844
1.174808
1.142621
1.165867
1.364946
1.443624
3.049970
10.793805
44.907928
99.281669
222.269893
360.983610
578.271747
717.862844
844.365954
874.172449
807.945728
694.188476
497.952700
349.639654
187.686682
102.683902
38.256645
17.558932
9.784698
9.409785
12.907982
18.715858
30.113459
41.050911
59.599876
74.110627
91.571808
99.690557
100.773573
93.764663
79.915524
65.685511
48.149824
34.761429
21.160841
14.182925
9.224415
7.401705
5.981922
5.766749
5.443692
5.507469
5.412698
5.229712
5.326867
5.304813
5.628467
5.536675
5.690455
5.316734
5.404949
5.500913
5.247593
5.333424
5.074739
5.100965
5.308986
##ZVALUE=320
0.440478
0.495911
0.559688
0.569820
0.584722
0.556707
0.527501
0.631809
0.552535
0.504851
0.542998
0.443459
0.523925
0.652671
0.608563
0.658631
0.623465
0.546575
0.570416
0.599623
0.596642
0.628829
0.597835
0.551939
0.616908
0.638962
0.532866
0.711679
0.788569
0.781417
0.863671
0.846982
0.832677
0.919700
0.915527
1.078844
1.039505
1.085997
1.110435
1.354814
1.418591
2.027750
4.771948
25.150776
64.967871
167.416930
278.239846
462.970734
613.448620
787.422657
857.232809
844.911933
758.140683
580.147505
427.063704
237.586498
135.986805
58.679581
27.702451
10.593534
8.060932
8.464456
10.605454
16.760826
24.252534
38.183928
51.681995
70.977807
83.020926
93.372464
94.474554
89.561939
79.685450
61.073899
47.297478
30.992627
21.504760
13.296604
9.533763
6.772876
5.901456
5.510449
5.204678
5.234480
5.325675
5.128980
5.309582
5.279779
5.177855
5.036592
4.885793
4.995465
5.056858
5.242825
4.961491
4.996657
##ZVALUE=325
0.515580
0.591874
0.436902
0.571609
0.432730
0.497699
0.496507
0.351667
0.502467
0.437498
0.562668
0.550747
0.509620
0.531673
0.412464
0.703931
0.546575
0.436902
0.469685
0.439882
0.549555
0.454783
0.550747
0.525713
0.801682
0.680685
0.694990
0.695586
0.761747
0.788569
0.820756
0.718832
0.741482
0.823736
0.757575
0.947714
0.957847
0.957847
0.926852
1.154542
1.129508
1.187921
1.529455
1.299977
2.669692
16.262531
43.312907
112.926960
202.977657
380.707979
528.755784
716.995001
810.287595
841.896534
784.374475
622.579455
472.098589
289.293528
174.886584
75.480938
37.125945
13.287663
7.731915
7.024407
7.658601
10.444522
14.834404
24.414659
35.466552
52.553415
65.873861
80.055594
87.000728
88.646412
82.298517
69.557428
56.993961
41.671991
30.775666
18.921494
13.319850
8.185506
6.554723
5.406737
5.389452
4.947782
4.940629
4.590750
4.770756
5.025864
4.867911
5.010962
4.730821
4.647970
4.531741
5.015731
##ZVALUE=330
0.386834
0.373721
0.381470
0.184774
0.196695
0.265837
0.282526
0.429749
0.217557
0.303984
0.280738
0.343919
0.258684
0.514984
0.339746
0.335574
0.377893
0.257492
0.285506
0.444651
0.424981
0.572801
0.435710
0.388622
0.350475
0.357628
0.389814
0.596642
0.379682
0.429749
0.761747
0.484586
0.407696
0.404716
0.590682
0.633597
0.775456
0.621676
0.844598
0.687838
0.663996
0.747442
0.854731
0.987649
1.122952
1.061559
1.594424
6.912947
22.440553
74.225664
143.518448
290.292501
428.548455
622.310638
746.493936
823.207498
798.035860
676.019788
540.959835
350.226760
225.401521
106.248856
53.837895
19.965768
9.256601
5.879998
5.848408
6.950498
8.880496
14.522672
21.164417
33.801794
45.501590
62.358975
72.600842
81.173778
81.812739
75.863600
66.752434
52.121878
39.819479
25.893450
19.066930
11.933446
9.000897
6.066561
5.083680
4.547834
4.426837
4.246831
4.455447
4.421473
4.473925
4.263520
4.376769
4.548430
##ZVALUE=335
0.449419
0.524521
0.527501
0.451803
0.561476
0.550747
0.492930
0.424981
0.557899
0.533462
0.566840
0.518560
0.716448
0.464916
0.431538
0.550747
0.627637
0.567436
0.594854
0.665784
0.559688
0.533462
0.499487
0.595450
0.524521
0.544786
0.498891
0.548959
0.577569
0.685453
0.709891
0.782609
0.669956
0.693798
0.823736
0.765920
0.685453
0.869632
0.714660
0.780821
0.824928
0.959635
0.908971
1.045465
0.998974
0.999570
1.117587
1.098514
1.402497
3.204942
11.792779
45.750737
97.482800
217.315555
350.039601
551.759005
685.485601
793.046951
804.971457
719.870925
602.115989
412.838459
280.072689
144.836903
76.008439
26.021600
11.942983
6.203651
5.486608
5.903840
6.398559
9.063482
12.909770
21.557808
30.658841
46.118498
57.455897
69.077611
76.156855
76.566935
71.999431
60.577989
50.804615
38.186908
28.992891
18.511415
12.978911
8.710623
6.266832
5.097985
4.609823
4.241467
4.261732
4.605651
4.336834
4.200935
##ZVALUE=340
0.383854
0.547767
0.465512
0.483990
0.393987
0.632405
0.459552
0.384450
0.460744
0.498891
0.524521
0.605583
0.539422
0.417829
0.570416
0.593662
0.599623
0.418425
0.524521
0.340939
0.463724
0.434518
0.522733
0.534654
0.532866
0.603795
0.502467
0.601411
0.606775
0.558496
0.581741
0.667572
0.594854
0.655651
0.628829
0.727773
0.663996
0.696778
0.808835
0.843406
0.907779
0.781417
0.869632
0.858903
0.863671
0.900626
0.915527
0.918508
0.880957
1.277924
1.156926
1.879930
5.535483
27.804971
68.446994
168.650746
284.563899
464.643836
602.647662
742.564797
786.841512
741.225481
642.893910
472.404957
330.938697
172.063708
95.446706
38.384795
15.907884
6.571412
5.662441
5.517602
5.416870
6.193519
8.133650
13.530850
19.398928
30.594468
41.319728
55.720806
64.650774
71.258545
70.652962
66.733956
59.517622
47.898889
38.217902
26.332736
19.157529
11.944771
8.762479
6.289482
5.181432
4.294515
4.408956
4.225969
##ZVALUE=345
0.405908
0.449419
0.394583
0.469685
0.546575
0.493526
0.468493
0.482798
0.469685
0.601411
0.458956
0.367761
0.418425
0.604987
0.508428
0.455976
0.517964
0.355840
0.499487
0.525713
0.497699
0.495911
0.524521
0.328422
0.585914
0.410676
0.573993
0.616908
0.383854
0.576973
0.523925
0.523925
0.510812
0.572801
0.635982
0.628829
0.568628
0.628829
0.652671
0.710487
0.705719
0.815988
0.688434
0.743866
0.699759
0.870824
0.856519
0.872612
0.805855
0.997782
1.164675
1.195669
1.066923
1.228452
2.769828
15.115738
43.091774
113.709569
202.422738
368.340015
506.642461
667.808652
741.492510
747.718811
685.408711
524.305701
388.307571
228.358507
129.195452
50.980449
23.279786
8.790493
6.141663
5.033612
5.010962
5.186796
5.590916
7.672906
11.181831
18.782616
27.071834
39.538741
48.720837
57.821870
63.623786
65.665841
63.602924
55.858493
48.024654
36.554933
27.562976
17.899871
12.919903
8.097887
6.132722
4.918575
##ZVALUE=350
0.423789
0.506639
0.445843
0.368953
0.382662
0.455976
0.433922
0.428557
0.391603
0.582933
0.627637
0.531673
0.532866
0.408888
0.458956
0.572801
0.507832
0.433922
0.542998
0.520945
0.367761
0.355840
0.533462
0.457764
0.469685
0.618696
0.490546
0.499487
0.319481
0.389814
0.535846
0.527501
0.587702
0.537634
0.555515
0.611544
0.680685
0.665784
0.677705
0.700951
0.683665
0.722408
0.872612
0.680685
0.620484
0.769496
0.667572
0.686646
0.738502
0.856519
0.713468
0.828505
1.024604
0.960827
1.174808
1.128912
1.646876
7.392764
24.054646
75.941682
144.893527
287.205577
417.823792
586.766601
685.676932
737.609863
701.278448
578.452945
444.294810
264.860988
161.669850
74.387789
34.709573
10.621548
5.965829
4.859567
4.710555
4.441738
4.653931
5.283952
6.865859
11.101961
15.813708
24.358630
31.731725
43.450594
51.248670
58.173537
60.334802
58.044791
53.142905
43.193698
35.379529
26.041865
19.182563
12.423992
##ZVALUE=355
0.475645
0.477433
0.534654
0.416636
0.364780
0.411868
0.362992
0.487566
0.388622
0.537634
0.417829
0.462532
0.487566
0.397563
0.609756
0.454783
0.337958
0.587702
0.525713
0.605583
0.510812
0.490546
0.418425
0.520945
0.459552
0.498891
0.391603
0.447631
0.503659
0.408888
0.598431
0.500679
0.475645
0.628829
0.447631
0.656843
0.614524
0.799894
0.610948
0.637770
0.558496
0.628829
0.518560
0.658631
0.764728
0.687838
0.741482
0.771880
0.853539
0.648499
0.759959
0.899434
0.944734
0.958443
0.922680
1.131892
1.065731
1.305938
1.227856
3.637671
12.668967
49.563646
101.282001
213.993788
336.853862
517.841578
629.173517
711.771846
708.059669
602.715015
488.668680
322.529674
203.775764
90.483427
43.091774
13.831854
6.706715
4.856586
4.340410
4.199743
4.077554
4.172921
4.811883
6.519556
8.720756
13.925433
19.983649
29.499531
36.588907
46.075583
51.521659
55.011511
54.057837
48.382878
42.366982
33.338666
##ZVALUE=360
0.356436
0.415444
0.480413
0.397563
0.436902
0.544786
0.365973
0.322461
0.445843
0.482798
0.507832
0.542998
0.509620
0.543594
0.552535
0.509620
0.569820
0.528693
0.584722
0.558496
0.701547
0.460744
0.502467
0.536442
0.482798
0.349879
0.533462
0.437498
0.517964
0.587702
0.378489
0.564456
0.429749
0.631809
0.553727
0.605583
0.519753
0.612736
0.361800
0.567436
0.510812
0.654459
0.707507
0.800490
0.797510
0.707507
0.729561
0.805855
0.790954
0.761747
0.817776
0.791550
0.846982
0.951886
0.908971
1.078844
0.826716
1.025796
1.094937
1.290441
1.198649
2.144575
5.591512
25.683641
62.640905
155.710578
256.702900
415.158868
545.966029
668.088794
695.844889
643.196702
545.241833
372.245908
248.021483
120.389462
62.985420
23.168921
10.040998
5.016923
4.193783
4.228950
3.914833
3.851652
3.687739
4.033446
4.996657
7.328987
10.464787
16.558766
22.548437
32.221675
38.807988
46.150684
49.179792
49.306750
##ZVALUE=365
0.554919
0.270605
0.382662
0.458956
0.419617
0.461936
0.529885
0.562668
0.239611
0.603795
0.445843
0.527501
0.497699
0.553727
0.332594
0.434518
0.498891
0.539422
0.526905
0.527501
0.623465
0.455976
0.375509
0.551939
0.523925
0.423789
0.572801
0.582933
0.516772
0.645518
0.526905
0.646710
0.539422
0.571609
0.557899
0.597835
0.633597
0.586510
0.442863
0.610948
0.641942
0.646710
0.623465
0.497699
0.606775
0.703931
0.607967
0.696778
0.730753
0.797510
0.745654
0.674725
0.874996
0.782609
0.742674
0.868440
0.893474
0.950694
0.905991
1.029968
1.042485
1.092553
1.167655
1.506805
2.683997
14.287829
38.425922
102.287531
188.567638
345.527530
469.133854
602.693558
667.396784
654.352903
579.367876
421.347618
300.777555
165.539980
90.136528
32.451749
13.502836
5.266666
4.330873
3.937483
3.654957
3.732443
3.653765
3.429651
3.306866
4.523993
5.664825
9.264946
13.149977
20.495653
26.713610
34.346581
##ZVALUE=370
0.415444
0.420809
0.432730
0.358820
0.283718
0.302792
0.451803
0.452995
0.313520
0.412464
0.534654
0.329614
0.528693
0.537634
0.453591
0.488758
0.448823
0.415444
0.519753
0.434518
0.320673
0.475645
0.419617
0.442863
0.388622
0.355840
0.583529
0.602603
0.465512
0.495911
0.505447
0.471473
0.569820
0.606775
0.469685
0.369549
0.651479
0.513792
0.587702
0.508428
0.479817
0.489950
0.604987
0.615716
0.605583
0.622869
0.656843
0.661612
0.652671
0.575781
0.684857
0.882745
0.756979
0.684857
0.752807
0.672936
0.663996
0.692606
0.742674
0.921488
0.834465
1.081824
0.997782
1.088977
1.143813
1.195669
1.682639
7.346869
24.053454
76.096654
145.218968
280.429721
408.053994
565.411448
636.440516
659.976006
608.599782
472.409725
350.075960
195.798874
110.613704
43.815970
20.298958
7.782578
4.711747
3.811717
3.564954
3.412962
3.308654
3.211498
2.879500
3.190637
3.723502
5.330443
7.595420
11.829734
##ZVALUE=375
0.423789
0.204444
0.386834
0.337958
0.459552
0.387430
0.340939
0.456572
0.278950
0.428557
0.380874
0.491738
0.411868
0.478625
0.382662
0.477433
0.508428
0.415444
0.465512
0.488758
0.412464
0.462532
0.501871
0.600815
0.586510
0.504851
0.619888
0.659823
0.566840
0.607967
0.467896
0.514984
0.603795
0.500679
0.619888
0.702739
0.691414
0.664592
0.685453
0.573993
0.836849
0.704527
0.647902
0.664592
0.685453
0.550747
0.712872
0.762939
0.632405
0.738502
0.627637
0.661612
0.714660
0.682473
0.765920
0.707507
0.539422
0.736713
0.699759
0.690818
0.901818
0.727773
0.945926
0.847578
0.974536
0.884533
0.937581
0.968575
1.331568
3.606677
12.391806
45.262575
96.560717
215.823650
334.400535
498.687625
593.913794
654.736757
640.183687
530.156493
413.459539
252.650976
159.729719
79.385638
39.897561
12.925863
5.955696
3.865957
3.521442
3.271699
3.097653
3.134608
3.157854
2.897978
3.028512
3.344417
##ZVALUE=380
0.488758
0.463724
0.336766
0.417829
0.506639
0.530481
0.437498
0.441670
0.438690
0.522733
0.467896
0.411868
0.432730
0.471473
0.449419
0.512600
0.396967
0.400543
0.527501
0.456572
0.374913
0.505447
0.425577
0.544786
0.635982
0.605583
0.552535
0.573993
0.530481
0.743866
0.772476
0.819564
0.966787
0.918508
1.082420
0.914931
0.981688
0.934601
0.951886
1.061559
1.016855
0.930429
1.040697
0.896454
0.836849
0.790954
0.853539
0.968575
0.873804
1.021624
0.871420
0.666976
0.732541
0.835657
0.859499
0.790954
0.769496
0.729561
0.834465
0.667572
0.875592
0.975728
0.911951
0.944734
0.959635
0.934601
0.980496
1.104474
1.182556
1.278520
1.560450
2.016425
8.516908
26.566982
82.368851
152.394772
290.072560
414.310694
566.332936
635.694861
644.795895
584.290624
459.448695
344.677567
200.002789
118.547678
48.550963
22.247434
7.079840
4.171729
3.496408
3.401637
3.195405
3.265738
2.937913
2.932549
##ZVALUE=385
0.254512
0.189543
0.132918
0.256896
0.437498
0.199676
0.202656
0.196695
0.271797
0.272989
0.329614
0.197887
0.328422
0.236630
0.280738
0.163913
0.250936
0.182986
0.267625
0.409484
0.493526
0.397563
0.487566
0.396967
0.439882
0.514984
0.567436
0.619888
0.802875
0.873804
1.058578
1.225471
1.287460
1.474619
1.546741
1.494884
1.503825
1.540780
1.627803
1.497865
1.363754
1.341701
1.277924
1.301765
1.081824
1.022816
0.977516
0.855923
0.858903
0.823736
0.783801
0.811815
0.785589
0.672936
0.791550
0.740886
0.639558
0.539422
0.713468
0.688434
0.750422
0.667572
0.703931
0.665784
0.640750
0.676513
0.798702
0.860691
0.725985
0.848770
0.892878
1.009703
1.125932
1.218915
3.320575
18.230677
46.911836
119.119883
210.503936
368.786454
489.057899
607.619882
640.164614
609.439611
535.557866
393.923521
277.876854
150.181651
84.055662
34.236908
14.213920
4.779696
3.513694
3.025532
2.953410
2.948642
##ZVALUE=390
0.365973
0.342727
0.374913
0.441670
0.408888
0.443459
0.403523
0.373721
0.328422
0.351667
0.506639
0.366569
0.410676
0.422597
0.341535
0.419617
0.365973
0.449419
0.397563
0.410676
0.318885
0.359416
0.440478
0.468493
0.590682
0.616908
0.963807
0.948906
1.329780
1.514554
1.811981
1.918674
2.126694
2.274513
2.317429
2.417564
2.379417
2.544522
2.326965
2.425909
2.353787
2.068877
1.903772
1.942515
1.831651
1.638532
1.649857
1.414418
1.305938
1.215935
1.209974
1.255870
1.178980
0.925660
1.230836
1.026988
0.962615
0.820756
1.042485
0.931621
0.982881
0.940561
0.892878
0.856519
0.961423
0.925660
0.875592
0.870824
0.962615
1.116991
1.004934
1.032948
1.101494
1.203418
1.219511
1.306534
1.896620
9.287000
29.162765
89.744925
168.906450
313.702822
426.625609
550.417900
619.548559
636.141896
585.146546
462.966561
351.547003
212.331414
123.410821
49.665570
22.966862
7.150769
3.867745
3.074408
##ZVALUE=395
0.572801
0.465512
0.503659
0.477433
0.438690
0.415444
0.478625
0.387430
0.470877
0.258684
0.361800
0.496507
0.327826
0.479817
0.467896
0.461936
0.449419
0.346899
0.471473
0.336766
0.340939
0.263453
0.502467
0.551939
0.537634
0.801682
1.011491
1.269579
1.511574
1.798868
2.039671
2.520680
2.635717
2.864599
2.989769
3.066659
3.107786
3.145933
3.352761
3.013611
3.033876
2.681613
2.748966
2.495646
2.232790
2.101660
1.912713
1.833439
1.621842
1.599789
1.465678
1.307726
1.289845
1.313686
1.188517
1.047850
1.005530
1.008511
1.010895
0.923872
1.136661
1.061559
0.908971
0.973940
0.970960
0.914931
0.858903
0.845790
0.944734
0.781417
0.945926
1.114607
0.933409
1.043677
0.979900
1.048446
1.023412
1.327991
1.457930
5.056858
18.356442
63.675642
123.849511
244.648457
357.642770
509.524941
597.574711
653.154850
632.921457
532.940626
416.749716
256.670713
161.984563
75.751543
36.320686
12.320876
##ZVALUE=400
0.640750
0.442863
0.456572
0.497699
0.352859
0.353456
0.401735
0.347495
0.409484
0.494719
0.357628
0.385642
0.431538
0.294447
0.335574
0.322461
0.336766
0.516772
0.408888
0.422597
0.275970
0.506639
0.500679
0.481606
0.690818
0.749826
1.066923
1.147985
1.670718
1.862645
2.429485
2.690554
2.781749
3.222823
3.246665
3.178716
3.413558
3.238916
3.193617
3.256798
3.033876
2.947450
2.749562
2.648830
2.418756
2.450943
2.257824
1.966953
1.846552
1.711845
1.686811
1.596808
1.531839
1.261830
1.312494
1.144409
1.211762
1.055598
1.154542
1.130700
0.986457
0.857711
0.891685
0.878572
0.846982
0.785589
0.920892
0.969768
0.931621
1.018643
1.020432
0.982881
0.905991
1.014471
0.934601
1.033545
1.077652
1.195669
0.988841
0.938773
1.221895
2.866983
9.993911
36.776662
79.349875
178.186893
284.129977
436.174870
538.250804
621.333718
631.616712
555.561781
457.050800
303.415656
199.341774
100.727677
##END
