##TITLE=DWF25
##FORMAT=SPECTACLE-ASCII V-1.2
##DATA TYPE=ULTRAVIOLET SPECTRUM
##SECOND TYPE=ULTRAVIOLET SPECTRUM
##DATE=12/21/17
##TIME=14:03:03
##SPECTROMETER/DATA SYSTEM=SPECTACLE
##XUNITS=NM EM
##YUNITS=ENERGY
##YFACTOR=1
##FIRSTX=220
##LASTX=410
##NPOINTS=96
##3DDATA=Equidistant
##ZUNITS=NM EX
##FIRSTZ=210
##LASTZ=400
##ZPOINTS=39
##XYDATA=(Y..Y)
##ZVALUE=210
15.119910
12.764931
10.624528
9.953976
11.243820
9.938478
9.911656
7.677674
5.976558
5.534887
4.179478
2.814531
2.042651
1.875758
2.425909
2.225637
2.176762
2.226830
2.939701
2.095699
2.879500
2.537966
3.247857
2.845526
3.314614
4.494786
4.954934
6.847978
7.483959
8.407831
9.969473
12.602806
13.062954
13.366938
14.496446
15.777946
15.871525
15.757680
15.502572
14.988780
13.633966
13.951659
14.007688
14.173985
11.551976
11.670589
11.988878
11.087656
9.601712
10.526776
10.289550
9.322762
8.946657
9.557605
8.334517
8.637905
8.672476
8.950830
8.456707
8.105636
8.225441
7.903576
7.219911
6.526709
6.955862
7.152557
6.431937
6.965995
8.328557
7.395744
8.047819
8.973479
10.364652
10.690689
11.009574
11.525750
10.635853
10.929704
10.881424
11.086464
10.103583
8.839965
8.079410
6.424785
6.133914
5.850792
5.045533
5.562901
4.888773
6.020665
6.867647
10.565519
11.866689
16.718507
19.603968
25.907755
##ZVALUE=215
36.392808
35.414696
30.580759
24.131536
19.259453
16.907454
15.060902
14.091730
15.085936
13.241768
11.405945
9.616613
7.029772
5.164742
3.622770
2.653599
2.284646
2.310872
2.636909
2.873540
3.342628
2.559423
2.962947
3.137589
4.196763
5.218983
6.470680
8.345842
8.778572
12.312531
11.549592
14.742613
15.019774
15.924573
17.476678
19.682646
17.733574
18.933415
20.009875
18.185973
18.519759
17.439723
16.481876
15.280843
15.218854
14.916658
14.571548
14.211535
13.545752
11.365414
11.420846
11.630654
10.209680
10.643601
11.009574
10.013580
9.267926
10.198951
10.841489
9.980798
9.779930
7.957816
9.055734
8.831620
9.596944
8.050799
8.559823
8.645654
7.841587
8.230805
9.649992
9.134412
10.019541
10.754466
11.057854
10.810494
10.891557
11.553764
10.453463
9.980798
8.310676
7.815957
7.174611
7.478595
5.720854
5.477667
4.999638
4.837513
5.271435
4.811883
4.586577
4.286766
4.952550
5.303621
8.191466
9.722710
##ZVALUE=220
76.704621
76.978803
74.995756
68.441629
56.635737
43.674707
34.125447
29.162765
23.283958
24.136901
23.835897
24.413466
21.682978
17.702579
13.485551
9.485483
6.920695
4.452467
3.469586
3.141761
3.090501
3.307462
3.286600
3.515482
3.598928
5.278587
6.707907
8.684993
10.368824
13.263822
17.117858
17.466545
19.569993
21.434426
23.800731
23.770928
22.768974
23.684502
23.751855
23.727417
22.733808
20.950437
20.547509
19.304752
18.628836
17.548800
16.763806
16.740561
16.588569
12.911558
13.390779
14.934540
15.166998
14.473796
13.896823
13.825893
13.910532
15.092492
14.631748
12.794733
11.742711
11.919737
11.544824
12.146831
10.617971
10.924935
10.796785
9.927750
10.331869
10.871887
12.043715
11.854768
11.229515
11.814833
11.450648
13.113618
12.597442
10.894537
11.500716
9.984970
9.971857
9.769797
8.645654
8.005500
6.684661
5.531907
6.325841
5.741715
4.707575
5.365610
5.378723
5.258918
5.021691
4.920959
5.079508
4.512668
##ZVALUE=225
95.397830
100.540519
114.651918
130.567551
130.905509
120.313764
104.803443
77.811480
62.234998
46.886802
38.163662
39.193630
39.468408
37.981868
37.468672
32.255650
26.619434
21.007657
13.274550
9.251833
6.179810
4.402995
3.234744
4.149675
5.061626
5.785823
7.466674
8.158684
10.990500
14.628768
15.973449
17.387867
20.751953
21.753907
21.269917
23.869872
24.286509
25.132895
24.358630
23.405552
22.947788
22.028685
21.529794
18.135905
18.284917
17.972589
16.989708
16.394854
16.839504
15.151501
16.099811
16.580820
16.072989
16.998649
16.384721
17.245412
17.694831
15.794635
17.147660
16.510487
16.593933
15.969872
15.618801
15.502572
13.898611
15.168786
14.168620
13.464689
13.065934
15.013814
13.579726
13.892651
14.568567
13.214946
12.417436
12.699962
12.627840
11.628866
11.356473
11.899471
10.193586
9.056926
9.272695
8.415580
7.971525
7.995963
6.213784
7.127523
6.832480
6.126761
6.686449
6.424785
5.363822
5.620718
4.942417
5.717874
##ZVALUE=230
67.540407
71.039796
110.839605
151.575804
189.595819
221.497416
231.988430
207.591653
184.157491
136.439800
102.403760
73.798895
62.994957
55.993795
59.014559
60.164928
57.390928
56.784749
51.031709
36.341548
29.433966
21.232963
12.419820
8.672476
6.322861
6.410480
8.366704
7.877946
10.029674
11.904836
14.588833
15.610456
16.798973
18.286705
18.859506
18.268824
19.694567
19.541979
21.742582
20.174980
19.835830
17.341971
17.861724
15.570521
18.144846
16.023517
14.545918
14.927983
14.742613
15.074611
15.828609
16.324520
16.789436
16.231537
17.758608
17.324686
17.895699
17.906427
17.859936
19.901991
19.130707
17.333627
17.639995
16.605854
16.469955
14.992952
14.343858
15.466809
14.098883
15.292764
15.995502
14.586449
14.389753
15.363693
13.554692
15.433431
13.777614
12.731552
12.770891
10.738969
11.796951
10.848641
10.443926
9.088516
9.428859
7.750988
8.125901
7.889867
8.339882
8.143783
7.457733
6.750822
7.371902
6.769896
7.133484
5.802512
##ZVALUE=235
17.398596
21.495819
42.340755
90.478659
146.652460
213.825703
274.919868
334.237814
359.752774
344.535708
307.726860
236.616731
175.617933
116.767883
89.459419
80.481768
75.597763
83.232522
93.703866
91.644526
82.623959
71.512461
50.255656
36.409497
24.015903
17.075539
11.772513
9.764433
8.849502
9.558797
9.643435
10.376573
11.271834
13.394952
14.006495
14.631748
14.231801
14.080405
14.540553
15.732646
14.918447
14.134645
14.110804
13.189912
12.940764
12.818575
12.678504
13.394952
12.726784
13.587475
13.527870
14.460683
14.014840
15.446544
15.746951
17.184615
16.557574
17.142892
17.650723
16.980767
16.624928
17.542839
17.092824
17.584562
16.290545
16.037822
15.666485
14.921427
16.015768
16.044974
16.000867
16.909838
16.615987
17.004609
16.493797
17.555952
15.002489
14.504790
13.696551
13.746619
12.584925
12.322664
12.010932
10.696650
10.661483
9.644628
9.334683
9.883642
9.414554
9.597540
8.926988
8.460879
8.989573
7.969737
8.423924
8.705854
##ZVALUE=240
2.033710
2.590418
6.297827
21.532774
45.374632
99.626780
160.929561
260.009766
346.855521
419.565439
472.920537
475.287437
411.270857
352.810621
259.619951
186.665654
123.733878
99.189878
94.629526
97.416639
108.478665
116.744637
113.684535
100.111961
85.198879
63.421726
47.174692
29.657483
22.118688
13.695955
11.003613
9.323955
8.882880
10.055900
11.017919
10.710955
10.382533
10.896921
11.344552
10.533929
10.706782
11.172891
11.138916
11.417866
10.678768
11.412501
11.502504
10.792613
11.290908
10.659695
10.875463
11.096597
13.001561
13.003945
12.880564
12.084842
12.868643
13.251901
12.603998
12.762547
13.021827
13.848543
12.081861
13.620853
13.111830
13.429523
13.644695
11.799932
13.501644
14.030933
13.390779
14.410615
14.313459
15.641451
14.485717
14.266968
14.060736
14.513731
14.084578
13.227463
12.847781
11.201501
10.548830
11.114478
11.169910
9.794831
9.312630
8.393526
9.345412
8.406639
9.163618
8.854866
10.507703
8.322597
9.219646
8.737445
##ZVALUE=245
1.269579
1.728535
1.502633
1.565814
4.354715
11.732578
36.484599
76.305866
161.788464
251.790881
374.567509
461.839437
531.632900
556.079745
524.392724
432.921648
349.295735
241.136551
172.366500
109.328628
95.904469
98.135471
109.554529
119.668841
125.831962
122.894645
108.060837
94.857812
69.440603
51.573515
37.605762
22.677779
16.657710
12.065768
10.692477
10.563731
11.133552
10.552406
11.090636
10.211468
10.774732
10.498762
10.748506
10.674596
11.783838
10.511875
11.153817
10.205507
10.008812
10.308623
10.435581
10.280609
10.811687
10.659695
9.986758
10.567904
11.278987
10.951757
10.817647
10.805726
11.824965
9.852648
10.046959
10.252595
10.438561
10.384917
10.348558
10.134578
10.688901
11.263490
10.990500
11.996627
11.842847
12.917519
12.477636
12.853742
11.629462
10.918975
11.894703
10.471940
11.015534
9.560585
9.525418
9.570718
10.126829
8.683801
8.580685
8.989573
7.846951
8.691549
8.407831
8.393526
7.924438
7.577538
7.763505
8.011460
##ZVALUE=250
1.533628
1.549721
1.435876
1.665950
1.874566
1.718998
1.861453
8.116961
23.060441
49.468875
127.809644
217.143893
357.806683
461.624861
560.000539
617.031455
607.724786
545.172691
506.205559
325.513482
230.063796
136.483908
98.428726
89.406967
99.637508
118.455887
129.835606
138.336420
129.546523
120.339990
100.386739
76.361895
58.689713
38.318634
28.584599
19.879937
16.479492
14.160872
13.883710
12.857914
12.575984
13.423562
12.569427
12.460947
12.567639
12.426972
10.807514
11.487603
11.387467
11.901855
11.151433
10.860562
10.723472
9.886622
10.880828
10.916591
10.691881
10.616779
10.451674
9.760857
10.714531
9.779930
9.545684
9.744763
9.982586
9.649992
9.351969
9.890795
9.857416
9.904504
10.221601
10.153651
10.469556
10.329485
11.610985
11.059642
10.442734
9.876490
9.944439
9.478927
9.251833
9.036660
8.791685
8.044839
7.992983
7.316470
7.245541
6.658435
7.458925
7.128716
6.785989
6.715655
6.749630
6.870627
6.175637
6.521940
##ZVALUE=255
1.291633
1.294613
1.270771
1.577735
1.140833
1.240969
1.447797
1.417994
1.637936
4.546642
14.168620
48.493743
96.299648
202.224851
305.417776
454.180837
567.134619
668.295622
701.287985
642.918944
558.133721
406.680703
285.744667
184.050798
104.960799
84.509850
84.849000
100.639462
124.611855
138.465762
145.923495
145.086646
129.363537
111.803412
82.861781
65.598488
43.450594
34.203529
22.520423
19.847751
18.244982
17.000437
16.035438
16.949773
14.641881
14.728904
14.532804
14.301538
13.465881
13.650656
13.402700
13.075471
12.792945
12.276769
11.090636
11.220574
11.674762
11.070967
10.506511
10.614991
9.825826
9.592772
9.928942
10.350943
9.863973
9.934902
9.069443
9.502769
8.710623
9.011626
9.236932
9.662509
10.130405
10.731816
10.161996
8.920431
8.994937
8.742809
8.593798
7.553697
7.763505
7.286668
7.219911
6.988645
7.050633
6.464720
6.293654
6.353855
6.315708
6.342530
5.959868
6.104708
5.796552
5.591512
6.205440
5.939603
##ZVALUE=260
1.033545
1.326799
1.132488
1.153946
1.425743
1.224875
1.458526
1.134872
1.480579
1.215935
1.550913
2.257824
8.017421
30.332804
68.065524
154.080987
250.960588
416.243672
540.548563
692.637563
759.061575
753.720999
674.868822
552.838445
369.043946
255.303979
150.558949
97.665787
76.866746
83.922744
107.667446
127.347708
149.347782
157.943964
155.040622
141.093731
119.690895
98.131895
69.818497
55.765510
38.331747
31.712651
24.209619
21.313429
20.058751
19.810796
18.340945
17.913580
17.538667
16.923547
15.486479
15.848875
13.877749
15.073419
14.481544
13.696551
12.917519
14.013648
12.277961
12.562871
11.166930
11.008978
11.176467
10.553598
10.733604
10.216832
9.851456
10.555983
9.269714
9.802580
9.705424
9.053946
9.374619
9.455681
10.066628
9.099841
8.691549
8.276701
7.714629
7.792711
6.989837
6.744862
6.443858
6.627440
6.051660
5.740523
5.497932
5.492568
5.705953
5.517602
5.219579
5.540848
5.461574
5.560517
5.062819
5.432963
##ZVALUE=265
1.073480
0.946522
1.049638
1.140833
1.091957
1.144409
1.254678
1.418591
1.318455
1.419783
1.457930
1.316667
1.718998
2.023578
3.898740
19.538999
46.574473
115.018487
206.199884
383.898616
529.654622
670.607686
801.746845
818.601847
748.049021
650.245547
481.798649
344.053507
200.147629
126.110911
89.257956
75.071454
89.900494
119.178891
141.750574
162.012577
167.669654
163.915753
151.550770
126.994848
103.241801
75.630546
57.610869
39.569736
31.506419
25.063753
23.508668
21.556616
20.022988
18.309951
18.873811
17.836690
17.925501
16.586781
16.911626
16.078949
15.449524
14.335513
14.001727
13.929605
13.404489
12.890697
12.322664
11.801720
11.174679
10.943413
10.611415
10.498762
10.494590
9.795427
10.340810
9.939671
9.830594
9.203553
9.439588
8.862615
8.164644
7.872581
8.013844
7.446408
7.511973
6.859899
7.129908
5.938411
5.881786
5.673766
4.956722
5.541444
5.257726
4.922748
5.233884
5.148649
5.168915
5.177855
4.782677
5.225539
##ZVALUE=270
0.942945
0.768900
0.738502
0.972748
0.980496
1.120567
1.155734
1.199841
1.133680
1.021624
1.025796
1.314878
1.183748
1.569986
1.577735
1.830459
2.442598
7.052422
31.135678
71.384907
173.000693
295.723677
508.946776
661.203861
782.725811
872.020721
860.322714
748.869777
629.739761
445.480943
301.714540
168.499947
105.809569
76.038837
75.969696
99.565983
124.194622
149.691701
166.034698
172.232985
168.802738
148.463845
131.244659
100.770593
77.648759
53.565502
41.173697
31.415820
25.514960
20.889640
20.812750
19.553900
18.889904
19.144416
17.781854
16.920567
16.299486
16.000867
15.283823
14.155507
14.667511
13.998747
13.150573
12.622476
11.846423
11.585951
11.302829
10.909438
10.655522
10.247827
9.952784
9.418726
9.505749
9.599924
9.084940
8.538961
8.574724
8.233786
7.861853
7.407665
6.883740
6.803870
6.229877
5.989671
5.835891
5.787611
5.528927
5.490780
5.279779
4.888773
5.382895
4.741549
4.809499
5.066991
4.962683
5.131960
##ZVALUE=275
0.712872
0.984669
0.819564
1.005530
0.961423
0.904799
0.965595
0.989437
1.177788
0.997782
1.006722
0.988841
1.170635
1.110435
1.195669
1.416802
1.339912
1.368523
1.833439
3.864765
15.674829
43.839812
125.234723
238.582492
435.684919
586.650968
759.702921
866.805911
906.227827
862.020850
753.038526
561.623573
403.670669
225.316882
138.763785
76.595545
63.556433
74.030757
93.304515
120.830536
141.839981
158.740878
164.596438
163.228512
143.408775
116.581917
95.957518
70.292950
53.838491
36.224723
28.057694
21.813512
19.343495
17.350912
17.388463
16.776919
15.672445
15.543699
14.776587
13.869405
14.507771
13.551712
13.462901
12.522936
11.979938
11.911988
11.643767
10.867715
11.177659
10.829568
10.225773
9.895563
10.135770
9.737611
9.360909
8.330941
8.224845
8.091927
7.928610
7.144809
6.772876
6.554723
6.232858
6.631613
5.785823
5.942583
6.115437
5.200505
5.126595
5.270839
5.093813
4.565716
5.262494
4.836917
4.930496
4.802942
##ZVALUE=280
0.903606
0.838637
0.951886
0.935793
0.862479
0.737906
0.914931
0.973940
0.940561
0.784993
0.991821
1.015663
0.952482
0.993609
1.132488
1.087785
1.258850
1.177788
1.407862
1.693964
1.682639
2.078414
9.908676
32.438636
102.525949
185.743570
343.179703
495.447516
701.339841
835.740566
914.926529
911.464691
822.854638
625.169873
463.467836
269.462466
163.836479
81.598759
53.036809
49.169660
62.089562
88.342428
105.740428
133.895874
150.108933
153.874755
149.420500
134.600997
114.271641
86.416602
67.628622
45.038462
33.254623
22.877455
18.943548
14.860630
14.636517
13.603568
13.595819
12.774467
13.530850
12.564659
12.638569
12.151599
11.383891
11.359453
10.613799
10.953546
10.237694
9.708405
10.395646
9.820461
9.241700
9.184480
8.534789
8.477569
8.357763
8.108616
8.109808
7.395744
6.880760
6.258488
6.400943
5.986691
6.037951
5.860925
5.616546
5.676746
5.454421
5.073547
5.091429
4.977584
4.797578
4.950762
5.043745
4.967451
##ZVALUE=285
0.942945
0.871420
0.875592
1.056790
0.883937
0.962615
1.014471
0.974536
0.867844
0.875592
0.835657
0.979900
0.898838
1.097918
1.014471
0.993609
1.176000
1.259446
1.106858
1.307726
1.277924
1.588464
1.438856
1.713634
4.587770
15.834570
56.198835
114.516616
248.048902
390.461683
549.524426
763.818026
886.431932
933.240652
883.693695
725.435615
566.405654
355.470777
223.573446
107.627511
59.387684
34.432411
35.865903
54.192543
73.569417
101.083517
119.809508
136.346817
145.607591
141.779780
130.006671
108.230710
88.554621
63.294768
45.732856
29.715896
21.200776
15.089512
13.211966
12.133718
11.457801
10.777712
11.400580
10.917783
10.423660
10.096431
9.761453
9.608865
9.641647
9.436607
9.103417
9.264946
8.574724
8.822680
8.424520
8.196831
7.877946
7.291436
7.278919
6.842613
6.357431
5.980730
6.029606
5.846620
5.476475
5.678535
5.401969
5.287528
5.245805
4.737973
5.148649
4.957914
5.226731
4.928708
5.092621
4.938841
##ZVALUE=290
0.798702
0.773668
0.707507
0.880957
0.825524
0.800490
0.978708
0.889897
0.826716
0.821948
1.071692
0.871420
0.949502
0.850558
1.053810
1.024604
1.141429
0.948906
0.892878
1.198649
1.138449
0.969768
1.166463
1.301765
1.385808
1.523495
2.216697
6.826520
32.099485
74.461699
146.265626
305.947661
463.226438
697.558522
837.423801
942.511559
931.452513
807.232857
661.782622
441.289544
292.849541
145.545006
78.987479
33.332705
24.974942
34.284592
46.052933
68.188906
88.540912
113.888979
129.463673
138.511658
138.061643
124.247670
107.832551
81.600547
61.996579
41.472912
29.640794
18.829703
14.208555
11.082888
9.971857
9.488463
9.160638
8.738637
8.930564
8.552670
8.321404
8.552670
8.594990
8.326769
8.322597
8.231997
7.674694
6.948709
6.814599
6.722808
6.460547
6.529689
6.106496
5.788803
5.854964
5.847812
5.422831
5.521774
5.127788
5.131960
4.976988
4.696846
4.872680
4.741549
4.790425
4.959702
4.736781
4.713535
##ZVALUE=295
0.891685
0.751615
0.847578
0.683665
0.869632
0.827909
0.822544
0.789762
0.703931
0.794530
0.742674
0.773668
0.769496
0.687838
1.024604
0.722408
0.650883
0.851750
0.978708
0.971556
1.032948
1.072884
1.136661
1.119971
1.266599
1.482964
1.550913
1.449585
1.733899
3.245473
10.687709
44.886470
102.386475
244.500637
385.999680
614.216924
770.248771
907.349586
941.430926
868.049860
743.291974
531.957746
369.434953
198.074579
108.468533
42.316914
23.781657
20.236969
27.682781
43.505430
61.442852
85.859895
106.936693
123.747587
132.182837
129.254460
120.458603
99.658966
81.670880
57.262778
41.813850
18.030405
17.983913
12.594461
9.646416
8.186698
7.885695
7.391572
7.534623
7.333755
7.349849
7.424951
7.303953
6.947517
6.938577
6.928444
6.611943
6.163716
5.898476
5.540848
5.601645
5.495548
5.339980
5.454421
5.352497
4.668832
4.995465
4.800558
4.902482
4.816651
4.645586
4.883409
4.663467
4.556775
4.751682
4.663467
##ZVALUE=300
0.729561
0.635982
0.617504
0.560880
0.753999
0.899434
0.729561
0.786781
0.828505
0.707507
0.720620
0.736713
0.703931
0.809431
0.724792
0.828505
0.701547
0.893474
0.801682
0.894666
0.801682
1.167655
0.870824
1.039505
0.994802
1.166463
1.151562
1.117587
1.629591
1.467466
1.347661
1.938939
6.446838
23.247600
81.121922
156.288743
315.718651
475.945473
699.803829
832.492709
934.723616
927.373767
805.539489
659.359694
438.030958
286.083817
143.689513
75.725913
28.867722
17.273426
17.851591
24.148822
39.315820
55.550933
78.186989
97.905993
116.955638
123.929977
123.725533
114.709735
96.175671
79.372525
55.723786
41.285753
25.939941
18.427968
10.992885
8.634925
7.130504
6.708503
6.537437
6.255507
6.138682
6.224513
5.961657
5.924702
5.969405
5.530715
5.843639
5.534887
5.671978
5.248785
5.257726
5.033612
5.045533
4.781485
4.523993
4.890561
4.739761
4.786849
4.747510
4.508495
4.583597
4.325509
4.458427
4.482865
##ZVALUE=305
0.625849
0.689626
0.632405
0.705719
0.784993
0.578761
0.694990
0.578761
0.683665
0.636578
0.680685
0.677705
0.724792
0.733733
0.718832
0.812411
0.804663
0.702739
0.774860
0.764728
0.601411
0.936985
0.879765
0.851750
0.904799
1.039505
1.169443
1.083612
1.101494
1.122952
1.062751
1.477599
1.162887
1.449585
3.277659
12.725592
52.588582
115.375519
254.314542
394.856930
610.698462
762.887001
912.678838
939.021707
855.212808
727.891922
516.950488
362.754464
194.982886
106.498003
41.250587
20.588636
13.175607
15.764832
24.472475
35.817623
57.000518
72.994828
94.136000
106.234550
117.234588
117.073655
106.178522
93.425512
71.722865
55.112839
36.065578
24.827719
14.815927
10.312796
7.505417
6.475449
5.969405
5.706549
5.641580
5.488992
5.370975
4.653931
5.034804
5.088449
4.977584
4.826784
4.663467
4.918575
4.681945
4.958510
4.768968
4.391670
4.630685
4.451871
4.502535
4.432797
4.303455
4.427433
4.277825
3.985763
##ZVALUE=310
0.673532
0.880957
0.679493
0.595450
0.695586
0.492930
0.615716
0.588894
0.550747
0.690818
0.701547
0.807643
0.640750
0.672936
0.756979
0.739694
0.795722
0.798702
0.699759
0.733733
0.783801
0.890493
0.687838
0.654459
0.851750
0.869632
1.003742
1.007915
0.855923
1.033545
1.036525
1.152754
1.185536
1.304746
1.366735
1.663566
1.943707
6.369948
22.371411
76.201558
149.974823
313.320756
467.401743
690.065026
833.531618
942.971706
919.522643
803.811550
655.542016
434.518456
288.571715
145.426989
76.597929
29.041767
14.435649
11.225939
13.728738
21.952987
31.152964
49.310923
63.704848
85.987449
98.416805
109.099746
110.381842
102.307796
90.195537
69.774985
53.382516
36.165714
24.920702
15.167594
10.534525
6.908774
6.026626
5.381703
4.830956
4.584789
4.966855
4.441738
4.518628
4.760623
4.551411
4.385710
4.521608
4.341602
4.388690
4.658699
4.340410
4.176497
4.523993
4.272461
4.477501
4.017949
3.965497
4.068613
##ZVALUE=315
0.660419
0.539422
0.519753
0.515580
0.392795
0.703931
0.586510
0.611544
0.717640
0.609756
0.624657
0.664592
0.693798
0.704527
0.845790
0.761747
0.769496
0.574589
0.750422
0.672936
0.714660
0.768900
0.842810
0.811815
0.801682
0.787973
0.736713
0.866652
0.902414
0.983477
0.993609
0.997782
1.000762
1.253486
1.211762
1.199841
1.270771
1.460910
1.667738
3.273487
11.464953
48.018694
108.226538
247.012973
390.945673
615.706444
763.381720
896.400809
926.252604
853.050947
728.207827
526.052713
367.967486
195.087790
106.311440
40.488839
18.589497
9.981990
9.750724
13.079643
18.499494
31.010509
42.581558
60.833693
76.325536
94.328523
101.387501
103.462934
97.587705
81.679821
68.393946
49.125552
35.964847
21.794438
15.023947
9.019971
6.401539
5.170703
4.777908
4.396439
4.342794
4.373789
4.045963
4.248619
4.244447
4.326701
4.174709
4.291534
3.890991
4.120469
4.155636
4.123449
4.087687
3.849864
4.024506
3.954768
##ZVALUE=320
0.685453
0.566840
0.534654
0.545979
0.432730
0.689626
0.814795
0.565648
0.657439
0.732541
0.595450
0.676513
0.804663
0.585914
0.683665
0.653863
0.615716
0.741482
0.672936
0.695586
0.761747
0.565648
0.707507
0.857711
0.793934
0.790954
0.977516
0.725985
0.809431
0.943542
0.887513
1.037717
0.968575
0.955462
1.128912
0.953674
1.032948
1.297593
1.349449
1.352429
1.452565
1.941919
4.987717
26.952624
68.662763
177.700520
295.916796
489.928722
650.674701
830.133557
905.494690
887.066722
798.230767
609.418750
444.693565
245.877504
142.999887
61.008930
27.657747
10.966659
8.231997
8.867979
10.614991
16.751885
24.792552
40.683746
53.738952
72.236657
85.191727
96.390843
97.529888
90.999603
80.506802
62.291622
48.235655
31.676888
21.890998
12.740493
9.047985
5.722642
4.718900
4.244447
3.987551
3.768802
3.915429
3.855824
4.143715
3.900528
4.050732
3.818870
3.816485
3.789663
3.911853
4.042983
3.774762
4.122853
##ZVALUE=325
0.527501
0.595450
0.736713
0.663996
0.640750
0.672936
0.763535
0.585914
0.636578
0.552535
0.639558
0.690818
0.644922
0.619888
0.655651
0.677705
0.767708
0.684857
0.842810
0.718832
0.718832
0.790954
0.667572
0.690818
0.616908
0.792742
0.811815
0.594854
0.843406
0.765920
0.898838
0.781417
0.905991
0.941753
0.982881
0.956655
0.995994
1.197457
0.995994
1.339912
1.213551
1.400709
1.644492
1.707673
2.954602
17.345548
45.819879
122.791529
220.494866
403.978825
563.623905
754.633546
856.352448
886.386633
831.405520
657.953024
494.951606
292.818546
179.834962
81.179738
39.067864
13.231635
7.846951
6.948709
7.331967
10.685921
14.790893
24.751425
35.661459
54.039955
67.476630
82.387924
89.032650
90.016723
85.717440
72.390437
59.061646
41.215420
30.004978
18.173456
11.894703
7.408857
5.404949
4.319549
4.115701
3.950000
3.776550
3.780723
3.495812
3.727674
3.438592
3.577471
3.516674
3.508925
3.499985
3.425479
##ZVALUE=330
0.585914
0.457764
0.626445
0.670552
0.592470
0.559688
0.615716
0.606775
0.543594
0.453591
0.615716
0.532866
0.572801
0.507832
0.587702
0.501871
0.596642
0.715852
0.706911
0.652671
0.654459
0.546575
0.709891
0.615716
0.662804
0.521541
0.767708
0.742674
0.766516
0.792742
0.813603
0.762939
0.887513
0.793934
0.918508
1.077652
0.953674
0.984669
0.931621
1.048446
1.174808
1.114607
1.132488
1.297593
1.250505
1.577735
1.980662
7.701516
24.429560
81.054568
156.916976
313.067436
459.838510
668.956637
794.026852
873.875022
845.916867
712.116957
567.021966
363.300443
231.787562
109.416842
55.141449
20.336509
9.559989
6.455779
5.786419
6.812811
9.084940
15.266538
22.293925
34.563541
47.134757
64.345002
74.657798
83.632469
84.600449
78.590512
69.345832
53.185821
41.023493
26.985407
18.944740
11.241436
7.781982
5.319715
4.463792
3.956556
3.667474
3.461838
3.639460
3.375411
3.516674
3.606677
3.376603
3.513694
##ZVALUE=335
0.576973
0.507832
0.597835
0.613928
0.472665
0.500679
0.521541
0.668764
0.576973
0.552535
0.579953
0.548959
0.554919
0.519753
0.548959
0.505447
0.570416
0.572801
0.574589
0.585914
0.562668
0.581741
0.570416
0.708699
0.790954
0.768900
0.676513
0.768900
0.637770
0.804663
0.867844
0.855923
0.911951
0.768900
0.822544
0.860691
0.727773
0.935793
0.858903
1.022816
1.034737
1.066923
0.976920
0.970960
1.022816
1.158714
1.325607
1.385808
1.409650
3.448725
12.469888
48.860908
104.381442
232.361555
370.678902
582.567453
720.706582
833.505988
846.809745
757.435560
630.432963
430.175662
289.577842
148.629546
77.285767
26.409626
11.864901
6.281734
5.614758
5.580783
6.407499
9.044409
13.049841
22.535920
32.175779
46.991706
59.521794
70.891976
77.093840
79.114437
74.453950
61.981678
52.088499
38.278699
28.734803
17.961860
12.248755
7.586479
5.695820
4.301667
3.704429
3.368855
3.292561
3.338456
3.032684
3.382564
##ZVALUE=340
0.571609
0.594854
0.595450
0.688434
0.564456
0.579953
0.665784
0.618696
0.609756
0.529885
0.542998
0.580549
0.684857
0.647902
0.376701
0.658631
0.598431
0.637770
0.591874
0.493526
0.699759
0.562668
0.622869
0.500679
0.659823
0.481606
0.649691
0.644922
0.554919
0.660419
0.652671
0.777841
0.628829
0.720620
0.699759
0.816584
0.889897
0.875592
0.818968
0.804663
0.987649
0.818968
0.746846
0.987649
1.003742
0.939965
1.026988
1.173615
1.026988
1.413822
1.436472
1.858473
6.106496
29.940605
73.023438
180.730820
302.917957
491.752625
638.920665
784.194469
826.129913
777.967572
676.133633
493.836999
346.004963
177.270770
98.436475
39.926767
16.585588
6.858706
5.677938
5.164742
5.514622
6.120801
8.067489
13.538599
19.595623
31.162500
42.008758
57.516694
67.141652
73.087811
73.629618
68.797469
61.835647
48.949718
38.907528
26.452541
18.743873
11.920929
7.998943
5.130768
4.261732
3.650784
2.854466
3.281832
##ZVALUE=345
0.508428
0.497699
0.485778
0.519753
0.425577
0.445843
0.459552
0.615716
0.513792
0.529885
0.669956
0.614524
0.593662
0.595450
0.511408
0.389814
0.478625
0.622869
0.492930
0.531673
0.571609
0.750422
0.525713
0.798702
0.686646
0.635982
0.574589
0.648499
0.644922
0.545979
0.719428
0.760555
0.519753
0.581741
0.644922
0.727773
0.691414
0.849962
0.848770
0.860691
0.804663
0.755787
0.692606
0.924468
0.839829
0.811815
0.882745
0.870824
0.906587
0.986457
1.174808
1.436472
1.201630
1.587868
2.895594
16.586781
44.615865
119.929910
213.267803
388.582945
532.038808
700.928569
781.052709
790.658593
719.228983
548.047423
404.735804
239.511728
133.827925
52.420497
23.683906
8.910894
6.202459
5.035996
5.194545
5.016923
5.479455
7.557869
10.866523
18.747449
27.488470
40.096641
49.895644
60.226917
65.668821
67.638755
64.881444
57.622790
48.981905
37.433505
28.240681
17.546415
12.231469
7.631779
5.767941
4.251599
##ZVALUE=350
0.634789
0.657439
0.493526
0.475645
0.514984
0.577569
0.447631
0.623465
0.502467
0.664592
0.752807
0.495911
0.678897
0.536442
0.652671
0.565648
0.484586
0.590682
0.568628
0.464916
0.455976
0.527501
0.706911
0.499487
0.615716
0.610948
0.733733
0.682473
0.599623
0.652671
0.593662
0.569820
0.526905
0.740886
0.541806
0.788569
0.743866
0.774860
0.710487
0.717640
0.836849
0.735521
0.691414
0.766516
0.855923
0.748634
0.908971
0.848770
0.936985
1.053810
1.188517
1.139641
1.173615
1.174808
1.170635
1.310706
1.837611
8.495450
25.987625
80.145001
152.853727
308.378935
444.823503
616.381764
722.905993
780.137777
740.102530
605.833530
462.519526
273.615718
165.873766
74.948668
34.807920
11.110902
5.833507
4.974604
4.414916
4.365444
4.182458
4.942417
6.464720
11.009574
15.930533
24.209619
32.375455
44.351816
52.182674
59.838891
61.281919
59.983730
54.783821
44.758916
35.934448
25.418997
18.472672
12.003779
##ZVALUE=355
0.458956
0.545979
0.565648
0.407696
0.565648
0.517964
0.424981
0.455976
0.726581
0.539422
0.724792
0.619888
0.463724
0.628829
0.597835
0.533462
0.528693
0.567436
0.464916
0.447631
0.616908
0.705719
0.527501
0.610948
0.579953
0.589490
0.614524
0.672936
0.689626
0.653863
0.606775
0.642538
0.611544
0.695586
0.617504
0.786781
0.714660
0.495911
0.698566
0.790954
0.636578
0.725985
0.649691
0.757575
0.840425
0.822544
0.851750
0.827909
0.757575
0.835657
0.806451
0.980496
0.962615
0.938773
0.935793
1.174808
1.180768
1.381636
1.362562
3.917813
13.801455
52.937865
108.463764
228.380561
356.021523
544.946790
660.226941
743.635893
740.356445
626.968741
506.006479
332.028866
211.063623
93.489885
44.753551
14.370680
6.857514
5.079508
4.387498
4.215837
3.882647
3.866553
4.448891
6.136894
8.504987
14.610887
20.076632
29.632449
38.197637
47.078729
52.655935
55.976510
54.786801
49.663782
43.684840
33.893585
##ZVALUE=360
0.514984
0.509620
0.521541
0.385642
0.542998
0.603795
0.451803
0.514984
0.526905
0.550747
0.518560
0.370741
0.560880
0.443459
0.626445
0.544786
0.603795
0.669956
0.655651
0.699759
0.655651
0.620484
0.712872
0.629425
0.598431
0.655651
0.687838
0.638962
0.639558
0.539422
0.560880
0.454783
0.521541
0.592470
0.662804
0.611544
0.647902
0.806451
0.832677
0.765920
0.784993
0.686646
0.807643
0.666976
0.818968
0.433922
0.764728
0.686646
0.763535
0.890493
0.718832
0.916719
0.954866
1.060963
1.045465
1.075864
1.054406
0.965595
1.093745
1.323819
1.331568
2.057552
5.951524
27.365685
66.162944
164.266825
272.002816
440.002680
576.889515
703.192949
730.206966
672.333837
567.505956
386.629701
258.141756
125.134587
64.991713
24.071932
10.130405
4.811883
4.427433
4.046559
3.706813
3.773570
3.545880
3.834963
4.843473
7.332563
10.427833
16.566515
23.359656
33.564568
40.007830
47.486424
50.620437
50.995946
##ZVALUE=365
0.542998
0.523925
0.561476
0.535846
0.604987
0.453591
0.487566
0.574589
0.410676
0.429749
0.463724
0.612736
0.418425
0.534654
0.561476
0.742674
0.615716
0.532866
0.529885
0.558496
0.623465
0.451803
0.663996
0.536442
0.593662
0.629425
0.635982
0.619888
0.566840
0.389814
0.595450
0.606775
0.573993
0.683665
0.639558
0.643730
0.673532
0.740886
0.674725
0.618696
0.757575
0.730753
0.568628
0.758767
0.662804
0.876784
0.687838
0.724792
0.785589
0.834465
0.794530
0.875592
0.824928
0.873804
0.896454
0.892878
1.096725
1.000762
1.111627
1.105666
1.224875
1.013875
1.211762
1.464486
2.923608
15.214682
41.723847
110.270977
201.702714
370.638967
498.094559
632.785559
695.828795
684.414506
600.891709
438.923836
310.347676
170.300007
92.318654
33.348799
13.535619
5.439520
4.302859
3.978610
3.856421
3.548861
3.312826
3.069639
3.270507
4.111528
5.566478
9.187460
12.985468
20.185709
26.676655
34.916997
##ZVALUE=370
0.596642
0.461936
0.477433
0.475645
0.454783
0.426769
0.600815
0.510812
0.464916
0.486970
0.498891
0.542998
0.504851
0.514984
0.477433
0.489950
0.483990
0.520945
0.629425
0.553727
0.577569
0.610948
0.460744
0.503659
0.599623
0.626445
0.726581
0.553727
0.473857
0.586510
0.543594
0.657439
0.623465
0.676513
0.579953
0.600815
0.628829
0.487566
0.830889
0.621676
0.590682
0.648499
0.633597
0.606775
0.758767
0.693798
0.701547
0.745654
0.848770
0.699759
0.825524
0.753999
0.760555
0.839829
0.822544
0.891685
0.859499
0.996590
0.881553
0.911951
0.924468
0.859499
1.076460
1.013875
1.108646
1.267791
1.904964
7.582903
24.681687
80.871582
151.467919
289.523602
419.031978
588.715672
673.762560
690.030456
632.797480
496.105552
366.115570
202.452540
113.027692
44.016838
20.351410
7.677674
4.614592
3.845692
3.505945
3.428459
3.313422
3.226995
2.926588
3.200769
3.713965
5.230904
7.299781
12.020469
##ZVALUE=375
0.380874
0.459552
0.282526
0.305772
0.526905
0.603795
0.463724
0.590682
0.440478
0.415444
0.539422
0.412464
0.398755
0.305772
0.575781
0.369549
0.428557
0.544786
0.498891
0.494719
0.734925
0.467896
0.542998
0.505447
0.550747
0.611544
0.481606
0.632405
0.581741
0.636578
0.690818
0.641942
0.539422
0.616908
0.739694
0.591874
0.515580
0.596642
0.642538
0.595450
0.745654
0.567436
0.582933
0.863671
0.680685
0.759959
0.751615
0.655651
0.533462
0.705719
0.572801
0.646710
0.643730
0.633597
0.559688
0.634789
0.788569
0.711679
0.813603
0.766516
0.740886
0.758767
0.815988
0.932813
0.969768
1.105666
1.183748
1.300573
1.411438
3.785491
13.020635
48.007965
102.987885
227.518678
353.592634
524.806976
624.217987
688.100457
668.480992
549.419522
425.421000
258.208513
163.501501
80.592632
40.189624
13.009906
5.919933
3.747940
3.465414
3.372431
3.215671
2.978444
2.872944
2.743602
2.820492
3.304482
##ZVALUE=380
0.323653
0.341535
0.394583
0.491738
0.367761
0.462532
0.481606
0.389814
0.375509
0.536442
0.402927
0.382662
0.398755
0.519753
0.643730
0.602603
0.522733
0.486970
0.396967
0.486970
0.408888
0.436902
0.618696
0.471473
0.551939
0.496507
0.458956
0.508428
0.636578
0.558496
0.502467
0.434518
0.658631
0.677705
0.685453
0.675917
0.698566
0.836849
0.794530
0.599623
0.812411
0.781417
0.691414
0.575781
0.608563
0.648499
0.611544
0.701547
0.680685
0.590682
0.660419
0.723600
0.819564
0.598431
0.616908
0.606775
0.697970
0.657439
0.567436
0.538826
0.751615
0.829697
0.730753
0.748634
0.849962
0.856519
0.817776
0.938773
1.045465
1.216531
1.212955
2.082586
7.483959
34.238696
79.827905
183.385611
295.474529
457.825661
576.551557
673.114657
675.923824
588.073730
480.463505
322.072506
214.302540
105.073452
54.281950
18.942952
8.259416
3.881454
3.346801
3.189445
3.115535
2.695918
2.712607
2.714992
##ZVALUE=385
0.530481
0.534654
0.575781
0.416636
0.477433
0.719428
0.581741
0.663996
0.571609
0.590682
0.596642
0.400543
0.375509
0.518560
0.467896
0.618696
0.573993
0.541806
0.480413
0.371933
0.348687
0.429749
0.199676
0.511408
0.458956
0.464916
0.594854
0.750422
0.677705
0.955462
0.887513
0.844598
0.910759
0.894666
0.876784
1.042485
1.009703
0.965595
0.999570
0.940561
1.095533
1.084805
0.969768
1.036525
0.952482
0.966787
0.793934
0.896454
0.833869
0.898838
0.869632
0.903606
0.774860
0.817776
0.762939
0.734925
0.684857
0.670552
0.833869
0.819564
0.843406
0.810623
0.826716
0.910759
0.956655
0.930429
0.932813
0.886917
1.144409
1.062751
1.106858
1.168847
1.336932
1.666546
3.591776
17.891526
47.443509
128.439665
224.162936
388.603806
513.248444
635.980964
670.696497
636.142492
558.284521
407.808423
287.222862
154.391527
86.929798
35.392642
14.692545
4.919767
3.492832
3.210902
3.157854
2.938509
##ZVALUE=390
0.432730
0.497699
0.478625
0.406504
0.436902
0.520945
0.517964
0.531673
0.455976
0.455976
0.501871
0.354648
0.556707
0.533462
0.472665
0.425577
0.451803
0.498891
0.439882
0.410676
0.438690
0.383854
0.532866
0.527501
0.659823
0.668764
0.708699
0.762939
0.844598
0.941753
0.978708
1.013875
1.158714
1.088977
1.089573
1.177788
1.107454
1.207590
1.145601
1.353621
1.201630
1.144409
1.033545
1.081824
1.001954
0.982881
0.881553
0.956655
0.843406
0.943542
0.903606
0.753999
0.907779
0.855923
0.886917
0.734925
0.866652
0.888705
0.862479
0.788569
0.767708
0.909567
0.854731
0.911951
0.917912
0.923872
0.924468
0.796914
0.833869
0.999570
0.978708
0.951886
1.127720
1.015663
1.130700
1.434684
1.898408
9.526610
30.467510
94.145536
177.394748
329.068899
446.955562
576.313734
648.546815
664.237738
610.718727
481.386781
364.810824
219.978690
127.558708
51.534772
23.305416
7.046461
3.823638
2.858639
##ZVALUE=395
0.623465
0.643730
0.511408
0.663996
0.485778
0.647902
0.573993
0.604987
0.537634
0.554919
0.647902
0.498891
0.534654
0.694990
0.644922
0.522733
0.735521
0.646710
0.534654
0.655651
0.581741
0.597835
0.595450
0.557899
0.617504
0.780821
0.768900
0.916719
1.004934
0.944734
1.079440
1.342893
1.285672
1.374483
1.473427
1.521707
1.554489
1.480579
1.561642
1.564622
1.386404
1.527667
1.302958
1.395941
1.261830
1.352429
1.163483
1.251698
1.176000
1.075864
1.089573
0.901818
0.900626
0.966787
1.064539
0.877976
0.972748
0.928640
0.998974
1.019835
0.923872
0.999570
1.021624
0.984669
0.966787
1.057982
1.054406
1.133680
1.117587
1.187921
1.186728
1.242757
1.266599
1.244545
1.205802
1.280904
1.243949
1.311898
1.542568
5.682707
20.002723
67.772865
129.877925
246.487856
363.667011
525.820851
624.479651
680.285692
659.364462
557.186604
436.702967
269.058943
166.569948
73.280931
34.484863
11.746883
##ZVALUE=400
0.534654
0.701547
0.553727
0.676513
0.494719
0.612736
0.370741
0.496507
0.415444
0.511408
0.548959
0.388622
0.453591
0.556707
0.487566
0.455976
0.515580
0.592470
0.436902
0.484586
0.435710
0.569820
0.480413
0.492930
0.547767
0.436902
0.679493
0.682473
0.908971
0.947714
1.185536
1.131892
1.157522
1.344681
1.498461
1.450777
1.521707
1.366735
1.426935
1.471639
1.463890
1.239777
1.317859
1.228452
1.098514
1.214743
1.315475
0.968575
0.995994
1.095533
0.938773
0.983477
0.914931
0.836849
0.878572
0.974536
0.882745
0.788569
0.840425
0.854731
0.820756
0.655651
0.692606
0.704527
0.637770
0.832677
0.795722
1.016855
0.979900
1.026988
0.871420
1.032948
1.067519
1.004934
0.870824
1.037717
0.915527
0.843406
1.251698
1.112819
1.145601
3.045797
10.383725
38.452744
82.560778
184.517503
294.931531
454.038978
563.042760
649.114847
659.290552
577.438474
473.079681
311.072469
202.845931
101.992488
##END
