##TITLE=DWF35
##FORMAT=SPECTACLE-ASCII V-1.2
##DATA TYPE=ULTRAVIOLET SPECTRUM
##SECOND TYPE=ULTRAVIOLET SPECTRUM
##DATE=12/21/17
##TIME=14:11:56
##SPECTROMETER/DATA SYSTEM=SPECTACLE
##XUNITS=NM EM
##YUNITS=ENERGY
##YFACTOR=1
##FIRSTX=220
##LASTX=410
##NPOINTS=96
##3DDATA=Equidistant
##ZUNITS=NM EX
##FIRSTZ=210
##LASTZ=400
##ZPOINTS=39
##XYDATA=(Y..Y)
##ZVALUE=210
14.799833
13.640523
12.088418
10.946989
11.179447
9.431839
9.617805
8.236766
6.481409
5.460978
3.897548
2.958775
2.641678
3.167987
2.928972
2.571940
2.565980
2.348423
2.628565
2.646446
3.034472
3.117919
3.528595
4.312992
5.506873
8.141994
10.139942
13.317466
18.169880
21.473765
27.410984
29.764771
36.564469
39.751530
39.042830
43.660998
41.835904
41.544437
40.502548
38.261414
37.912726
37.850738
34.362674
33.516884
31.139851
27.454495
26.318431
24.438500
23.585558
23.741722
21.032691
20.407438
19.617677
17.047524
17.640591
16.014576
13.817549
14.857650
14.177561
14.595985
12.465715
11.697412
11.562705
12.604594
10.631680
11.689663
10.940433
10.614991
10.987520
11.508465
11.779666
11.889935
13.454556
13.008714
15.860796
14.789701
14.426708
14.281869
13.554692
13.456941
12.282729
11.041760
8.721948
9.634495
8.506775
6.517768
5.910993
5.707741
6.662607
7.442832
10.529757
10.203719
14.857650
17.210841
21.688938
25.731921
##ZVALUE=215
37.434697
36.717653
29.574633
24.722815
22.021532
17.356873
16.140938
14.803410
14.979839
13.794899
11.908412
8.788705
6.579757
4.881620
4.188418
3.238916
2.441406
2.625585
2.798438
3.339648
3.647804
3.506541
3.975630
5.108714
7.053614
7.455945
12.818575
15.646815
22.656918
28.599501
34.685731
37.305951
41.473508
46.238899
49.817562
49.319863
50.440431
49.942732
48.190951
48.243999
44.611692
41.993856
40.253997
38.436651
35.977960
32.458901
30.012727
30.419827
27.220845
25.965571
25.351644
25.073886
22.216439
21.736622
19.636750
18.688440
18.974543
17.208457
17.320514
18.041730
16.418695
14.427900
13.543963
11.706948
12.893677
11.611581
10.311604
11.832714
12.550950
12.039542
12.424588
13.931990
13.195872
13.140440
14.399886
13.938546
12.613535
13.349652
12.244582
13.053417
11.644959
11.494756
10.085702
8.907914
7.509589
8.029938
6.287694
5.791783
6.136894
6.275773
5.605817
6.184578
5.616546
6.332994
8.009672
9.802580
##ZVALUE=220
78.843832
77.864528
76.085925
66.342950
56.110620
46.181679
36.050677
28.283596
23.660660
24.657845
24.280548
24.735928
20.163655
17.105937
13.385415
10.273457
7.326603
6.044507
4.234910
3.185868
3.461838
3.573895
3.441572
4.921556
6.138682
8.834600
11.436939
18.263459
21.859407
29.798746
38.731694
42.533875
50.211549
54.086447
57.087541
59.680939
61.161518
59.631467
57.005882
54.358840
51.377416
48.267841
47.932863
42.408705
42.388439
39.337873
36.021471
34.877658
32.548904
31.284690
29.631853
28.051734
25.535822
24.047494
24.089813
24.279952
24.517775
21.192431
19.303560
20.325780
20.265579
16.749501
17.574430
14.920831
14.927983
14.829636
14.917850
13.197660
13.632774
14.218688
14.942884
15.095472
14.435649
14.835000
15.814900
15.199780
14.820695
13.201833
14.396906
11.644959
11.183619
10.880828
10.652542
9.395480
9.767413
8.242726
7.200837
6.563663
6.553531
6.194711
6.495714
6.138682
5.948544
6.008744
6.072521
6.298423
##ZVALUE=225
100.121498
104.108453
120.467544
131.744742
132.051706
119.181871
107.279420
77.816844
61.209798
46.841502
37.815571
38.078427
37.108660
37.530661
36.605000
31.059980
26.560426
19.115806
14.398694
9.769797
6.317496
4.639626
4.339814
4.966855
6.368756
9.334683
12.251735
17.173886
21.441579
28.057694
35.253763
40.230751
45.545697
50.792694
51.415563
53.003430
54.362416
55.614710
54.688454
48.905611
53.131580
48.726797
43.667555
43.357611
42.437911
38.512945
36.381483
33.521652
30.412674
29.035807
29.079914
24.598837
28.747916
26.278496
26.148558
24.468899
23.884773
24.495721
21.363497
22.733808
21.517873
20.496845
18.057823
18.392801
19.374490
17.499924
16.521811
16.018748
16.804934
17.449856
16.420484
15.631914
15.341640
14.836788
14.726520
14.712811
13.639927
14.291406
13.812780
13.424754
12.248755
12.149811
10.004640
8.901954
8.673668
8.119941
8.457899
6.874800
7.487535
6.964803
7.123947
6.736517
6.728768
6.214976
6.850958
6.144643
##ZVALUE=230
67.021847
71.991682
105.847716
155.138969
192.519426
214.270949
225.730538
209.950805
187.049508
148.136616
104.590654
73.665977
59.392452
54.624677
54.852962
60.288906
62.530637
57.286620
51.968694
40.010810
30.882955
19.733906
12.730956
8.824468
8.530617
8.311868
9.507537
12.494922
15.443563
19.796491
22.770762
27.754903
29.841661
32.292604
34.056902
35.893917
37.114620
37.114620
34.580827
36.405921
36.183000
33.114552
34.630895
32.883883
29.202700
28.610826
27.912855
24.540424
24.724603
23.002625
23.617744
24.000406
22.906661
24.094582
23.186803
22.776723
23.334622
23.149848
22.010803
21.485686
21.563768
21.366477
21.461844
20.463467
20.694733
18.582940
18.862486
17.695427
16.980767
16.885996
17.876625
17.940998
17.099977
18.514991
17.381907
16.706586
14.799833
14.513731
15.286803
14.367700
12.703538
12.435913
11.629462
10.427833
9.603500
10.212660
9.393692
9.018779
8.985996
8.333921
8.427501
7.469654
7.934570
7.056594
7.540584
7.915497
##ZVALUE=235
20.784736
20.835996
52.243471
90.670586
151.242614
206.395984
280.444622
326.382518
351.088643
336.198807
290.165544
235.720873
180.844665
118.878484
95.954537
78.749657
79.091787
84.939003
90.298653
87.543726
81.387758
72.667599
53.111911
39.616823
23.922920
18.047690
12.693405
11.413693
10.815859
11.786819
14.884472
15.547872
18.052459
18.789768
19.174814
19.080639
20.286441
20.744801
21.959543
21.643639
21.009445
20.637512
18.695593
19.774437
19.200444
17.292500
18.900633
17.664433
17.635822
17.610788
17.834902
18.912554
19.955635
20.416975
19.718409
19.794703
21.178722
20.069480
19.704700
19.825697
19.558668
19.285679
17.836690
18.722415
18.093586
16.947985
18.024445
16.889572
16.795993
17.093420
17.088652
19.354820
20.159483
17.258525
17.452836
16.474724
17.222762
16.591549
15.246868
13.740659
13.783574
13.128519
11.458993
12.353659
10.968447
10.340810
10.789633
10.822415
10.474920
9.461641
9.297729
9.367466
9.967685
9.016991
8.322597
9.386539
##ZVALUE=240
2.285838
2.179742
5.928874
22.187829
46.044588
100.729465
154.331923
265.886784
350.295901
440.660715
472.385883
477.305651
425.759554
340.100527
254.816413
194.329619
128.635764
100.110769
94.030499
98.874569
111.992955
118.952990
113.868713
103.495717
79.434514
64.201951
48.341751
31.945705
22.883415
15.452504
13.714433
13.769865
12.702942
14.112592
14.372468
15.699863
15.235543
15.432835
16.449690
15.244484
16.370416
15.547872
16.462803
14.412999
15.476942
14.609694
14.405847
14.315844
15.291572
14.895797
14.498830
14.034510
14.356971
14.721751
15.129447
16.306639
16.477704
15.034676
15.029907
16.117692
17.425418
16.108751
15.673637
15.309453
16.039610
15.077591
14.237761
14.428496
16.235709
16.299486
15.872717
16.660690
16.656518
16.713738
16.805530
17.521977
16.487837
15.356541
15.003681
15.238523
13.618469
13.762712
12.200475
11.862516
12.411475
10.082722
9.841919
10.125637
11.139512
10.980964
9.888411
9.395480
9.830594
8.871555
9.381771
10.677576
##ZVALUE=245
1.904964
1.571774
1.809597
1.965761
3.743768
13.727546
32.765865
84.905624
149.922967
263.624787
357.476473
481.694937
538.149476
556.680560
535.215735
437.187552
345.891714
242.411494
169.691443
109.243989
96.608996
92.345476
108.175874
123.530626
130.122900
126.538873
108.518600
96.602440
73.308945
55.116415
37.953854
28.758645
21.170974
16.687512
15.924573
14.761686
16.081929
16.402602
17.125607
16.229749
16.162992
16.328692
15.516877
15.912652
15.569925
15.301704
15.152693
14.791489
15.615821
13.506413
15.893579
16.104579
14.302731
14.055967
14.096498
14.335513
13.107657
14.144778
13.659596
13.639927
12.960434
13.749599
12.671947
13.620853
12.883544
12.561679
12.980700
12.946725
11.916757
11.710525
13.417602
13.100505
13.765693
14.711618
13.710856
14.837980
14.388561
13.409853
13.081431
13.072491
11.624694
12.007952
11.945963
10.415912
9.835958
9.182692
9.886622
9.766817
9.207726
9.480715
8.906722
8.886456
7.903576
8.858442
8.801818
8.345842
##ZVALUE=250
1.732707
1.526475
1.497865
1.708865
1.663566
1.746416
2.440810
7.824898
27.821660
60.163736
142.917633
231.227875
339.168906
486.145616
562.351942
631.371737
624.677539
552.086830
474.028587
322.432518
226.262808
153.931975
97.392797
88.846684
102.448463
118.462443
133.062601
138.998628
132.768750
122.617483
110.795498
87.505579
70.325732
47.921538
38.356781
28.830767
24.861693
23.220778
22.821426
22.785664
22.317767
22.465587
21.404624
20.635724
21.137595
19.864440
18.710494
18.191934
18.029809
17.355680
16.392469
16.561747
16.454458
15.815496
16.770959
15.727878
15.009642
14.092922
14.313459
13.671517
13.489723
12.565851
12.665987
13.149977
11.958480
12.391806
12.200475
11.026859
12.046695
11.497736
12.605786
11.800528
12.105703
12.560487
12.774467
13.859868
11.863708
11.803508
10.046959
10.404587
10.115504
9.714961
9.562969
9.607673
8.874536
8.190870
8.398890
7.910728
7.631779
7.888675
7.195473
7.527471
7.446408
7.601976
8.266568
7.726550
##ZVALUE=255
1.381636
1.638532
1.414418
1.300573
1.226664
1.503825
1.534820
1.704693
2.135634
3.661513
15.483499
41.679740
105.726719
183.279514
313.074589
442.818999
593.615770
671.990514
707.141757
675.774813
581.770539
421.226621
297.386646
177.474618
118.080974
85.037947
87.197423
111.058950
127.758980
147.773623
156.374574
154.702663
144.724846
122.647882
104.959607
79.391003
61.908960
47.437549
40.478706
34.438968
32.645464
30.828714
29.968619
28.816462
26.613474
26.638508
26.828647
23.980737
22.630692
22.859573
20.389557
19.611716
19.334555
19.858479
18.641949
18.243790
17.106533
15.559793
15.122890
16.012788
14.198422
14.687777
14.180541
14.353991
12.577772
13.727546
11.846423
12.315512
11.598468
12.598634
12.596846
12.231469
11.486411
11.422634
11.731982
11.992455
10.669827
10.577440
10.400414
9.965897
8.856654
8.362532
8.353591
7.599592
7.152557
7.189512
6.742477
7.388592
7.223487
7.047653
6.310940
6.592870
7.069707
6.947517
6.831884
6.899834
##ZVALUE=260
1.345873
1.313686
1.166463
1.296997
1.398921
1.296997
1.306534
1.302958
1.524687
1.591444
1.715422
2.736449
7.331967
29.660463
66.601634
156.400800
255.191922
417.394638
545.607805
705.468655
776.445866
773.062706
682.957768
556.876659
381.531715
262.070894
156.220794
106.866956
86.011887
97.000003
124.497414
146.975517
167.914629
180.185437
182.806849
167.031884
152.768493
124.404430
101.404786
77.023506
62.586665
51.369667
44.617653
39.559603
36.782622
36.802888
34.446716
31.011701
30.042529
28.991699
28.717518
26.045442
24.384856
23.385882
22.318959
20.819902
20.934939
19.363761
19.179583
18.311739
17.786622
16.959906
16.106963
15.266538
14.160872
13.916492
13.416409
13.404489
12.872815
12.550950
12.010932
11.700988
11.465549
11.641979
10.919571
10.853410
10.674000
10.073781
9.554625
8.660555
8.744597
7.788539
8.196831
7.306933
7.187724
6.806850
6.486773
6.892681
6.476641
6.311536
5.798936
6.184578
6.382465
5.898476
6.563663
6.151795
##ZVALUE=265
1.047850
1.104474
1.214743
1.123548
1.138449
1.023412
1.254678
1.401901
1.500845
1.406670
1.451969
1.401901
1.555681
1.952648
4.692674
15.596747
57.273507
110.439658
196.500421
367.187858
521.069765
718.344450
819.061995
844.134688
786.657929
631.179810
503.340960
328.697562
227.159858
135.151744
105.473995
99.549890
116.515756
149.705410
170.153975
196.165442
201.133490
195.751786
182.089806
155.658722
130.370855
101.983547
83.502531
64.563751
53.812861
44.934750
41.527748
39.838552
36.122799
35.437942
32.471418
30.938983
29.330850
27.986765
26.311874
25.583506
24.160743
22.034645
20.634532
19.799471
20.077825
17.588735
17.949939
16.699433
16.043782
15.665889
14.435649
14.038682
13.320446
13.656616
11.800528
11.918545
12.579560
11.599660
11.314750
11.016726
10.097623
9.931922
9.423494
8.178949
8.677840
8.033514
8.261800
6.744862
7.185936
6.886721
6.359816
6.341934
6.194711
6.283522
6.323457
5.815625
5.502701
6.004572
5.900860
5.612969
##ZVALUE=270
1.087785
1.042485
1.041889
1.109838
1.287460
1.230836
1.205802
1.364946
1.205802
1.234412
1.203418
1.329780
1.484752
1.517534
1.743436
1.722574
2.284646
8.682609
26.332736
82.846880
166.423917
288.461447
504.497886
663.936734
840.114951
900.357962
884.845853
801.452994
629.412532
477.101803
339.917541
201.189518
135.203600
101.590753
106.973648
132.148862
154.408813
184.563994
197.283626
207.929611
200.752616
180.679560
159.620643
126.889944
101.963878
75.945854
61.156750
49.824715
42.923689
37.602782
36.044717
32.508969
30.820966
29.106736
28.272867
26.032925
25.039911
22.835732
21.745563
21.501780
20.088553
19.147992
17.960668
17.216802
16.731620
15.174747
14.766455
13.519526
13.613701
13.132691
12.838840
12.681484
12.368560
11.983514
11.624694
10.645986
10.707974
9.944439
9.473562
9.412766
8.801818
8.068681
7.446408
7.408857
7.137656
7.158518
6.708503
6.283522
5.996823
6.223917
5.976558
6.097555
5.673766
6.013513
5.634427
5.564690
##ZVALUE=275
1.002550
1.162887
1.098514
1.010895
1.115799
1.246929
1.072884
1.158714
1.094937
1.153946
1.094937
1.135468
1.315475
1.242757
1.518726
1.438856
1.531839
1.934767
1.845956
4.379749
16.198754
45.692921
132.262707
242.666006
450.310707
602.597594
785.771012
905.997753
935.662985
888.418555
788.709521
592.463017
432.430506
250.056982
162.786841
100.121498
88.303685
98.552704
116.761923
146.516562
166.638494
183.805823
187.776685
178.337693
165.892839
136.384964
111.986995
86.954832
67.392588
48.634410
38.961768
32.054782
28.498769
26.181936
25.231838
23.480654
22.985935
21.514893
21.105409
20.004511
18.978715
18.142462
17.003417
16.768575
15.953779
14.539957
14.686584
14.046431
13.826489
13.196468
12.373924
12.686849
12.130737
11.086464
11.245608
10.761619
10.433793
9.715557
9.160638
8.673668
8.693933
7.907748
7.437468
7.554889
6.820560
6.564856
6.383657
6.174445
6.822944
5.979538
6.174445
5.535483
5.890727
5.482435
5.606413
5.045533
##ZVALUE=280
0.865459
0.825524
0.770688
0.996590
1.151562
1.075864
0.843406
1.141429
0.990629
1.094937
0.998974
1.192689
1.247525
1.090765
0.936985
1.145601
1.160502
1.386404
1.395941
1.457930
1.540780
2.089739
9.733438
32.384992
102.925897
189.946890
355.075598
516.171455
733.324885
860.871673
950.053930
936.232805
849.708915
656.370521
495.429635
291.409492
183.256865
97.060800
68.074465
61.789751
74.325800
99.551678
121.744871
147.324800
159.968734
167.439580
160.715580
142.331719
124.805570
96.016526
75.112581
52.300692
39.097667
28.858781
23.658872
19.791722
18.425584
17.322898
17.511845
16.787648
16.679764
15.700459
15.674829
14.153719
14.794469
13.449788
13.535619
12.318492
12.603998
11.871457
11.550784
11.832714
11.331439
10.706782
10.566711
10.463595
9.613633
9.435415
9.027719
8.173585
7.792711
7.496476
7.587671
7.409453
6.702542
6.594658
7.018447
6.349683
5.849600
6.047487
5.716681
5.739927
5.686879
5.905628
5.658865
5.320907
##ZVALUE=285
0.867844
0.964999
0.869632
0.966787
0.866652
0.964999
0.989437
0.912547
0.969768
0.921488
1.029968
0.988841
0.952482
0.849962
1.051426
1.058578
1.221895
1.139641
1.183748
1.293421
1.383424
1.416802
1.464486
1.995564
5.173683
17.903447
59.192777
121.706724
259.563923
407.125950
573.191643
783.923864
908.644795
970.370770
915.969014
750.174522
592.974424
370.653868
232.346654
114.733577
65.134764
38.744807
41.139722
58.307648
76.193810
106.773973
125.840902
143.135786
150.306821
146.825910
137.362480
113.208890
91.882944
66.077709
48.629642
31.535625
23.755431
18.741488
15.351772
14.596581
13.490915
12.889504
13.252497
13.334751
12.180805
12.454987
11.490583
11.850595
11.389852
10.966659
10.954738
10.711551
10.256767
9.919405
9.595752
9.842515
8.575916
9.169579
8.363724
8.189678
7.654428
7.354617
7.086992
6.664991
6.771684
6.689429
6.466508
6.130934
6.286502
6.081462
5.638599
5.688667
5.529523
5.609989
5.643964
5.326867
##ZVALUE=290
0.838637
0.798702
0.849962
0.642538
1.028776
0.779629
0.740886
0.924468
1.016855
0.823736
0.889897
0.827909
1.001954
1.018643
1.068711
1.012683
1.154542
1.012683
1.198649
1.123548
1.236796
1.208782
1.359582
1.371503
1.461506
1.625419
2.569556
6.755590
32.598972
77.577829
151.476860
314.234495
478.901863
716.304779
864.727497
976.339579
960.698724
829.324722
681.927800
455.080867
304.765701
152.402520
82.654953
36.204457
26.363730
34.974813
48.013926
71.785450
90.845823
117.579699
132.026672
143.258572
141.763687
126.365423
110.314488
83.354712
64.722896
43.715835
30.179620
19.908547
16.267896
12.831688
11.811852
11.602640
10.762811
10.806918
10.099411
10.133982
9.970665
9.615421
9.239912
9.437799
9.633899
9.499788
9.472966
9.191632
8.332729
8.212924
7.792711
8.051991
7.178783
6.763935
6.696582
6.797910
6.369948
6.556511
5.908608
6.121993
5.573630
6.035566
5.764961
5.384684
5.477667
5.489588
5.419850
5.338788
##ZVALUE=295
0.976920
0.828505
0.897646
0.846982
0.711679
0.570416
0.727773
0.925660
0.976920
0.952482
0.826716
0.942945
0.911951
0.807643
1.158714
0.899434
0.981688
1.104474
1.027584
0.979900
1.181960
1.015663
1.299977
1.424551
1.428723
1.281500
1.693964
1.492500
1.982450
3.464818
16.488433
46.760440
105.903745
252.441764
402.678847
635.138750
793.313980
949.330926
981.715918
907.146931
773.149729
552.877784
377.988815
199.606419
111.164451
43.499470
24.166703
21.030903
29.441714
45.933723
63.376427
89.119673
106.760859
127.652884
135.678649
131.102800
121.810436
99.769831
82.722902
59.119463
44.390559
27.788877
19.939542
13.167858
10.706782
9.622574
8.947849
8.781552
8.721948
8.495450
8.851886
8.253455
8.900762
8.194447
8.012652
8.123517
7.644892
7.733703
7.129908
6.907582
7.041693
6.828904
6.143451
6.458759
6.133914
6.020665
5.919933
6.027818
5.661845
5.639791
5.768538
5.305409
5.530715
5.381703
5.437732
5.199909
##ZVALUE=300
0.686646
0.666976
0.631809
0.839829
0.670552
0.923872
0.736713
0.880957
0.718832
0.785589
0.777841
0.848770
0.765920
0.955462
0.796914
0.838637
0.759959
1.057982
0.826716
1.028776
1.155734
1.143813
1.064539
1.165867
1.218915
1.310706
1.245737
1.339912
1.405478
1.542568
1.602769
1.816750
6.948709
25.006533
83.455443
162.703991
330.689549
501.132607
730.547905
869.041681
973.940492
966.773629
835.031867
687.350631
452.467799
298.460722
150.282979
80.591440
31.317472
17.501712
18.587708
26.214719
41.113496
57.010651
81.351995
99.579692
119.496584
126.195550
126.003623
119.015574
97.482800
82.239509
57.906508
42.306781
26.431680
18.842816
11.755824
9.432435
8.287430
7.560849
7.399917
7.517934
7.251501
7.624626
6.985664
7.045865
6.760955
6.517768
6.553531
6.524920
6.113648
5.958676
6.003976
5.971789
5.587935
5.866885
5.963445
5.651712
5.218983
5.565882
5.253553
5.527735
5.069971
5.286932
5.180836
5.262494
##ZVALUE=305
0.715852
0.673532
0.747442
0.730753
0.826716
0.793934
0.615716
0.855923
0.680685
0.732541
0.799894
0.766516
0.707507
0.829697
0.848770
0.851750
0.837445
0.742674
0.830889
0.842810
0.930429
0.994802
0.989437
1.100898
1.062751
1.020432
1.107454
1.153946
1.275539
1.247525
1.431704
1.400709
1.580715
1.686811
3.093481
16.114712
46.039820
130.927563
236.748457
436.266661
607.015491
819.862485
932.938457
971.271992
907.819867
725.888610
561.641455
352.515578
218.866467
102.247000
50.770640
19.992590
14.109612
17.073750
24.164915
39.607882
55.390596
79.072714
95.477700
112.203956
119.078755
117.599964
110.205412
93.395710
76.251626
52.681565
38.769841
24.544001
16.616583
10.478497
8.334517
7.423759
6.848574
6.534457
6.586909
6.253719
6.116629
5.994439
5.929470
5.908608
5.951524
5.918741
5.868673
5.555749
5.757809
5.801916
5.918741
5.705953
5.452633
5.581975
5.143881
5.057454
5.118847
4.923940
4.859567
5.020499
##ZVALUE=310
0.663996
0.793934
0.643730
0.741482
0.877976
0.696778
0.734925
0.673532
0.887513
0.612736
0.616908
0.653863
0.705719
0.752807
0.791550
0.825524
0.843406
0.837445
0.822544
0.908971
0.679493
0.905991
0.992417
0.902414
0.888705
0.927448
0.976920
1.164675
1.085997
1.225471
1.393557
1.287460
1.284480
1.349449
1.511574
1.845956
1.904964
6.960630
23.260713
79.176426
157.822967
324.111581
495.938659
728.642941
870.818496
973.984599
958.170891
829.287767
686.453581
459.401608
306.104422
155.164599
80.961585
30.723810
15.300512
11.801720
14.368892
22.262931
32.340884
51.075816
65.397620
87.174773
101.171732
112.750530
111.658573
103.709698
92.102885
72.530508
55.509806
36.474466
25.665760
16.140938
11.183619
7.551908
6.599426
6.099939
5.717874
5.464554
5.767941
5.388856
5.535483
4.994869
5.435944
5.589724
5.149841
5.583763
5.345941
5.227923
5.038977
5.299449
5.140901
5.196929
4.980564
5.024672
4.914999
4.826784
##ZVALUE=315
0.707507
0.675917
0.756979
0.639558
0.778437
0.660419
0.601411
0.764728
0.685453
0.500679
0.597835
0.700951
0.718832
0.768900
0.895858
0.687838
0.757575
0.699759
0.749826
0.723600
0.735521
0.807643
0.803471
0.753999
0.925660
0.909567
0.968575
0.981688
0.914931
1.063943
0.794530
1.089573
1.273751
1.228452
1.287460
1.351833
1.450777
1.715422
1.739860
3.386736
12.211800
50.827861
111.392736
247.910619
404.240489
645.537972
794.339776
925.697684
963.248014
890.752673
761.233568
548.419952
384.547710
204.806924
112.349987
42.368770
19.409657
10.466576
10.599494
14.161468
19.494891
31.571984
43.861866
63.198805
78.480840
96.886754
103.976727
104.907751
100.547671
84.145665
69.533587
50.243735
36.980510
22.549629
15.436411
9.853840
7.078648
6.054640
5.302429
5.240440
4.948974
5.053878
5.060434
4.900694
5.122423
4.999638
5.193949
4.877448
4.862547
5.169511
5.069971
5.082488
5.295873
4.793406
4.665852
4.661679
##ZVALUE=320
0.627637
0.676513
0.685453
0.643730
0.687838
0.652671
0.709891
0.799894
0.585914
0.591874
0.636578
0.577569
0.584722
0.795722
0.775456
0.750422
0.679493
0.652671
0.758767
0.596642
0.863671
0.964999
0.850558
0.731945
0.684857
0.824928
0.808835
0.828505
1.024604
0.921488
0.969768
1.074672
1.035929
1.032948
1.065731
1.064539
1.263618
1.268983
1.372695
1.580715
1.647472
2.186894
5.736947
30.755997
74.013472
188.634992
310.822725
517.502427
682.396889
867.588520
944.122672
927.502513
836.463571
637.719035
466.103554
261.904597
148.667693
64.354539
29.939413
11.578798
8.471608
9.159446
11.590719
17.415881
25.917888
40.828586
54.890513
73.715448
87.162852
98.136663
98.282695
92.283487
81.805587
63.738823
48.761964
32.470822
23.141503
13.848543
9.747744
6.724000
5.447865
5.157590
5.042553
4.681945
4.844666
4.869699
4.676580
4.912615
4.842877
4.546642
4.837513
4.774928
4.906654
4.961491
4.734993
4.635453
##ZVALUE=325
0.818968
0.724792
0.810623
0.800490
0.594854
0.756979
0.632405
0.606775
0.649691
0.781417
0.787973
0.688434
0.619888
0.618696
0.823736
0.821948
0.816584
0.880957
0.816584
0.864863
0.763535
0.791550
0.836849
0.871420
0.909567
0.947714
0.879765
0.831485
0.874996
0.924468
1.005530
0.984669
0.884533
0.998974
1.104474
1.351833
1.221895
1.286864
1.250505
1.274943
1.371503
1.619458
1.582503
1.834631
3.203750
18.541813
48.275590
126.121640
227.510929
428.797007
593.042970
796.442628
900.323987
934.520960
866.703987
683.986545
519.618988
317.387581
192.116499
84.470510
40.582418
14.449954
8.074641
7.276535
8.316636
10.964870
15.570521
25.888681
37.478805
55.603981
69.368482
83.437562
91.343522
93.710423
87.961555
73.364973
60.629845
43.226480
31.840801
19.461513
13.550520
8.097887
6.341934
5.365610
4.849434
4.433990
4.578829
4.710555
4.579425
4.625916
4.507899
4.566908
4.671812
4.410744
4.558563
4.592538
##ZVALUE=330
0.610948
0.628829
0.643730
0.639558
0.665784
0.667572
0.609756
0.607967
0.594854
0.761747
0.631809
0.731945
0.735521
0.671744
0.614524
0.666976
0.733733
0.719428
0.684857
0.703931
0.697970
0.730753
0.985861
0.906587
0.649691
0.805855
0.722408
0.735521
0.769496
0.669956
0.847578
0.811815
0.824928
0.948906
0.888705
0.891685
0.968575
1.020432
1.078844
1.124740
1.111627
1.264811
1.150966
1.312494
1.423955
1.535416
2.072453
7.974505
25.467873
83.853602
161.349773
325.803757
481.199622
695.383549
826.553702
911.952853
880.091786
740.028024
593.426824
388.658643
250.417590
114.521980
58.035851
20.915866
10.201931
6.664991
6.416440
7.254481
9.476542
15.541911
22.895932
36.008954
48.188567
66.238642
76.757669
86.058974
85.812807
80.702901
70.813894
54.265857
40.965676
27.193427
19.601583
12.583733
8.986592
6.267428
5.068779
4.594922
4.504919
4.377961
4.289746
4.257560
4.327893
4.376769
4.248619
4.154444
##ZVALUE=335
0.572801
0.548959
0.601411
0.720620
0.599623
0.583529
0.364780
0.654459
0.621676
0.635982
0.578761
0.469685
0.445843
0.568628
0.779629
0.539422
0.567436
0.673532
0.695586
0.765920
0.685453
0.756979
0.651479
0.646710
0.633597
0.767708
0.790954
0.648499
0.917912
0.728965
0.826716
0.959635
1.005530
0.882745
1.021624
0.942945
0.890493
0.969768
1.120567
0.903606
1.016855
1.124740
1.208782
1.045465
1.017451
1.450777
1.519918
1.257658
1.586676
3.873706
13.489723
52.180886
110.583901
244.649649
391.060710
609.371662
757.248998
869.698524
886.061788
790.852904
659.558773
453.495979
308.222771
157.413483
82.270503
28.601885
12.352467
6.642938
6.003976
6.265640
6.914735
9.382963
13.276935
22.639632
32.509565
48.020482
59.565902
72.686672
78.587532
80.325603
75.427890
63.654780
54.157972
39.797425
29.935837
19.373894
13.480783
8.561611
6.660819
4.966855
4.427433
4.152656
4.055500
4.220605
3.984571
4.092455
##ZVALUE=340
0.642538
0.521541
0.483990
0.532866
0.602603
0.539422
0.622869
0.715852
0.552535
0.568628
0.554919
0.595450
0.621676
0.644922
0.576973
0.830889
0.536442
0.579953
0.683665
0.669956
0.729561
0.556707
0.703931
0.655651
0.683665
0.663996
0.730753
0.615716
0.687838
0.704527
0.722408
0.768900
0.636578
0.861883
0.810623
0.807643
0.797510
0.895858
0.713468
0.958443
0.866652
0.769496
0.946522
1.003742
1.212955
1.139641
1.039505
1.294613
1.143813
1.258850
1.428723
2.027750
6.590486
31.605959
77.492595
192.654729
319.018960
516.393781
668.669939
821.288824
868.044496
812.482834
704.315901
518.209934
364.617705
188.481808
103.616714
41.921735
17.652512
7.216930
5.923510
5.730987
5.738735
6.580949
8.775592
13.719797
20.558834
31.572580
41.965842
58.216453
67.672729
74.374676
75.464845
70.165992
62.925816
50.194860
40.223598
27.391911
19.609928
13.196468
8.810759
5.973577
4.954934
4.203916
3.922582
3.951788
##ZVALUE=345
0.566840
0.589490
0.578761
0.530481
0.419617
0.557899
0.751615
0.631809
0.670552
0.641942
0.537634
0.701547
0.510812
0.526905
0.640750
0.684857
0.555515
0.700951
0.634789
0.618696
0.612736
0.634789
0.536442
0.637770
0.522733
0.704527
0.599623
0.846982
0.793934
0.561476
0.830889
0.861883
0.891685
0.794530
0.821948
0.880957
0.755787
0.711679
0.806451
0.933409
0.799894
0.815988
0.844598
0.760555
0.959635
0.856519
1.071692
0.867844
1.024604
1.151562
1.047850
1.341701
1.342893
1.590848
3.166795
17.521977
48.897862
128.477812
230.687857
414.266586
567.684770
740.425587
821.096897
828.564763
751.564503
574.529767
427.984595
251.784921
141.560435
55.596828
24.888515
9.484887
6.390810
5.649924
5.137920
5.188584
5.680919
7.850528
11.155605
19.509792
28.343797
41.353703
51.097870
60.863495
67.307949
69.697499
66.823959
59.071779
51.070452
38.571954
29.122829
18.451810
13.287663
8.959770
6.462932
4.642606
##ZVALUE=350
0.354648
0.411868
0.432730
0.511408
0.523925
0.548959
0.535846
0.529885
0.480413
0.503659
0.541806
0.680685
0.422597
0.464916
0.489950
0.497699
0.470877
0.480413
0.409484
0.549555
0.613928
0.564456
0.614524
0.599623
0.625849
0.680685
0.537634
0.464916
0.707507
0.652671
0.264645
0.620484
0.612736
0.767708
0.686646
0.703931
0.584722
0.591874
0.527501
0.548959
0.525713
0.728965
0.715852
0.770688
0.850558
0.776649
0.959635
0.929832
0.736713
1.013875
0.894666
1.037717
1.094937
1.230836
1.274943
1.207590
1.738667
8.469820
26.942492
85.716844
162.708759
320.541859
467.615724
651.064515
757.066607
811.434984
770.508647
633.755922
486.835837
290.150642
176.126957
80.632567
37.254691
11.542439
6.447434
5.237460
4.841685
4.605651
4.703999
5.468726
7.106662
11.614561
16.660690
25.186539
33.229589
45.220852
53.501725
61.188936
63.692927
61.019659
55.840611
45.434833
36.519766
25.490522
18.836856
12.265444
##ZVALUE=355
0.629425
0.449419
0.630617
0.521541
0.632405
0.621676
0.657439
0.678897
0.645518
0.493526
0.733733
0.461936
0.559688
0.652671
0.662804
0.605583
0.574589
0.533462
0.645518
0.627637
0.765920
0.587702
0.785589
0.699759
0.563860
0.507832
0.700951
0.734925
0.684857
0.688434
0.772476
0.696778
0.692606
0.653863
0.804663
0.568628
0.711679
0.750422
0.730753
0.751615
0.946522
0.753999
0.820756
0.830889
0.722408
0.967979
0.789762
0.959635
0.881553
0.943542
1.003742
0.922680
1.156926
1.029968
1.139641
1.296997
1.199841
1.477599
1.527667
4.198551
14.633536
55.674911
114.778876
240.172744
374.261737
577.159524
696.223974
786.976814
783.658028
666.304827
539.118648
353.763700
224.398971
98.565817
47.240853
15.392900
7.217526
5.374551
4.685521
4.297495
4.265904
4.436970
4.754663
6.493926
9.155869
14.618635
20.890832
31.157732
38.351417
48.149824
54.118633
57.885647
56.546926
50.766468
44.345856
34.794807
##ZVALUE=360
0.503659
0.502467
0.609756
0.463724
0.454783
0.483990
0.495911
0.384450
0.537634
0.536442
0.601411
0.500679
0.502467
0.465512
0.737906
0.691414
0.493526
0.427961
0.544786
0.618696
0.636578
0.544786
0.507832
0.735521
0.558496
0.671744
0.715852
0.587702
0.727773
0.727773
0.716448
0.694990
0.786781
0.650883
0.749826
0.802875
0.821948
0.786781
0.790954
0.628829
0.649691
0.809431
0.673532
0.749826
0.880957
0.967979
0.874996
0.742674
0.662804
0.840425
0.799894
0.982881
0.884533
0.978708
0.934601
1.084805
0.998974
1.160502
1.238585
1.226664
1.565814
1.951456
7.532835
24.149418
80.061555
154.947639
302.741528
445.091724
633.636713
731.949806
765.003562
715.892911
578.558445
438.231826
259.093642
154.633522
63.868761
28.598905
9.194613
5.301833
4.775524
4.593730
4.147887
4.149675
3.869534
4.077554
5.360842
7.548928
11.677742
16.631484
25.049448
32.097697
41.694641
47.829747
51.696897
52.349567
##ZVALUE=365
0.494719
0.487566
0.496507
0.560880
0.655651
0.554919
0.517964
0.440478
0.459552
0.558496
0.581741
0.592470
0.682473
0.469685
0.669956
0.671744
0.659823
0.690818
0.585914
0.606775
0.547767
0.551939
0.773668
0.602603
0.520945
0.797510
0.602603
0.617504
0.576973
0.459552
0.625849
0.633597
0.629425
0.688434
0.488758
0.554919
0.666976
0.609756
0.640750
0.654459
0.791550
0.725985
0.793934
0.890493
0.758767
0.714660
0.789762
0.950694
0.972748
0.801682
0.884533
0.752807
0.790954
0.795722
0.865459
0.830889
0.864863
0.905991
1.012683
1.130700
1.207590
1.070499
1.400709
1.583695
3.028512
16.549826
43.923855
115.741491
212.557912
389.204621
524.357557
674.459934
737.681985
722.250938
634.102821
463.773012
328.826904
180.334449
97.795725
35.281777
14.730692
5.654693
4.782677
4.357696
4.154444
3.750920
3.708601
3.775954
3.763437
4.445910
5.876422
9.695888
13.991594
21.562576
27.712584
36.384463
##ZVALUE=370
0.538826
0.569820
0.515580
0.550747
0.541806
0.590682
0.519753
0.507832
0.611544
0.621676
0.587702
0.651479
0.335574
0.431538
0.517964
0.407696
0.581741
0.618696
0.663996
0.476837
0.583529
0.612736
0.739694
0.520945
0.623465
0.599623
0.595450
0.640750
0.498891
0.623465
0.723600
0.738502
0.585914
0.805855
0.598431
0.709891
0.836849
0.885725
0.738502
0.632405
0.658631
0.675917
0.753999
0.622869
0.631809
0.727773
0.635982
0.800490
0.794530
0.760555
0.722408
0.721812
0.852942
0.900626
0.939965
0.895858
0.879765
0.873804
0.818968
1.023412
1.067519
0.990629
0.968575
1.161695
1.363754
1.396537
1.852512
8.199811
26.981831
86.916685
162.295699
307.372808
447.362661
623.430610
708.102584
729.093552
665.969849
522.245765
385.532975
215.091705
121.771693
48.083663
22.476912
8.439422
4.752874
4.011989
3.901720
3.580451
3.521442
3.263950
3.201962
3.430843
3.987551
5.575418
8.162856
12.684464
##ZVALUE=375
0.527501
0.593662
0.473857
0.459552
0.550747
0.627637
0.678897
0.564456
0.530481
0.423789
0.563860
0.578761
0.507832
0.457764
0.477433
0.598431
0.548959
0.658631
0.505447
0.542998
0.551939
0.689626
0.690818
0.539422
0.588894
0.735521
0.630617
0.660419
0.715852
0.634789
0.593662
0.772476
0.916719
0.851750
0.749826
0.762939
0.673532
0.771880
0.721812
0.726581
0.862479
0.802875
0.611544
0.887513
0.746846
0.884533
0.847578
0.795722
0.810623
0.745654
0.782609
0.809431
0.789762
0.825524
0.782609
0.827909
0.871420
0.847578
0.940561
0.972748
0.933409
0.785589
1.063943
0.998974
0.932813
1.261830
1.125932
1.265407
1.422763
4.027486
14.629960
54.761767
117.194653
251.083970
377.767682
544.234514
654.055476
726.065636
701.579452
579.339862
449.214578
271.541476
172.384977
85.358620
42.563677
14.078617
6.160736
4.080534
3.827810
3.554821
3.446937
3.192425
2.887845
2.823472
3.089905
3.670454
##ZVALUE=380
0.502467
0.533462
0.498891
0.558496
0.529885
0.495911
0.433922
0.586510
0.474453
0.718832
0.623465
0.480413
0.563860
0.496507
0.611544
0.435710
0.564456
0.637770
0.552535
0.670552
0.562668
0.545979
0.510812
0.647902
0.581741
0.691414
0.718832
0.660419
0.666976
0.736713
0.854731
0.844598
0.943542
1.088977
1.186728
1.050830
0.984669
1.134872
0.970960
1.227856
1.160502
1.079440
0.851750
1.004934
0.920892
1.037717
0.971556
0.835657
0.943542
0.881553
0.943542
0.811815
0.843406
0.822544
0.930429
1.001954
1.015663
0.867844
0.849962
0.888705
0.759959
0.915527
0.877976
0.983477
0.979900
1.062751
0.848770
1.225471
1.263618
1.172423
1.580715
2.243519
9.802580
30.182004
91.667771
169.643760
323.456526
463.600755
628.834963
705.460906
708.868504
642.815828
498.697758
373.868942
218.544006
128.189921
52.907467
24.343729
7.563829
4.215837
3.443956
3.563762
3.334880
3.184676
2.886653
3.006458
##ZVALUE=385
0.542998
0.650883
0.453591
0.309944
0.365973
0.452995
0.452995
0.471473
0.492930
0.511408
0.453591
0.465512
0.544786
0.587702
0.426769
0.644922
0.636578
0.491738
0.501871
0.466704
0.530481
0.392795
0.547767
0.590682
0.655651
0.598431
0.827909
0.864863
1.001954
1.094937
1.352429
1.648664
1.396537
1.576543
1.631975
1.752973
1.740456
1.806617
1.693964
1.598597
1.716614
1.471639
1.634955
1.400709
1.286864
1.380444
1.291633
1.267791
1.275539
1.075864
1.224875
1.179576
1.084805
1.025796
1.015663
1.007915
1.010895
0.780821
0.930429
0.979900
0.946522
0.949502
0.887513
0.982881
1.050830
1.014471
1.113415
1.004934
1.007915
1.063943
1.243949
1.265407
1.304746
1.694560
3.784895
20.170808
52.309632
132.425427
234.896541
411.593914
545.164943
676.264763
710.035563
671.396852
586.059690
429.382920
302.391648
163.524747
92.321634
37.851930
15.611649
5.130768
3.723502
3.302693
3.296733
3.183484
##ZVALUE=390
0.557899
0.425577
0.431538
0.477433
0.668764
0.638962
0.415444
0.447631
0.565648
0.479817
0.454783
0.551939
0.430942
0.506639
0.448823
0.576973
0.479817
0.549555
0.430942
0.552535
0.568628
0.736713
0.541806
0.619888
0.589490
0.698566
0.887513
1.127720
1.385808
1.589656
2.023578
1.932979
2.227426
2.414584
2.428889
2.671480
2.453923
2.699494
2.461672
2.529621
2.376437
2.260804
2.207756
2.082586
1.969934
1.891851
1.738667
1.734495
1.575947
1.542568
1.468658
1.507998
1.486540
1.317859
1.358986
1.183748
1.248717
1.165867
1.123548
0.956655
1.146793
1.147985
1.019835
1.046658
1.086593
0.934601
1.010895
0.944734
1.106858
1.194477
1.323819
1.178980
1.334548
1.420975
1.498461
1.352429
2.177954
10.337830
32.879710
101.444721
190.212727
354.875922
478.881001
614.822507
690.348744
705.781579
648.393631
508.256555
385.801792
233.875513
136.163831
54.972768
24.890900
7.497668
4.079938
3.475547
##ZVALUE=395
0.572801
0.455976
0.580549
0.384450
0.469685
0.572801
0.463724
0.609756
0.519753
0.461936
0.507832
0.523925
0.503659
0.578761
0.565648
0.624657
0.483990
0.563860
0.550747
0.514984
0.442863
0.537634
0.610948
0.625849
0.652671
0.803471
0.929832
1.345873
1.753569
2.049804
2.402663
2.653599
2.824664
3.190637
3.342628
3.370643
3.297925
3.448725
3.186464
3.148913
3.144741
3.190637
2.981424
2.690554
2.621412
2.489686
2.289414
2.149940
2.058744
2.007484
1.888871
1.652837
1.527667
1.413822
1.375675
1.220703
1.151562
1.238585
1.311898
1.153946
1.177788
1.151562
1.004934
1.102686
0.992417
1.040697
1.004934
1.204610
1.159906
1.118779
1.275539
1.274943
1.232624
1.340508
1.206994
1.201630
1.238585
1.389980
1.608729
6.008744
21.090508
73.468685
138.011575
261.889696
386.869907
557.613969
659.683943
723.219514
699.911714
588.038564
461.435914
284.214616
175.508857
76.076984
35.889745
12.072921
##ZVALUE=400
0.644922
0.570416
0.694990
0.569820
0.606775
0.449419
0.654459
0.447631
0.540614
0.587702
0.415444
0.428557
0.503659
0.628829
0.450611
0.367761
0.556707
0.369549
0.433922
0.517964
0.434518
0.459552
0.533462
0.498891
0.684857
0.858903
1.076460
1.435876
1.676679
2.171993
2.603531
2.953410
3.232956
3.603697
3.779531
3.727674
3.857613
3.802776
3.641844
3.580451
3.491640
3.331900
3.078580
2.837777
2.847910
2.594590
2.484918
2.249479
2.029538
2.139807
1.853704
2.008677
1.719594
1.711845
1.538992
1.496673
1.335740
1.245737
1.254678
1.181960
1.332760
1.146793
1.209974
1.011491
1.205802
1.240969
1.055598
1.137853
1.014471
1.113415
1.105666
1.108646
1.132488
1.181960
1.205802
0.997782
1.123548
1.266599
1.160502
1.280904
1.592636
3.163815
10.948777
43.486953
93.654990
203.678608
322.310925
489.721894
599.526763
689.140558
700.127482
611.348748
506.625772
346.039534
226.931572
113.457441
##END
