##TITLE=DWF30
##FORMAT=SPECTACLE-ASCII V-1.2
##DATA TYPE=ULTRAVIOLET SPECTRUM
##SECOND TYPE=ULTRAVIOLET SPECTRUM
##DATE=12/21/17
##TIME=14:08:09
##SPECTROMETER/DATA SYSTEM=SPECTACLE
##XUNITS=NM EM
##YUNITS=ENERGY
##YFACTOR=1
##FIRSTX=220
##LASTX=410
##NPOINTS=96
##3DDATA=Equidistant
##ZUNITS=NM EX
##FIRSTZ=210
##LASTZ=400
##ZPOINTS=39
##XYDATA=(Y..Y)
##ZVALUE=210
13.780594
14.887452
11.633635
10.356903
10.099411
10.356903
9.374619
6.859899
7.045865
5.937815
4.202724
2.640486
2.429485
2.510548
2.194643
2.258420
2.660751
2.681613
2.326965
2.696514
2.823472
3.361702
2.811551
4.113913
4.234910
6.291866
8.440614
9.947419
12.747645
16.217828
19.030571
23.461580
23.626685
26.264787
27.232766
28.360486
30.045509
30.156970
28.128624
28.073788
26.060939
25.610924
24.539828
21.967888
22.077560
21.241903
16.905665
17.077923
16.784668
15.273690
14.748573
15.817881
13.805628
12.607574
13.258457
12.418628
10.651946
12.559891
11.365414
9.881854
9.735823
9.872913
10.342598
9.147525
8.879900
8.184910
8.131862
8.701682
8.972883
8.633733
9.252429
11.426806
11.746883
11.758804
12.799501
11.852980
11.634827
11.005998
10.443926
10.643601
9.856820
8.968711
8.275509
8.021593
6.367564
4.994869
5.297661
5.550981
5.703568
6.841421
7.766485
11.611581
13.316870
16.562939
19.388795
24.914742
##ZVALUE=215
38.487911
35.034418
29.715896
23.306608
19.337535
18.301606
17.451644
16.229749
14.785528
14.519691
11.679530
10.361671
7.179976
5.103946
4.070997
3.625751
2.497435
2.953410
2.611876
3.208518
2.557635
3.237724
3.185868
4.276633
5.131960
6.359816
9.148717
12.881756
14.021993
21.118522
21.682978
25.504827
27.210712
32.102466
33.453703
35.107732
34.752488
34.826994
35.577416
33.034682
31.299591
30.862689
30.160546
28.263927
25.382638
22.256970
23.637414
21.480918
20.577908
19.262433
18.241405
17.401576
16.173720
16.026497
16.219616
14.017820
13.544559
12.778640
13.478994
13.368726
12.188554
12.074709
11.462569
10.992885
11.810660
10.477901
9.535551
10.158420
9.602904
10.096431
10.659695
10.856986
11.777878
12.334585
13.678670
13.493896
12.973547
12.531877
11.545420
12.025833
9.902716
9.086728
8.226633
7.747412
7.012486
6.751418
6.237626
5.470514
5.583763
5.647540
5.388856
4.966855
6.092787
6.508827
7.911921
8.966923
##ZVALUE=220
76.937675
73.940754
74.910522
68.089962
57.148933
43.876767
36.849976
28.495789
26.798844
24.452806
24.272799
24.858713
23.628473
17.515421
14.673471
10.412931
7.203817
5.519986
3.426671
2.857447
3.354549
3.390908
3.618598
4.164577
4.872680
6.840825
9.922981
13.938546
16.968846
22.916794
26.813745
32.582879
33.665895
37.202835
39.654970
41.979551
42.786002
42.633414
43.509603
40.435791
38.562417
37.805438
35.901666
31.821728
30.991435
28.103590
27.602911
25.314689
24.650693
22.736788
21.101832
23.066998
20.153522
20.107627
19.694567
18.507838
17.103553
17.355680
16.628504
15.444756
15.777946
14.865994
14.488697
13.387799
13.832450
12.496710
11.290908
13.022423
11.322498
12.963414
12.853742
14.092922
13.308525
14.469624
14.010668
13.424754
13.512969
11.940598
12.107491
11.016726
12.159944
9.719729
9.420514
8.134842
7.053614
8.296967
7.139444
6.170869
5.828738
5.507469
5.449653
5.260706
5.079508
5.482435
5.785823
4.975796
##ZVALUE=225
102.343559
108.455420
121.324658
129.522681
136.437416
122.475624
104.325414
78.747869
59.125423
44.805408
39.228797
35.978556
36.215782
37.576556
36.189556
34.008622
27.157664
20.877719
14.429688
9.531975
6.794930
4.415512
4.319549
4.734993
5.475879
7.518530
9.455681
13.911724
16.019940
20.984411
25.172830
30.297637
33.126473
35.742521
37.260652
40.378571
40.694475
38.246512
38.529634
39.770603
36.567450
36.586523
33.009648
31.338930
30.613542
28.232932
27.594566
23.838878
24.935603
24.582744
22.812486
22.825599
21.359921
21.996498
20.058751
21.720529
21.017790
19.639730
20.324588
19.697547
20.394921
17.484426
18.526912
18.108487
15.324950
16.126633
16.275644
15.247464
15.557408
14.853477
15.204549
15.103817
15.760660
14.677644
14.489889
16.388893
13.508797
14.101863
12.532473
12.195706
11.376739
10.510683
10.191798
8.480549
8.349419
8.697510
8.181930
7.782578
6.742477
7.101893
7.173419
6.216764
5.965829
6.523728
5.929470
5.197525
##ZVALUE=230
67.101717
71.482658
104.281902
156.576633
196.020007
223.019719
229.292512
210.172534
184.161663
155.490637
102.546811
83.091855
59.558749
54.888725
57.175756
59.230924
61.677694
58.020949
51.196814
41.820407
29.591918
19.391775
12.606978
7.878542
7.688999
7.663965
8.821487
10.592937
11.487603
15.489459
17.622709
22.876859
23.294687
25.989413
28.402805
29.512644
27.720928
28.676987
29.255748
27.653575
26.671886
25.036931
26.285648
23.841858
24.247766
22.795796
20.324588
20.279884
20.294785
19.815564
19.840598
20.823479
20.613670
21.723509
21.762848
19.978881
19.606948
20.390749
21.000504
20.234585
20.558834
20.115972
19.398928
18.101931
18.095970
17.574430
17.284751
17.451644
15.989542
17.716885
15.736818
16.943812
17.029643
17.406940
15.419722
15.894771
17.092824
15.342832
14.428496
13.443828
12.974739
12.726784
10.722876
10.493994
10.562539
10.186434
8.667707
8.626580
9.038448
8.336902
8.063912
8.080602
7.534623
7.629991
7.418990
7.608533
##ZVALUE=235
18.712878
21.109581
44.838786
95.433593
146.276951
218.178630
270.391703
331.078768
359.327793
337.853432
303.807855
224.386454
172.419548
118.526816
89.045763
79.235435
76.502562
80.976486
87.803602
90.704560
79.638958
72.608590
52.622557
40.709972
24.456978
18.097758
11.960864
10.006428
9.966493
11.026859
11.511445
13.790727
13.897419
16.470551
16.401410
18.060803
19.364953
18.142462
18.299818
17.731786
18.921494
19.628406
17.119646
17.218590
16.395450
16.244650
16.129613
16.650558
16.486645
15.896559
15.703440
15.822649
16.859770
16.577840
17.032623
17.389655
18.029809
18.825531
17.540455
19.705892
17.599463
18.581748
19.200444
17.619729
17.012954
17.218590
16.008615
17.950535
17.102957
17.172694
16.326904
17.192960
18.071532
17.755628
18.161535
17.475486
15.809536
15.559793
14.037490
13.431907
13.594627
12.829900
12.435913
11.982918
11.050701
9.881854
11.135936
11.031628
9.891987
9.098649
9.382963
9.007454
9.593964
9.085536
9.140968
8.003712
##ZVALUE=240
2.094507
2.650619
6.273985
22.595525
46.085715
95.814466
159.218907
267.197490
357.721448
427.134633
483.313799
478.478670
419.040918
358.836651
262.071490
184.671879
123.151541
98.029971
92.827678
98.157525
107.860565
114.484429
111.738443
101.404786
82.083941
60.105920
43.556690
30.712485
21.827817
14.911890
11.266470
11.064410
10.705590
12.332797
11.559725
12.569427
12.994409
12.981892
13.778806
12.544990
15.191436
13.674498
13.544559
13.065934
13.184547
13.783574
12.339950
12.642741
13.129711
13.382435
12.161732
14.260411
13.051629
13.841987
14.091730
15.030503
13.642907
14.688969
14.276505
14.583468
15.239716
15.680790
14.525652
13.829470
13.958812
14.067888
14.723539
14.493465
15.447736
14.451742
15.400648
15.005469
14.715791
14.646649
16.869903
16.752481
16.264915
15.922785
14.945865
14.251471
13.054609
13.456941
11.528730
10.938644
12.237430
9.645820
9.878874
10.670424
11.561513
9.457469
9.860992
9.578466
8.805990
9.423494
9.033680
9.487867
##ZVALUE=245
1.895428
1.982450
2.036691
2.109408
4.546642
11.768937
37.969947
80.656409
167.558789
250.522494
386.270881
479.753613
533.939004
558.488965
532.673001
443.022847
360.940695
244.064927
176.374912
109.279752
94.359517
94.824433
111.485720
123.951435
128.761530
123.397708
108.799934
94.127655
70.642829
53.040981
38.146973
25.207996
18.863678
14.813542
14.550686
13.422966
13.536811
14.284849
14.373660
13.808608
14.129877
13.615489
14.289618
14.686584
13.923645
14.241934
14.307499
13.371706
12.843609
13.442636
12.426972
13.109446
13.502836
13.516545
11.732578
12.920499
13.511777
12.575984
12.175441
12.343526
11.846423
13.100505
11.687875
11.669993
10.744929
11.815429
11.595488
12.263656
12.743473
12.580752
13.157725
13.820529
14.111996
14.470816
14.359951
14.319420
14.166832
13.455749
12.090802
11.838675
12.254715
11.448860
10.589957
10.933876
9.560585
9.906888
9.305477
10.728836
9.592772
9.449720
8.667707
8.939505
8.939505
8.731484
8.669496
8.834600
##ZVALUE=250
1.654625
1.609921
1.710653
1.651645
1.757741
1.705885
2.705455
7.656813
30.210614
63.230991
147.185922
237.158537
338.629484
478.907824
577.695966
637.351871
627.554655
560.792685
467.853546
327.299833
222.821832
150.252581
98.702908
89.721680
101.368427
115.401745
130.638480
138.677955
129.978657
120.188594
108.131766
82.749724
64.379573
45.521855
32.820702
24.126768
20.779967
18.947721
19.091964
17.624497
17.639995
18.080473
18.587708
16.512871
17.379522
16.308427
15.019774
16.084909
15.036464
15.284419
13.686419
13.361573
14.574528
13.060570
13.021827
12.250543
13.019443
12.086630
12.134910
12.019873
11.598468
11.097789
10.938644
11.375546
11.152625
10.844469
11.303425
11.231899
11.636615
10.266900
10.652542
11.404753
12.447834
11.840463
11.557937
11.987686
10.911822
11.688471
10.430813
9.835958
10.368824
10.200739
8.959770
8.576512
7.956624
7.801652
7.669926
7.476807
8.290410
7.799864
7.337928
7.617474
7.173419
6.930828
7.701516
7.729530
##ZVALUE=255
1.212955
1.299977
1.567602
1.589656
1.441836
1.670718
1.474619
1.618862
1.832843
4.111528
17.983913
45.280457
95.127821
202.932954
310.325623
469.501019
577.561855
687.044859
715.883970
660.830736
574.041009
454.560518
288.018584
188.818574
109.485984
84.969997
88.135600
101.527572
128.230453
139.914751
152.268410
148.020983
137.555599
115.374923
96.699595
70.596933
55.373907
40.280819
31.959414
27.621984
25.854707
24.354458
23.341775
22.525787
22.664666
20.502806
20.204782
19.174814
18.205643
18.681884
17.679930
16.237497
15.441775
14.703870
15.559793
13.675690
13.612509
14.066696
13.079643
12.471676
12.336969
12.310743
11.787415
11.828542
11.000633
10.816455
11.109710
10.592937
10.661483
10.565519
10.386705
10.282993
10.879636
10.682940
10.207891
10.825992
9.878874
9.342432
9.116530
9.031892
8.270741
7.928610
8.427501
6.758571
7.357597
7.601976
7.556677
6.970763
6.755590
6.451607
6.556511
7.471442
5.988479
6.539822
6.778836
6.420612
##ZVALUE=260
1.270771
1.228452
1.661777
1.296997
1.235604
1.157522
1.252890
1.438856
1.532435
1.523495
2.155900
2.262592
6.629825
29.493570
67.293644
160.825849
261.678696
422.227979
552.357435
713.968873
780.566931
779.836774
679.175854
554.704666
371.066928
258.710980
154.012442
104.005933
81.516504
88.202953
106.571913
139.527917
158.536434
168.076754
170.493722
154.442787
135.985613
107.950568
86.645484
63.898563
51.957965
40.216446
32.603741
30.391812
29.535890
28.195977
27.715564
25.735497
23.789406
22.821426
22.031665
20.420551
19.778609
18.718839
18.328428
17.103553
17.495751
15.789866
14.972687
14.692545
13.949871
14.043450
13.817549
13.420582
12.659431
12.291670
11.682510
11.523962
11.855960
11.207461
10.885000
11.257529
10.524988
10.707974
10.240674
9.617805
9.829998
9.687543
8.875728
8.746982
8.262992
8.244514
8.304715
6.648898
6.635785
7.232428
6.460547
6.359816
6.641746
6.025434
5.995631
6.389618
6.056428
5.977750
5.240440
5.636811
##ZVALUE=265
1.127720
1.112819
1.075864
1.032948
1.182556
1.182556
1.201630
1.173615
1.406670
1.274943
1.529455
1.525879
1.550913
1.913905
3.867745
19.770861
48.878789
121.633410
212.526917
392.170548
549.652576
689.702630
825.412869
852.732658
771.829486
669.784546
496.161580
355.705619
203.262568
131.446719
95.740557
86.715817
103.464723
133.806467
154.436827
180.600882
185.304880
178.794861
168.013573
140.442848
118.738413
87.507963
70.058703
52.040815
43.660998
35.415888
32.682419
29.968619
28.591752
28.042793
25.096536
24.424791
23.757815
22.802949
21.263957
20.198822
20.125508
18.355846
17.289519
16.389489
16.697645
15.592575
15.597939
14.869571
13.242960
13.200641
11.987686
12.269616
11.895895
11.720657
11.566877
10.396838
10.640621
10.511875
10.367632
10.669827
9.649992
8.877516
8.627772
8.215904
8.570552
7.220507
6.504655
6.925464
6.712675
6.845593
6.107688
6.020665
6.303787
5.744696
6.001592
5.812645
5.157590
5.061626
5.491972
5.344748
##ZVALUE=270
0.857711
1.133680
1.036525
0.888705
1.043677
0.898838
1.226664
1.067519
0.970960
1.099706
1.347661
1.222491
1.383424
1.376867
1.522899
1.735687
2.095699
8.676648
27.172565
85.170865
170.292854
295.515656
512.308478
674.261451
840.598941
898.472667
881.788731
795.809627
630.890727
478.837490
331.522822
192.670822
125.072002
88.552833
92.115998
113.673806
139.674544
166.660547
181.970000
189.210773
182.830691
165.320635
143.088698
113.026500
88.461637
64.183474
51.335692
40.356517
33.393502
29.402971
27.094483
25.715828
24.732947
23.240447
22.351742
21.163821
20.520687
20.082593
18.987656
18.131733
16.591549
16.357899
16.482472
14.233589
13.988614
12.880564
12.475848
12.852550
11.957884
11.794567
11.297464
10.961890
10.905862
10.422468
10.605454
9.437799
9.600520
9.496808
8.477569
8.367896
7.744431
7.122755
7.130504
6.984472
6.526709
6.024837
5.797744
5.791783
5.769730
5.869865
5.453825
5.543828
5.702972
5.581975
5.158782
5.438924
##ZVALUE=275
1.006722
0.986457
0.916719
1.057982
0.977516
0.828505
1.144409
1.029968
1.191497
1.046658
1.243949
1.119971
1.026988
1.258850
1.264811
1.373887
1.553893
1.411438
1.890659
4.336834
16.290545
47.283769
136.360526
245.972872
456.070900
611.199737
794.233680
897.938013
940.609574
887.117982
781.721473
576.839447
421.086550
237.001777
151.918530
88.823438
75.428486
85.406899
105.637908
133.836865
155.552626
173.524618
175.859928
168.387890
153.687000
127.024651
105.348825
77.336431
61.271787
42.227507
33.620596
27.187467
23.828745
21.940470
20.698905
19.426942
19.009709
18.116832
17.064810
17.097592
16.743541
15.551448
15.335679
14.811754
13.722777
13.138652
13.260841
12.564659
12.541413
11.751652
11.208653
11.354685
10.762811
11.086464
10.366440
9.742975
9.906888
9.467602
8.927584
8.358955
8.053780
7.218719
7.284880
6.807446
6.532669
6.340742
6.616712
6.112456
5.715489
5.804896
5.971789
5.573630
5.446672
5.256534
5.388856
5.115867
##ZVALUE=280
0.840425
0.885725
0.837445
0.956655
0.950694
0.998974
0.965595
0.918508
1.028776
1.078844
1.106858
1.083612
1.063943
1.013875
1.150966
1.373887
1.201630
1.227856
1.313686
1.433492
1.655817
2.331734
12.341738
36.770701
110.559464
204.544663
336.371660
551.541448
706.667900
875.722766
953.517556
935.356021
839.987993
646.723509
486.011505
287.678838
178.033710
87.683797
60.702562
55.296421
67.940950
94.337463
115.361810
139.302611
153.853893
158.678889
153.218508
138.559937
120.708942
91.303587
70.295930
47.870874
35.590529
25.742650
20.880699
17.169714
16.664863
15.372634
15.739799
15.297532
14.862418
14.212728
13.981462
13.657808
13.189912
12.722611
12.311935
11.665821
11.135936
11.418462
10.997653
10.932684
10.608435
10.337830
9.685755
9.756684
9.187460
8.635521
8.613467
8.130670
7.288456
7.253885
7.049441
7.137656
6.518960
6.657839
6.525517
5.753636
6.049871
5.661845
5.413890
5.181432
5.484819
5.379915
5.302429
5.302429
##ZVALUE=285
0.978708
0.846982
0.866652
0.787973
0.824928
0.911951
0.846982
0.931621
0.834465
1.003742
0.892878
0.944734
1.001954
1.044869
0.870824
1.113415
1.094937
1.069903
1.193881
1.502633
1.397729
1.336932
1.547933
1.875758
5.419850
17.247796
60.150623
123.534799
269.869566
415.978432
563.165545
789.152980
911.458731
973.891616
915.966630
749.218464
586.088896
368.570685
232.121944
112.114549
62.084794
35.819411
38.137436
58.221817
76.092482
103.289485
121.682882
139.845610
148.184896
142.902732
130.918622
110.231638
89.811683
64.414740
47.027469
29.717684
21.758676
16.863942
14.413595
12.548566
12.968779
12.622476
12.188554
11.562705
11.113882
11.415482
10.836720
10.587573
10.612607
10.454655
10.073781
10.410547
9.157658
9.104609
9.206533
8.936524
8.837581
8.272529
7.914901
7.524490
7.408857
6.886721
6.636977
6.196499
6.106496
6.115437
5.789995
6.010532
5.922914
5.976558
5.519986
5.639791
5.392432
5.390644
5.448461
5.159974
##ZVALUE=290
0.851750
0.935793
0.726581
0.876784
0.789762
0.948906
0.944734
0.845790
0.912547
0.931621
0.916719
0.763535
0.799894
0.963807
1.020432
0.995994
1.143813
1.152754
0.962615
1.284480
0.979900
1.227856
1.290441
1.395941
1.630783
1.818538
2.358556
7.330775
33.747554
78.936815
156.468749
323.101878
492.155552
727.968812
878.175497
982.172489
976.734757
829.814672
682.752728
458.529592
301.130414
151.863694
80.632567
35.139918
25.356412
34.036636
47.505498
69.883466
88.968873
115.152597
129.619837
141.461492
138.410926
125.891566
107.955933
81.493855
62.342882
41.157603
30.041933
19.683838
14.835596
12.172461
10.653734
10.227561
9.933710
9.601712
9.441972
9.691715
9.676814
8.980632
9.139776
8.841753
8.677840
8.671880
8.348823
8.248687
7.860661
7.232428
7.360578
7.027984
6.648898
6.210804
6.404519
6.412864
6.250739
6.226897
5.816817
5.695820
5.779862
5.768538
5.598664
5.261898
5.038977
5.245805
5.031824
5.038977
##ZVALUE=295
0.856519
0.777841
0.630617
0.732541
0.830889
0.719428
0.674725
0.844598
0.810623
0.691414
0.800490
0.844598
0.833869
0.930429
0.935793
1.006722
1.102686
1.049638
0.963807
1.081824
1.101494
1.173615
1.153946
1.270771
1.561642
1.368523
1.591444
1.616478
1.913905
3.235936
16.559958
47.642589
108.688474
257.174969
408.727527
644.166470
803.640485
949.785709
982.129574
902.392864
771.669745
552.914739
380.486846
199.036002
110.812783
44.596791
24.057627
20.627975
28.765798
45.283437
62.214732
88.045597
105.920434
125.550628
133.830905
131.103992
119.870901
98.408461
81.789494
58.662891
42.053461
26.893616
18.535852
13.067722
10.496974
9.051561
8.752942
8.033514
8.018613
7.857680
7.921457
7.850528
8.067489
7.505417
7.288456
7.188916
7.003546
6.584525
6.829500
6.453991
6.213784
5.969405
6.245971
5.828738
6.152987
5.625486
5.383492
5.405545
5.234480
5.070567
5.113482
5.226731
5.304813
5.024672
4.928708
4.927516
##ZVALUE=300
0.718832
0.595450
0.874996
0.770688
0.651479
0.740886
0.847578
0.800490
0.736713
0.783801
0.861883
0.881553
0.798702
0.895858
0.739694
0.846982
0.883937
0.887513
0.925660
0.956655
0.938773
0.900626
1.202822
1.083612
1.061559
1.109838
1.209974
1.468658
1.433492
1.445413
1.734495
1.872778
7.038713
25.147796
84.940791
166.034698
335.773826
504.520535
736.144781
870.859027
977.239609
962.880850
835.180879
681.856871
452.666879
296.557546
151.172876
79.467893
29.991865
17.303824
17.958879
26.247501
40.059686
56.007504
79.223514
98.701715
118.798614
126.292706
124.424696
116.099715
97.109675
78.901649
55.468678
41.062832
26.469827
18.170476
11.201501
9.110570
7.830858
7.514954
6.891489
7.010698
7.099509
6.751418
7.061958
6.640553
6.347895
6.156564
6.042719
5.996823
6.218553
6.163716
5.670786
5.974770
5.607605
5.737543
5.444884
5.464554
5.163550
5.167723
5.216599
5.208850
4.987717
5.040765
4.740953
4.974604
##ZVALUE=305
0.650883
0.760555
0.644922
0.649691
0.553727
0.615716
0.700951
0.622869
0.439882
0.638962
0.770688
0.817776
0.704527
0.749826
0.720620
0.672936
0.700951
0.701547
0.674725
0.761747
0.812411
0.863671
0.800490
0.856519
1.050830
0.857711
1.160502
1.050830
1.096725
1.238585
1.315475
1.202822
1.493692
1.696944
2.946854
17.387867
47.448874
133.776665
240.653753
440.088511
614.475608
824.058652
937.531590
972.791910
906.047821
716.850758
558.833480
354.797840
219.743848
99.476576
50.356984
19.473433
13.398528
17.281771
23.801923
39.895773
54.223537
76.883435
92.988610
111.338496
118.816495
116.042495
109.045506
91.425776
75.260997
53.010583
37.892461
24.189949
16.090870
10.314584
7.791519
7.103682
6.410480
6.144643
6.274581
5.923510
6.076694
5.928874
5.632639
5.637407
5.489588
5.334616
5.333424
5.589724
5.180836
5.037785
5.169511
5.238652
5.197525
5.138516
5.024672
4.727840
4.761815
4.605651
4.383922
4.617572
##ZVALUE=310
0.720620
0.592470
0.767708
0.709891
0.625849
0.696778
0.749826
0.740886
0.923872
0.807643
0.779629
0.749826
0.685453
0.662804
0.705719
0.870824
0.742674
0.717640
0.619888
0.708699
0.811815
0.895858
0.712872
0.844598
0.903606
0.855923
1.030564
0.953674
1.141429
1.108646
1.119971
1.147985
1.235604
1.361966
1.523495
1.818538
2.095699
6.050467
30.831695
70.982575
173.756480
299.690962
522.084832
692.713857
885.495543
968.773961
953.351855
860.995650
663.747787
485.965014
278.695822
163.429976
72.316527
33.862591
13.799667
11.504889
15.141964
20.951629
33.224821
46.100616
67.994595
82.770586
100.442767
109.657645
110.672712
103.808641
90.560913
73.585510
51.548481
36.628842
22.531748
16.008615
10.248423
7.612705
6.345510
6.038547
5.645752
5.428791
5.091429
5.141497
5.110502
4.889965
4.898906
4.920959
4.966855
4.723668
4.908442
4.697442
5.069971
4.966855
4.780889
4.792809
5.011559
4.798770
4.638433
4.818439
##ZVALUE=315
0.645518
0.820756
0.643730
0.658631
0.742674
0.646710
0.528693
0.647902
0.681877
0.557899
0.578761
0.683665
0.927448
0.770688
0.627637
0.666976
0.738502
0.708699
0.924468
0.825524
0.822544
0.884533
0.914931
0.828505
0.947714
0.770688
0.757575
0.939965
1.036525
0.807643
1.187921
1.138449
1.131892
1.297593
1.427531
1.477599
1.384616
1.548529
1.695752
3.540516
12.374520
51.049590
112.401843
252.822638
409.608483
648.270845
798.919797
937.371850
971.238017
891.954899
763.320923
545.761585
383.097529
202.795863
110.539794
41.455626
18.259883
10.102987
10.184646
14.024973
19.083619
30.967593
43.061972
61.539412
77.333450
95.644593
102.261901
104.201436
98.235607
81.939697
68.045855
49.042702
36.414862
21.842718
15.412569
9.033680
7.293820
5.400777
5.172491
4.937649
4.810691
4.996657
4.958510
4.839897
4.812479
4.601479
4.453659
4.745722
4.693866
4.775524
4.988909
4.579425
4.795790
4.558563
4.435778
4.405975
##ZVALUE=320
0.559688
0.468493
0.874996
0.657439
0.656843
0.724792
0.779629
0.715852
0.622869
0.628829
0.592470
0.662804
0.720620
0.574589
0.729561
0.596642
0.705719
0.710487
0.850558
0.748634
0.783801
0.813603
1.007915
0.900626
0.911951
0.753999
1.000762
0.755787
0.860691
0.832677
0.949502
1.047850
1.086593
1.111627
1.126528
1.210570
1.117587
1.314878
1.365542
1.646876
1.536608
1.970530
5.728602
29.077530
74.135661
190.951824
313.603878
513.252616
683.364868
870.601535
944.405794
928.232670
837.645531
643.716455
468.427539
259.833932
148.497820
63.997507
29.960871
11.339784
8.409619
9.290576
11.261702
17.545819
25.275946
41.445494
54.724813
73.677897
86.986423
97.483993
98.380446
90.741515
81.855655
62.172413
48.023462
31.548738
22.209883
13.489723
9.425879
6.059408
5.213618
4.941821
4.797578
4.383922
4.349947
4.582405
4.373789
4.370809
4.243851
4.252791
4.448891
4.357696
4.334450
4.384518
4.442930
4.274845
##ZVALUE=325
0.707507
0.854731
0.738502
0.910759
0.843406
0.761747
0.767708
0.731945
0.715852
0.830889
0.707507
0.741482
0.687838
0.950694
0.842810
0.891685
0.906587
0.648499
0.934601
0.676513
0.886917
0.820756
0.925660
0.899434
1.060963
0.998974
1.009703
1.037717
1.064539
0.976920
0.965595
0.996590
1.084805
1.059771
1.181960
1.283884
1.302958
1.249909
1.441836
1.302958
1.422763
1.429915
1.713634
1.582503
3.247857
18.864870
50.292611
129.788518
232.573748
432.516932
598.284006
799.237490
901.829600
933.823586
869.231820
685.855746
522.362590
318.188667
192.598701
84.399581
40.553808
14.207959
8.047819
7.183552
7.764697
11.214614
15.670657
25.294423
36.277771
55.170655
67.294836
82.550645
90.108514
90.758801
85.775852
71.676970
59.324503
42.943954
30.951500
18.992424
12.505651
8.088946
6.227493
5.062819
4.743934
4.383922
4.199743
4.171729
4.312992
4.305840
4.347563
4.245639
4.197955
4.374981
4.223585
4.106760
##ZVALUE=330
0.626445
0.697970
0.698566
0.614524
0.618696
0.502467
0.561476
0.640750
0.651479
0.617504
0.673532
0.804663
0.562668
0.617504
0.692606
0.613928
0.861883
0.755787
0.706911
0.863671
0.725985
0.802875
0.837445
0.752807
0.882745
0.856519
0.755787
0.840425
0.925660
0.984669
0.791550
0.920892
0.878572
0.871420
0.932813
1.011491
1.119971
1.013875
1.202822
0.958443
1.082420
1.071692
1.414418
1.282692
1.385808
1.582503
2.012849
8.137822
26.159883
86.754560
166.609883
331.991911
490.515828
703.924894
837.001801
918.735862
889.408588
748.432875
597.216487
381.245613
243.757963
113.914609
57.247877
21.300912
9.622574
6.530881
6.193519
7.211566
9.252429
15.559793
22.036433
35.368800
48.049688
65.348744
76.648593
84.767938
84.976554
78.454614
69.946647
53.869486
40.378571
26.622415
18.821955
11.907816
8.783937
5.719662
4.969835
4.277825
4.101992
4.154444
3.946424
3.992915
3.885627
3.962517
3.772974
4.084706
##ZVALUE=335
0.499487
0.577569
0.580549
0.526905
0.572801
0.662804
0.607967
0.593662
0.548959
0.575781
0.597835
0.650883
0.419617
0.576973
0.546575
0.440478
0.661612
0.612736
0.616908
0.652671
0.864863
0.642538
0.774860
0.710487
0.582933
0.849962
0.591874
0.683665
0.741482
0.701547
0.705719
0.855923
0.740886
0.774860
0.651479
0.802875
0.774860
0.949502
0.775456
0.976920
0.963807
1.092553
1.126528
1.167655
1.229644
1.329780
1.376867
1.631975
1.508594
3.763437
13.775826
53.542852
113.308430
248.467922
396.404862
616.143942
759.941936
874.276757
891.080499
791.508555
660.433769
451.966524
306.170583
157.231688
81.526637
27.786493
12.671947
6.848574
5.964637
5.809665
6.617904
9.208918
12.942553
22.287965
32.179952
47.824979
59.064627
71.579814
77.685714
79.571605
74.206591
62.596798
52.625537
38.686991
29.098988
18.955469
12.935996
8.453727
6.050467
4.606843
4.102588
3.876686
3.656745
3.675818
3.529787
3.569722
##ZVALUE=340
0.577569
0.542998
0.432730
0.544786
0.664592
0.613928
0.609756
0.444651
0.593662
0.438690
0.616908
0.437498
0.650883
0.580549
0.599623
0.443459
0.494719
0.598431
0.690818
0.574589
0.669956
0.621676
0.658631
0.672936
0.682473
0.614524
0.658631
0.683665
0.763535
0.731945
0.698566
0.818968
0.804663
0.772476
0.853539
0.838637
0.852942
0.675917
0.813603
0.815988
0.906587
0.891685
0.864863
0.990629
1.136661
1.154542
1.180768
1.292825
1.295805
1.385808
1.472831
2.045631
6.637573
32.759905
79.576969
194.652677
322.260857
518.706441
672.043562
822.610855
866.366625
814.770460
707.852840
522.139668
367.730856
189.805627
105.588436
42.201877
17.475486
6.895661
5.956888
5.631447
5.709529
6.485581
8.519888
13.777614
20.425916
31.489730
42.559505
57.907701
66.942573
74.808002
74.700713
69.897771
62.385798
49.815774
39.402843
26.774406
19.591451
12.343526
8.616447
5.587935
4.294515
3.736615
3.520846
3.623962
##ZVALUE=345
0.512600
0.514984
0.559688
0.367761
0.589490
0.466704
0.490546
0.456572
0.657439
0.660419
0.588894
0.607967
0.633597
0.606775
0.553727
0.543594
0.593662
0.574589
0.427961
0.631809
0.532866
0.528693
0.582933
0.658631
0.767708
0.647902
0.652671
0.743866
0.609756
0.696778
0.639558
0.628829
0.681877
0.774860
0.797510
0.798702
0.836849
0.819564
0.736713
0.975728
0.789762
0.796914
0.962615
0.853539
0.913739
1.031756
0.918508
1.007915
1.227856
1.094937
1.212955
1.279712
1.270771
1.585484
3.045797
17.837882
49.741864
129.143596
230.894685
417.920947
566.858649
746.034980
822.357535
829.376578
755.959749
576.932430
429.301858
251.981616
142.789483
55.318475
25.189519
9.174943
6.238818
5.195737
5.188584
5.080700
5.644560
7.497668
11.005998
19.294620
27.621984
41.199923
50.724745
60.445666
66.603422
68.811774
66.380501
57.749748
49.611926
37.063956
28.379560
18.351674
12.754798
7.916689
5.910993
4.558563
##ZVALUE=350
0.556707
0.433922
0.437498
0.442863
0.703931
0.576973
0.534654
0.436902
0.596642
0.675917
0.499487
0.573993
0.623465
0.437498
0.769496
0.713468
0.443459
0.606775
0.570416
0.569820
0.504851
0.571609
0.443459
0.652671
0.656843
0.702739
0.688434
0.693798
0.666976
0.518560
0.763535
0.618696
0.675917
0.641942
0.676513
0.594854
0.665784
0.672936
0.671744
0.732541
0.686646
0.671744
0.726581
0.845790
0.864863
0.857711
0.900626
0.991821
0.985861
1.215935
0.948906
1.244545
1.279712
1.350641
1.306534
1.326799
1.821518
8.868575
27.837753
88.850856
167.097449
326.373577
473.283529
655.855536
764.322877
816.887617
774.356723
637.601614
488.224626
289.365649
177.304745
80.166459
37.159920
11.315942
6.288886
5.020499
4.865527
4.460812
4.543662
5.209446
6.924868
11.105537
16.074777
25.675893
33.721924
45.242906
53.685904
60.903430
62.450767
60.872436
55.603981
44.801831
36.245584
26.260614
18.992424
12.566447
##ZVALUE=355
0.600815
0.451803
0.609756
0.513792
0.479817
0.414848
0.634789
0.642538
0.622869
0.550747
0.540614
0.608563
0.647902
0.618696
0.619888
0.645518
0.669956
0.528693
0.554919
0.606775
0.556707
0.584722
0.542998
0.736713
0.630617
0.672936
0.624657
0.712872
0.669956
0.609756
0.619888
0.617504
0.546575
0.701547
0.760555
0.659823
0.723600
0.686646
0.783801
0.768900
0.593662
0.768900
0.787973
0.858903
0.845790
0.789762
0.804663
0.804663
0.899434
1.027584
0.875592
1.021624
0.936985
0.960827
1.126528
1.331568
1.364946
1.432896
1.657605
3.274679
17.635822
47.663450
126.625896
222.944617
406.412482
551.247001
713.108778
789.154768
773.382783
682.038665
500.877500
363.733768
203.595757
111.926794
43.057799
18.771887
6.849766
5.130768
4.764795
4.527569
4.161596
4.257560
4.722476
5.782843
9.268522
13.628602
21.629930
29.417872
39.733648
46.878457
54.500699
56.651831
55.464506
50.926805
41.665435
34.668446
##ZVALUE=360
0.416636
0.499487
0.571609
0.475645
0.471473
0.488758
0.538826
0.569820
0.589490
0.637770
0.512600
0.535846
0.460744
0.602603
0.506639
0.716448
0.573993
0.682473
0.594854
0.578761
0.665784
0.596642
0.714660
0.514984
0.654459
0.751615
0.806451
0.710487
0.590682
0.509620
0.688434
0.561476
0.494719
0.750422
0.687838
0.689626
0.763535
0.705719
0.857711
0.932813
0.786781
0.765920
0.847578
0.907779
0.778437
0.788569
0.897646
0.870824
0.770688
0.776649
0.897646
0.969768
1.062751
0.953674
1.047850
1.002550
0.889897
1.057982
1.131892
1.358986
1.554489
2.295971
6.798506
30.143857
72.121620
177.892447
293.329954
469.765663
614.721775
748.926997
773.805976
710.399747
598.983765
407.664776
269.398689
131.506920
68.242550
25.469661
10.490417
5.257726
4.514456
4.392862
4.122853
3.793836
3.785491
4.367828
5.000830
7.630587
10.970831
17.263889
23.979545
33.524632
40.659904
47.965646
50.753951
51.498413
##ZVALUE=365
0.598431
0.546575
0.633597
0.656843
0.443459
0.633597
0.647902
0.642538
0.562668
0.637770
0.617504
0.712872
0.586510
0.546575
0.709891
0.444651
0.507832
0.566840
0.584722
0.568628
0.673532
0.545979
0.455976
0.569820
0.461936
0.515580
0.509620
0.683665
0.498891
0.652671
0.682473
0.645518
0.741482
0.705719
0.476837
0.780821
0.636578
0.596642
0.605583
0.763535
0.607967
0.715852
0.668764
0.776649
0.789762
0.826716
0.792742
0.859499
0.884533
0.741482
0.697970
0.695586
0.739694
0.766516
0.964999
0.984669
1.007915
0.999570
1.210570
1.127720
1.344681
1.209974
1.348853
1.660585
2.970695
15.489459
43.832660
121.445656
218.191743
384.015441
526.536703
679.693818
744.079947
724.368691
637.081861
463.765860
329.539776
180.827975
97.416639
36.276579
15.037656
5.894899
4.512668
4.132986
3.960729
3.706813
3.624558
3.324747
3.782511
4.187822
5.737543
9.717941
13.597608
20.460486
26.955605
35.623908
##ZVALUE=370
0.537634
0.490546
0.612736
0.546575
0.614524
0.605583
0.541806
0.702739
0.533462
0.493526
0.709891
0.440478
0.526905
0.663996
0.576973
0.573993
0.611544
0.571609
0.463724
0.502467
0.500679
0.594854
0.519753
0.569820
0.544786
0.542998
0.646710
0.661612
0.698566
0.651479
0.595450
0.664592
0.610948
0.636578
0.542998
0.834465
0.744462
0.597835
0.744462
0.500679
0.707507
0.724792
0.707507
0.632405
0.756979
0.756979
0.907779
0.733733
0.741482
0.768900
0.795722
0.802875
0.774860
0.850558
0.744462
1.022816
0.950694
0.904799
0.872612
1.013875
0.959635
1.103878
1.155734
1.201630
1.262426
1.469851
1.882911
8.184910
27.103424
87.976456
164.813995
311.800838
450.682640
625.905991
711.645484
730.790496
668.533444
526.387691
389.357805
217.266679
121.784806
47.178864
21.616817
8.244514
4.915595
3.846884
3.716946
3.620982
3.382564
3.366470
3.211498
3.283620
4.013777
5.381703
7.576942
12.203455
##ZVALUE=375
0.543594
0.511408
0.592470
0.540614
0.703931
0.480413
0.493526
0.445843
0.517964
0.417829
0.440478
0.580549
0.561476
0.461936
0.557899
0.541806
0.619888
0.444651
0.517964
0.648499
0.490546
0.543594
0.593662
0.688434
0.605583
0.727773
0.539422
0.676513
0.594854
0.613928
0.636578
0.710487
0.681877
0.714660
0.601411
0.680685
0.747442
0.763535
0.707507
0.717640
0.809431
0.911951
0.677705
0.749826
0.787973
0.587702
0.861883
0.626445
0.884533
0.905991
0.696778
0.688434
0.671744
0.726581
0.935793
0.856519
0.895858
0.908971
0.838637
0.776649
0.908971
0.945926
0.911951
1.013875
0.802875
1.073480
1.210570
1.410842
1.612902
4.097819
14.432669
52.335858
111.680627
245.568752
377.041698
556.999445
664.512515
730.696917
708.483458
588.307977
457.516909
279.599428
173.847675
78.878999
39.290786
12.749434
5.993843
4.021525
3.596544
3.457665
3.132820
3.259778
2.882481
2.889633
2.929568
3.369451
##ZVALUE=380
0.392795
0.562668
0.430942
0.471473
0.448823
0.420809
0.363588
0.413656
0.556707
0.503659
0.509620
0.424981
0.488758
0.448823
0.654459
0.546575
0.407696
0.493526
0.534654
0.534654
0.535846
0.352859
0.551939
0.710487
0.562668
0.538826
0.701547
0.618696
0.685453
0.883937
0.748634
0.820756
0.943542
0.829697
0.904799
0.953674
0.915527
1.079440
0.931621
1.021624
0.803471
0.865459
1.086593
0.923872
0.880957
0.824928
0.859499
0.834465
0.935793
0.853539
0.834465
0.688434
0.825524
0.815988
0.748634
0.766516
0.892878
0.701547
0.836849
0.880957
0.722408
0.970960
0.950694
0.897646
0.931621
1.021624
1.238585
1.096725
1.151562
1.497865
1.435876
2.342463
7.680655
36.736727
85.230470
198.586583
315.805674
487.833619
614.001751
715.875030
717.687607
618.186593
506.353974
351.788998
235.754848
115.178823
58.349967
20.562410
8.857846
4.112720
3.642440
3.386736
3.235936
2.873540
3.159642
2.951622
##ZVALUE=385
0.555515
0.481606
0.443459
0.528693
0.421405
0.527501
0.418425
0.513792
0.558496
0.396967
0.559688
0.445843
0.481606
0.403523
0.457764
0.459552
0.586510
0.351667
0.607967
0.537634
0.441670
0.572801
0.409484
0.409484
0.662804
0.540614
0.735521
0.788569
0.901818
1.034737
1.098514
1.105666
1.176596
1.290441
1.335740
1.382828
1.436472
1.380444
1.283884
1.137853
1.151562
1.221895
1.207590
1.227856
1.178980
1.140833
1.116991
1.013875
1.041889
1.036525
1.081824
0.989437
0.976920
1.008511
1.060963
0.746846
0.871420
0.823736
0.837445
0.809431
0.881553
0.870824
1.032948
0.953674
0.972748
1.024604
0.815988
0.982881
1.066923
1.112819
1.191497
1.428723
1.411438
1.664758
4.015565
21.241903
53.770542
135.500431
238.296986
415.188670
550.351739
681.246519
711.155534
673.999786
588.547587
431.241989
302.234888
162.667632
92.350841
37.371516
15.393496
5.073547
3.609657
3.385544
3.117919
2.991557
##ZVALUE=390
0.529885
0.571609
0.522733
0.598431
0.191927
0.447631
0.330806
0.525713
0.552535
0.594854
0.594854
0.348687
0.316501
0.420809
0.376701
0.513792
0.697970
0.621676
0.500679
0.566840
0.521541
0.441670
0.562668
0.453591
0.677705
0.589490
0.728965
0.878572
1.072884
1.162887
1.422763
1.459718
1.687407
1.787543
1.828671
1.970530
1.954436
1.887679
1.862645
1.832843
1.769662
1.815557
1.627803
1.582503
1.497865
1.617670
1.278520
1.400709
1.293421
1.161695
1.241565
1.138449
1.202822
1.052618
1.151562
1.009703
0.882745
1.034737
1.012683
0.884533
0.923872
0.869632
0.897646
0.951886
0.849962
1.052618
0.891685
0.964999
1.091957
1.045465
1.133680
1.383424
1.267791
1.184940
1.238585
1.429915
2.192855
10.991693
34.341812
103.433728
192.083716
356.090665
479.566455
614.924431
686.406493
704.940557
646.402836
506.846905
384.463668
231.372714
134.413838
54.376721
24.538636
7.376671
3.920794
3.279448
##ZVALUE=395
0.489950
0.499487
0.257492
0.447631
0.449419
0.640750
0.488758
0.377893
0.615716
0.459552
0.388622
0.517964
0.420809
0.504851
0.669956
0.453591
0.452995
0.645518
0.530481
0.581741
0.501871
0.483990
0.578761
0.516772
0.629425
0.750422
0.869632
0.949502
1.265407
1.576543
1.669526
1.961589
2.030730
2.242923
2.333522
2.488494
2.597570
2.352595
2.388954
2.370477
2.357960
2.074838
1.900792
1.973510
1.849532
1.769662
1.760721
1.628995
1.342893
1.336932
1.319647
1.327991
1.285672
1.262426
1.103878
1.299977
0.939965
1.029968
0.975728
0.998974
0.971556
1.005530
1.079440
1.097918
0.990629
0.911951
1.025796
0.894666
1.161695
1.161695
1.157522
1.170635
1.194477
1.150966
1.076460
1.096725
1.057982
1.241565
1.607537
6.155968
22.118688
75.662732
142.229795
267.054439
391.122699
561.538935
664.968491
722.360611
700.165033
590.017438
458.849669
283.350945
177.689791
82.605481
38.940907
13.214946
##ZVALUE=400
0.613928
0.647902
0.464916
0.398755
0.577569
0.539422
0.507832
0.387430
0.416636
0.435710
0.450611
0.443459
0.546575
0.491738
0.402927
0.564456
0.486970
0.580549
0.634789
0.619888
0.618696
0.671744
0.527501
0.453591
0.660419
0.733733
1.016855
1.095533
1.334548
1.545548
1.905560
2.320409
2.035499
2.739429
2.505779
2.691746
2.724528
2.570748
2.619624
2.593994
2.274513
2.419949
2.277493
2.040863
1.773834
1.833439
1.902580
1.738667
1.609921
1.573563
1.513958
1.501441
1.294613
1.242757
1.318455
0.994802
1.141429
1.098514
1.049638
1.102686
1.098514
0.868440
0.842810
0.975728
0.953674
0.845790
0.993609
1.074672
1.025796
1.020432
0.869632
1.084805
1.106858
1.082420
1.143813
1.101494
1.016855
1.183748
1.174808
1.405478
1.443624
3.351569
11.667609
42.354465
90.256929
200.403929
318.650603
490.900874
602.648854
689.087510
700.623989
613.169670
500.481725
327.869654
215.280652
106.606483
##END
