##TITLE=DWF50
##FORMAT=SPECTACLE-ASCII V-1.2
##DATA TYPE=ULTRAVIOLET SPECTRUM
##SECOND TYPE=ULTRAVIOLET SPECTRUM
##DATE=12/21/17
##TIME=14:23:10
##SPECTROMETER/DATA SYSTEM=SPECTACLE
##XUNITS=NM EM
##YUNITS=ENERGY
##YFACTOR=1
##FIRSTX=220
##LASTX=410
##NPOINTS=96
##3DDATA=Equidistant
##ZUNITS=NM EX
##FIRSTZ=210
##LASTZ=400
##ZPOINTS=39
##XYDATA=(Y..Y)
##ZVALUE=210
15.216470
14.047623
13.035536
10.474920
10.021925
10.121465
9.284616
8.104444
7.253885
4.677773
4.525781
3.183484
3.104806
2.511740
2.984405
2.619624
3.147721
2.974868
2.949834
2.861619
2.860427
3.115535
3.679991
3.948808
5.125999
4.948974
7.283688
9.696484
11.926889
13.127923
16.982555
18.004775
19.372702
20.923615
24.713874
23.633838
26.629567
25.661588
22.731423
23.338795
21.571517
21.207929
20.240545
21.234751
19.069910
20.133853
17.254949
16.707778
15.346408
15.047789
16.049743
14.124513
13.085604
12.113452
12.754798
11.604428
12.439489
11.884570
10.810494
10.009408
10.742545
12.015700
9.925961
11.097789
9.498596
9.314418
9.509921
10.937452
10.389686
11.590719
12.547970
12.915730
12.833476
14.917850
15.046597
15.566945
14.545918
14.927983
14.810562
12.344718
12.177825
11.293888
9.786487
8.698702
7.480979
8.024573
6.145835
6.077886
6.520748
7.138848
9.998679
10.862947
15.151501
17.947555
21.621585
27.529597
##ZVALUE=215
36.693811
37.283897
30.005574
24.484992
18.842816
17.960668
16.108751
15.594959
15.920997
13.505816
11.956692
9.317994
7.998943
5.645752
4.380941
2.979636
2.901554
2.892613
2.846718
3.232956
3.293753
3.849864
3.542900
4.737973
5.361438
7.360578
9.038448
10.734797
13.168454
17.519593
19.316673
21.054745
22.766590
27.168989
28.527975
28.989911
30.209422
29.283762
28.336644
29.226542
26.386976
26.781559
26.525855
22.699833
22.915602
22.211671
21.837950
18.873811
19.505620
17.775893
16.669631
16.847849
16.662478
15.763640
14.821887
15.231967
13.937950
13.883710
14.530420
13.326406
13.841987
12.238622
13.494492
12.850761
11.416674
12.207627
11.674762
10.346770
12.426972
12.173653
12.294650
13.145804
13.275743
13.842583
15.778542
17.111897
15.476942
13.463497
13.993979
13.332963
11.336803
11.051893
10.284781
8.711815
8.052588
6.961823
7.171631
6.587505
5.633831
5.714893
6.667972
4.608631
6.228685
6.660819
8.017421
10.053515
##ZVALUE=220
81.954598
84.129572
81.296563
69.933534
59.059858
45.969486
37.208796
27.403831
25.673509
26.877522
24.470687
24.746656
20.830631
18.821955
14.084578
10.163784
7.744431
6.026626
4.312992
4.269481
3.224611
4.143715
3.245473
4.682541
5.252957
8.322597
9.094477
11.476874
14.383793
18.587708
22.506714
25.330782
27.673841
31.351447
34.339428
34.606457
35.112500
36.963820
35.201907
33.914447
31.517744
32.286644
29.785633
29.409528
25.484562
24.674535
24.813414
23.142695
23.984909
22.087693
20.467639
21.137595
19.943714
18.729568
20.068884
19.085407
18.668771
17.786622
17.802715
16.902685
15.944839
16.743541
14.728904
15.350580
15.473962
12.755990
14.596581
14.080405
14.347434
15.378594
15.037656
14.871955
15.096664
15.373826
17.413497
15.294552
16.087890
15.629530
15.720725
14.967918
13.194680
11.952519
11.247993
10.660887
8.410811
7.219911
7.817745
8.239746
6.637573
7.443428
6.501675
6.325841
6.207824
6.160736
6.181598
6.035566
##ZVALUE=225
106.411576
109.128952
128.935575
143.553615
140.844584
127.075911
114.330649
83.291531
64.013600
49.463511
41.090846
38.667917
36.542416
37.353635
36.369562
34.356713
27.287602
22.769570
16.855597
9.426475
7.323623
5.044937
4.908442
4.367828
5.448461
7.282495
9.245872
11.865497
14.143586
18.514991
22.475719
25.648475
28.087497
30.124784
32.075644
35.535693
35.892725
35.205483
34.259558
33.727884
33.526421
30.341744
32.195449
29.252768
27.486682
25.115609
24.789572
22.771955
22.125840
23.959875
22.366643
21.255612
22.645593
22.439957
23.494959
20.800829
22.394657
21.979809
20.376444
19.581914
20.016432
18.381476
17.295480
17.120838
17.852783
16.575456
15.377998
16.235709
16.076565
15.936494
16.696453
16.392469
17.156601
17.595887
17.032623
17.208457
16.226768
17.137527
15.951991
14.544725
11.716485
11.920929
11.861920
10.508895
9.229779
9.375811
9.355545
8.876920
8.036494
8.351803
8.329749
7.059574
6.521940
7.748604
6.206632
7.922649
##ZVALUE=230
75.503588
80.454946
117.383003
169.738531
207.205415
242.212415
248.323679
230.919719
196.311474
151.618719
111.641884
80.961585
59.922934
58.146715
57.843924
61.607957
61.071515
58.627725
46.979785
39.271712
29.009581
19.954443
11.279583
8.650422
7.621646
8.056760
8.706450
10.090470
12.444854
13.770461
18.179417
19.087791
21.882653
23.545623
24.100542
26.124716
24.875998
25.638938
26.983619
26.748776
26.846528
25.389791
24.609566
24.792552
22.788644
22.057891
20.093918
20.172596
20.266771
19.720793
20.315647
20.414591
21.643639
22.763610
21.753907
19.745827
22.416711
22.070408
21.697879
20.908713
20.854473
20.054579
20.391941
19.854903
19.776821
18.504858
18.481612
19.306540
18.155575
18.900633
19.679666
20.169616
18.457770
18.885732
19.290447
19.205809
17.693639
17.086864
15.764832
16.609430
14.918447
13.976693
14.651418
12.750626
12.783408
10.461807
10.490417
9.304881
9.008646
9.480715
9.369850
8.642673
9.408593
7.602572
9.089708
8.302927
##ZVALUE=235
21.209717
23.608804
50.255656
105.774999
160.136819
239.148736
296.997428
365.426540
377.529860
375.939608
328.462720
263.846517
187.328458
134.418607
96.605420
81.046820
80.042481
82.498789
87.317824
91.461539
81.838965
65.698624
54.688454
35.784841
25.457740
16.290545
13.489723
10.829568
9.651780
9.751916
11.952519
13.202429
14.464855
15.706420
16.751885
16.505718
15.754700
17.877817
17.683506
17.401576
17.348528
18.792748
16.589761
16.915798
16.238689
15.528798
16.196966
15.629530
16.447902
15.507936
16.068816
17.045736
17.675757
18.098950
18.538833
19.325614
17.889738
18.626451
19.238591
18.142462
19.153953
19.343495
19.588470
18.609762
19.984841
17.853975
17.588735
16.201735
18.606782
17.684698
19.673705
19.554496
18.290877
19.635558
19.495487
19.116998
19.651651
19.459724
18.033981
15.801787
16.531944
16.389489
13.743639
13.021827
13.843775
13.319850
12.031794
10.897517
10.961890
9.842515
10.757446
10.470748
9.636879
10.245442
10.174513
9.002686
##ZVALUE=240
2.534986
2.752542
8.323789
20.538568
55.086613
95.840693
189.964771
275.684595
404.920578
479.136705
537.772775
519.792438
476.228595
382.810831
295.678973
193.094611
135.095716
107.325912
97.993612
102.425814
109.973550
113.373995
111.728907
100.466609
82.621574
65.360665
48.031807
33.270717
21.973848
15.266538
12.221932
11.478662
10.838509
12.672544
13.220906
12.491941
12.914538
13.865829
13.833642
13.495684
14.572740
11.765957
14.386773
14.424920
13.995767
14.154911
14.641881
13.530850
13.507605
13.943911
14.947653
15.393496
15.420914
16.623735
14.940500
16.991496
13.875961
15.415549
14.958978
16.514659
16.641617
16.330481
16.385913
16.974807
16.205907
14.172792
15.491843
14.808774
16.861558
17.416477
17.442703
18.226504
18.504858
19.373894
20.144582
19.024611
19.056797
18.432736
16.960502
17.853975
15.112758
14.138818
13.593435
12.681484
13.637543
11.840463
11.632442
11.386871
12.175441
10.709763
11.393428
10.683537
11.796951
11.454821
10.332465
9.766817
##ZVALUE=245
2.134442
1.803637
1.965761
1.940727
4.910827
12.692809
41.092634
86.608529
182.112455
274.484754
418.992043
532.595515
594.348907
629.524589
596.277714
493.123531
397.586823
270.462632
191.347003
121.609569
100.442767
96.501708
113.404989
124.866962
128.826499
123.746991
109.888911
98.704696
73.893666
55.478811
39.487481
26.341677
19.460917
14.106631
13.200641
13.498664
13.373494
14.272928
13.567805
14.641881
13.378859
13.560653
14.270544
13.659000
13.761520
13.780594
12.926459
12.409687
12.965798
13.713837
12.123585
12.142658
12.537837
12.478828
13.820529
13.524890
12.997985
13.633966
13.166666
12.798905
13.069510
12.266636
14.032722
13.511777
12.484789
12.336969
13.451576
13.879538
13.087988
13.588667
15.165806
13.897419
14.344454
15.487671
15.254617
15.931726
15.779734
12.921691
13.370514
13.888478
12.974739
12.309551
11.920929
11.183619
11.489987
10.158420
10.831952
10.613799
10.045767
9.725690
8.788705
9.500980
8.243918
9.673834
8.580685
8.995533
##ZVALUE=250
1.547933
1.573563
1.051426
1.505613
1.981854
1.740456
2.851486
7.441640
32.479763
68.533421
159.988999
263.074636
374.356508
531.092882
636.359453
711.711645
695.546865
618.645549
516.135693
362.409949
245.100856
163.472891
105.070472
92.100501
103.746653
121.648908
133.566856
143.488646
132.656693
122.955441
107.354522
84.334612
66.064000
41.651726
31.553507
22.403598
19.285679
17.770529
17.771721
17.997622
18.105507
16.789436
15.968680
16.576648
15.875697
16.428828
14.938712
15.855432
14.633536
14.501810
14.550686
14.111996
14.498830
14.558434
13.148785
12.707710
12.361407
12.958646
12.552738
12.594461
13.969541
12.460947
12.049675
12.574792
11.838675
12.150407
11.449456
12.133718
12.050867
12.925863
12.252927
12.898445
13.060570
13.241768
13.372898
13.771653
13.514757
12.002587
13.413429
10.404587
10.847449
10.504723
9.922981
9.796619
8.934736
8.753538
8.086562
8.807778
8.799434
8.603930
8.024573
8.377433
8.640885
7.391572
7.661581
8.187890
##ZVALUE=255
1.361966
1.377463
1.478791
1.487732
1.494884
1.626611
1.617670
1.752973
2.112985
4.282594
21.716952
51.486492
101.753473
215.957761
339.355469
513.628721
637.722015
759.640932
787.830949
744.010806
641.504526
515.390635
326.359868
212.805867
119.313598
93.043447
89.418888
105.943680
127.847791
142.456889
149.002671
147.103667
136.610866
113.754869
95.901489
70.428848
53.241849
38.623810
32.350421
25.232434
22.667646
23.774505
22.856593
21.292567
19.942522
19.672513
19.795895
19.327998
18.329620
16.524792
16.455650
17.007589
17.347932
16.049743
15.125871
15.491843
15.029907
14.533997
14.463663
14.385581
14.119744
12.955666
12.517571
12.955666
12.574792
12.036562
11.448860
11.591911
11.963844
12.404919
11.434555
12.388825
11.906624
12.474656
12.138486
11.568666
11.337996
11.216998
11.034608
10.340810
9.523630
9.062886
8.644462
8.436441
8.262992
7.902980
8.049607
7.166862
6.809831
7.284880
6.816983
7.191896
7.517934
6.867647
6.473660
5.866885
##ZVALUE=260
1.386404
1.517534
1.482964
1.476407
1.636744
1.370907
1.265407
1.635551
1.887679
2.202988
1.801848
2.681613
7.241964
32.962561
72.744489
171.975493
284.576416
465.346575
612.733960
784.518719
867.356658
872.600675
773.721933
626.350641
425.383449
287.261009
175.246000
112.070441
84.698796
90.110898
109.748840
137.146711
156.295896
170.747638
165.918469
155.214667
134.778619
104.697943
85.688829
62.329769
49.809813
38.761497
32.122731
29.098988
26.714802
26.099682
24.482608
23.334622
22.651553
21.515489
21.360517
20.448565
20.364523
19.449592
19.217730
17.316937
18.083453
17.240644
16.307831
16.119480
15.673637
14.989972
14.396906
13.795495
14.183521
12.761950
12.445450
12.386441
12.092590
13.030767
13.265610
13.003945
12.413859
11.639595
12.361407
11.323690
11.323690
10.290742
10.711551
9.327531
9.345412
8.576512
8.744597
8.062720
7.816553
7.718801
7.713437
7.906556
6.846786
6.977916
6.561875
6.434917
6.320477
6.443858
6.799698
6.440878
##ZVALUE=265
1.397729
1.195669
1.354814
1.263618
1.204610
1.275539
1.243949
1.506805
1.570582
1.716614
1.483560
1.617670
1.950860
2.047420
4.577637
22.961497
53.748488
131.520629
232.234597
425.365567
600.609779
768.235922
923.153758
950.850844
870.036483
750.577450
556.883812
398.613811
230.498910
146.402717
101.400614
87.404847
100.986958
132.311583
155.741572
177.684426
186.956525
180.228949
166.431665
140.663981
114.015937
86.592436
67.162514
51.075816
41.178465
33.489466
31.394958
29.715896
27.373433
26.629567
24.857521
24.451613
23.940802
22.799969
21.475554
20.594597
20.401478
19.498467
19.361973
17.996430
17.205477
15.882850
16.197562
15.570521
15.481710
13.997555
14.408827
13.844967
13.559461
13.024807
12.867451
12.912750
12.717843
12.245774
12.463927
12.203455
10.957718
10.804534
9.932518
9.473562
9.430647
8.487701
8.581877
8.235574
7.716417
7.398725
7.660985
7.091761
6.825924
6.617904
6.663799
6.530881
6.316900
6.526709
6.102920
6.211996
##ZVALUE=270
1.059771
1.301765
1.096725
1.270771
1.345873
1.385808
1.258850
1.196861
1.138449
1.195669
1.626611
1.476407
1.758933
1.617670
1.546741
2.047420
2.680421
9.546876
29.904842
93.151927
185.357928
323.445797
559.487939
746.627450
947.921872
1015.878916
993.560553
900.453925
709.280968
535.324812
375.198722
209.182501
132.542849
88.208914
89.014769
115.541816
137.173533
166.464448
184.525847
191.458464
183.646679
167.583823
145.077705
112.283826
90.879798
62.424541
50.632954
39.301515
33.554435
29.534698
26.959777
27.041435
25.778413
23.261905
23.856759
22.359490
20.833611
20.775795
18.968582
18.984675
18.795729
17.647743
16.390681
16.283989
15.800595
14.595985
15.120506
13.866425
13.811588
14.250875
14.088750
12.952685
13.037920
12.996793
12.248755
12.278557
11.752844
11.241436
11.001825
10.182858
9.493828
8.982420
8.693933
8.149743
7.812977
7.730722
7.838607
7.032752
6.948709
6.650686
6.932616
6.612539
6.410480
6.650686
6.464720
5.753636
##ZVALUE=275
1.038909
0.983477
1.112819
1.168847
1.243949
1.124740
1.391768
1.043677
1.225471
1.064539
1.347661
1.419783
1.346469
1.429915
1.363754
1.622438
1.950860
1.993775
2.198815
5.020499
18.765926
52.425861
148.436427
272.839665
501.942635
678.317547
885.688663
1003.713608
1015.906930
1004.096866
897.564888
669.990778
479.595661
268.204808
166.847706
91.779828
76.772571
86.447001
105.846524
135.003924
155.536532
174.895525
180.513859
174.006820
158.805847
128.772855
106.339455
80.484748
61.136484
43.803453
34.156442
27.740598
24.343729
22.721887
21.663904
20.785928
20.130873
20.279884
18.659830
18.876791
17.869473
17.235875
16.832948
15.776753
15.081763
14.672875
15.134811
14.637709
13.937950
13.416409
13.592839
12.693405
13.040900
12.450814
12.541413
11.858940
11.180639
11.121631
10.785460
10.053515
10.149479
9.383559
8.641481
7.684827
7.818937
8.117557
7.128716
7.259846
7.576942
7.449985
7.275939
6.637573
6.295443
6.147623
6.310940
6.020665
##ZVALUE=280
1.024604
1.064539
1.130700
1.010895
1.017451
0.988841
1.208782
1.245737
1.163483
1.144409
1.221895
1.345873
1.056790
1.031756
1.330972
1.350641
1.328588
1.665950
1.640916
1.697540
1.824498
2.340674
11.363626
37.709475
118.063688
214.251876
395.682454
575.090647
817.468762
978.002548
1015.906930
1015.906930
977.336764
749.276876
558.731556
331.377983
201.079845
101.234913
62.870979
57.433844
68.513751
95.750690
115.419626
142.157674
156.684518
163.135529
160.129666
140.439868
122.116804
92.802644
72.355866
49.120784
37.844777
27.108788
21.645427
18.983483
17.233491
16.767979
16.877651
16.247630
16.787648
15.914440
15.140772
14.965534
15.121698
14.136434
13.672709
13.238788
13.417602
13.448000
13.418794
13.435483
12.481809
12.208819
12.138486
11.739731
11.594892
11.299849
10.598898
10.091662
9.493828
9.085536
8.805990
8.396506
8.392930
7.584691
7.663965
8.118749
7.374883
7.047653
6.538630
6.904602
6.371737
6.136894
6.863475
6.605983
##ZVALUE=285
1.029968
0.965595
0.940561
0.801682
0.960827
0.911951
0.970960
0.972748
0.994802
1.060963
1.129508
1.119971
1.074672
0.989437
1.198649
1.270771
1.357794
1.339912
1.408458
1.534820
1.450777
1.476407
1.716614
2.178550
6.005764
19.541979
65.461397
136.904716
295.748711
462.311506
637.900829
888.769031
1015.906930
1015.906930
1015.906930
864.856839
688.573718
431.343913
272.083879
131.106973
72.347522
39.837956
39.766431
57.257414
77.742934
106.239915
125.448704
143.180490
151.280761
146.560669
135.668516
113.993883
93.127489
66.872835
49.075484
31.888485
23.489594
18.271804
15.799999
14.582872
13.313890
13.278723
12.764931
12.704730
13.176799
12.918711
12.807846
12.225509
12.651682
12.242794
11.905432
12.001991
11.525750
11.766553
11.434555
10.762811
11.170506
10.374784
10.193586
9.316802
8.955598
8.261800
8.626580
8.161664
7.572770
7.588863
7.886887
7.710457
7.311702
7.309914
6.748438
6.729960
6.792545
6.443858
6.234646
6.227493
##ZVALUE=290
0.855923
0.833869
0.790954
0.915527
0.793934
1.026988
0.972748
0.942945
1.027584
1.042485
0.848770
0.814795
1.106858
0.931621
1.171827
1.278520
1.140833
1.234412
1.227856
1.305938
1.399517
1.459718
1.550913
1.633763
1.735687
1.804829
2.474785
10.105968
31.158924
94.116926
182.806849
378.402472
561.731458
822.283030
987.324715
1015.908718
1015.908718
960.366726
791.538954
536.466837
358.349681
179.603696
94.747543
40.856004
28.055906
35.369992
50.163865
72.595477
93.781948
119.364858
135.287642
145.779848
142.248869
127.925873
110.569596
84.182620
63.321590
43.035746
31.097531
20.483732
15.547872
12.924671
11.729598
11.291504
11.443496
10.926723
10.967851
11.011958
11.104941
11.120439
10.783672
10.767579
10.954738
10.627508
9.846687
10.243654
9.842515
9.495616
9.226799
8.857846
8.495450
7.965565
7.785559
7.749796
7.731915
7.780790
7.692575
6.922483
6.932616
6.771684
6.834865
6.514788
6.710887
6.151795
6.181598
6.193519
##ZVALUE=295
0.886917
0.900626
0.978708
1.027584
0.955462
0.827909
0.839829
0.726581
0.941753
0.882745
0.961423
1.019835
0.979900
1.009703
1.022816
1.098514
1.050830
1.145601
1.243949
1.178980
1.279712
1.478791
1.324415
1.206994
1.531839
1.563430
1.707673
1.804829
2.011657
3.452897
12.812614
54.295659
122.940540
285.373926
459.041595
729.655623
917.452574
1015.911698
1015.911698
1015.911698
901.700854
646.509528
450.580716
236.921906
129.616857
48.653483
26.042461
22.437572
29.920936
47.552586
64.942837
89.850426
107.336640
128.508806
135.844946
134.336948
121.839643
102.169514
83.055496
58.920979
42.712688
27.104616
19.647479
13.686419
11.562705
9.548664
9.121895
9.040833
9.396672
8.946657
9.554625
9.101629
9.156466
9.971857
9.296536
9.224415
9.270906
9.054542
8.508563
8.549690
7.812977
7.827878
7.532835
7.344484
7.203817
6.834865
7.052422
7.083416
7.415414
6.704926
6.712675
6.576777
6.379485
5.944967
6.137490
6.168485
##ZVALUE=300
0.916719
0.684857
0.906587
0.753999
0.854731
0.796914
0.765920
0.862479
0.891685
0.957847
0.944734
0.827909
0.885725
1.007915
0.981688
0.962615
1.026988
0.975728
1.058578
0.983477
0.947714
1.110435
1.338720
1.156926
1.232624
1.222491
1.305938
1.489520
1.614690
1.622438
2.022982
2.361536
8.505583
29.408932
95.638633
187.086463
380.898714
576.027632
837.104917
1000.162959
1015.906930
1015.906930
974.064469
807.355642
534.549952
346.996784
176.391602
94.646811
35.728812
19.137859
19.208789
26.517510
42.166710
58.167577
82.986951
102.014542
120.892525
128.285885
125.969648
118.033886
100.473762
82.183480
59.282780
43.379664
26.338696
18.104911
12.681484
9.924769
8.717775
8.509755
8.418560
8.445978
8.512735
8.502603
8.459687
8.265972
8.510947
7.961988
8.167624
7.957816
7.667542
7.327795
7.029772
7.013679
7.572770
6.977916
7.116795
6.640553
6.763935
6.522536
6.808639
6.787777
6.382465
6.362796
6.159544
6.061792
##ZVALUE=305
0.871420
0.761747
0.799894
0.737906
0.958443
0.762939
0.794530
0.984669
0.819564
0.929832
0.861883
0.737906
0.750422
1.012683
0.805855
0.962615
0.891685
0.866652
0.910759
0.964999
1.011491
1.091957
1.014471
0.862479
1.309514
1.305938
1.321435
1.440644
1.310706
1.514554
1.676679
1.660585
1.739860
2.112985
3.598928
19.177794
52.911639
153.588653
272.724628
501.231551
701.925755
953.301787
1015.906930
1015.906930
1015.906930
854.896903
660.058856
407.601595
254.010558
119.570494
60.463548
22.357702
14.644861
17.578602
25.086999
40.576458
55.749416
79.582930
95.435977
113.927722
120.192766
119.831562
112.015605
93.852878
76.868534
54.646730
39.788485
25.204420
17.372966
12.281537
9.448528
8.148551
7.640719
7.876754
7.963777
7.943511
7.647872
8.060932
7.533431
7.621646
7.507801
7.284880
6.981492
7.188916
7.157922
6.940961
7.020831
6.724000
6.659627
6.789565
6.611943
6.800890
6.521940
5.761981
6.006956
5.848408
##ZVALUE=310
0.754595
0.717640
0.701547
0.640750
0.796914
0.813603
0.759959
0.830889
0.837445
0.805855
0.796914
0.825524
0.849962
0.790954
0.874996
0.956655
0.994802
0.856519
0.833869
0.829697
1.118779
1.096725
1.037717
1.017451
1.109838
1.107454
1.013875
1.007915
1.077652
1.277924
1.341701
1.330972
1.318455
1.459718
1.634955
1.909733
2.253652
8.441806
27.091503
90.497732
181.380510
370.664597
572.763681
845.654607
1005.077958
1015.906930
1015.906930
984.241962
813.779831
546.320677
362.534523
180.695653
96.650720
35.578609
16.541481
11.917949
14.792681
22.597909
33.017993
50.765872
68.185925
88.771582
103.116632
113.704801
114.458799
106.336474
93.768835
74.109435
56.188703
37.224889
26.871562
17.034411
12.126565
9.472966
8.308887
7.699728
7.626414
7.533431
7.611513
7.182956
7.318854
6.651878
6.964803
7.079840
6.850958
6.940961
7.057786
6.980896
6.875992
6.973743
6.906986
6.571412
6.494522
6.256700
6.108880
5.995631
##ZVALUE=315
0.765920
0.675917
0.723600
0.788569
0.802875
0.541806
0.843406
0.845790
0.803471
0.556707
0.704527
0.727773
1.027584
0.866652
0.801682
0.890493
0.881553
0.966787
0.898838
0.882745
0.877976
1.076460
0.983477
1.006722
0.959635
0.959635
1.259446
1.198649
1.133680
1.229644
1.111627
1.292825
1.402497
1.176596
1.414418
1.446605
1.568794
1.736879
2.044439
3.921986
13.925433
58.752894
127.026439
287.320614
467.824936
752.325654
930.377841
1015.906930
1015.906930
1015.906930
897.123814
642.845035
452.159643
241.822004
129.358768
48.843622
21.136999
10.984540
11.200905
14.557838
20.108819
32.223463
45.368671
64.901710
79.607964
99.064708
106.330514
108.190775
100.692511
85.731745
70.155859
52.325726
38.748980
23.768544
16.893744
11.244416
8.831620
7.665753
7.466674
7.204413
7.169843
7.034540
6.739497
6.661415
6.526709
6.545782
6.451607
7.020831
6.466508
6.648898
6.645918
6.645918
6.268620
6.207824
5.817413
5.780458
##ZVALUE=320
0.856519
0.752807
0.767708
0.779629
0.726581
0.833869
0.622869
0.695586
0.652671
0.851750
0.801682
0.809431
0.812411
0.882745
0.740886
0.795722
0.700951
0.732541
0.843406
0.872612
0.721812
0.782609
0.731945
0.752807
0.705719
1.022816
0.852942
1.062751
0.991821
0.923872
1.040697
1.277924
1.130700
1.152754
1.202822
1.164675
1.417994
1.444817
1.330972
1.685619
1.685619
2.234578
6.523728
33.810735
82.686543
211.030841
353.780985
593.113899
790.169835
1003.427505
1015.906930
1015.906930
996.475816
765.475035
563.890934
314.827561
175.840855
71.655512
33.315420
12.493730
9.306669
9.586811
12.320876
18.125772
26.664734
42.900443
57.037473
75.631738
89.871883
99.930763
101.524591
95.509887
85.217953
66.373944
51.893592
34.684539
24.286509
16.242862
11.396408
8.289814
7.162690
6.918907
6.560683
6.336570
6.047487
6.141663
6.164908
6.136894
6.044507
6.231666
6.093979
5.733967
5.829930
5.766749
5.863905
5.633831
##ZVALUE=325
0.682473
0.734925
0.781417
0.764728
0.627637
0.786781
0.684857
0.688434
0.729561
0.888705
0.738502
0.570416
0.581741
0.867844
0.787973
0.713468
0.972748
0.749826
0.901818
0.808835
1.053810
0.735521
0.936985
0.706911
0.801682
0.835657
0.898838
0.905991
0.978708
1.087785
1.198649
1.023412
1.120567
1.182556
1.127720
1.316667
1.176596
1.195669
1.205802
1.337528
1.508594
1.542568
1.833439
2.132654
3.616810
20.174980
54.368973
146.481991
263.266563
488.342643
684.313774
923.983455
1015.923023
1015.923023
1015.923023
827.309489
624.459982
384.527445
233.682990
101.389885
48.017502
16.199946
8.549690
7.827878
8.094907
11.696815
16.670823
26.790500
38.360953
57.501793
70.517659
85.807443
93.768835
95.059872
89.665651
75.563788
62.944889
45.856833
34.168959
21.353960
15.186667
9.587407
8.152723
6.687641
6.451607
6.206632
6.318688
6.245971
5.908608
6.014705
5.782843
5.697608
5.533695
5.421638
5.490780
5.607605
##ZVALUE=330
0.757575
0.642538
0.664592
0.656843
0.727773
0.587702
0.633597
0.765920
0.615716
0.794530
0.750422
0.781417
0.725985
0.704527
0.703931
0.693798
0.825524
0.818968
0.812411
0.624657
0.710487
0.850558
0.653863
0.743866
0.838637
0.759959
0.827909
0.918508
0.909567
0.882745
0.869632
1.070499
1.000762
1.025796
0.986457
0.985861
1.163483
1.081824
1.113415
1.029968
1.115799
1.332760
1.424551
1.344681
1.501441
1.748800
2.161860
8.760691
29.208660
96.578598
186.311603
380.168557
565.072894
820.540786
983.169675
1015.905738
1015.905738
899.107456
720.754862
463.951826
298.718810
140.859485
71.081519
25.091767
11.417866
7.190704
7.566810
8.454919
10.925531
17.056465
24.476647
37.128925
50.449967
69.333911
80.008507
87.701678
89.350939
83.544850
73.149800
57.510734
44.496655
29.380918
21.399856
13.982654
10.358691
7.748604
6.903410
6.230474
5.757809
5.779862
5.735755
5.452633
5.542636
5.344748
5.260706
5.109906
##ZVALUE=335
0.637770
0.814795
0.567436
0.693798
0.594854
0.705719
0.644922
0.680685
0.646710
0.703931
0.752807
0.779629
0.851750
0.701547
0.771880
0.651479
0.799894
0.762939
0.721812
0.723600
0.755787
0.726581
0.610948
0.787973
0.839829
0.734925
0.807643
0.747442
0.733733
0.898838
0.820756
0.926852
0.830889
0.946522
0.748634
0.959635
0.955462
0.932813
1.034737
1.068711
1.092553
0.975728
1.144409
1.201630
1.392961
1.351833
1.402497
1.613498
1.810789
4.378557
14.732480
59.281588
126.120448
283.078551
455.019474
714.906454
893.521905
1015.906930
1015.906930
944.203734
794.627666
545.132756
373.035669
195.939541
102.820992
35.742521
15.183687
7.869601
6.973743
7.245541
8.375645
10.819435
14.599562
24.575591
34.491420
50.087571
62.934756
74.667931
81.826448
82.338452
77.043772
65.786839
55.351853
41.912794
31.966567
20.906925
15.465617
10.024905
7.875562
6.489754
5.967617
5.510449
5.368590
5.054474
4.771948
4.826784
##ZVALUE=340
0.742674
0.576973
0.547767
0.579953
0.727773
0.572801
0.752807
0.601411
0.561476
0.750422
0.615716
0.632405
0.563860
0.648499
0.636578
0.619888
0.541806
0.784993
0.730753
0.775456
0.622869
0.745654
0.809431
0.652671
0.812411
0.582933
0.699759
0.769496
0.619888
0.855923
0.528693
0.942945
0.735521
0.855923
0.743866
0.900626
0.726581
0.879765
1.010895
1.093745
0.859499
1.060963
0.979900
1.163483
1.114607
1.353621
1.354814
1.458526
1.580715
1.542568
1.655817
2.473593
7.446408
35.878420
88.841915
221.018791
369.253755
604.136586
785.298944
975.163579
1015.906930
974.514484
854.300857
631.724596
444.820523
230.883956
127.424002
51.464438
21.290779
8.691549
6.930828
6.861687
7.009506
7.959604
9.907484
15.745759
22.584796
34.343600
45.367479
61.505437
70.344806
76.985955
78.536868
72.398782
65.732598
51.956773
41.940808
28.864741
21.666884
13.744831
10.101795
7.308722
5.853772
5.064607
4.837513
4.577637
##ZVALUE=345
0.577569
0.583529
0.567436
0.741482
0.599623
0.601411
0.582933
0.495911
0.703931
0.637770
0.675917
0.681877
0.490546
0.511408
0.596642
0.655651
0.719428
0.728965
0.730753
0.661612
0.661612
0.630617
0.830889
0.683665
0.725985
0.790954
0.687838
0.702739
0.596642
0.701547
0.729561
0.679493
0.723600
0.842810
0.732541
0.957847
0.752807
0.948906
0.990629
1.046658
0.892878
0.919700
1.129508
1.067519
1.120567
1.076460
1.180768
1.276731
1.168847
1.236796
1.306534
1.408458
1.630783
1.833439
3.369451
19.763708
55.793524
153.091550
269.404650
479.250550
659.132600
877.684951
982.918739
1002.872586
921.555758
711.361766
530.379415
311.290622
176.852942
70.377588
31.260848
11.426806
7.538795
6.862879
6.962419
6.912947
7.152557
9.767413
13.090968
21.199584
29.965639
43.034554
53.532720
63.172579
68.534613
72.064996
68.653822
60.541630
52.566528
39.189458
29.859543
19.733906
14.037490
8.941889
6.700754
5.382895
##ZVALUE=350
0.593662
0.531673
0.628829
0.590682
0.690818
0.685453
0.750422
0.640750
0.581741
0.592470
0.686646
0.616908
0.569820
0.582933
0.654459
0.677705
0.599623
0.668764
0.879765
0.694990
0.638962
0.744462
0.728965
0.678897
0.641942
0.690818
0.611544
0.699759
0.796914
0.871420
0.722408
0.790954
0.819564
0.900626
0.814795
0.875592
0.918508
0.961423
0.925660
0.827909
0.797510
0.834465
0.974536
0.870824
1.119971
0.960827
0.951886
0.974536
1.084805
1.154542
1.223683
1.294613
1.275539
1.474619
1.600981
1.482964
1.901984
9.964705
31.569600
98.414421
190.465450
378.269553
551.341772
771.855712
907.616019
984.327793
937.025547
780.102015
601.717830
360.819697
221.629739
99.232793
47.414899
14.866590
8.237958
6.769896
6.592870
6.027818
6.139874
6.911755
8.410811
12.840629
17.929673
26.522875
34.930706
46.481490
54.816604
62.806606
64.799786
63.019991
57.413578
47.528744
39.304495
26.656985
20.057559
13.083816
##ZVALUE=355
0.537634
0.643730
0.470877
0.566840
0.719428
0.521541
0.566840
0.655651
0.676513
0.639558
0.598431
0.663996
0.739694
0.747442
0.597835
0.603795
0.694990
0.484586
0.650883
0.696778
0.703931
0.700951
0.639558
0.743866
0.732541
0.645518
0.728965
0.828505
0.749826
0.737906
0.757575
0.756979
0.824928
0.832677
0.783801
0.855923
0.832677
0.805855
0.724792
0.825524
0.884533
0.960827
0.836849
1.005530
0.990629
0.790954
1.054406
1.060963
0.851750
1.139641
1.176596
1.302958
1.255870
1.191497
1.225471
1.308918
1.401901
1.539588
1.880527
4.816651
16.585588
64.838529
133.523941
281.043649
444.804430
691.294670
841.893554
955.086946
953.841805
817.493796
662.743449
439.220667
280.923843
124.211907
59.174895
18.705726
9.166598
6.653666
6.036758
5.476475
5.403757
5.503893
5.681515
7.434487
9.958744
15.587807
21.662712
32.076836
39.675832
49.508810
55.948496
58.918595
57.687759
51.702857
44.976473
35.078526
##ZVALUE=360
0.666976
0.628829
0.636578
0.451803
0.708699
0.591874
0.568628
0.628829
0.554919
0.609756
0.503659
0.629425
0.760555
0.823736
0.511408
0.649691
0.655651
0.556707
0.642538
0.701547
0.675917
0.636578
0.768900
0.775456
0.686646
0.658631
0.710487
0.751615
0.810623
0.834465
0.759959
0.763535
0.748634
0.704527
0.729561
0.712872
0.803471
0.795722
0.860691
0.849962
0.797510
0.883937
0.798702
0.886917
0.885725
0.827909
0.811815
1.071692
0.908971
0.985861
0.916719
1.045465
0.996590
1.338720
1.221895
1.296997
1.201630
1.293421
1.455545
1.626611
1.814961
2.451539
7.403493
34.549832
83.121657
208.402872
346.309543
563.022494
741.151571
907.958746
945.265889
875.465870
743.349791
507.507920
336.514711
163.920522
85.178614
31.611919
12.601614
5.901456
5.373955
4.964471
4.885793
4.713535
4.523993
4.789829
5.593896
8.280873
11.471510
17.700791
24.513602
34.784675
41.597486
49.847960
52.757859
53.409934
##ZVALUE=365
0.650883
0.626445
0.641942
0.683665
0.570416
0.747442
0.763535
0.713468
0.640750
0.743866
0.524521
0.621676
0.624657
0.812411
0.718832
0.578761
0.568628
0.617504
0.674725
0.720620
0.619888
0.781417
0.669956
0.567436
0.596642
0.764728
0.623465
0.770688
0.800490
0.743866
0.724792
0.712872
0.637770
0.728965
0.710487
0.891685
0.878572
0.797510
0.776649
0.781417
0.748634
0.958443
0.873804
0.936985
0.911951
1.017451
0.900626
0.963807
0.936985
1.124740
0.944734
0.992417
1.083612
1.158714
1.210570
0.917912
0.924468
1.157522
1.274943
1.459718
1.369715
1.491904
1.489520
2.016425
3.697872
19.405484
52.996874
140.225887
258.596539
479.140878
647.915602
835.995674
920.600891
902.829766
793.918967
579.594970
412.402749
225.894451
122.984648
43.783784
17.450452
6.314516
4.950762
4.569888
4.518628
4.168749
4.115701
3.696680
3.972650
4.872680
6.067753
9.951591
14.017820
21.764636
28.707981
37.208796
##ZVALUE=370
0.599623
0.550747
0.630617
0.564456
0.823736
0.606775
0.585914
0.619888
0.600815
0.629425
0.569820
0.580549
0.589490
0.769496
0.738502
0.604987
0.553727
0.656843
0.536442
0.621676
0.707507
0.677705
0.617504
0.675917
0.743866
0.642538
0.798702
0.636578
0.684857
0.668764
0.804663
0.680685
0.717640
0.782609
0.811815
0.742674
0.917912
0.692606
0.612736
0.830889
0.688434
0.600815
0.790954
0.744462
0.828505
0.806451
0.729561
0.970960
0.920892
0.865459
1.036525
0.936985
0.913739
0.946522
0.863671
0.875592
0.859499
1.034737
1.217723
1.103878
1.093745
1.160502
1.358986
1.380444
1.426935
1.624823
2.209544
9.498000
32.059550
104.960799
197.503567
380.930901
554.292798
771.980882
879.154801
908.213854
832.992792
657.086968
485.636592
270.071626
152.289867
58.905482
26.995540
9.451509
5.440712
4.171729
3.923774
3.884435
3.728867
3.494620
3.429651
3.531575
4.104972
5.640984
8.190870
12.758970
##ZVALUE=375
0.679493
0.731945
0.740886
0.808835
0.659823
0.764728
0.930429
0.851750
0.885725
0.829697
0.742674
0.740886
0.904799
0.944734
0.822544
0.751615
0.833869
0.869632
0.813603
0.678897
0.764728
0.931621
0.770688
0.794530
0.705719
0.763535
0.827909
0.858903
0.768900
0.804663
0.884533
1.045465
0.869632
0.901818
1.022816
1.068711
0.984669
1.106858
0.982881
0.941753
0.945926
1.044869
1.080632
1.051426
0.966787
1.033545
0.987649
1.147985
1.062751
1.049638
1.194477
1.050830
1.202822
1.057982
1.117587
0.965595
1.077652
1.172423
1.149774
1.163483
1.226664
1.239777
1.193881
1.373887
1.350641
1.684427
1.635551
1.649857
1.900792
4.922748
17.211437
62.793493
134.232640
298.551917
461.620688
689.875484
822.674632
907.544494
878.264904
725.230575
564.176440
343.653560
216.434002
107.119679
53.392649
16.744733
7.048845
4.325509
4.106760
3.837943
3.753901
3.628731
3.462434
3.328919
3.400445
3.691912
##ZVALUE=380
0.417829
0.567436
0.660419
0.608563
0.584722
0.659823
0.431538
0.643730
0.650883
0.637770
0.499487
0.553727
0.565648
0.724792
0.650883
0.502467
0.660419
0.472665
0.776649
0.546575
0.619888
0.658631
0.595450
0.502467
0.549555
0.715852
0.580549
0.758767
0.609756
0.836849
0.776649
0.903606
0.880957
0.881553
0.915527
0.920892
0.978708
1.020432
0.976920
0.987649
0.921488
0.910759
0.841618
0.964999
0.898838
0.944734
0.948906
0.956655
0.744462
1.036525
1.095533
0.833869
0.842810
1.011491
1.090765
1.007915
1.101494
0.869632
0.996590
1.028776
0.922680
1.075864
1.004934
1.217723
1.079440
1.216531
1.346469
1.379848
1.569986
1.541972
1.851916
2.759695
9.262562
43.849945
101.947784
240.448713
388.027430
601.789951
757.602453
890.972018
897.218585
778.603554
644.541979
453.785658
305.264592
150.686502
76.885819
26.197433
10.634661
4.876852
3.857613
3.687739
3.492832
3.378987
3.202558
3.029704
##ZVALUE=385
0.563860
0.679493
0.587702
0.721812
0.519753
0.568628
0.392795
0.415444
0.669956
0.601411
0.508428
0.497699
0.471473
0.478625
0.542998
0.530481
0.470877
0.566840
0.690818
0.570416
0.583529
0.614524
0.568628
0.616908
0.695586
0.592470
0.636578
0.758767
0.895858
0.978708
1.084805
1.161695
1.199841
1.127720
1.213551
1.265407
1.422763
1.241565
1.374483
1.155734
1.249909
1.269579
1.238585
1.181960
1.291633
1.232624
1.139641
1.153946
0.934601
1.085997
1.041889
1.066923
1.030564
0.992417
0.865459
0.966787
0.926852
1.019835
1.073480
0.976920
1.059771
0.931621
1.022816
1.024604
1.075864
1.143813
1.192689
1.154542
1.268983
1.350641
1.352429
1.494884
1.554489
1.875758
4.608631
24.873614
64.985752
165.528655
293.100476
517.186522
681.718588
847.159624
891.713500
848.272443
746.736526
551.625490
390.352607
213.060975
120.063424
48.648715
19.273758
5.902648
3.817677
3.543496
3.434420
3.278852
##ZVALUE=390
0.531673
0.567436
0.493526
0.470877
0.595450
0.552535
0.569820
0.480413
0.455976
0.531673
0.579953
0.479817
0.562668
0.541806
0.704527
0.456572
0.677705
0.511408
0.704527
0.461936
0.595450
0.731945
0.625849
0.593662
0.700951
0.754595
0.802875
0.994802
1.075864
1.238585
1.232624
1.391768
1.694560
1.661777
1.864433
1.887679
1.814961
1.706481
1.824498
1.572967
1.640916
1.703501
1.583695
1.659989
1.583695
1.408458
1.187921
1.316667
1.166463
1.202822
1.092553
1.409650
1.143813
1.157522
1.071692
1.106858
1.069903
1.072884
1.006722
0.967979
0.975728
0.953674
0.975728
0.876784
1.105666
0.944734
1.094937
1.208782
1.215935
1.179576
1.410842
1.451969
1.417994
1.476407
1.454949
1.611710
2.533793
12.833476
40.878654
126.653910
237.042904
443.202853
597.826838
770.770907
868.483782
890.258551
819.016695
646.693707
492.967963
298.915505
173.787475
70.304871
31.456947
8.702874
4.407763
3.530979
##ZVALUE=395
0.571609
0.444651
0.439882
0.555515
0.533462
0.393987
0.642538
0.436902
0.684857
0.517964
0.580549
0.533462
0.561476
0.560880
0.581741
0.551939
0.547767
0.508428
0.557899
0.632405
0.562668
0.648499
0.468493
0.588894
0.525713
0.628829
0.831485
0.928640
1.135468
1.448989
1.375675
1.726747
1.755953
1.990795
2.048612
2.157688
2.221465
2.148747
2.313852
2.063513
2.002716
1.960993
1.830459
1.816750
1.940727
1.705885
1.562834
1.440644
1.337528
1.238585
1.258850
1.246929
1.198649
1.302958
1.237988
1.183748
1.168847
1.006722
1.031756
0.971556
0.877976
0.969768
0.869632
1.078844
1.033545
0.995994
0.959635
1.149774
1.094937
1.231432
1.222491
1.294613
1.297593
1.316667
1.177788
1.548529
1.547933
1.571774
1.780987
7.424951
26.672482
93.683600
177.537799
334.791541
493.731499
709.900856
838.629007
917.021632
886.773467
750.956535
585.989952
366.137624
231.110454
107.616782
50.846934
16.499758
##ZVALUE=400
0.632405
0.661612
0.551939
0.434518
0.518560
0.571609
0.520945
0.491738
0.525713
0.592470
0.644922
0.517964
0.574589
0.465512
0.534654
0.545979
0.611544
0.613928
0.444651
0.688434
0.484586
0.809431
0.657439
0.577569
0.834465
0.656843
0.962615
1.096725
1.210570
1.258850
1.645684
1.858473
1.908541
2.225637
2.189875
2.134442
2.340674
2.417564
2.253652
2.127886
2.076626
2.067685
2.059937
1.902580
1.694560
1.617670
1.436472
1.603961
1.450777
1.432896
1.318455
1.298785
1.264811
1.258850
1.176596
1.181960
1.086593
1.083612
1.071692
1.089573
1.093745
1.087785
1.085997
0.990629
1.132488
0.946522
1.008511
1.226664
1.125932
1.260638
1.382828
1.259446
1.360774
1.306534
1.329780
1.200438
1.109838
1.313686
1.432896
1.417994
1.529455
4.058480
13.614893
50.683618
110.866427
248.741508
397.339463
614.764690
755.782723
875.549912
890.050530
786.312819
649.075508
430.957675
283.267498
142.490864
##END
