##TITLE=DWF5
##FORMAT=SPECTACLE-ASCII V-1.2
##DATA TYPE=ULTRAVIOLET SPECTRUM
##SECOND TYPE=ULTRAVIOLET SPECTRUM
##DATE=12/21/17
##TIME=13:44:16
##SPECTROMETER/DATA SYSTEM=SPECTACLE
##XUNITS=NM EM
##YUNITS=ENERGY
##YFACTOR=1
##FIRSTX=220
##LASTX=410
##NPOINTS=96
##3DDATA=Equidistant
##ZUNITS=NM EX
##FIRSTZ=210
##LASTZ=400
##ZPOINTS=39
##XYDATA=(Y..Y)
##ZVALUE=210
15.207529
15.439987
14.341474
12.122989
10.440946
10.423660
8.546710
7.369518
4.884601
4.496574
4.450679
3.138781
2.819896
2.123713
2.284646
2.479553
2.666712
2.591610
2.619624
2.450943
3.022552
2.908707
3.769994
3.755689
3.973842
5.310774
5.643964
6.856918
7.363558
8.591413
9.865761
10.848641
12.007952
12.743473
13.524890
14.609694
13.854504
14.698505
14.928579
13.868809
13.531446
13.832450
13.035536
12.819767
11.810660
10.971427
10.994673
9.658933
9.807944
9.267926
10.036826
10.360479
9.879470
8.105636
9.051561
9.168983
9.086728
9.933710
9.451509
8.867979
7.854700
7.364750
8.144975
7.440448
7.672906
7.394552
7.906556
8.161664
8.944869
9.422898
10.399818
12.698770
13.919473
14.536977
17.031431
15.884638
16.251802
15.712976
15.966892
14.775991
12.486577
11.127591
10.195971
9.333491
7.181764
6.881952
6.139874
5.821586
5.660653
8.686781
11.399984
12.073517
16.731620
22.037625
24.373531
29.761791
##ZVALUE=215
42.336583
39.873719
33.111572
24.725795
21.335483
17.595887
16.206503
15.915632
13.560653
12.678504
11.260509
10.547638
6.342530
5.171895
3.231764
2.105832
3.292561
2.676845
2.511740
3.252625
2.559423
3.711581
3.504753
3.515482
4.518628
5.157590
6.415844
7.456541
8.817911
9.686947
11.747479
13.558865
14.739633
15.587807
17.270446
18.210411
18.529892
18.397570
18.974543
17.331839
17.214417
15.609860
15.430450
14.915466
13.759732
12.618899
12.545586
12.136698
11.408925
11.990666
11.896491
12.850761
10.714531
10.658503
10.767579
9.142756
10.674000
9.575486
9.454489
10.864735
9.613633
10.433793
9.873509
8.114576
9.187460
9.228587
8.844733
8.735657
10.090470
9.813905
12.333989
12.553930
11.910796
14.522672
15.041828
15.591979
14.870763
13.136864
13.486743
12.688637
10.862947
9.956956
9.449720
7.744431
7.841587
6.911755
7.145405
6.704926
5.696416
5.922914
5.368590
5.508661
5.365610
7.606745
9.116530
11.304617
##ZVALUE=220
87.881684
88.082552
86.150765
74.152946
61.836839
47.703981
36.404729
27.208924
24.715662
23.721457
22.560954
22.030473
20.446777
17.799735
13.343692
9.093881
7.146597
5.183816
4.267693
2.826452
3.014803
3.328919
3.054738
3.334880
4.118681
6.020665
6.605983
10.280609
11.507869
12.864470
14.836788
18.264651
19.295812
20.494461
21.315813
21.963716
21.858811
23.401976
22.924542
21.966696
22.460818
19.896626
18.435717
18.705726
19.549727
16.811490
15.497804
14.480948
14.696717
14.358759
14.437437
13.723969
13.452768
13.484955
13.414621
13.000965
13.754964
12.779832
13.432503
12.455583
13.616681
11.807680
12.414455
11.752844
12.246966
10.534525
11.026859
10.840893
10.450482
11.433959
12.241602
12.891889
13.599992
12.970567
13.402700
14.739633
14.378428
12.931824
14.197826
11.693835
11.280775
10.551810
8.805990
8.222461
6.974936
7.834435
6.636977
6.293654
5.369782
5.558729
5.886555
5.785823
5.567670
4.907846
5.460978
6.271601
##ZVALUE=225
106.012821
113.678575
132.632852
145.838857
138.587952
128.533840
107.526779
76.625943
60.925484
46.742558
38.856864
37.629604
37.460923
37.322640
34.268498
32.521486
25.122762
20.683408
15.024543
9.370446
6.049871
4.912615
3.657937
3.950596
4.746914
6.163716
6.638765
10.183454
11.157990
13.914704
15.075803
17.616749
19.165874
22.381544
23.646951
23.329854
24.997592
22.117496
23.830533
22.924542
21.060705
21.015406
21.674633
21.761656
19.441843
18.054843
16.524792
16.082525
16.090870
16.098619
16.208887
14.846921
16.148686
16.353726
17.214417
17.308593
15.168786
16.287565
15.965700
16.816854
18.062592
17.640591
15.944839
15.552640
13.733506
15.079975
13.484955
13.581514
13.427734
13.789535
13.365746
13.397932
13.587475
15.633702
14.492869
13.673902
14.196634
13.814569
12.568831
9.978414
11.992455
10.255575
9.787679
8.223653
8.738637
8.121729
7.056594
7.677674
6.660819
7.876754
6.457567
6.270409
6.283522
5.951524
5.842447
6.446838
##ZVALUE=230
69.248676
70.068836
113.315582
147.078633
196.436644
222.612619
221.701860
212.391615
175.424814
139.005780
100.253820
73.966980
62.944889
56.376457
59.823990
61.299801
60.692430
55.082440
47.709942
39.534569
30.069947
19.979477
11.704564
8.071661
7.219911
6.119609
7.140636
8.984804
10.489821
11.870861
13.490915
15.398860
15.972853
18.631816
18.462539
19.864440
19.117594
20.577908
20.931959
19.348860
18.458962
18.017888
17.325878
16.871691
16.833544
17.038584
15.215874
14.136434
13.853908
16.628504
15.030503
17.609596
18.856525
18.240809
18.587708
19.346476
18.859506
19.819736
21.163821
18.640757
19.886494
17.957687
17.255545
17.538667
16.567707
16.483665
16.684532
15.591979
15.793443
15.434623
16.581416
15.531778
15.568733
16.858578
15.752912
15.827417
14.857650
15.742779
13.240576
13.866425
12.028813
10.590553
11.476874
9.469986
8.547902
9.282827
8.517504
8.566976
7.283688
7.650852
8.143783
6.794930
7.585883
6.539822
6.682873
6.607771
##ZVALUE=235
20.468831
20.843744
45.060515
94.184875
147.336721
217.826962
272.308588
335.452557
360.820889
339.669585
300.002694
249.396563
167.522430
124.404430
91.973543
80.319643
80.245733
85.792542
92.323422
90.422630
80.706477
68.959594
46.868920
35.223961
22.990704
18.174648
11.420846
8.661747
10.083914
9.786487
10.869503
11.289716
13.011694
12.251735
13.354421
14.734864
14.377832
14.346838
14.996529
15.726686
14.338493
15.517473
13.815761
13.716817
14.058948
13.662577
13.057590
13.559461
12.345910
14.709830
12.885928
14.896989
15.834570
15.442967
16.353726
16.294718
17.873645
18.145442
17.975569
18.389821
19.547939
17.579794
18.617511
17.244816
17.743707
17.344952
15.613437
15.678406
16.442537
16.841888
17.115474
16.589761
17.178655
16.442537
17.669797
16.763806
17.734766
16.723871
14.093518
14.580488
13.906956
13.706684
11.062622
11.985898
12.008548
10.418892
10.137558
9.390712
9.530783
10.572672
9.424686
9.196997
8.923411
8.701682
8.559823
8.949637
##ZVALUE=240
1.588464
1.946688
6.649494
17.296672
45.372844
81.387758
157.934427
235.693455
345.637798
410.800576
461.476445
460.284948
415.229797
328.148007
253.551006
168.719888
126.824975
98.283887
92.098713
99.604726
110.111833
112.299919
107.597709
99.397898
79.130530
61.007738
43.075681
30.994415
20.007491
12.807846
10.104775
8.182526
9.542704
8.717775
10.396838
10.572672
10.112524
10.542870
11.360645
10.574460
10.730624
10.950565
10.893941
11.685491
10.232925
11.494756
10.080934
9.828806
11.640787
11.501908
12.476444
12.214780
10.905862
11.280775
12.082458
12.713671
12.841821
12.587905
13.614893
12.924671
13.893843
14.156699
13.668537
14.049411
12.572408
13.598800
13.805628
13.383627
14.071465
14.195442
14.567971
15.170574
15.138984
14.936924
15.328526
15.205741
14.297962
14.857650
15.635490
13.335943
14.040470
12.982488
12.516975
12.055635
10.828972
10.868907
11.050701
9.416938
10.413527
10.388494
9.778738
10.017753
9.801984
9.102821
9.301901
9.550452
##ZVALUE=245
1.196861
1.300573
1.336932
1.912713
3.576875
10.590553
32.767653
69.469810
155.569911
233.335495
362.159014
445.584655
503.370762
534.262657
505.403876
428.161621
342.611670
236.101747
167.743564
109.208822
93.584657
90.789795
104.222894
119.403601
122.973919
116.590858
103.698969
90.990663
67.592859
49.758554
37.020445
23.150444
15.673637
11.122823
10.014772
10.726452
10.978580
9.439588
10.815859
10.181665
10.993481
9.578466
11.489987
10.746717
11.243820
11.375546
11.218786
10.443926
11.319518
11.264682
10.244846
11.221766
11.042953
11.645555
10.781884
11.536479
11.131763
10.688901
11.273623
10.274649
11.251569
11.914968
10.711551
11.603832
11.037588
11.581779
10.611415
11.185408
12.226701
11.468530
12.118816
12.687445
13.493896
13.357997
14.474988
12.947917
12.500882
12.050867
11.914968
12.683868
10.922551
11.018515
9.579659
10.627508
9.348989
9.428859
9.283423
9.290576
9.359717
8.803606
9.476542
9.008646
7.925630
8.334517
8.423924
7.562637
##ZVALUE=250
1.044869
1.030564
1.394749
1.216531
1.510978
1.052618
1.747608
8.146763
18.872619
57.399869
109.053850
218.259692
318.284631
454.550982
534.857512
598.552823
581.077933
518.334508
437.019467
303.762555
215.246677
153.226852
92.694759
83.933473
100.658536
110.295415
128.104687
131.149888
127.701759
113.183856
96.308589
78.117847
59.006810
37.494898
26.388764
18.124580
14.587641
13.042688
12.305975
12.738705
12.536645
12.260675
12.285709
13.325810
13.109446
12.429953
12.661815
12.077689
11.381507
11.606812
10.942817
11.893511
11.886954
11.671782
11.354685
11.132956
10.636449
10.478497
11.351705
10.233521
10.009408
10.174513
10.427833
9.610653
10.143518
10.099411
9.377599
9.797812
10.339618
10.564923
10.376573
11.162758
11.177659
10.951757
11.414886
11.786819
11.537671
10.612607
10.624528
9.317994
9.507537
9.320974
9.157658
8.228421
7.781982
8.337498
7.237792
8.248687
8.905530
6.667972
7.811785
7.210970
7.268786
7.526875
7.079840
6.852746
##ZVALUE=255
0.998974
0.871420
0.985861
0.827909
0.901818
1.133680
1.246929
1.117587
1.475811
3.358722
14.846921
39.479733
81.442595
177.639723
283.512473
439.178944
543.334484
649.694800
681.314468
642.470717
555.307865
447.981954
281.762481
184.226632
105.558634
84.085464
82.765818
98.086596
118.785501
132.437944
140.396953
138.749480
126.594901
105.964541
87.404847
61.357617
45.336485
30.814409
22.821426
17.639995
17.435551
16.477704
16.353726
15.506744
16.214848
15.082955
14.610887
14.540553
14.995933
14.482737
13.817549
12.663603
13.764501
12.413859
12.249947
11.862516
12.543797
11.067986
11.358857
11.816621
10.664463
10.163784
10.174513
10.548830
10.591745
10.432601
9.500980
9.790659
10.822415
10.061860
10.773540
10.637641
10.845661
10.218620
10.317564
11.026859
10.423660
10.648966
10.233521
9.246469
9.196997
8.512735
9.123683
8.334517
9.027719
8.020997
7.924438
8.181930
7.477999
7.552505
7.368922
7.487535
7.182956
6.456971
6.823540
7.027984
##ZVALUE=260
0.992417
0.883937
0.836849
1.273751
1.076460
1.036525
1.245737
1.351833
1.145601
1.199841
1.480579
1.921654
8.266568
22.128820
62.546730
123.960972
256.510973
375.619531
501.610041
671.801567
761.239529
778.283477
712.697506
563.444495
418.547988
250.713825
159.754753
95.632672
77.126622
82.444549
100.332499
126.573443
144.738555
152.393579
150.747895
134.365559
117.909908
91.077685
70.939660
49.814582
37.034750
27.105808
23.474693
20.803809
19.535422
18.371940
18.125772
17.807484
17.294884
16.024709
15.348792
15.355945
14.850497
14.401674
14.023781
13.744831
13.010502
12.646914
12.969971
12.699962
11.188984
11.620522
11.403561
11.688471
11.271834
10.010600
10.576844
10.993481
10.441542
10.330677
10.863543
10.370612
10.201931
10.040998
11.444688
10.376573
9.938478
9.845495
9.756684
8.811951
8.078814
8.239746
7.745624
7.394552
7.400513
7.691979
7.299781
6.798506
6.678700
6.736517
6.424785
6.492734
6.137490
5.973577
6.071925
6.445646
##ZVALUE=265
0.666976
0.673532
0.916719
0.761747
0.942945
0.971556
1.057982
0.993609
1.048446
1.105666
1.123548
1.300573
1.217723
1.507998
3.105998
16.644597
40.926933
104.823709
184.567571
349.854827
503.595471
651.178956
797.128677
836.934447
773.324966
665.439963
497.055650
355.165005
201.353431
126.844645
86.436868
72.857738
84.619522
114.101768
132.653713
153.172612
160.670877
155.419707
141.616464
117.174983
97.267628
71.081519
53.273439
38.848519
31.027794
24.364591
22.456646
20.523667
20.282865
18.816590
18.808842
18.381476
17.606616
16.836524
15.960932
16.590953
15.282631
14.301538
13.809800
14.165640
12.909770
13.041496
12.763739
11.906624
11.150837
11.181831
10.978580
10.912418
10.929704
9.931922
10.324717
9.981990
10.224581
9.720922
9.809732
9.498596
9.720922
9.287596
9.016991
8.420944
8.155704
7.723570
7.684827
7.124543
7.052422
6.471872
6.390810
6.189942
5.912781
5.843639
6.061792
5.883574
5.777478
5.707741
5.824566
6.249547
##ZVALUE=270
0.783801
0.642538
0.811815
0.665784
0.887513
0.813603
0.949502
0.915527
1.039505
1.017451
1.030564
0.994802
1.024604
1.061559
1.212955
1.685619
1.553893
7.693768
22.519827
73.778629
145.376921
258.287787
450.871587
601.653457
762.256980
825.952888
806.580782
741.396546
581.550598
442.595482
305.519700
168.666840
106.942654
69.539547
70.887804
93.417764
116.195679
142.451525
153.881907
162.988901
159.177780
144.663453
123.510957
96.084476
75.283647
51.050782
40.114522
29.180646
24.272799
20.879507
20.076632
18.731952
18.340945
17.819405
17.257929
16.931891
15.957952
15.261769
15.116930
14.458895
14.740825
13.956428
13.550520
13.451576
12.207627
11.773705
11.412501
11.197925
10.634661
10.834932
10.693669
10.526776
10.275841
9.909868
10.079741
9.155869
9.278655
8.832812
7.950664
8.295774
8.053780
7.212758
7.378459
6.724000
6.651878
5.924702
6.048679
6.098747
5.814433
5.796552
5.583763
5.782843
5.828738
5.212426
5.790591
5.421638
##ZVALUE=275
0.801682
0.767708
0.893474
0.835657
0.815988
0.772476
0.875592
0.682473
0.955462
0.865459
0.780821
0.914931
1.056790
0.859499
1.054406
1.279712
1.391768
1.531839
1.452565
3.431439
13.168454
38.899779
113.657713
214.271545
397.117734
542.336702
710.438490
817.846656
859.466791
808.468461
714.643598
538.674593
387.012959
213.926435
129.784942
72.054863
59.494972
71.312785
87.310672
115.913749
134.909749
153.149962
157.904625
153.378844
140.630603
113.292933
93.417764
67.414641
52.006841
34.349561
26.604533
21.103621
19.272566
16.421676
17.389655
16.263723
15.779734
15.221834
15.181899
15.062690
14.108419
13.690591
12.958646
13.183951
11.669993
11.945963
11.870861
11.484623
11.009574
10.840893
10.757446
10.099411
10.298491
10.335445
10.109544
9.615421
9.379983
8.915663
8.246899
7.715821
7.432699
7.275939
7.104874
6.255507
6.420612
6.497502
6.593466
5.967617
5.981922
5.662441
5.710721
5.518794
5.147457
5.404949
5.193949
5.132556
##ZVALUE=280
0.825524
0.546575
0.706911
0.614524
0.675917
0.694990
0.696778
0.607967
0.745654
0.762939
0.576973
0.733733
0.873804
0.879765
1.068711
1.085997
0.839829
1.025796
1.007915
1.255870
1.579523
2.178550
7.874966
27.575493
89.717507
163.900852
311.957598
458.925962
657.364726
780.625939
871.613622
864.070654
751.965642
620.585680
419.127941
282.133818
147.928596
87.604523
49.225688
46.707988
62.006712
81.250668
107.743740
126.368999
142.973661
149.185658
140.826702
129.689574
106.213689
85.462928
61.334968
46.263933
30.926466
23.750663
17.649531
15.825629
14.443994
14.385581
13.541579
13.685822
13.231635
13.565421
12.603998
12.205839
12.249947
11.592507
11.184812
11.359453
10.172725
9.912848
10.014772
10.191798
10.145903
9.404421
9.507537
8.745790
8.601546
8.666515
7.884502
7.625818
7.495880
7.483959
6.581545
6.646514
6.206632
6.127954
6.353855
6.139874
5.541444
6.063581
5.783439
5.487800
5.430579
5.229712
5.328655
5.209446
##ZVALUE=285
0.620484
0.593662
0.704527
0.504851
0.618696
0.612736
0.719428
0.703931
0.616908
0.697970
0.516772
0.574589
0.651479
0.797510
0.761747
0.899434
0.929832
1.080632
0.971556
1.169443
0.970960
1.323819
1.650453
1.389980
3.990531
14.402866
49.310923
105.535984
233.285427
361.551046
504.722595
697.375536
817.420483
875.034928
835.925937
688.474774
547.270775
343.526602
221.965909
107.128620
59.752464
34.939647
34.796000
51.499605
70.657730
97.809434
115.058422
131.708980
137.807727
135.076642
123.507977
104.462504
84.771514
60.532689
45.123696
28.731823
20.750761
14.667511
13.550520
11.945963
11.571646
11.371970
11.561513
11.097789
10.961890
10.458827
10.691881
10.192990
10.030866
9.671450
9.738803
9.267926
8.949637
8.532405
8.688569
8.417964
8.251667
7.660985
7.589459
7.391572
7.344484
6.792545
6.327629
6.238818
6.513000
5.991459
6.164908
5.994439
6.005764
5.812645
5.393624
5.612969
5.278587
5.121827
5.241632
5.390644
##ZVALUE=290
0.561476
0.573993
0.467896
0.700951
0.564456
0.597835
0.562668
0.608563
0.800490
0.502467
0.609756
0.642538
0.692606
0.637770
0.835657
0.753999
0.826716
0.770688
0.863671
0.992417
0.885725
1.040697
0.961423
1.156926
1.197457
1.557469
1.850724
5.970597
28.650761
64.678788
156.458616
266.975760
462.002754
627.361536
799.543858
881.256461
871.415734
787.194967
603.834987
451.132655
265.776515
158.918500
70.225596
36.819577
24.061799
30.040741
46.478510
63.591599
89.638829
108.504891
126.116872
131.996870
131.729841
121.691823
100.782514
81.459880
56.067705
42.808652
27.152896
19.317865
13.775826
11.788607
10.612607
10.010600
9.660721
9.531975
9.305477
9.221435
8.812547
8.905530
8.413792
8.404851
8.710623
8.560419
8.412600
8.059740
7.926822
7.110834
7.115602
6.793737
6.633997
6.256700
6.465912
6.075501
5.966425
5.724430
5.925894
5.657673
5.866885
5.724430
5.662441
5.261898
5.281568
5.275607
5.361438
4.859567
##ZVALUE=295
0.499487
0.479817
0.701547
0.694990
0.726581
0.555515
0.642538
0.662804
0.562668
0.693798
0.636578
0.749826
0.684857
0.788569
0.620484
0.779629
0.692606
0.692606
0.752807
0.719428
1.018643
0.858903
0.996590
0.943542
0.993609
1.121759
1.010895
1.355410
1.663566
2.803802
13.468862
37.436485
109.286904
201.419592
378.209949
533.472896
732.175708
844.869614
893.032551
847.075582
694.904923
543.447733
338.721871
212.979913
97.884536
49.375892
22.476912
19.528866
29.744506
41.490793
62.314868
80.531836
103.496909
117.452741
126.814842
125.850439
111.996531
97.554922
75.186491
57.865977
38.698912
26.906729
16.859770
12.891889
9.669662
8.217692
7.979870
7.806420
7.605553
7.823706
7.733703
7.660985
7.476807
7.421970
7.368922
7.107854
6.714463
6.481409
6.753802
6.069541
5.911589
5.839467
6.209612
6.071925
5.886555
5.781651
5.405545
5.115867
5.389452
5.235672
5.163550
5.126595
5.312562
5.075932
5.075932
4.912615
##ZVALUE=300
0.412464
0.502467
0.517964
0.680685
0.548959
0.516772
0.493526
0.711679
0.486970
0.516772
0.553727
0.660419
0.703931
0.702739
0.651479
0.732541
0.731945
0.546575
0.653863
0.763535
0.827909
0.730753
0.921488
0.946522
0.906587
1.205802
1.139641
1.087785
1.070499
1.131892
1.314878
1.566410
5.548596
20.495653
69.712400
139.546394
286.216736
437.601805
645.460486
774.331689
875.750780
873.580575
762.964487
627.666712
421.000719
277.864933
140.955448
76.251626
29.326677
16.731620
17.497540
24.278760
38.989782
53.727627
76.006651
93.073845
111.449957
118.837953
115.597844
110.898614
91.963410
74.619651
52.432418
38.851500
24.839640
16.796589
10.723472
8.846521
7.150769
6.943941
6.781816
6.686449
6.551743
6.555915
6.439686
6.285906
6.222725
6.080866
6.118417
6.059408
5.821586
5.776882
5.543828
5.367994
5.424619
5.366802
5.359650
5.135536
5.233884
5.053878
5.234480
4.791617
4.793406
4.873872
4.664660
5.065799
##ZVALUE=305
0.475645
0.427961
0.382662
0.432730
0.425577
0.478625
0.557899
0.564456
0.688434
0.555515
0.584722
0.566840
0.660419
0.654459
0.668764
0.620484
0.667572
0.699759
0.511408
0.620484
0.604987
0.710487
0.740886
0.717640
0.767708
0.750422
0.694990
0.921488
1.069903
1.021624
1.125932
1.182556
1.384616
1.652837
2.443790
13.730526
39.386749
111.605525
204.937458
379.705429
531.878471
725.359917
836.345553
873.142481
820.384026
659.085512
515.913963
331.228971
208.983421
96.103549
48.904419
18.959641
13.197660
15.928745
22.466779
37.355423
51.850677
72.096586
89.077950
105.413795
112.046003
110.859871
103.191733
87.110996
70.396662
48.959851
36.120415
22.123456
15.656948
9.511709
7.815957
6.553531
6.261468
5.857944
5.954504
5.772710
6.066561
5.571842
5.767941
5.676746
5.628467
5.586743
5.515814
5.338788
5.312562
5.488992
5.359650
5.150437
5.211830
4.833937
4.730821
5.432963
5.192757
4.912615
4.938841
4.696846
##ZVALUE=310
0.562668
0.498891
0.460744
0.495911
0.365973
0.426769
0.378489
0.568628
0.482798
0.509620
0.645518
0.522733
0.548959
0.582933
0.449419
0.620484
0.507832
0.576973
0.605583
0.642538
0.662804
0.581741
0.617504
0.704527
0.818968
0.641942
0.879765
0.722408
0.945926
0.899434
0.898838
0.982881
1.148582
1.231432
1.215935
1.213551
1.524687
5.647540
19.318461
66.202879
133.628845
277.445912
425.522923
636.988878
769.043565
873.345733
866.512656
767.123699
636.304021
429.439545
290.917754
147.151947
79.572797
29.354692
14.063716
10.548830
13.805628
21.096468
30.536652
46.860576
61.904788
82.202554
94.405413
103.607774
105.487704
98.126531
86.093545
67.504644
52.271485
33.444762
23.301840
14.902949
10.300875
7.310510
6.125569
5.495548
5.269647
5.196929
5.115867
5.277991
5.064607
5.015731
5.265474
5.260706
5.164742
5.008578
4.858971
4.625916
5.048513
4.827976
4.674792
4.894733
4.926920
4.568696
4.555583
4.766583
##ZVALUE=315
0.439882
0.599623
0.507832
0.421405
0.547767
0.399947
0.351667
0.369549
0.534654
0.448823
0.549555
0.407696
0.428557
0.559688
0.622869
0.591874
0.560880
0.672936
0.433922
0.527501
0.712872
0.599623
0.589490
0.676513
0.804663
0.677705
0.726581
0.704527
0.806451
0.797510
0.809431
0.811815
0.842810
0.832677
0.967979
1.043677
1.291633
1.143813
1.454949
2.977848
10.135770
42.241812
93.783736
214.155912
348.470807
562.306643
705.021024
831.130743
871.497989
807.677507
700.711608
511.821508
363.111496
196.107626
107.181668
40.072799
18.232465
9.290576
9.439588
12.716651
17.975569
28.822422
40.569901
58.966875
73.290467
90.202689
97.674727
98.780990
92.581511
77.474713
64.838529
46.490431
34.552813
21.085739
13.819933
8.636713
6.699562
5.484819
4.645586
4.742742
4.634857
4.916787
4.843473
4.619956
4.661679
4.727840
4.789829
4.427433
4.642606
4.559755
4.612803
4.686713
4.432797
4.402995
4.642606
4.298687
##ZVALUE=320
0.482798
0.515580
0.500679
0.374913
0.308752
0.643730
0.481606
0.468493
0.530481
0.542998
0.603795
0.471473
0.434518
0.486970
0.568628
0.650883
0.567436
0.563860
0.397563
0.629425
0.608563
0.519753
0.594854
0.759959
0.665784
0.476837
0.680685
0.730753
0.615716
0.632405
0.817776
0.806451
0.808835
0.914931
0.943542
0.946522
0.930429
0.957847
1.107454
1.180768
1.247525
1.487732
5.891919
19.175410
67.643523
137.689710
277.990699
416.510701
616.937876
750.488639
850.597024
852.379799
748.519897
621.201396
421.193838
275.329947
128.132701
69.298744
26.051998
12.089610
7.831454
8.242726
10.843873
15.090704
24.581552
35.845637
52.491426
67.102909
83.625913
91.764927
93.123913
87.062716
74.944496
62.253475
44.813752
32.763481
20.282865
13.527870
8.132458
6.361604
4.912615
4.662871
4.308820
4.337430
4.389882
4.293919
4.311800
4.207492
4.232526
4.137754
4.243851
4.350543
4.480481
4.207492
4.400611
4.290938
##ZVALUE=325
0.460744
0.391603
0.360608
0.408888
0.329614
0.445843
0.311732
0.338554
0.354648
0.359416
0.454783
0.440478
0.348687
0.345707
0.449419
0.384450
0.418425
0.343919
0.423789
0.443459
0.386834
0.463724
0.442863
0.272989
0.532866
0.568628
0.490546
0.605583
0.651479
0.621676
0.589490
0.403523
0.731945
0.667572
0.669956
0.640750
0.674725
0.779629
0.757575
1.032948
0.910759
0.945926
1.023412
1.391768
2.445579
15.183687
40.239692
106.875896
192.962885
366.209745
515.682697
701.555014
800.049901
845.544934
792.060494
636.263490
487.917662
300.197005
184.256434
82.015991
39.140582
13.379455
7.800460
6.490946
7.482767
10.102987
14.457703
23.663640
33.998489
51.555634
64.201951
78.435540
85.200667
86.482763
81.452727
67.747831
56.537986
40.258765
29.254556
18.008947
11.866689
7.119775
5.457997
4.559755
4.245639
4.221797
4.129410
3.857613
4.129410
4.005432
3.985763
4.060864
4.086494
4.026890
4.020929
4.023910
##ZVALUE=330
0.249743
0.289679
0.149608
0.117421
0.237823
0.142455
0.268817
0.176430
0.307560
0.009537
0.141859
0.176430
0.189543
0.230670
0.218749
0.167489
0.198483
0.250936
0.153780
0.228882
0.123978
0.436902
0.382662
0.278950
0.276566
0.384450
0.375509
0.388622
0.430942
0.500679
0.743866
0.404716
0.476837
0.469685
0.557899
0.512600
0.479817
0.575781
0.565648
0.501871
0.607967
0.701547
0.769496
0.855923
0.989437
1.188517
1.395941
6.185770
20.350814
70.148706
136.195421
277.243853
414.197445
608.526468
731.820464
819.652677
803.110003
691.196918
557.973981
362.673998
236.197710
112.666488
56.812763
20.954609
9.090900
5.908608
5.733967
6.376505
8.407831
14.164448
21.234751
33.312440
44.878721
61.620474
72.605610
79.997778
80.716610
74.545741
66.114664
50.002933
38.852692
25.215745
17.889738
11.414886
8.027554
5.373955
4.430413
3.738999
3.535748
3.622770
3.715754
3.562570
3.397465
3.473759
3.652573
3.517866
##ZVALUE=335
0.483990
0.498891
0.423789
0.283718
0.451803
0.541806
0.499487
0.513792
0.466704
0.380874
0.381470
0.300407
0.379682
0.461936
0.520945
0.473857
0.345707
0.365973
0.490546
0.442863
0.489950
0.426769
0.306964
0.586510
0.390410
0.547767
0.468493
0.484586
0.461936
0.656843
0.722408
0.562668
0.459552
0.663996
0.523925
0.662804
0.728965
0.668764
0.744462
0.787973
0.911951
0.830889
0.777841
0.845790
0.888705
1.120567
1.161695
1.232624
1.305938
2.671480
13.929009
37.541986
105.060935
190.596581
353.599787
504.038930
687.744021
771.976709
797.662735
744.809508
594.332814
454.095006
278.273821
169.073939
71.908832
33.311844
11.183619
6.310940
5.383492
5.412698
6.428957
8.151531
13.511777
19.974709
31.560659
42.001605
57.264566
66.420436
73.784590
75.485706
69.282651
60.767531
49.053431
38.882494
26.199818
19.280910
12.182593
8.313656
5.425811
4.390478
4.117489
3.605485
3.472567
3.515482
3.533959
3.472567
##ZVALUE=340
0.305772
0.280738
0.323653
0.365973
0.546575
0.355840
0.444651
0.391603
0.332594
0.373721
0.387430
0.420809
0.440478
0.405908
0.422597
0.347495
0.442863
0.438690
0.445843
0.325441
0.542998
0.434518
0.457764
0.503659
0.488758
0.430942
0.447631
0.491738
0.537634
0.550747
0.766516
0.565648
0.571609
0.459552
0.594854
0.559688
0.621676
0.632405
0.634789
0.767708
0.634789
0.743866
0.691414
0.934601
0.865459
0.941753
0.981688
0.874996
1.051426
1.050830
1.179576
1.849532
5.328655
26.276708
65.280795
163.322687
273.429751
447.131991
587.162971
731.945634
784.842968
750.588775
654.895902
489.680767
346.553922
181.154609
100.730658
41.709542
17.043948
6.598830
5.275607
5.157590
5.084872
5.966425
7.784963
12.930632
18.946528
29.766560
40.320754
54.546595
62.779784
70.242882
70.704818
66.194534
59.293509
46.966672
37.061572
25.594831
18.919706
11.801720
8.022785
5.387664
4.290938
3.844500
3.502965
3.470778
##ZVALUE=345
0.320673
0.213981
0.466704
0.449419
0.536442
0.411868
0.466704
0.541806
0.402927
0.384450
0.329614
0.318885
0.362992
0.492930
0.388622
0.392795
0.380874
0.493526
0.523925
0.529885
0.467896
0.390410
0.365973
0.478625
0.582933
0.382662
0.442863
0.421405
0.535846
0.635982
0.586510
0.508428
0.600815
0.508428
0.379682
0.567436
0.599623
0.550747
0.620484
0.542998
0.623465
0.630617
0.583529
0.636578
0.786781
0.682473
0.606775
0.808835
0.824928
0.673532
0.955462
1.006722
0.991821
1.128912
3.050566
11.176467
46.416521
97.250938
206.218958
324.221849
504.407883
631.240010
741.850734
757.486820
684.567690
571.829677
393.517613
262.898803
124.268532
61.529875
20.332932
9.391904
5.507469
5.011559
4.679561
4.651546
5.389452
6.792545
11.576414
16.706586
28.068423
36.772490
48.064590
55.305958
63.496828
65.374970
61.524510
56.570768
45.073628
36.279559
25.150776
18.250942
11.259913
7.766485
5.381703
4.458427
##ZVALUE=350
0.259876
0.414848
0.464916
0.380874
0.396967
0.212789
0.290871
0.415444
0.489950
0.378489
0.370741
0.483990
0.389814
0.403523
0.323653
0.314713
0.556707
0.481606
0.513792
0.543594
0.471473
0.553727
0.438690
0.297427
0.421405
0.379682
0.436902
0.523925
0.414848
0.556707
0.352859
0.417829
0.449419
0.535846
0.471473
0.410676
0.503659
0.603795
0.506639
0.685453
0.584722
0.635982
0.572801
0.548959
0.563860
0.672936
0.547767
0.729561
0.905991
0.855923
0.880957
1.045465
0.891685
0.968575
1.006722
1.306534
1.633763
7.097721
22.277832
71.573853
137.247443
277.559757
403.809547
572.101474
677.166581
742.508769
711.810589
593.623519
463.038683
275.992751
170.947909
79.615712
37.162900
10.993481
6.213784
4.842877
4.550815
4.492998
4.131794
4.778504
6.384850
10.499954
15.232563
23.078918
30.657649
41.785836
49.897432
56.729913
59.490800
56.917667
52.797794
42.522550
34.451485
24.233460
17.693639
11.471510
##ZVALUE=355
0.528693
0.297427
0.412464
0.444651
0.362992
0.435710
0.283718
0.389814
0.322461
0.382662
0.410676
0.406504
0.440478
0.348687
0.213981
0.434518
0.356436
0.501871
0.398755
0.413656
0.550747
0.563860
0.637770
0.437498
0.513792
0.539422
0.416636
0.608563
0.452995
0.632405
0.458956
0.487566
0.452995
0.436902
0.509620
0.460744
0.539422
0.630617
0.525713
0.620484
0.679493
0.406504
0.529885
0.745654
0.623465
0.618696
0.627637
0.634789
0.758767
0.613928
0.680685
0.829697
0.676513
0.819564
0.881553
0.925660
1.094937
1.078844
1.232624
3.362894
11.647940
46.067834
95.086694
204.842687
322.842002
494.225621
618.645549
715.453625
715.904832
626.138449
508.055687
337.590575
214.917660
97.066760
47.125816
15.050769
6.746650
4.649758
4.300475
4.062653
3.765821
3.917813
4.329681
5.860925
8.188486
13.676882
19.476414
28.423667
36.055446
44.719577
50.628781
52.979589
53.011775
47.968626
41.555762
32.284856
##ZVALUE=360
0.424981
0.369549
0.403523
0.432730
0.474453
0.295639
0.336766
0.286698
0.289679
0.316501
0.242591
0.395775
0.374913
0.245571
0.458956
0.390410
0.467896
0.393987
0.449419
0.392795
0.437498
0.313520
0.287890
0.420809
0.519753
0.421405
0.304580
0.472665
0.579953
0.706911
0.500679
0.611544
0.406504
0.607967
0.537634
0.525713
0.446439
0.448823
0.588894
0.606775
0.472665
0.513792
0.524521
0.537634
0.567436
0.641942
0.593662
0.602603
0.696778
0.736713
0.707507
0.908971
0.709891
0.691414
0.599623
0.795722
0.848770
1.063943
1.044869
1.315475
1.121759
1.703501
5.154610
23.633838
57.419538
146.952868
244.851708
402.899981
535.568595
663.823485
697.523952
655.570030
562.448502
387.313962
261.769891
128.974915
67.980886
24.999976
10.347962
4.916787
4.520416
3.915429
3.527999
3.645420
3.498793
3.901720
4.725456
7.100701
10.176897
15.801787
22.369623
31.426549
37.484765
45.036674
48.074722
48.457980
##ZVALUE=365
0.523925
0.406504
0.389814
0.379682
0.259876
0.354648
0.516772
0.565648
0.373721
0.431538
0.358820
0.328422
0.564456
0.559688
0.456572
0.224710
0.562668
0.340939
0.483990
0.320673
0.264645
0.468493
0.384450
0.416636
0.550747
0.568628
0.405908
0.428557
0.395775
0.350475
0.467896
0.422597
0.593662
0.579953
0.603795
0.553727
0.576973
0.671744
0.622869
0.489950
0.709891
0.641942
0.672936
0.560880
0.615716
0.808835
0.650883
0.640750
0.733733
0.646710
0.607967
0.722408
0.795722
0.651479
0.753999
0.790954
0.778437
0.873804
0.826716
1.013875
1.091957
0.950694
1.090765
1.370907
2.535582
13.063550
36.198497
96.773505
178.959966
335.576534
459.007621
596.900582
665.701628
664.061904
594.594479
442.034006
318.064690
178.466439
97.334981
35.831928
14.648438
5.275607
4.193783
3.751516
3.534555
3.466606
3.333688
3.053546
3.348589
4.111528
5.660653
8.842945
12.854934
20.030737
26.160479
34.357905
##ZVALUE=370
0.297427
0.328422
0.397563
0.384450
0.378489
0.461936
0.553727
0.420809
0.381470
0.402927
0.497699
0.406504
0.475645
0.386834
0.193715
0.273585
0.298619
0.374913
0.438690
0.509620
0.336766
0.469685
0.518560
0.324845
0.413656
0.320673
0.573993
0.330806
0.502467
0.305772
0.452995
0.412464
0.416636
0.526905
0.469685
0.583529
0.505447
0.561476
0.464916
0.391603
0.511408
0.483990
0.457764
0.577569
0.556707
0.500679
0.500679
0.640750
0.482798
0.455976
0.759959
0.729561
0.711679
0.595450
0.714660
0.574589
0.562668
0.699759
0.730753
0.765920
0.801682
0.866652
0.906587
0.926852
1.082420
1.273751
1.465678
6.509423
21.294951
71.549416
135.169625
261.572003
386.829972
550.405979
635.810494
666.810870
623.165965
495.854616
373.650789
211.888552
120.278597
48.525929
22.411942
8.117557
4.565716
3.643632
3.412962
3.251433
3.212690
2.827644
2.826452
3.065467
3.433824
5.144477
7.433891
11.416674
##ZVALUE=375
0.421405
0.407696
0.499487
0.312924
0.482798
0.346899
0.438690
0.414848
0.279546
0.455976
0.328422
0.436902
0.264645
0.364780
0.372529
0.364780
0.406504
0.331998
0.550747
0.253916
0.225902
0.324845
0.453591
0.465512
0.442863
0.440478
0.507832
0.348687
0.426769
0.516772
0.329614
0.493526
0.540614
0.479817
0.555515
0.474453
0.604987
0.576973
0.425577
0.689626
0.582933
0.592470
0.691414
0.571609
0.527501
0.562668
0.529885
0.499487
0.573993
0.676513
0.557899
0.451803
0.518560
0.552535
0.603795
0.573993
0.690818
0.479817
0.616908
0.494719
0.666976
0.651479
0.775456
0.829697
0.749826
0.907779
0.942945
1.142621
1.318455
3.224611
11.060834
41.604638
90.645552
204.364657
319.638848
484.829545
587.073565
658.496618
646.823645
544.908643
431.119800
268.387794
171.284676
86.146593
43.701530
14.083982
5.965829
3.554821
3.349781
3.215671
3.015995
2.763867
2.808571
2.687573
2.810955
3.152490
##ZVALUE=380
0.418425
0.333786
0.368953
0.367761
0.267625
0.384450
0.431538
0.288486
0.366569
0.307560
0.411868
0.535846
0.283718
0.381470
0.351667
0.288486
0.232458
0.365973
0.489950
0.317693
0.426769
0.339746
0.319481
0.311732
0.540614
0.407696
0.429749
0.642538
0.669956
0.486970
0.264645
0.604987
0.626445
0.526905
0.727773
0.574589
0.728965
0.812411
0.553727
0.565648
0.584722
0.600815
0.616908
0.478625
0.674725
0.621676
0.621676
0.685453
0.807643
0.611544
0.747442
0.617504
0.636578
0.593662
0.549555
0.668764
0.642538
0.685453
0.659823
0.677705
0.570416
0.686646
0.674725
0.662804
0.709891
0.703931
0.899434
1.028776
1.036525
0.942945
1.132488
1.760721
6.061792
29.235482
68.611503
163.000822
265.921950
421.151519
538.887978
643.476844
656.706691
581.455827
485.816598
343.897939
234.819651
117.527843
60.765743
21.184683
8.944869
3.938675
3.308654
2.997518
3.101826
3.078580
2.803802
2.735853
##ZVALUE=385
0.272989
0.336766
0.448823
0.390410
0.546575
0.408888
0.452995
0.472665
0.404716
0.299811
0.138879
0.373721
0.181794
0.374913
0.423789
0.372529
0.420809
0.341535
0.435710
0.435710
0.233650
0.490546
0.428557
0.289679
0.416636
0.448823
0.468493
0.479817
0.313520
0.609756
0.718832
0.770688
0.831485
0.884533
0.862479
0.846982
0.854731
0.777841
0.786781
0.853539
0.946522
0.767708
0.902414
0.686646
0.824928
0.837445
0.729561
0.605583
0.635982
0.687838
0.730753
0.710487
0.697970
0.572801
0.528693
0.616908
0.549555
0.559688
0.538826
0.580549
0.580549
0.646710
0.637770
0.636578
0.723600
0.813603
0.675917
0.669956
0.913739
0.837445
1.044869
0.977516
1.276731
1.372695
3.185868
16.723871
43.180585
110.912919
199.285746
357.311964
485.934615
604.267716
642.779469
620.944500
554.737449
412.859917
295.861959
163.358450
94.182491
38.981438
15.822649
4.934669
3.490448
2.831817
2.915859
2.994537
##ZVALUE=390
0.279546
0.300407
0.279546
0.352859
0.316501
0.334978
0.362992
0.430942
0.461936
0.251532
0.309944
0.337958
0.378489
0.451803
0.404716
0.373721
0.366569
0.315905
0.235438
0.404716
0.316501
0.523925
0.351667
0.184774
0.439882
0.419617
0.494719
0.603795
0.718832
0.838637
0.692606
0.822544
0.846982
0.988841
0.901818
1.121759
1.080632
1.190901
1.131892
1.122952
1.118779
1.166463
1.077652
0.988841
0.883937
0.757575
1.032948
0.771880
0.636578
0.679493
0.713468
0.458956
0.567436
0.750422
0.728965
0.575781
0.647902
0.786781
0.650883
0.669956
0.516772
0.588894
0.741482
0.585914
0.739694
0.695586
0.816584
0.683665
0.829697
0.945926
0.871420
0.999570
1.012683
1.089573
1.269579
1.070499
1.965761
7.031560
31.475425
73.022842
173.157454
272.902846
415.307879
522.145629
623.236895
644.727945
589.307547
500.643849
347.331762
237.919688
124.419928
65.155625
22.906661
9.147525
3.676414
3.234744
##ZVALUE=395
0.163913
0.179410
0.184774
0.121593
0.148416
0.255704
0.216961
0.216961
0.163913
0.325441
0.183582
0.022650
0.170469
0.046492
0.121593
0.104904
0.162721
0.020862
0.169873
0.162721
0.151992
0.242591
0.200868
0.215769
0.230670
0.294447
0.318885
0.406504
0.489950
0.535846
0.657439
0.858903
0.779629
0.804663
0.921488
0.955462
1.046658
1.041889
1.019835
0.918508
1.101494
0.893474
0.888705
0.802875
0.887513
0.687838
0.631809
0.622869
0.705719
0.493526
0.338554
0.475645
0.460744
0.522733
0.367761
0.516772
0.443459
0.478625
0.392795
0.489950
0.462532
0.340939
0.358820
0.481606
0.435710
0.307560
0.596642
0.470877
0.468493
0.608563
0.611544
0.607967
0.671744
0.881553
0.654459
0.839829
0.709891
0.892878
1.132488
4.549623
16.705990
60.011744
114.259720
221.327543
332.551599
486.250520
582.880974
648.990870
639.051795
550.209880
436.466932
276.410580
173.846483
76.816678
36.663413
12.205839
##ZVALUE=400
0.506639
0.457764
0.433922
0.289679
0.284910
0.297427
0.366569
0.232458
0.252724
0.199676
0.484586
0.326633
0.235438
0.272989
0.289679
0.351667
0.300407
0.356436
0.361800
0.377893
0.379682
0.305772
0.373721
0.334978
0.473857
0.423789
0.541806
0.427961
0.647902
0.735521
0.713468
0.935793
1.055598
1.161695
1.237988
1.140833
1.190901
1.020432
1.201630
1.107454
1.091957
1.134872
0.850558
1.022816
0.940561
0.869632
0.897646
0.837445
0.964999
0.737906
0.710487
0.679493
0.662804
0.678897
0.591874
0.600815
0.671744
0.717640
0.651479
0.714660
0.625849
0.704527
0.558496
0.800490
0.734925
0.653863
0.697970
0.744462
0.661612
0.736713
0.991821
0.940561
0.823736
0.809431
0.883937
1.036525
0.891685
0.891685
0.978708
1.032948
1.264811
1.967549
10.004640
28.919578
82.418919
153.049827
287.137628
400.773883
540.979505
612.224936
629.032850
579.126477
455.240011
340.063572
198.932886
120.602846
##END
