Data from 171017-reg-ec2_RamanShift_3.txt Node
Date: Tue Oct 17 12:27:46 IDT 2017
User: aro
Spectrometer: QEPB0276
Trigger mode: 0
Integration Time (sec): 5.000000E0
Scans to average: 1
Electric dark correction enabled: true
Nonlinearity correction enabled: false
Boxcar width: 0
XAxis mode: Raman Shifts
Number of Pixels in Spectrum: 1044
>>>>>Begin Spectral Data<<<<<
160.701	1
166.742	4
172.777	9
178.805	27
184.826	70
190.841	153
196.849	264
202.85	358
208.845	398
214.833	406
220.815	416
226.789	419
232.758	436
238.719	435
244.674	447
250.623	452
256.565	445
262.5	448
268.429	456
274.351	457
280.267	449
286.176	462
292.079	461
297.975	461
303.865	474
309.748	479
315.625	473
321.495	470
327.359	460
333.217	457
339.068	454
344.912	450
350.751	442
356.583	450
362.408	434
368.227	451
374.04	444
379.847	457
385.647	457
391.44	449
397.228	441
403.009	449
408.784	445
414.553	469
420.315	479
426.071	482
431.821	469
437.565	445
443.302	440
449.033	437
454.758	431
460.477	420
466.189	410
471.896	408
477.596	408
483.29	394
488.978	391
494.66	375
500.335	360
506.005	343
511.668	342
517.325	363
522.977	400
528.622	445
534.261	453
539.894	445
545.521	434
551.141	424
556.756	427
562.365	424
567.968	417
573.565	417
579.155	407
584.74	410
590.319	400
595.892	402
601.459	400
607.02	391
612.575	394
618.124	382
623.667	397
629.204	396
634.735	401
640.261	408
645.781	415
651.294	418
656.802	417
662.304	415
667.8	399
673.29	403
678.775	409
684.254	404
689.726	409
695.193	404
700.655	402
706.11	412
711.56	406
717.004	401
722.442	407
727.874	402
733.301	403
738.722	406
744.137	409
749.547	413
754.951	410
760.349	405
765.741	423
771.128	412
776.509	423
781.885	413
787.254	417
792.618	420
797.977	415
803.33	419
808.677	423
814.019	419
819.355	420
824.686	415
830.011	420
835.33	411
840.644	426
845.952	411
851.255	423
856.552	416
861.844	428
867.13	432
872.41	429
877.686	427
882.955	432
888.219	439
893.478	429
898.731	429
903.979	423
909.221	423
914.458	422
919.69	417
924.916	424
930.136	439
935.351	452
940.561	453
945.766	455
950.965	461
956.158	467
961.347	452
966.529	452
971.707	446
976.879	437
982.046	432
987.208	434
992.364	426
997.515	432
1002.66	432
1007.801	427
1012.936	440
1018.066	434
1023.19	441
1028.309	433
1033.423	446
1038.532	433
1043.636	440
1048.734	435
1053.827	427
1058.915	419
1063.998	421
1069.075	426
1074.147	430
1079.214	432
1084.276	431
1089.333	431
1094.385	431
1099.431	444
1104.472	440
1109.509	451
1114.54	432
1119.565	431
1124.586	423
1129.602	426
1134.613	414
1139.618	427
1144.619	423
1149.614	425
1154.604	425
1159.589	428
1164.57	433
1169.545	429
1174.515	436
1179.48	427
1184.44	426
1189.395	428
1194.345	433
1199.29	418
1204.23	426
1209.165	433
1214.095	428
1219.021	429
1223.941	439
1228.856	438
1233.766	437
1238.672	442
1243.572	454
1248.467	434
1253.358	430
1258.244	435
1263.124	435
1268	425
1272.871	427
1277.737	413
1282.599	416
1287.455	419
1292.306	422
1297.153	421
1301.995	427
1306.832	433
1311.664	438
1316.491	446
1321.314	443
1326.132	438
1330.945	444
1335.753	445
1340.556	442
1345.354	439
1350.148	439
1354.937	434
1359.722	435
1364.501	427
1369.276	417
1374.046	415
1378.811	391
1383.572	395
1388.327	388
1393.079	389
1397.825	392
1402.567	407
1407.304	404
1412.036	406
1416.764	405
1421.487	407
1426.205	417
1430.919	418
1435.628	434
1440.333	443
1445.032	433
1449.727	452
1454.418	452
1459.104	438
1463.785	445
1468.462	444
1473.134	452
1477.802	447
1482.465	454
1487.123	451
1491.777	443
1496.426	453
1501.071	457
1505.711	456
1510.347	459
1514.978	454
1519.604	447
1524.226	452
1528.844	441
1533.457	421
1538.065	430
1542.669	420
1547.269	418
1551.864	407
1556.454	417
1561.041	415
1565.622	430
1570.199	421
1574.772	427
1579.34	434
1583.904	435
1588.464	443
1593.019	436
1597.569	433
1602.115	431
1606.657	428
1611.195	437
1615.728	428
1620.256	425
1624.78	434
1629.3	427
1633.816	435
1638.327	432
1642.834	438
1647.336	454
1651.834	460
1656.328	464
1660.817	468
1665.302	465
1669.783	468
1674.259	469
1678.732	468
1683.199	473
1687.663	476
1692.122	465
1696.577	461
1701.028	445
1705.474	436
1709.917	420
1714.355	403
1718.788	422
1723.218	421
1727.643	424
1732.064	432
1736.481	422
1740.893	431
1745.301	420
1749.705	421
1754.105	411
1758.501	405
1762.893	398
1767.28	403
1771.663	408
1776.042	411
1780.417	418
1784.787	422
1789.154	429
1793.516	428
1797.874	418
1802.228	410
1806.578	396
1810.924	392
1815.266	386
1819.603	376
1823.937	375
1828.266	379
1832.591	386
1836.913	388
1841.23	402
1845.543	401
1849.852	404
1854.156	412
1858.457	418
1862.754	419
1867.047	424
1871.335	424
1875.62	433
1879.9	436
1884.177	448
1888.449	434
1892.718	451
1896.982	444
1901.243	445
1905.499	453
1909.752	451
1914	459
1918.245	448
1922.485	449
1926.722	468
1930.954	465
1935.183	461
1939.408	452
1943.628	454
1947.845	459
1952.058	438
1956.267	433
1960.472	426
1964.673	431
1968.87	410
1973.063	404
1977.252	412
1981.438	393
1985.619	411
1989.797	403
1993.971	411
1998.14	418
2002.306	416
2006.469	419
2010.627	417
2014.781	428
2018.932	422
2023.078	428
2027.221	430
2031.36	416
2035.495	420
2039.627	418
2043.754	422
2047.878	426
2051.998	427
2056.114	426
2060.226	427
2064.334	440
2068.439	439
2072.54	460
2076.637	454
2080.73	451
2084.82	456
2088.906	459
2092.988	460
2097.066	461
2101.14	464
2105.211	446
2109.278	442
2113.342	443
2117.401	440
2121.457	439
2125.509	446
2129.558	436
2133.602	422
2137.643	427
2141.681	431
2145.714	425
2149.744	433
2153.77	424
2157.793	436
2161.812	431
2165.827	436
2169.838	431
2173.846	435
2177.851	422
2181.851	424
2185.848	432
2189.841	424
2193.831	432
2197.817	434
2201.799	420
2205.778	439
2209.753	443
2213.725	427
2217.693	450
2221.657	453
2225.618	445
2229.575	449
2233.529	448
2237.479	440
2241.425	457
2245.368	461
2249.307	451
2253.243	450
2257.175	442
2261.104	449
2265.029	443
2268.95	438
2272.868	436
2276.783	448
2280.694	442
2284.601	441
2288.505	432
2292.405	432
2296.302	442
2300.195	439
2304.085	440
2307.971	430
2311.854	421
2315.734	428
2319.609	428
2323.482	424
2327.351	429
2331.216	423
2335.078	433
2338.937	433
2342.792	426
2346.643	433
2350.492	434
2354.336	432
2358.178	452
2362.015	446
2365.85	456
2369.681	458
2373.508	455
2377.333	472
2381.153	464
2384.971	470
2388.785	478
2392.595	472
2396.402	478
2400.206	478
2404.007	481
2407.804	487
2411.597	495
2415.388	493
2419.174	491
2422.958	499
2426.738	494
2430.515	500
2434.289	492
2438.059	499
2441.825	494
2445.589	501
2449.349	505
2453.106	501
2456.859	498
2460.61	503
2464.356	497
2468.1	497
2471.84	492
2475.577	500
2479.311	503
2483.041	516
2486.768	513
2490.492	521
2494.213	522
2497.93	523
2501.644	518
2505.355	521
2509.062	526
2512.766	535
2516.467	530
2520.165	534
2523.859	542
2527.551	543
2531.239	546
2534.923	541
2538.605	547
2542.283	542
2545.958	538
2549.63	540
2553.299	553
2556.964	549
2560.626	546
2564.285	545
2567.941	547
2571.594	546
2575.243	547
2578.89	543
2582.533	539
2586.173	543
2589.809	540
2593.443	530
2597.073	542
2600.701	528
2604.325	521
2607.946	528
2611.564	526
2615.178	529
2618.79	527
2622.398	528
2626.004	519
2629.606	523
2633.205	526
2636.801	519
2640.394	518
2643.983	512
2647.57	515
2651.153	519
2654.734	511
2658.311	505
2661.885	504
2665.456	512
2669.025	511
2672.589	504
2676.151	514
2679.71	519
2683.266	520
2686.819	503
2690.368	508
2693.915	511
2697.458	510
2700.999	506
2704.536	511
2708.071	509
2711.602	504
2715.13	505
2718.656	495
2722.178	497
2725.697	513
2729.214	519
2732.727	514
2736.237	531
2739.744	524
2743.249	535
2746.75	528
2750.248	529
2753.743	525
2757.236	519
2760.725	509
2764.211	504
2767.695	493
2771.175	477
2774.652	469
2778.127	475
2781.598	489
2785.067	480
2788.532	498
2791.995	500
2795.455	506
2798.911	510
2802.365	513
2805.816	527
2809.264	518
2812.709	531
2816.151	521
2819.59	537
2823.026	527
2826.46	536
2829.89	537
2833.318	542
2836.742	532
2840.164	544
2843.583	533
2846.999	532
2850.412	539
2853.822	524
2857.229	522
2860.634	538
2864.035	539
2867.434	537
2870.83	531
2874.223	530
2877.613	521
2881	515
2884.385	512
2887.766	503
2891.145	509
2894.521	501
2897.894	499
2901.264	493
2904.631	497
2907.996	496
2911.358	485
2914.717	491
2918.073	488
2921.426	488
2924.777	493
2928.124	492
2931.469	489
2934.811	484
2938.15	484
2941.487	496
2944.821	496
2948.152	497
2951.48	489
2954.805	488
2958.128	489
2961.447	482
2964.765	488
2968.079	486
2971.39	482
2974.699	488
2978.005	489
2981.308	487
2984.609	485
2987.907	483
2991.202	481
2994.494	478
2997.784	473
3001.07	463
3004.355	474
3007.636	463
3010.915	456
3014.191	457
3017.464	439
3020.734	443
3024.002	442
3027.267	442
3030.53	439
3033.789	442
3037.046	423
3040.301	424
3043.552	431
3046.801	438
3050.048	427
3053.291	435
3056.532	432
3059.771	441
3063.006	441
3066.239	452
3069.469	444
3072.697	455
3075.922	451
3079.144	461
3082.364	449
3085.581	453
3088.795	447
3092.007	453
3095.216	445
3098.423	442
3101.627	452
3104.828	444
3108.026	445
3111.222	440
3114.416	437
3117.607	438
3120.795	438
3123.98	446
3127.163	446
3130.344	437
3133.521	440
3136.696	437
3139.869	439
3143.039	440
3146.206	428
3149.371	418
3152.533	412
3155.693	419
3158.85	420
3162.005	405
3165.157	397
3168.306	397
3171.453	384
3174.597	384
3177.739	377
3180.878	374
3184.014	371
3187.149	367
3190.28	366
3193.409	359
3196.536	353
3199.659	357
3202.781	349
3205.9	347
3209.016	350
3212.13	343
3215.241	340
3218.35	347
3221.456	339
3224.56	336
3227.661	328
3230.76	325
3233.856	312
3236.95	314
3240.041	320
3243.13	312
3246.216	310
3249.3	312
3252.382	306
3255.46	297
3258.537	302
3261.611	307
3264.682	294
3267.751	292
3270.818	298
3273.882	292
3276.943	285
3280.002	288
3283.059	279
3286.113	277
3289.165	269
3292.214	267
3295.261	270
3298.306	261
3301.348	264
3304.387	258
3307.425	256
3310.459	263
3313.492	255
3316.521	250
3319.549	252
3322.574	245
3325.597	248
3328.617	253
3331.635	248
3334.65	247
3337.663	248
3340.674	249
3343.682	245
3346.688	247
3349.691	244
3352.692	240
3355.691	249
3358.687	244
3361.681	237
3364.673	241
3367.662	231
3370.649	229
3373.633	227
3376.615	221
3379.595	224
3382.572	228
3385.547	215
3388.52	222
3391.49	216
3394.458	212
3397.424	214
3400.387	205
3403.348	212
3406.307	207
3409.263	209
3412.217	209
3415.168	209
3418.118	203
3421.065	201
3424.009	196
3426.951	203
3429.891	195
3432.829	195
3435.764	198
3438.697	196
3441.628	189
3444.557	188
3447.483	182
3450.407	180
3453.328	179
3456.247	176
3459.164	171
3462.079	173
3464.991	166
3467.902	164
3470.809	160
3473.715	154
3476.618	158
3479.519	152
3482.418	150
3485.315	150
3488.209	141
3491.101	147
3493.99	145
3496.878	138
3499.763	136
3502.646	140
3505.527	139
3508.405	129
3511.281	133
3514.155	129
3517.027	126
3519.897	123
3522.764	123
3525.629	119
3528.492	118
3531.352	118
3534.211	109
3537.067	106
3539.921	110
3542.773	105
3545.622	100
3548.469	103
3551.315	102
3554.157	101
3556.998	97
3559.837	97
3562.673	98
3565.507	97
3568.339	101
3571.169	95
3573.996	92
3576.822	87
3579.645	89
3582.466	88
3585.285	87
3588.101	86
3590.916	80
3593.728	77
3596.538	77
3599.346	79
3602.152	75
3604.956	74
3607.757	79
3610.556	71
3613.354	70
3616.149	66
3618.942	71
3621.732	65
3624.521	66
3627.307	61
3630.092	60
3632.874	61
3635.654	65
3638.432	60
3641.208	62
3643.982	60
3646.753	60
3649.523	58
3652.29	60
3655.055	63
3657.818	60
3660.579	62
3663.338	56
3666.095	56
3668.849	62
3671.602	60
3674.352	59
3677.101	60
3679.847	57
3682.591	56
3685.333	56
3688.073	56
3690.811	57
3693.547	58
3696.281	54
3699.013	56
3701.742	56
3704.47	57
3707.195	55
3709.919	57
3712.64	51
3715.359	57
3718.076	53
3720.792	59
3723.505	53
3726.216	49
3728.925	47
3731.632	46
3734.336	49
3737.039	47
3739.74	52
3742.439	44
3745.136	49
3747.83	49
3750.523	47
3753.213	48
3755.902	47
3758.589	46
3761.273	49
3763.956	50
3766.636	45
3769.315	44
3771.991	42
3774.665	45
3777.338	46
3780.008	47
3782.677	44
3785.343	39
3788.007	44
3790.67	42
3793.33	40
3795.989	37
3798.645	34
3801.299	40
3803.952	39
3806.602	37
3809.251	35
3811.897	34
3814.542	34
3817.184	36
3819.825	34
3822.463	35
3825.1	33
3827.735	37
3830.367	27
3832.998	31
3835.627	27
3838.253	29
3840.878	24
3843.501	26
3846.122	27
3848.741	23
3851.358	21
3853.973	19
3856.586	26
3859.197	22
3861.806	20
3864.414	22
3867.019	21
3869.622	23
3872.224	14
3874.823	22
3877.421	22
3880.016	21
3882.61	21
3885.202	22
3887.792	21
3890.38	18
3892.966	15
3895.55	17
3898.132	14
3900.713	11
3903.291	13
3905.868	16
3908.442	15
3911.015	14
3913.586	14
3916.155	12
3918.722	7
3921.287	13
3923.85	10
3926.411	10
3928.971	7
3931.528	11
3934.084	8
3936.638	6
3939.19	5
3941.74	8
3944.288	8
3946.834	8
3949.378	4
3951.921	3
3954.462	1
3957	1
3959.537	4
3962.072	6
3964.606	2
3967.137	2
3969.667	3
3972.194	2
3974.72	0
3977.244	3
3979.766	-2
3982.286	-2
3984.805	3
3987.321	-1
3989.836	3
3992.349	-2
3994.86	1
3997.369	2
3999.877	1
4002.382	0
4004.886	5
4007.388	-4
4009.888	1
4012.386	0
4014.883	-1
4017.377	-4
4019.87	2
4022.361	-2
4024.85	-5
4027.338	-3
4029.823	-4
4032.307	0
4034.789	1
4037.269	-2
4039.747	0
4042.224	0
4044.699	0
4047.172	2
4049.643	-1
4052.112	-2
4054.58	-1
4057.046	-3
4059.51	-1
4061.972	-3
4064.432	-2
4066.891	-2
4069.348	2
4071.803	3
4074.256	-4
4076.708	-3
4079.158	-3
4081.606	-7
4084.052	-2
4086.497	-3
4088.939	-4
4091.38	-2
4093.819	-3
4096.257	-6
4098.693	-5
4101.127	-9
4103.559	-7
4105.989	-1
4108.418	2
4110.845	-5
4113.27	-2
4115.694	2
4118.115	1
4120.535	-5
4122.954	-3
4125.37	-2
4127.785	-6
4130.198	-4
4132.609	-5
4135.019	-9
4137.427	-11
4139.833	-9
4142.237	-12
