Data from 171017-reg-1-e_RamanShift_1.txt Node
Date: Tue Oct 17 13:04:22 IDT 2017
User: aro
Spectrometer: QEPB0276
Trigger mode: 0
Integration Time (sec): 5.000000E0
Scans to average: 1
Electric dark correction enabled: true
Nonlinearity correction enabled: false
Boxcar width: 0
XAxis mode: Raman Shifts
Number of Pixels in Spectrum: 1044
>>>>>Begin Spectral Data<<<<<
160.701	4
166.742	2
172.777	13
178.805	33
184.826	88
190.841	186
196.849	322
202.85	438
208.845	482
214.833	502
220.815	508
226.789	517
232.758	522
238.719	531
244.674	552
250.623	560
256.565	553
262.5	534
268.429	536
274.351	542
280.267	538
286.176	551
292.079	544
297.975	544
303.865	546
309.748	555
315.625	554
321.495	544
327.359	549
333.217	538
339.068	533
344.912	540
350.751	530
356.583	512
362.408	518
368.227	517
374.04	513
379.847	520
385.647	517
391.44	507
397.228	506
403.009	510
408.784	500
414.553	522
420.315	550
426.071	554
431.821	529
437.565	499
443.302	481
449.033	480
454.758	470
460.477	460
466.189	457
471.896	453
477.596	440
483.29	436
488.978	426
494.66	409
500.335	395
506.005	389
511.668	379
517.325	406
522.977	458
528.622	492
534.261	509
539.894	511
545.521	495
551.141	488
556.756	478
562.365	475
567.968	475
573.565	467
579.155	468
584.74	455
590.319	463
595.892	444
601.459	444
607.02	443
612.575	435
618.124	439
623.667	433
629.204	442
634.735	444
640.261	446
645.781	457
651.294	458
656.802	467
662.304	452
667.8	449
673.29	457
678.775	460
684.254	460
689.726	457
695.193	454
700.655	457
706.11	461
711.56	458
717.004	449
722.442	458
727.874	455
733.301	457
738.722	460
744.137	452
749.547	469
754.951	470
760.349	472
765.741	477
771.128	477
776.509	479
781.885	479
787.254	482
792.618	493
797.977	482
803.33	480
808.677	483
814.019	496
819.355	492
824.686	485
830.011	483
835.33	482
840.644	498
845.952	486
851.255	500
856.552	508
861.844	501
867.13	503
872.41	506
877.686	508
882.955	509
888.219	501
893.478	507
898.731	504
903.979	501
909.221	512
914.458	506
919.69	521
924.916	520
930.136	519
935.351	537
940.561	548
945.766	550
950.965	553
956.158	550
961.347	554
966.529	545
971.707	533
976.879	536
982.046	528
987.208	512
992.364	524
997.515	525
1002.66	518
1007.801	528
1012.936	538
1018.066	544
1023.19	549
1028.309	539
1033.423	549
1038.532	550
1043.636	540
1048.734	531
1053.827	527
1058.915	514
1063.998	510
1069.075	506
1074.147	520
1079.214	520
1084.276	528
1089.333	523
1094.385	530
1099.431	536
1104.472	533
1109.509	531
1114.54	533
1119.565	520
1124.586	513
1129.602	507
1134.613	503
1139.618	503
1144.619	515
1149.614	509
1154.604	499
1159.589	519
1164.57	506
1169.545	506
1174.515	524
1179.48	509
1184.44	503
1189.395	500
1194.345	502
1199.29	494
1204.23	495
1209.165	497
1214.095	501
1219.021	498
1223.941	502
1228.856	509
1233.766	507
1238.672	504
1243.572	510
1248.467	511
1253.358	492
1258.244	498
1263.124	486
1268	483
1272.871	482
1277.737	470
1282.599	470
1287.455	462
1292.306	471
1297.153	473
1301.995	473
1306.832	490
1311.664	485
1316.491	501
1321.314	489
1326.132	493
1330.945	500
1335.753	500
1340.556	495
1345.354	488
1350.148	486
1354.937	487
1359.722	469
1364.501	455
1369.276	445
1374.046	437
1378.811	436
1383.572	431
1388.327	423
1393.079	433
1397.825	427
1402.567	429
1407.304	441
1412.036	436
1416.764	432
1421.487	437
1426.205	444
1430.919	451
1435.628	457
1440.333	463
1445.032	467
1449.727	477
1454.418	484
1459.104	469
1463.785	476
1468.462	479
1473.134	472
1477.802	486
1482.465	475
1487.123	478
1491.777	481
1496.426	474
1501.071	485
1505.711	488
1510.347	476
1514.978	483
1519.604	478
1524.226	478
1528.844	465
1533.457	462
1538.065	458
1542.669	448
1547.269	446
1551.864	440
1556.454	451
1561.041	451
1565.622	454
1570.199	459
1574.772	454
1579.34	465
1583.904	460
1588.464	479
1593.019	476
1597.569	467
1602.115	476
1606.657	466
1611.195	476
1615.728	461
1620.256	458
1624.78	468
1629.3	466
1633.816	473
1638.327	476
1642.834	482
1647.336	491
1651.834	498
1656.328	500
1660.817	509
1665.302	519
1669.783	514
1674.259	519
1678.732	524
1683.199	516
1687.663	522
1692.122	514
1696.577	513
1701.028	489
1705.474	481
1709.917	463
1714.355	457
1718.788	464
1723.218	460
1727.643	470
1732.064	466
1736.481	478
1740.893	469
1745.301	471
1749.705	462
1754.105	450
1758.501	462
1762.893	456
1767.28	461
1771.663	459
1776.042	475
1780.417	481
1784.787	474
1789.154	479
1793.516	478
1797.874	476
1802.228	467
1806.578	460
1810.924	453
1815.266	439
1819.603	442
1823.937	447
1828.266	440
1832.591	446
1836.913	451
1841.23	444
1845.543	452
1849.852	471
1854.156	465
1858.457	476
1862.754	483
1867.047	485
1871.335	488
1875.62	494
1879.9	504
1884.177	509
1888.449	505
1892.718	514
1896.982	510
1901.243	504
1905.499	512
1909.752	506
1914	511
1918.245	508
1922.485	522
1926.722	525
1930.954	528
1935.183	522
1939.408	528
1943.628	521
1947.845	504
1952.058	492
1956.267	499
1960.472	478
1964.673	477
1968.87	465
1973.063	459
1977.252	457
1981.438	458
1985.619	449
1989.797	452
1993.971	454
1998.14	455
2002.306	460
2006.469	466
2010.627	468
2014.781	464
2018.932	480
2023.078	469
2027.221	469
2031.36	457
2035.495	460
2039.627	461
2043.754	468
2047.878	465
2051.998	462
2056.114	472
2060.226	472
2064.334	478
2068.439	473
2072.54	479
2076.637	479
2080.73	491
2084.82	494
2088.906	495
2092.988	488
2097.066	477
2101.14	479
2105.211	478
2109.278	464
2113.342	470
2117.401	460
2121.457	461
2125.509	460
2129.558	449
2133.602	454
2137.643	457
2141.681	450
2145.714	452
2149.744	463
2153.77	448
2157.793	445
2161.812	459
2165.827	455
2169.838	447
2173.846	445
2177.851	451
2181.851	441
2185.848	450
2189.841	446
2193.831	441
2197.817	446
2201.799	439
2205.778	446
2209.753	458
2213.725	455
2217.693	456
2221.657	457
2225.618	449
2229.575	458
2233.529	462
2237.479	457
2241.425	458
2245.368	461
2249.307	448
2253.243	457
2257.175	450
2261.104	450
2265.029	441
2268.95	449
2272.868	442
2276.783	447
2280.694	453
2284.601	438
2288.505	446
2292.405	437
2296.302	430
2300.195	435
2304.085	430
2307.971	434
2311.854	434
2315.734	435
2319.609	425
2323.482	428
2327.351	422
2331.216	433
2335.078	434
2338.937	436
2342.792	430
2346.643	435
2350.492	431
2354.336	441
2358.178	449
2362.015	448
2365.85	460
2369.681	454
2373.508	463
2377.333	473
2381.153	477
2384.971	476
2388.785	480
2392.595	480
2396.402	478
2400.206	476
2404.007	493
2407.804	493
2411.597	496
2415.388	493
2419.174	506
2422.958	502
2426.738	499
2430.515	503
2434.289	500
2438.059	514
2441.825	516
2445.589	514
2449.349	516
2453.106	513
2456.859	506
2460.61	509
2464.356	521
2468.1	522
2471.84	513
2475.577	508
2479.311	528
2483.041	527
2486.768	528
2490.492	531
2494.213	536
2497.93	532
2501.644	545
2505.355	552
2509.062	547
2512.766	555
2516.467	553
2520.165	563
2523.859	560
2527.551	566
2531.239	570
2534.923	568
2538.605	567
2542.283	579
2545.958	567
2549.63	575
2553.299	581
2556.964	577
2560.626	573
2564.285	584
2567.941	578
2571.594	569
2575.243	585
2578.89	565
2582.533	571
2586.173	574
2589.809	571
2593.443	570
2597.073	569
2600.701	559
2604.325	557
2607.946	568
2611.564	561
2615.178	566
2618.79	558
2622.398	566
2626.004	567
2629.606	568
2633.205	568
2636.801	561
2640.394	564
2643.983	560
2647.57	554
2651.153	556
2654.734	561
2658.311	556
2661.885	556
2665.456	560
2669.025	554
2672.589	552
2676.151	565
2679.71	553
2683.266	563
2686.819	556
2690.368	547
2693.915	554
2697.458	546
2700.999	541
2704.536	557
2708.071	545
2711.602	541
2715.13	549
2718.656	549
2722.178	548
2725.697	551
2729.214	571
2732.727	576
2736.237	584
2739.744	580
2743.249	588
2746.75	577
2750.248	580
2753.743	569
2757.236	565
2760.725	554
2764.211	542
2767.695	530
2771.175	519
2774.652	515
2778.127	517
2781.598	524
2785.067	530
2788.532	541
2791.995	547
2795.455	553
2798.911	551
2802.365	565
2805.816	564
2809.264	567
2812.709	574
2816.151	570
2819.59	570
2823.026	582
2826.46	573
2829.89	590
2833.318	578
2836.742	577
2840.164	584
2843.583	582
2846.999	581
2850.412	582
2853.822	573
2857.229	580
2860.634	570
2864.035	583
2867.434	577
2870.83	585
2874.223	573
2877.613	565
2881	554
2884.385	567
2887.766	558
2891.145	557
2894.521	532
2897.894	541
2901.264	539
2904.631	537
2907.996	526
2911.358	530
2914.717	531
2918.073	528
2921.426	521
2924.777	531
2928.124	526
2931.469	526
2934.811	524
2938.15	534
2941.487	533
2944.821	542
2948.152	532
2951.48	521
2954.805	526
2958.128	524
2961.447	518
2964.765	525
2968.079	522
2971.39	522
2974.699	515
2978.005	524
2981.308	520
2984.609	523
2987.907	520
2991.202	526
2994.494	512
2997.784	507
3001.07	522
3004.355	505
3007.636	495
3010.915	496
3014.191	487
3017.464	480
3020.734	478
3024.002	474
3027.267	460
3030.53	462
3033.789	451
3037.046	457
3040.301	455
3043.552	464
3046.801	469
3050.048	464
3053.291	469
3056.532	466
3059.771	476
3063.006	478
3066.239	470
3069.469	475
3072.697	484
3075.922	483
3079.144	480
3082.364	473
3085.581	480
3088.795	477
3092.007	480
3095.216	479
3098.423	478
3101.627	474
3104.828	477
3108.026	469
3111.222	472
3114.416	479
3117.607	471
3120.795	468
3123.98	471
3127.163	475
3130.344	469
3133.521	475
3136.696	461
3139.869	467
3143.039	455
3146.206	458
3149.371	446
3152.533	452
3155.693	441
3158.85	432
3162.005	423
3165.157	412
3168.306	423
3171.453	412
3174.597	413
3177.739	393
3180.878	393
3184.014	390
3187.149	392
3190.28	386
3193.409	381
3196.536	383
3199.659	379
3202.781	378
3205.9	370
3209.016	380
3212.13	363
3215.241	368
3218.35	363
3221.456	349
3224.56	368
3227.661	356
3230.76	350
3233.856	349
3236.95	346
3240.041	341
3243.13	337
3246.216	332
3249.3	331
3252.382	328
3255.46	329
3258.537	318
3261.611	327
3264.682	313
3267.751	313
3270.818	315
3273.882	312
3276.943	308
3280.002	306
3283.059	301
3286.113	296
3289.165	298
3292.214	294
3295.261	280
3298.306	280
3301.348	280
3304.387	276
3307.425	286
3310.459	275
3313.492	266
3316.521	269
3319.549	268
3322.574	268
3325.597	265
3328.617	263
3331.635	264
3334.65	258
3337.663	266
3340.674	267
3343.682	269
3346.688	257
3349.691	269
3352.692	262
3355.691	264
3358.687	261
3361.681	254
3364.673	257
3367.662	258
3370.649	249
3373.633	247
3376.615	250
3379.595	245
3382.572	245
3385.547	236
3388.52	239
3391.49	237
3394.458	235
3397.424	234
3400.387	230
3403.348	229
3406.307	225
3409.263	224
3412.217	226
3415.168	222
3418.118	225
3421.065	220
3424.009	219
3426.951	228
3429.891	219
3432.829	214
3435.764	215
3438.697	208
3441.628	202
3444.557	208
3447.483	197
3450.407	195
3453.328	197
3456.247	197
3459.164	191
3462.079	192
3464.991	186
3467.902	181
3470.809	177
3473.715	176
3476.618	174
3479.519	168
3482.418	166
3485.315	161
3488.209	160
3491.101	168
3493.99	160
3496.878	159
3499.763	151
3502.646	153
3505.527	150
3508.405	149
3511.281	145
3514.155	141
3517.027	147
3519.897	140
3522.764	135
3525.629	132
3528.492	129
3531.352	127
3534.211	119
3537.067	121
3539.921	115
3542.773	119
3545.622	113
3548.469	114
3551.315	110
3554.157	112
3556.998	105
3559.837	110
3562.673	106
3565.507	104
3568.339	106
3571.169	106
3573.996	105
3576.822	97
3579.645	98
3582.466	97
3585.285	100
3588.101	98
3590.916	91
3593.728	89
3596.538	85
3599.346	78
3602.152	82
3604.956	77
3607.757	81
3610.556	79
3613.354	83
3616.149	78
3618.942	75
3621.732	73
3624.521	70
3627.307	68
3630.092	69
3632.874	70
3635.654	66
3638.432	68
3641.208	69
3643.982	68
3646.753	65
3649.523	66
3652.29	66
3655.055	68
3657.818	64
3660.579	60
3663.338	61
3666.095	65
3668.849	64
3671.602	63
3674.352	64
3677.101	60
3679.847	60
3682.591	57
3685.333	62
3688.073	56
3690.811	62
3693.547	61
3696.281	59
3699.013	62
3701.742	61
3704.47	62
3707.195	62
3709.919	61
3712.64	61
3715.359	61
3718.076	60
3720.792	57
3723.505	61
3726.216	54
3728.925	52
3731.632	55
3734.336	53
3737.039	56
3739.74	56
3742.439	44
3745.136	47
3747.83	52
3750.523	50
3753.213	55
3755.902	50
3758.589	51
3761.273	50
3763.956	50
3766.636	48
3769.315	47
3771.991	46
3774.665	43
3777.338	47
3780.008	49
3782.677	52
3785.343	47
3788.007	41
3790.67	42
3793.33	44
3795.989	40
3798.645	41
3801.299	45
3803.952	40
3806.602	38
3809.251	35
3811.897	39
3814.542	33
3817.184	38
3819.825	35
3822.463	35
3825.1	31
3827.735	35
3830.367	29
3832.998	27
3835.627	33
3838.253	31
3840.878	27
3843.501	24
3846.122	22
3848.741	28
3851.358	22
3853.973	17
3856.586	20
3859.197	23
3861.806	22
3864.414	21
3867.019	21
3869.622	19
3872.224	19
3874.823	21
3877.421	22
3880.016	24
3882.61	22
3885.202	23
3887.792	23
3890.38	21
3892.966	14
3895.55	11
3898.132	13
3900.713	8
3903.291	10
3905.868	17
3908.442	12
3911.015	10
3913.586	11
3916.155	12
3918.722	5
3921.287	8
3923.85	7
3926.411	3
3928.971	5
3931.528	7
3934.084	4
3936.638	2
3939.19	1
3941.74	2
3944.288	2
3946.834	3
3949.378	3
3951.921	2
3954.462	1
3957	-2
3959.537	1
3962.072	5
3964.606	1
3967.137	1
3969.667	0
3972.194	1
3974.72	2
3977.244	3
3979.766	-2
3982.286	-1
3984.805	2
3987.321	0
3989.836	0
3992.349	0
3994.86	2
3997.369	2
3999.877	-3
4002.382	0
4004.886	1
4007.388	-3
4009.888	0
4012.386	-4
4014.883	-4
4017.377	-5
4019.87	-2
4022.361	-2
4024.85	-6
4027.338	-5
4029.823	-7
4032.307	-3
4034.789	-6
4037.269	-7
4039.747	-7
4042.224	-4
4044.699	-5
4047.172	-4
4049.643	-5
4052.112	-4
4054.58	-2
4057.046	-9
4059.51	-4
4061.972	-4
4064.432	-4
4066.891	-4
4069.348	-1
4071.803	-5
4074.256	-8
4076.708	-6
4079.158	-5
4081.606	-7
4084.052	-5
4086.497	-3
4088.939	-8
4091.38	-3
4093.819	-8
4096.257	-10
4098.693	-9
4101.127	-9
4103.559	-10
4105.989	-3
4108.418	0
4110.845	-5
4113.27	0
4115.694	0
4118.115	3
4120.535	-6
4122.954	-6
4125.37	-8
4127.785	-9
4130.198	-6
4132.609	-7
4135.019	-12
4137.427	-14
4139.833	-13
4142.237	-13
