##TITLE=DDW02
##FORMAT=SPECTACLE-ASCII V-1.2
##DATA TYPE=ULTRAVIOLET SPECTRUM
##SECOND TYPE=ULTRAVIOLET SPECTRUM
##DATE=03/05/18
##TIME=12:17:36
##SPECTROMETER/DATA SYSTEM=SPECTACLE
##XUNITS=NM EM
##YUNITS=ENERGY
##YFACTOR=1
##FIRSTX=220
##LASTX=410
##NPOINTS=96
##3DDATA=Equidistant
##ZUNITS=NM EX
##FIRSTZ=210
##LASTZ=400
##ZPOINTS=39
##XYDATA=(Y..Y)
##ZVALUE=210
23.966432
23.084879
16.217828
13.240576
12.668967
9.838939
9.784698
7.409453
7.658601
6.315708
4.877448
3.792644
2.850890
3.612638
3.602505
3.900528
3.844500
4.001856
4.599690
4.961491
5.071759
5.789995
6.010532
5.517602
6.538630
7.140636
7.518530
7.323623
7.977486
8.195639
7.701516
8.484721
9.345412
9.114742
8.054972
9.357929
10.059476
9.473562
9.145737
9.775758
10.832548
9.107590
10.843873
9.951591
10.656714
11.272430
10.819435
10.834932
10.800958
11.691451
10.877848
11.666417
11.719465
12.666583
12.136698
12.055635
12.102723
12.133718
11.429787
12.414455
12.512803
13.596416
12.351871
12.958646
13.067722
12.624860
14.316440
16.512871
17.857552
21.697879
24.871826
26.813745
34.698844
38.660765
44.487715
47.353506
52.056909
55.499673
55.872798
56.672692
52.647591
48.058629
41.615963
36.065578
26.364923
23.386478
16.971827
16.425848
16.907454
18.671751
24.341941
29.511452
37.913918
44.572949
57.483912
65.542459
##ZVALUE=215
83.862543
80.836415
64.906478
43.888688
33.099651
22.909641
19.854903
16.546845
16.071796
14.254451
13.604760
10.512471
8.128881
6.884933
5.812645
5.038977
4.671812
4.719496
4.996657
5.368590
5.125999
5.586743
6.013513
7.437468
6.791949
7.271767
7.272959
8.765459
7.306933
8.032918
8.084774
7.367730
8.588433
9.516478
9.326935
9.453893
9.895563
10.373592
9.969473
9.940863
10.273457
11.266470
9.720922
10.637641
11.452436
12.422800
10.858774
11.109710
11.170506
11.694431
12.406707
13.126731
12.328625
11.641979
13.666749
12.260675
13.818741
12.915730
13.438463
13.113618
14.074445
14.024973
13.442636
13.571978
15.714765
16.238689
15.556812
17.609596
19.106865
23.223758
25.958419
32.441616
35.731792
42.486787
47.861934
52.073598
55.121779
58.070421
61.098933
60.104728
58.351755
52.573681
47.693849
36.102533
32.134652
23.427606
17.451644
15.712976
13.662577
11.180639
11.965632
11.783838
13.317466
17.610788
21.567941
35.185814
##ZVALUE=220
207.618475
209.519863
192.523003
154.761672
120.502710
81.367493
61.624646
39.226413
32.209754
26.493669
26.392937
24.190545
24.827719
20.223856
16.240478
12.777448
8.996725
8.742809
7.421970
6.409883
6.972551
6.993413
7.821918
8.210540
7.524490
8.476973
8.485913
9.312630
8.639693
8.568764
9.398460
9.745955
10.199547
10.870695
11.668801
11.673570
10.951757
12.236834
11.921525
11.847615
12.455583
13.408661
13.414621
13.399720
13.547540
14.481544
14.728904
14.072657
13.640523
12.984872
13.858676
14.448762
13.923645
15.816689
14.131665
14.099479
15.439987
14.891624
15.729666
14.626980
14.383793
13.982654
14.753938
14.795661
14.765859
15.148520
17.551780
18.611550
19.761920
24.708509
26.812553
30.890703
32.850504
39.091706
43.429732
47.903657
53.189993
52.039623
54.164529
50.861835
47.885776
42.381883
35.487413
27.390718
21.653771
18.528700
14.677644
14.039874
13.427734
12.960434
12.412667
11.797547
10.616779
11.162758
11.727810
9.594560
##ZVALUE=225
371.064544
374.679565
411.008596
426.508784
411.613584
339.979529
271.336436
194.546580
130.426884
88.278651
54.296851
46.342611
42.992830
45.859814
41.124821
33.153892
30.900836
23.543835
18.734932
13.817549
9.884834
7.728934
7.816553
9.141564
9.392500
8.305907
8.776784
7.763505
8.667707
10.258555
10.043979
9.871721
10.860562
10.222793
11.165738
12.585521
12.524724
12.269616
12.850761
14.225841
12.846589
14.559627
13.730526
14.140606
14.569759
14.884472
14.812946
14.561415
13.493896
14.279485
13.411641
14.949441
15.067458
15.178919
15.825629
13.576746
14.760494
13.758540
15.128851
13.969541
14.389753
14.236569
14.096498
14.764667
14.276505
16.810894
16.149879
17.419457
20.032525
21.680593
25.788546
25.475621
32.041669
36.967993
39.086938
38.601756
40.668845
39.789677
37.875772
37.086606
32.751560
29.218793
25.339723
20.782948
17.392635
14.846921
14.769435
12.818575
12.833476
10.226965
11.567473
10.964870
10.580420
11.283755
10.250807
10.659695
##ZVALUE=230
284.048915
305.227637
436.131954
622.232556
723.641515
782.968998
752.520561
664.919019
541.539788
419.708490
256.571770
166.511536
96.232891
72.196722
67.279935
67.608953
66.316724
64.045787
55.560470
43.718815
35.009980
23.855567
17.905831
13.030767
10.378957
10.411739
10.851622
10.662675
9.658933
10.571480
11.220574
10.835528
11.196733
12.759566
12.708902
12.498498
13.345480
12.897849
11.678934
14.001727
14.008880
13.599992
13.381839
14.733672
14.404655
13.289452
13.801455
13.020635
14.584661
14.635921
13.315678
15.988946
14.670491
14.395714
14.170408
14.586449
14.633536
15.999675
15.136600
15.442967
15.462637
15.894771
14.101863
14.682412
15.388727
14.602542
15.393496
17.247796
16.907454
18.235445
20.846725
25.876760
27.439594
30.260682
31.519532
32.981634
32.656789
32.263994
33.019781
26.967525
25.403500
20.800829
18.740892
18.501878
16.034842
15.464425
13.426542
12.540817
12.361407
10.896921
11.317730
10.174513
10.237694
10.918975
10.057688
9.798408
##ZVALUE=235
46.277642
56.668520
116.269588
253.008604
381.613970
554.896593
675.398707
804.117918
814.247727
762.116909
636.518002
492.470860
330.476761
234.847665
152.484775
109.911561
91.826916
89.971423
94.374418
95.768571
90.652704
71.307421
58.035851
39.649606
28.161407
18.160939
11.307597
8.342862
7.730722
8.172989
7.568598
7.919669
7.227659
8.340478
7.408857
8.501410
7.769465
8.464456
7.740855
8.874536
8.650422
8.500814
8.235574
9.347796
7.683635
8.351803
7.295609
8.617640
8.818507
8.653998
8.531809
8.693933
8.425713
8.926988
8.514524
9.003878
8.483529
9.139776
8.651614
7.766485
10.151863
8.459687
9.709597
8.704662
8.923411
9.141564
9.735823
9.206533
9.222627
10.209680
10.936856
12.423992
14.249682
14.721751
16.110539
16.284585
18.313527
16.046762
15.330911
14.703870
12.169480
10.376573
11.065602
8.652806
9.130836
7.434487
6.988645
7.200837
6.653666
7.778406
7.318854
6.377697
6.629825
7.041693
6.859899
6.280541
##ZVALUE=240
2.699494
2.739429
14.882684
43.852925
122.527480
207.085609
369.631648
521.523952
696.430802
795.671940
849.756002
842.111707
766.938925
621.358752
483.822823
319.084525
226.811767
141.470432
115.858912
106.957555
111.542940
114.737749
110.353827
101.123452
76.247454
65.131783
44.928789
30.246973
19.222498
12.105703
8.233786
6.994605
6.643534
8.205771
7.693768
7.143617
7.813573
7.474422
7.699728
7.791519
7.834435
7.086992
7.734895
8.703470
7.615685
7.552505
8.789897
7.863641
6.664991
7.753968
8.550882
8.057952
7.995963
8.396506
7.813573
8.859634
9.731650
8.619428
8.732677
8.645654
8.468628
8.915663
9.151697
9.246469
9.658933
10.057688
9.803772
11.230707
11.042953
12.108684
12.638569
15.054941
17.822981
18.652678
18.788576
20.817518
19.931793
18.774867
19.094944
16.921759
15.761852
13.727546
12.131929
10.571480
10.456443
9.176731
8.488894
9.164810
8.225441
9.055734
7.650852
8.149743
7.603765
7.672906
8.180737
8.403659
##ZVALUE=245
1.754761
1.612902
1.678467
2.607703
7.674694
42.116642
112.923980
289.832950
465.049744
664.833784
913.351774
1007.469893
1005.697846
938.171744
764.987469
594.493747
391.218662
273.372531
188.701749
114.620924
93.230605
96.213818
109.443665
122.130513
125.929713
117.805600
106.777549
85.677505
66.470504
46.577454
30.468702
18.785596
12.268424
7.341504
7.303953
6.102920
6.500483
6.729960
5.748868
6.254911
6.542802
6.131530
6.329417
6.118417
5.735755
5.841851
6.356835
6.369948
6.029606
5.575418
6.495714
6.713867
6.584525
6.114841
6.763935
6.640553
6.474853
6.757975
5.755424
6.017685
5.907416
6.534457
6.386638
7.202625
7.273555
7.129908
7.806420
8.080602
8.719563
9.337664
10.054708
11.084676
11.507869
13.425946
12.211800
13.996959
14.449954
13.600588
11.626482
11.413693
10.451674
9.139776
9.125471
7.893443
6.797910
6.517768
6.255507
6.726980
5.748868
6.147623
5.995631
5.018711
5.214810
5.917549
5.852580
6.209612
##ZVALUE=250
1.292825
1.538992
1.451969
1.386404
1.984835
1.524687
3.214478
9.672642
52.571893
121.251941
279.091597
422.537923
567.841530
704.168677
769.813657
763.438940
701.893568
580.492616
480.320454
315.742493
210.182667
136.162639
92.301965
87.069869
98.166466
109.585524
128.307939
128.703713
122.576952
110.129714
98.015666
67.792535
51.184893
30.015707
19.582510
9.407997
6.684661
5.455613
4.630685
5.107522
4.470944
4.680753
4.811883
4.780889
4.676580
4.381537
4.557967
4.558563
4.582405
4.407763
4.705787
5.037785
4.351735
4.436970
4.528761
5.050898
4.811883
4.391670
5.240440
4.267693
4.958510
4.471540
4.727840
4.827976
4.893541
5.209446
4.976988
5.587935
5.458593
4.981756
5.850792
6.382465
6.351471
7.068515
7.250905
6.561875
6.043911
6.378889
6.453991
4.977584
5.254745
5.192757
4.792809
4.548430
4.384518
4.204512
3.746748
3.800988
3.599524
3.998876
4.336834
3.739595
3.975630
3.622770
3.746748
4.051924
##ZVALUE=255
1.163483
1.054406
1.092553
1.240969
1.129508
1.551509
1.525879
1.724958
1.972914
3.886819
24.860501
71.211457
151.808858
303.405523
443.239808
622.256994
714.755654
769.124627
757.219791
657.771826
558.352470
429.498553
262.553692
168.590546
98.850727
82.206726
82.896948
94.054937
117.466450
128.748417
134.631991
129.923820
119.762421
93.832612
75.015426
48.752427
33.869743
17.414689
11.800528
6.672740
5.472898
4.746914
5.182624
4.892945
4.763603
5.366802
4.632473
4.873872
4.494786
4.920959
4.924536
4.744530
4.778504
4.884601
4.735589
4.851818
4.652739
4.737973
4.584789
4.731417
4.323721
4.390478
4.876852
4.755855
5.077720
5.061626
4.940629
4.886985
5.103946
5.693436
5.552769
6.278753
6.005764
6.301999
6.278753
6.483793
5.974770
6.021857
5.707741
5.191565
5.173683
4.181862
4.582405
4.083514
3.890991
4.066825
4.472733
3.262758
3.939867
3.892779
3.641844
3.139973
2.844930
3.089905
3.165603
3.402829
##ZVALUE=260
0.896454
0.786781
0.831485
0.969768
1.087785
1.155734
1.140833
1.334548
1.365542
1.346469
1.684427
2.200603
7.736683
42.617917
105.183721
239.333510
368.575454
541.966558
657.658577
760.685802
784.109831
746.719837
624.467731
503.546000
331.177711
229.772925
131.109953
88.652968
68.803430
74.680448
94.747543
116.415620
130.346417
141.425729
136.415958
119.617581
101.382732
72.282553
53.783655
32.085776
21.274686
12.222528
7.813573
5.747676
5.206466
4.623532
4.813671
5.397797
5.680919
5.454421
4.817843
5.317926
5.409718
5.256534
4.631877
5.036592
4.556775
5.050898
4.732609
5.308986
5.099773
4.872680
5.152822
4.540682
5.331635
5.174875
5.418658
5.470514
5.017519
5.087852
5.532503
5.731583
5.497932
5.719662
5.860925
5.940795
5.531907
5.756617
5.276799
4.647970
4.788637
4.206896
4.628897
4.075766
3.837943
3.965497
4.116893
3.294945
3.557801
3.384948
3.483891
3.248453
3.364682
3.176928
3.142953
2.887845
##ZVALUE=265
0.947714
0.832677
0.886917
0.666976
0.967979
1.119971
0.756979
0.730753
1.070499
1.119971
1.438856
1.351833
1.418591
1.795888
4.346967
26.850700
73.591471
185.113549
306.950808
510.467887
649.386644
748.568773
819.810033
802.114606
695.799589
590.441823
426.307917
301.701427
168.110728
104.267001
70.812702
61.362982
74.246526
100.159645
120.875835
137.898922
143.693686
135.978460
123.254657
99.113584
76.931715
50.852895
35.716891
19.773841
12.751818
8.153915
6.121993
5.536675
5.947948
5.144477
5.264878
5.649924
5.251765
5.353689
5.737543
5.439520
5.516410
5.330443
4.927516
5.307794
4.997849
5.508661
5.254745
4.922748
5.323887
5.307794
5.206466
5.209446
5.501509
5.375743
5.156994
6.189942
5.592704
5.765557
5.790591
5.492568
5.551577
4.963875
4.934669
4.793406
4.430413
4.388690
3.950596
3.851652
3.733635
3.813505
3.504753
3.232956
3.388524
3.056526
3.114939
3.280640
3.102422
2.935529
3.292561
3.220439
##ZVALUE=270
0.930429
0.993609
0.852942
0.875592
0.794530
0.924468
0.945926
0.844598
1.226664
0.797510
1.186728
0.947714
1.200438
1.354814
1.516938
1.656413
2.132654
10.194778
36.614537
128.962994
244.835615
395.164490
609.241724
737.228990
832.698941
848.163962
786.168575
699.611902
535.832644
396.593809
268.990993
142.869949
86.892843
53.452849
55.246949
77.674985
99.530816
122.907758
138.067603
144.271851
139.106512
122.706890
103.851557
74.101686
54.587722
31.887889
21.875501
13.531446
8.971691
7.125735
5.938411
5.797744
5.929470
5.677938
6.010532
5.658865
6.060600
6.219745
5.879998
5.873442
5.739927
5.387664
5.531907
5.452633
5.706549
5.197525
5.592704
5.189776
5.421638
5.608797
5.583763
5.751848
5.922914
6.184578
5.776882
5.647540
5.966425
5.151629
4.721880
4.787445
4.358888
4.236698
4.130602
3.735423
3.644824
3.408790
3.591776
3.385544
3.370643
3.238916
3.386736
2.992749
3.288984
2.995729
2.855659
3.052950
##ZVALUE=275
0.734925
0.638962
0.760555
0.847578
0.871420
0.787973
0.961423
0.780821
0.917912
1.035929
0.962615
1.052618
1.174808
1.173615
1.055598
1.208782
1.231432
1.227856
1.761913
3.446937
26.245713
76.824427
213.039517
346.096754
482.298732
685.913563
781.551003
851.847529
846.469998
764.974952
651.056767
467.600822
328.762531
179.117918
106.570721
54.930449
44.066906
55.814981
74.148774
101.021528
118.846893
138.146877
142.521858
134.622455
123.414993
95.145702
77.387691
54.044724
36.979914
21.440983
14.218688
9.397864
7.396936
6.059408
6.221533
5.928874
5.490780
6.007552
5.810857
5.980730
5.913973
6.135702
6.178617
6.267428
5.676746
5.577803
5.858541
5.691648
5.557537
5.317926
5.399585
5.369782
5.963445
5.431771
5.574822
5.726814
5.516410
5.217791
5.025864
4.644990
4.672408
4.122853
3.813505
3.825426
3.951788
3.576875
3.434420
3.315806
3.516674
3.255606
3.054738
2.960563
3.200769
2.918839
2.915859
2.889633
##ZVALUE=280
0.731945
0.652671
0.743866
0.636578
0.726581
0.682473
1.015663
0.615716
0.729561
0.687838
0.801682
0.832677
1.128912
1.017451
0.889897
1.020432
1.136661
1.148582
1.611710
1.591444
1.616478
1.921654
12.514591
48.748851
153.056979
261.783600
437.278748
584.322810
737.277865
818.584561
857.398510
812.572837
726.450682
541.349649
398.087502
224.955678
135.215521
63.731670
41.211843
38.157701
51.321983
75.088739
94.176531
118.926764
130.596757
138.345957
133.364797
116.766691
100.692511
72.134733
54.190755
33.538938
23.233891
12.835860
9.439588
6.583929
6.094575
5.696416
6.108880
5.679727
5.741715
5.952716
5.583763
5.683899
6.003976
5.997419
5.441904
5.850792
5.749464
5.392432
5.212426
5.405545
5.503893
5.898476
5.118847
4.772544
4.965663
4.630685
4.543662
4.447699
3.992915
4.059672
3.774762
3.825426
3.375411
3.551841
3.755689
3.415942
3.221631
3.003478
3.313422
3.023744
3.092885
2.952814
2.819896
2.773404
##ZVALUE=285
0.620484
0.627637
0.568628
0.714660
0.619888
0.620484
0.503659
0.677705
0.713468
0.698566
0.785589
0.828505
0.878572
0.892878
0.879765
0.872612
1.072884
0.998974
1.001954
1.038909
1.268983
1.307726
1.615882
1.859665
5.809665
23.563504
83.492994
163.802505
315.872431
463.517904
605.327487
760.651827
840.250850
846.180916
783.065557
626.894832
490.845442
300.473571
189.515948
89.861751
49.468875
28.686523
31.697750
48.159957
68.336725
94.635487
112.293959
128.357410
132.580996
129.354596
117.294788
96.640587
77.252984
52.158833
36.060810
20.871758
13.917685
8.611679
6.664991
5.775690
5.319715
5.180836
5.385876
5.140901
5.157590
5.156994
5.028844
5.187988
5.437732
5.459785
5.384684
5.385876
5.226731
5.050898
4.803538
4.525781
4.409552
4.252791
4.389882
4.191995
3.918409
3.860593
3.736615
3.630519
3.381968
3.247857
3.368855
3.331900
3.012419
3.122687
2.951622
2.536774
2.952814
3.051758
2.697706
2.901554
##ZVALUE=290
0.514984
0.604987
0.626445
0.404716
0.410676
0.366569
0.307560
0.510812
0.508428
0.517964
0.491738
0.494719
0.650883
0.582933
0.676513
0.601411
0.732541
0.536442
0.635982
0.772476
0.829697
0.932813
1.041889
0.974536
1.410842
1.372695
2.074838
8.874536
47.612786
103.813410
220.617652
352.145433
499.900579
687.908530
788.894892
844.336748
821.279883
699.867606
567.588806
373.490453
248.350501
125.843883
65.639615
27.164817
21.199584
30.188560
42.816997
63.732862
83.679557
106.815696
120.778680
129.261613
127.404928
112.100840
94.583631
70.137978
52.201748
32.272935
21.024942
12.250543
8.188486
5.451441
4.811883
4.346967
4.198551
4.331470
4.612803
4.440546
4.283786
4.115701
4.311800
4.503727
4.519820
4.133582
4.458427
4.513860
4.150867
3.585815
3.580451
3.544688
3.353953
3.316998
3.144741
2.867579
2.916455
2.859831
2.811551
2.808571
2.660751
2.774596
2.554655
2.822876
2.608895
2.469420
2.459884
2.401471
##ZVALUE=295
0.218749
0.516772
0.399947
0.605583
0.415444
0.476837
0.454783
0.505447
0.339746
0.538826
0.456572
0.576973
0.284910
0.562668
0.371933
0.516772
0.584722
0.422597
0.600815
0.747442
0.761747
0.845790
0.865459
0.831485
1.076460
0.946522
1.216531
1.225471
1.487732
3.050566
20.565987
60.063601
128.813982
278.963447
416.667461
608.229637
723.157525
818.626881
825.848579
751.810670
636.047721
453.592539
309.677720
159.026980
88.817477
35.250783
19.540787
17.961860
25.105476
40.966868
56.747794
79.585910
97.342730
114.590526
120.691657
117.918849
109.068751
88.822842
71.450472
48.593879
33.869743
19.871593
13.036728
7.065535
5.367994
3.879666
3.510714
3.397465
3.540516
3.449917
3.480911
3.579855
3.235936
3.546476
3.478527
3.572702
3.693700
3.021955
3.274679
3.043413
2.903938
2.742410
2.725720
2.642870
2.799630
2.470613
2.561808
2.675653
2.523661
2.581477
2.207756
2.351999
2.512932
2.090931
2.452731
2.257824
##ZVALUE=300
0.450611
0.451803
0.749826
0.545979
0.558496
0.572801
0.653863
0.571609
0.608563
0.676513
0.545979
0.606775
0.624657
0.709891
0.589490
0.729561
0.805855
0.679493
0.584722
0.771880
0.833869
0.923872
1.060963
0.964999
1.001954
1.050830
1.054406
0.993609
1.351833
1.389980
1.646876
1.747608
5.839467
34.143925
82.619786
193.991661
315.336585
502.028465
636.277795
765.996575
813.629031
782.877803
694.497824
520.418882
381.399989
211.593509
126.606822
56.549907
27.805567
13.786554
14.693737
23.939610
33.993721
54.243803
70.269704
93.426704
106.035471
114.474893
113.257766
102.105737
88.683963
66.558719
50.791502
32.115579
21.458864
11.749864
7.730722
4.693866
3.778934
3.177524
3.228784
3.407598
3.215671
2.922416
3.253818
3.066659
2.958775
3.021955
2.841949
2.615452
2.810955
2.866983
2.958775
2.897978
2.602935
2.571940
2.288818
2.497435
2.251863
2.298951
2.481937
2.311468
2.418756
2.347827
2.377629
2.512932
##ZVALUE=305
0.599623
0.598431
0.485778
0.513792
0.449419
0.436902
0.530481
0.559688
0.626445
0.496507
0.392795
0.737906
0.589490
0.636578
0.508428
0.605583
0.707507
0.619888
0.680685
0.621676
0.847578
0.824928
0.853539
0.720620
0.833869
0.885725
1.025796
0.909567
0.965595
1.008511
1.011491
1.335740
1.170635
1.411438
2.729893
18.532872
51.342845
138.168931
240.121484
411.280990
548.658967
711.296797
786.615610
799.714923
734.245777
576.802492
444.058776
275.182724
171.131492
80.449581
39.552450
15.468597
11.200905
14.448762
21.009445
35.272837
50.518513
70.262551
86.509585
100.539923
107.808709
104.850531
98.798871
82.199574
66.434741
45.971870
31.782985
19.432902
11.998415
6.771684
4.904866
3.712773
3.294945
3.220439
2.953410
2.854466
2.940893
2.710819
2.654791
2.678633
2.517700
2.555847
2.342463
2.364516
2.592802
2.388954
2.504587
2.478957
2.365708
2.399683
2.117753
2.287626
2.215505
2.240539
2.323985
2.270937
##ZVALUE=310
0.623465
0.612736
0.563860
0.552535
0.586510
0.536442
0.802875
0.693798
0.926852
0.633597
0.674725
0.672936
0.912547
0.776649
0.607967
0.739694
0.509620
0.643730
0.635982
0.747442
0.831485
0.800490
0.870824
0.920892
0.912547
1.055598
0.897646
0.867844
1.063943
1.173615
1.256466
1.063943
1.144409
1.269579
1.328588
1.639724
1.701713
7.506609
26.540756
84.769726
160.824656
310.252905
452.109575
630.064011
739.576817
801.533461
777.092576
664.947033
545.958877
361.729860
238.506794
119.165778
66.012740
24.278760
11.692643
9.331703
12.029409
19.294620
28.434992
45.088530
59.433579
79.782605
92.612505
100.912452
101.737976
93.284845
81.776977
63.626766
47.829747
29.457808
19.754767
11.756420
7.580519
4.673600
3.519654
2.909899
2.866983
2.870560
2.414584
2.553463
2.608895
2.317429
2.492666
2.517700
2.511740
2.359748
2.721548
2.497435
2.508759
2.457500
2.376437
2.493858
2.204776
2.364516
2.294779
2.385974
##ZVALUE=315
0.559688
0.426769
0.469685
0.491738
0.499487
0.515580
0.475645
0.581741
0.460744
0.570416
0.551939
0.526905
0.487566
0.571609
0.497699
0.438690
0.529885
0.568628
0.612736
0.561476
0.674725
0.753999
0.652671
0.650883
0.774860
0.748634
0.688434
0.684857
0.811815
0.686646
0.948906
0.812411
0.866652
0.938773
0.949502
0.939965
1.098514
1.433492
1.353621
3.524423
14.120936
56.900978
118.133426
247.439742
378.853679
567.843914
678.949952
773.443580
787.516832
710.538626
601.093769
424.117446
297.146440
157.459974
85.461736
32.246709
14.474988
7.842779
7.648468
11.425614
16.245842
28.225780
39.487481
57.669878
72.001815
87.050796
94.646811
95.584989
90.095997
74.220896
61.058998
43.628812
30.855536
18.091798
11.149645
5.959868
4.353523
3.119707
2.511740
2.464652
2.289414
2.167821
2.102852
2.204776
2.371669
2.280474
2.260804
2.274513
2.105832
2.154708
2.207756
2.068877
2.071857
2.077818
2.157688
2.158880
##ZVALUE=320
0.301600
0.434518
0.386834
0.369549
0.460744
0.209808
0.330806
0.250936
0.210404
0.478625
0.323653
0.477433
0.435710
0.303984
0.382662
0.369549
0.415444
0.512600
0.508428
0.513792
0.370741
0.381470
0.577569
0.458956
0.470877
0.424981
0.562668
0.696778
0.617504
0.556707
0.676513
0.475645
0.382662
0.650883
0.797510
0.716448
0.866652
1.010895
0.864863
1.184940
1.287460
1.815557
6.207824
34.275651
79.720616
184.420943
294.394493
460.860729
585.420728
716.022849
766.326785
740.141869
662.297606
500.591993
363.498926
203.617811
118.340850
50.564408
22.893548
8.948445
6.504655
7.024407
9.218454
14.887452
22.532940
37.369728
49.801469
67.296624
79.234838
89.135766
89.962482
84.239841
74.076653
56.341887
43.009520
27.316809
18.687844
10.331869
6.385446
3.648996
2.668500
2.312660
2.100468
1.969934
1.901984
1.902580
1.974702
1.789927
1.766682
2.009869
2.072453
2.081990
2.108812
1.932979
1.722574
1.926422
##ZVALUE=325
0.421405
0.467896
0.399947
0.456572
0.288486
0.432730
0.362992
0.381470
0.311732
0.347495
0.494719
0.334978
0.605583
0.627637
0.545979
0.519753
0.521541
0.337958
0.559688
0.519753
0.627637
0.517964
0.657439
0.609756
0.571609
0.549555
0.751615
0.598431
0.558496
0.581741
0.600815
0.818968
0.813603
0.764728
0.875592
0.980496
0.878572
0.884533
1.052618
0.928640
0.945926
1.196861
1.315475
1.317859
3.101826
21.389723
53.623915
128.693581
220.363736
384.457707
510.811806
661.417842
730.343461
745.240450
683.599710
532.307625
400.284529
245.098472
148.234963
66.031814
32.315850
11.144876
6.686449
5.646944
6.338954
9.287000
13.360977
23.471713
33.296943
49.936771
62.214732
75.751543
82.103610
84.117651
79.484582
65.269470
53.496957
38.607717
27.058721
15.903711
10.151863
5.643964
3.738999
2.745986
2.383590
2.319813
2.102852
1.957417
1.758933
1.868606
1.981854
1.800656
2.062917
1.861453
1.796484
1.789927
##ZVALUE=330
0.411868
0.470877
0.471473
0.351667
0.494719
0.424981
0.272989
0.464916
0.470877
0.417829
0.502467
0.419617
0.390410
0.609756
0.390410
0.387430
0.662804
0.438690
0.575781
0.510812
0.377893
0.580549
0.604987
0.567436
0.436902
0.622869
0.608563
0.541806
0.677705
0.617504
0.564456
0.474453
0.624657
0.762939
0.627637
0.643730
0.704527
0.782609
0.719428
0.908971
0.960827
0.918508
1.134872
1.050830
1.270771
1.365542
1.791716
8.580685
28.543472
86.595416
159.516931
298.196673
424.640775
582.447648
678.416491
729.398727
696.085691
574.050546
460.137725
296.919942
190.461874
89.124441
45.271516
16.679764
7.957816
5.266666
5.269647
5.912781
7.782578
13.503432
20.145774
32.360554
43.244958
60.102940
69.832802
78.008771
78.534484
71.254969
62.494874
48.179626
36.040545
22.733808
16.036630
9.631515
6.271601
3.502965
2.704859
2.374649
2.061725
1.894832
1.848936
1.767874
1.866817
1.705885
1.657605
1.770854
##ZVALUE=335
0.477433
0.370741
0.383854
0.513792
0.292659
0.377893
0.407696
0.546575
0.404716
0.351667
0.482798
0.360608
0.453591
0.412464
0.396967
0.408888
0.642538
0.511408
0.459552
0.498891
0.542998
0.309944
0.452995
0.615716
0.566840
0.626445
0.466704
0.635982
0.555515
0.481606
0.535846
0.630617
0.515580
0.452995
0.660419
0.649691
0.711679
0.701547
0.686646
0.730753
0.935793
0.841618
0.713468
0.707507
0.955462
0.942945
0.989437
1.258850
1.342893
3.607869
14.288425
55.218935
108.860731
226.919651
347.907543
519.866943
625.166893
703.012943
700.535774
614.711642
510.888696
347.927809
234.846473
122.047663
63.727498
22.654533
9.934902
5.644560
4.976988
4.906654
5.229712
7.539988
11.484623
20.198822
29.881597
43.849945
54.944754
66.901445
72.542429
72.728992
68.372488
56.958795
47.101974
35.073757
25.600791
15.930533
10.620952
5.735755
3.985763
2.842546
2.267957
1.989603
2.026558
1.685619
1.747608
1.853704
##ZVALUE=340
0.381470
0.325441
0.431538
0.366569
0.315905
0.304580
0.233650
0.155568
0.248551
0.169873
0.178814
0.474453
0.333786
0.400543
0.429749
0.546575
0.330806
0.515580
0.380874
0.453591
0.442863
0.518560
0.489950
0.430942
0.287890
0.378489
0.426769
0.305772
0.441670
0.399947
0.447631
0.418425
0.549555
0.567436
0.507832
0.557899
0.584722
0.516772
0.624657
0.456572
0.691414
0.547767
0.650883
0.679493
0.616908
0.703931
0.857711
0.765920
0.858903
0.974536
0.983477
1.835823
6.778836
34.392476
78.432560
180.214643
289.260745
446.767807
559.394956
666.988492
695.866942
645.437837
555.320978
405.811667
283.693671
148.022771
81.803799
33.393502
14.023781
5.714893
4.765987
4.748702
4.599690
5.183816
7.055998
11.824965
17.862916
29.084682
38.920641
52.579641
61.688423
67.486763
67.984462
63.513517
56.414604
44.031739
34.601688
23.579597
16.757846
10.117888
6.388426
3.660917
2.537966
2.015829
1.780987
1.615882
##ZVALUE=345
0.262856
0.101924
0.267625
0.192523
0.285506
0.134706
0.364780
0.188947
0.157952
0.374913
0.225902
0.174642
0.186563
0.366569
0.276566
0.285506
0.346899
0.256896
0.293851
0.547767
0.340939
0.297427
0.392795
0.370741
0.441670
0.553727
0.466704
0.314713
0.485778
0.407696
0.253916
0.317693
0.336766
0.379682
0.655651
0.451803
0.512600
0.328422
0.409484
0.472665
0.482798
0.448823
0.554919
0.398755
0.615716
0.482798
0.735521
0.571609
0.657439
0.725985
0.849962
0.780821
0.936985
1.187921
3.023744
19.587874
50.464869
124.683976
211.301446
359.121561
475.266576
612.292886
668.592453
660.187006
596.288443
452.630520
337.468982
199.232697
112.868547
44.923425
20.256639
7.714629
5.173683
4.540682
4.001856
3.893971
4.380941
6.577969
9.529591
17.213821
24.793744
37.484765
46.253800
55.308938
61.158538
62.728524
60.237646
52.717924
45.112967
33.927560
24.549961
15.274882
10.319948
5.719662
3.738999
2.745986
##ZVALUE=350
0.295639
0.374913
0.379682
0.418425
0.358820
0.405908
0.407696
0.489950
0.324845
0.337958
0.606775
0.509620
0.530481
0.312924
0.331998
0.442863
0.469685
0.429749
0.476837
0.328422
0.393987
0.382662
0.593662
0.466704
0.450611
0.479817
0.479817
0.577569
0.600815
0.444651
0.466704
0.595450
0.503659
0.706911
0.537634
0.510812
0.478625
0.572801
0.541806
0.548959
0.665784
0.681877
0.670552
0.618696
0.583529
0.691414
0.692606
0.666976
0.760555
0.704527
0.805855
0.755787
0.908971
0.952482
0.999570
1.186728
1.730919
9.872913
30.615926
85.199475
154.299736
289.932489
404.933691
541.964769
623.978972
656.690598
616.455674
504.366755
386.383533
230.226517
140.889883
64.959526
30.204654
9.660721
5.609989
4.271865
3.834963
3.457665
3.487468
4.351735
5.863905
9.925961
14.571548
22.902489
30.780435
41.880608
49.327612
55.967569
57.528615
55.250525
50.374866
40.919781
32.714605
22.611618
16.226768
10.113716
##ZVALUE=355
0.511408
0.394583
0.381470
0.446439
0.487566
0.380874
0.357628
0.332594
0.309944
0.488758
0.203848
0.428557
0.163913
0.411868
0.578761
0.491738
0.528693
0.659823
0.530481
0.401735
0.549555
0.489950
0.423789
0.452995
0.483990
0.450611
0.450611
0.487566
0.475645
0.549555
0.443459
0.589490
0.430942
0.506639
0.501871
0.424981
0.393987
0.527501
0.534654
0.542998
0.545979
0.659823
0.622869
0.634789
0.615716
0.468493
0.589490
0.674725
0.764728
0.694990
0.572801
0.739694
0.807643
0.834465
0.841618
0.836849
0.880957
1.050830
1.278520
4.769564
16.400814
57.941675
111.388564
219.957829
327.216983
476.274490
575.704575
639.173985
626.484752
527.220964
421.016812
274.674892
173.874497
77.187419
36.889911
12.113452
5.942583
4.357696
3.804564
3.387928
3.210902
3.304482
3.813505
5.563498
7.690787
13.001561
18.550754
27.828813
35.490990
43.797493
49.430728
52.131414
51.409602
46.676993
40.816665
31.081438
##ZVALUE=360
0.416636
0.431538
0.553727
0.449419
0.609756
0.343919
0.383854
0.396967
0.383854
0.470877
0.365973
0.438690
0.435710
0.615716
0.489950
0.539422
0.407696
0.371933
0.276566
0.597835
0.353456
0.495911
0.500679
0.555515
0.488758
0.452995
0.670552
0.585914
0.558496
0.534654
0.480413
0.509620
0.574589
0.529885
0.534654
0.534654
0.471473
0.456572
0.461936
0.550747
0.559688
0.497699
0.392795
0.553727
0.604987
0.462532
0.700951
0.655651
0.750422
0.729561
0.630617
0.747442
0.859499
0.730753
0.774860
0.898838
0.980496
0.986457
0.963807
1.124740
1.189709
2.068877
7.559657
32.102466
71.995854
163.470507
260.878801
402.780771
509.347916
608.111620
626.235604
568.939447
476.110578
320.462584
212.083459
103.092790
53.463578
19.666553
8.277893
4.247427
3.692508
3.537536
3.483891
3.076792
3.046989
3.493428
4.092455
6.325841
9.267926
15.176535
21.436810
30.111670
36.889911
44.062734
46.836734
46.982765
##ZVALUE=365
0.302792
0.355840
0.373721
0.442863
0.462532
0.409484
0.346899
0.285506
0.418425
0.538826
0.426769
0.420809
0.510812
0.428557
0.466704
0.655651
0.559688
0.508428
0.404716
0.436902
0.352859
0.354648
0.456572
0.593662
0.394583
0.470877
0.449419
0.346899
0.444651
0.481606
0.355840
0.481606
0.365973
0.510812
0.440478
0.511408
0.549555
0.378489
0.456572
0.608563
0.566840
0.521541
0.402927
0.603795
0.646710
0.488758
0.525713
0.620484
0.618696
0.729561
0.594854
0.626445
0.562668
0.641942
0.756979
0.728965
0.675917
0.819564
0.948906
0.964999
0.949502
1.068711
1.145601
1.465678
3.340840
19.447803
48.629642
115.589499
199.145675
341.122746
449.087620
551.697016
600.695610
575.282574
498.470664
359.243751
252.452493
138.091445
74.954629
27.319789
11.546612
4.728436
3.754497
3.447533
3.290772
3.055930
2.722740
2.563596
2.934933
3.548861
4.971623
8.540750
12.405515
19.386411
25.461912
32.986999
##ZVALUE=370
0.382662
0.464916
0.258684
0.354648
0.443459
0.480413
0.325441
0.454783
0.351667
0.390410
0.413656
0.496507
0.329614
0.529885
0.404716
0.413656
0.298619
0.545979
0.350475
0.543594
0.422597
0.521541
0.484586
0.417829
0.477433
0.437498
0.508428
0.696778
0.526905
0.550747
0.490546
0.590682
0.506639
0.602603
0.479817
0.517964
0.608563
0.673532
0.592470
0.407696
0.713468
0.526905
0.528693
0.555515
0.531673
0.607967
0.565648
0.653863
0.454783
0.514984
0.673532
0.469685
0.761747
0.653863
0.632405
0.583529
0.652671
0.732541
0.930429
0.715852
0.802875
0.792742
0.853539
1.099706
0.868440
1.229644
1.864433
9.665489
29.610991
85.553527
150.020719
268.168449
376.380682
507.556796
567.435622
574.616790
521.366596
404.464602
294.572711
163.444877
92.746615
36.476851
17.162561
6.420612
4.170537
3.363490
3.127456
2.797842
2.728701
2.584457
2.381802
2.754927
3.116727
4.615784
6.619692
11.062622
##ZVALUE=375
0.370741
0.345707
0.394583
0.419617
0.386834
0.377893
0.374913
0.369549
0.334978
0.392795
0.342727
0.326633
0.291467
0.347495
0.351667
0.304580
0.356436
0.320673
0.347495
0.447631
0.291467
0.382662
0.330806
0.332594
0.430942
0.336766
0.358820
0.436902
0.407696
0.578761
0.349879
0.417829
0.421405
0.352859
0.531673
0.427961
0.515580
0.262856
0.411868
0.430942
0.359416
0.534654
0.510812
0.434518
0.586510
0.366569
0.663996
0.654459
0.495911
0.424981
0.496507
0.604987
0.494719
0.549555
0.719428
0.582933
0.598431
0.633597
0.694990
0.552535
0.666976
0.695586
0.744462
0.797510
0.826716
0.840425
0.975728
1.105666
1.150966
4.778504
16.560555
53.359866
105.984807
217.559934
324.316621
462.960601
543.702841
586.666465
562.414527
455.563664
349.382758
210.927725
131.622553
65.017939
31.896830
10.662675
4.941821
3.181696
3.199577
2.725720
2.526641
2.563000
2.358556
2.163649
2.352595
2.643466
##ZVALUE=380
0.283718
0.389814
0.309944
0.481606
0.330806
0.294447
0.302792
0.356436
0.419617
0.489950
0.289679
0.299811
0.427961
0.428557
0.401735
0.502467
0.426769
0.367761
0.303984
0.181794
0.383854
0.479817
0.375509
0.343919
0.522733
0.430942
0.340939
0.441670
0.550747
0.411868
0.339746
0.421405
0.539422
0.471473
0.531673
0.313520
0.415444
0.362992
0.662804
0.512600
0.541806
0.492930
0.528693
0.567436
0.585914
0.582933
0.348687
0.475645
0.397563
0.552535
0.582933
0.599623
0.418425
0.518560
0.566840
0.569820
0.659823
0.581741
0.604987
0.587702
0.529885
0.696778
0.579953
0.617504
0.611544
0.842810
0.822544
0.828505
1.046658
1.061559
1.103878
2.185702
8.946657
39.151907
82.233548
177.281499
273.293853
409.966707
504.242778
576.038957
575.767756
494.288802
400.303602
267.406702
178.106427
87.146759
45.669675
16.228557
7.159710
3.610849
2.901554
2.709627
2.624989
2.462864
2.598763
2.359748
##ZVALUE=385
0.284910
0.363588
0.377893
0.444651
0.396967
0.322461
0.347495
0.448823
0.302792
0.252724
0.225902
0.359416
0.466704
0.431538
0.407696
0.403523
0.375509
0.385642
0.504851
0.158548
0.409484
0.379682
0.241995
0.430942
0.314713
0.446439
0.409484
0.363588
0.590682
0.400543
0.466704
0.405908
0.363588
0.385642
0.378489
0.457764
0.372529
0.531673
0.375509
0.407696
0.542998
0.582933
0.505447
0.547767
0.404716
0.393987
0.456572
0.457764
0.485778
0.484586
0.438690
0.489950
0.599623
0.450611
0.510812
0.526905
0.710487
0.674725
0.449419
0.509620
0.631809
0.658631
0.568628
0.692606
0.743866
0.705719
0.834465
0.739694
0.955462
0.806451
0.953674
1.011491
1.048446
1.224875
5.399585
17.606616
58.357716
116.656423
230.751634
332.762599
467.081666
535.236597
565.399528
542.714000
443.495512
346.773863
216.744542
136.841536
62.025785
30.762553
10.801554
4.616976
3.073812
2.690554
2.608895
2.736449
##ZVALUE=390
0.350475
0.297427
0.376701
0.287890
0.360608
0.440478
0.351667
0.349879
0.344515
0.467896
0.428557
0.342727
0.475645
0.418425
0.404716
0.231862
0.304580
0.264645
0.431538
0.401735
0.455976
0.150800
0.413656
0.364780
0.484586
0.418425
0.433922
0.413656
0.400543
0.312924
0.530481
0.412464
0.396967
0.488758
0.540614
0.401735
0.485778
0.276566
0.386834
0.290871
0.382662
0.516772
0.539422
0.373721
0.450611
0.325441
0.482798
0.550747
0.560880
0.402927
0.501871
0.560880
0.589490
0.407696
0.463724
0.550747
0.438690
0.579953
0.503659
0.729561
0.459552
0.536442
0.585914
0.490546
0.633597
0.547767
0.677705
0.618696
0.826716
0.979900
0.865459
1.087785
1.018643
0.798702
0.991821
1.151562
2.186894
12.816787
37.451982
100.122690
176.443458
309.153795
405.726433
512.487888
562.123656
565.665960
512.050986
397.142768
300.676823
178.356767
102.177858
41.999817
19.690990
6.745458
3.491640
2.783537
##ZVALUE=395
0.318885
0.446439
0.371933
0.434518
0.398755
0.470877
0.555515
0.381470
0.438690
0.435710
0.489950
0.302792
0.486970
0.433922
0.281930
0.313520
0.354648
0.293851
0.440478
0.396967
0.383854
0.350475
0.372529
0.534654
0.443459
0.482798
0.411868
0.476837
0.424981
0.330806
0.464916
0.551939
0.425577
0.465512
0.450611
0.465512
0.520945
0.608563
0.517964
0.357628
0.498891
0.566840
0.510812
0.441670
0.544786
0.553727
0.534654
0.374913
0.600815
0.580549
0.553727
0.531673
0.505447
0.614524
0.614524
0.627637
0.634789
0.493526
0.441670
0.506639
0.545979
0.494719
0.577569
0.579953
0.636578
0.577569
0.608563
0.777841
0.884533
0.712872
0.798702
0.783801
0.920892
0.838637
0.858903
1.011491
0.865459
1.139641
1.377463
7.327795
24.252534
73.021650
130.005479
233.108401
333.975554
465.135574
544.262528
586.139560
564.138889
470.972657
365.956426
224.680901
137.558579
59.472919
28.400421
10.032654
##ZVALUE=400
0.416636
0.528693
0.538826
0.334978
0.330806
0.438690
0.467896
0.357628
0.358820
0.436902
0.328422
0.346899
0.291467
0.349879
0.350475
0.331998
0.337958
0.449419
0.367761
0.348687
0.327826
0.254512
0.387430
0.468493
0.347495
0.427961
0.530481
0.384450
0.356436
0.586510
0.347495
0.398755
0.693798
0.497699
0.365973
0.400543
0.352859
0.553727
0.462532
0.364780
0.440478
0.468493
0.614524
0.404716
0.544786
0.604987
0.443459
0.436902
0.442863
0.430942
0.517964
0.479817
0.473857
0.462532
0.537634
0.567436
0.460744
0.571609
0.602603
0.561476
0.514984
0.509620
0.572801
0.738502
0.593662
0.604987
0.495911
0.742674
0.673532
0.676513
0.696778
0.833869
0.892878
0.765920
0.827909
0.812411
0.797510
0.753999
0.876784
0.873804
1.162887
3.603697
13.069510
43.446422
86.559653
178.778768
272.248983
405.367017
490.775704
555.770993
553.067923
478.513837
387.808681
254.401565
166.711807
83.469748
##END
