##TITLE=FDDW02
##FORMAT=SPECTACLE-ASCII V-1.2
##DATA TYPE=ULTRAVIOLET SPECTRUM
##SECOND TYPE=ULTRAVIOLET SPECTRUM
##DATE=03/05/18
##TIME=12:29:11
##SPECTROMETER/DATA SYSTEM=SPECTACLE
##XUNITS=NM EM
##YUNITS=ENERGY
##YFACTOR=1
##FIRSTX=220
##LASTX=410
##NPOINTS=96
##3DDATA=Equidistant
##ZUNITS=NM EX
##FIRSTZ=210
##LASTZ=400
##ZPOINTS=39
##XYDATA=(Y..Y)
##ZVALUE=210
14.576912
16.297698
11.773705
11.006594
9.615421
9.670854
10.267496
8.098483
6.517768
5.411506
3.691912
2.601743
3.156662
2.471805
1.970530
1.809597
1.938939
2.638698
2.547503
2.401471
2.572536
2.640486
3.375411
4.345775
5.392432
7.149577
8.918643
13.436675
17.391443
19.352436
23.241639
26.144981
29.670000
32.355785
32.360554
35.089850
34.019947
35.816431
35.636425
34.164786
32.473803
29.576421
29.633641
25.682449
23.063421
23.629665
21.776557
20.529628
19.153953
16.854405
17.203689
15.628934
15.406609
13.566613
12.389421
10.885596
11.529922
11.417866
11.715889
9.977818
9.558797
9.582639
9.329915
8.864999
8.716583
8.378625
8.476973
7.101893
8.036494
8.924603
8.820891
9.719729
10.873675
11.588931
11.248589
11.038780
11.673570
11.688471
10.165572
9.501576
8.698702
8.754730
7.405877
6.670952
6.281734
4.797578
5.143881
5.241632
5.883574
7.254481
9.632707
13.798475
17.296672
22.412539
25.492907
31.953454
##ZVALUE=215
46.074986
42.408705
33.184886
30.279756
23.265481
19.477606
17.097592
17.999411
15.951991
14.578700
11.023879
9.042621
7.249713
4.755855
3.879666
3.144741
2.421737
2.592802
2.627969
2.797842
2.969503
3.110766
3.526807
3.766418
5.750656
6.964803
10.922551
14.393926
19.204617
22.937655
26.415586
33.246875
33.274889
37.934780
39.347410
42.256713
43.262839
42.905807
40.653944
36.764741
39.807558
37.034750
34.030676
31.803846
31.773448
28.283596
26.525855
23.361444
22.553802
19.238591
18.778443
17.732978
16.978979
16.073585
15.400648
15.124679
13.722777
12.799501
13.111830
11.895895
11.635423
12.105703
11.162758
9.650588
9.175539
8.726716
8.629560
9.721518
9.484887
9.347796
9.311438
10.543466
10.483861
11.267662
11.182427
11.581779
11.100769
11.465549
10.587573
10.571480
9.791851
8.273721
6.190538
7.382631
7.227659
5.971789
4.764795
5.687475
4.706979
4.675984
4.696846
4.688501
5.376935
6.757975
8.918643
12.167692
##ZVALUE=220
104.466677
103.455782
98.930001
81.184506
62.512755
47.802925
37.868619
31.766891
27.432442
27.509928
26.346445
25.747418
22.726655
20.501614
14.193654
10.288954
6.402731
5.132556
4.634857
3.438592
3.260970
3.821850
3.706813
4.151464
5.830526
8.416772
11.291504
16.802549
22.002459
25.236607
32.194853
38.598776
39.224625
45.785904
47.057867
48.287511
49.175620
50.962567
46.367645
45.703650
45.800805
43.538809
39.519668
38.241744
35.456419
34.194589
29.987693
27.980804
25.982857
25.412440
23.215413
21.161437
19.777417
17.835498
17.953515
17.834902
15.609860
16.190410
14.598966
14.198422
12.196898
13.267994
12.041926
11.833906
11.155605
10.630488
10.668635
10.881424
10.389686
10.448694
12.003779
12.645721
11.173487
12.377501
13.762712
11.954904
11.675954
12.146831
10.539889
11.009574
10.052919
9.252429
8.948445
7.223487
6.749630
5.738735
5.882978
5.035996
5.232692
5.462766
4.938841
4.634857
4.514456
5.115867
4.682541
5.220771
##ZVALUE=225
143.328905
164.204836
167.716742
177.919865
168.602467
128.873587
118.734837
66.159964
66.880584
43.299794
42.188764
39.909482
41.839480
43.675900
38.856864
33.476949
27.220845
19.289851
10.426641
9.400845
4.984736
4.281998
4.061460
5.107522
5.477667
8.722544
13.142824
15.512705
21.685958
23.781657
30.755997
32.917857
39.364696
39.198995
43.709874
43.562651
46.044588
44.493675
42.089820
44.317842
41.336417
38.026571
38.059950
38.203001
32.658577
32.011867
28.895736
27.480721
24.952888
23.596883
22.935867
20.525455
20.439625
18.624663
18.309951
17.862916
16.925931
16.146898
14.936924
15.391707
13.500452
13.215542
13.008714
12.162924
12.855530
11.245608
10.455847
10.607839
11.566877
11.234879
11.951923
13.177991
13.074875
12.125969
13.337731
12.114644
12.302995
11.382699
10.816455
9.858608
9.713769
8.002520
8.680820
8.185506
7.324815
6.563663
6.654859
5.581975
6.404519
6.233454
5.960464
5.291700
4.900694
5.397797
5.466938
4.955530
##ZVALUE=230
100.820661
109.720826
151.821971
223.623514
254.659653
282.486677
272.071958
247.194767
208.147764
165.697932
108.237863
81.922412
65.332651
59.418678
60.164928
64.256787
63.979626
60.883760
50.204992
42.593479
31.459928
19.638538
12.328625
7.972717
7.003546
7.506609
8.423924
10.983944
12.499690
15.519857
18.907785
23.377538
24.918914
27.721524
27.078986
28.496981
30.759573
29.929876
29.258728
29.706955
28.856993
27.525425
25.715828
24.422407
24.557710
23.511648
22.920966
19.046664
21.430850
19.178987
18.617511
17.420650
17.971992
16.579628
16.635656
15.518665
16.410947
13.692975
12.629628
13.970733
12.911558
12.438893
11.101961
12.625456
11.934638
11.855960
11.962652
11.053681
11.680722
11.823773
11.548996
12.286901
13.063550
12.455583
13.327599
13.759732
11.529922
12.115836
12.145638
10.674000
9.754896
8.187890
8.856654
7.633567
8.288622
8.309484
6.770492
6.080866
5.640984
5.487800
7.143617
6.330609
6.084442
5.818605
5.805492
5.104542
##ZVALUE=235
25.034547
27.794838
57.337880
128.102899
197.730660
292.759538
362.255573
427.152514
439.939499
409.542918
340.796709
267.724991
175.604820
130.355954
98.276734
82.302690
87.083578
89.995861
100.245476
94.445944
87.534785
68.736672
55.535436
36.925673
26.012659
16.116500
11.102557
8.961558
9.078979
10.363460
12.233853
12.755990
13.653636
14.750957
15.178919
15.624762
17.482638
17.079711
17.140508
17.096996
16.332865
18.450618
16.380548
16.016960
16.481876
14.443994
15.607476
13.208985
14.463663
14.736652
13.528466
13.027787
13.225675
12.783408
14.053583
13.276935
12.762547
11.942983
12.907982
12.193918
11.802912
11.706948
11.720657
10.888577
11.665821
11.108518
9.492636
11.519790
11.129975
12.408495
11.542439
12.273788
13.538599
12.901425
13.075471
12.530684
13.129711
12.722611
12.801886
10.790825
9.797812
10.885000
8.188486
9.430647
8.544922
7.610917
8.295774
7.235408
7.722974
6.335974
6.379485
6.419420
6.533861
6.698966
6.332994
6.956458
##ZVALUE=240
2.371669
1.884699
9.458661
21.829605
60.493946
110.726953
213.632584
314.232707
450.299978
523.058772
556.399822
536.103845
473.025441
357.241631
262.800455
173.606873
133.598447
96.220970
90.688467
105.830431
111.129880
116.053820
112.125874
98.002553
79.929829
61.207414
42.706728
29.455423
18.693805
14.851689
10.287762
8.729696
9.617805
10.086894
9.715557
10.715723
11.159778
10.767579
11.534691
12.641549
11.555552
13.078451
11.478662
12.523532
11.806488
12.390614
11.861920
11.498928
12.080669
11.744499
10.780692
11.184812
11.119843
11.301637
11.005998
10.800958
10.042787
11.047721
10.233521
9.682775
10.606647
11.172891
10.325909
9.536743
9.610653
9.843707
9.295940
9.776950
9.987950
10.209680
10.852814
11.546612
11.450648
12.149811
13.368726
12.650490
10.922551
10.661483
11.516809
9.942651
9.279847
8.904934
7.269979
8.513927
7.494688
8.479953
8.144975
7.803440
7.301569
6.048679
7.365942
7.235408
6.788969
7.339716
7.206798
6.588697
##ZVALUE=245
1.412630
1.479983
2.183914
1.144409
4.832745
13.569593
42.673945
91.765523
201.807618
301.954746
462.939739
556.812882
615.387559
621.752739
574.305654
453.344584
360.026956
238.220692
169.546008
113.343000
93.050599
96.084476
113.718510
122.295618
123.729706
121.564865
108.021498
91.980696
68.159699
52.238703
37.910938
23.517609
17.088652
12.594461
12.390614
11.774898
12.633801
11.667609
11.698604
13.529658
13.455749
12.950897
13.266802
12.871623
12.795925
12.017488
12.738705
12.386441
10.981560
11.822581
10.834932
11.425614
11.461973
11.537671
10.475516
10.131598
9.130836
9.818673
9.185672
9.564757
9.631515
9.125471
9.561777
9.018779
9.041429
7.633567
9.039640
8.954406
8.646846
9.692907
9.431839
9.620786
10.704994
11.175871
10.530949
10.705590
10.670424
10.450482
9.937882
9.317994
9.106994
8.181930
8.540750
7.759929
7.479787
7.330775
7.206798
6.697774
6.195903
6.095767
6.718636
6.595850
5.967617
6.584525
6.349683
6.818771
##ZVALUE=250
1.421571
1.366735
1.649857
1.577735
1.523495
1.562834
2.912879
8.513927
35.593510
75.441599
177.015662
281.093717
404.379964
569.271445
659.628510
699.948668
678.840876
571.712852
469.003916
321.167707
215.290785
148.482919
97.412467
88.688731
100.842714
117.686987
128.448606
132.727623
129.822493
122.205615
104.800463
82.398653
61.333776
39.568543
28.507710
22.335649
18.412471
16.776919
16.419888
16.841888
16.606450
16.390681
17.054677
16.077757
15.854836
15.416741
15.115738
14.590621
14.007688
13.195872
12.824535
12.091994
11.903644
12.970567
11.153817
12.103915
11.741519
11.062622
10.633469
9.906888
10.583997
9.468794
8.897781
9.565949
8.947849
8.913875
9.105802
8.965731
8.720756
8.567572
8.691549
10.134578
9.773970
10.101795
9.425879
9.754896
9.026527
9.194613
9.266734
8.085966
7.718801
7.890463
7.681847
6.610751
6.507635
6.996989
6.748438
5.834699
5.656481
6.717443
6.177425
5.670786
6.060600
5.464554
5.939603
6.058812
##ZVALUE=255
1.317859
1.447797
1.389980
1.221895
1.386404
1.496673
1.615882
1.684427
2.217889
5.491972
25.243759
58.170557
113.998652
240.140557
368.696451
545.786619
666.218996
744.675994
757.499933
687.249899
572.868586
443.998575
277.788639
181.016922
105.295777
85.999966
87.350607
99.558830
128.156543
139.600635
147.116780
146.437883
135.376453
112.773776
91.712475
67.948699
51.713586
36.328435
28.511882
25.146604
22.546649
23.143888
22.834539
20.654798
20.659566
21.068454
19.245744
17.834902
17.271638
16.948581
16.318560
14.983416
14.393926
13.644695
13.891459
11.614561
12.815595
12.249947
11.727810
11.768937
10.406971
11.404753
10.209680
9.191632
10.483861
9.640455
9.377599
8.469820
9.050965
9.838939
9.547472
9.259582
9.777546
9.180903
9.039640
9.258986
8.922815
8.161664
8.257627
7.254481
7.671714
6.995797
6.436706
6.042719
5.878806
5.934834
5.603433
5.550981
5.343556
5.455613
5.178452
5.390644
5.099773
5.644560
5.317926
5.029440
##ZVALUE=260
1.046658
1.262426
1.068711
1.185536
1.279712
1.189709
1.156926
1.409650
1.529455
1.777411
1.673698
2.776980
9.895563
37.270784
81.310868
190.562606
309.122801
491.091013
632.817745
781.236887
832.594037
802.670717
678.118467
545.088649
358.702540
247.824788
148.772001
101.842880
81.709623
90.428591
108.344555
138.923526
157.014728
165.116787
164.903998
150.021911
131.388903
100.410581
81.195831
58.832765
49.704909
35.977960
31.565428
28.814673
25.994778
25.339723
25.026798
23.507476
23.059845
20.286441
20.020604
18.893480
18.103719
17.428994
16.304851
15.206933
14.574528
13.949871
13.765693
12.871623
12.577772
12.585521
11.267662
11.325479
10.189414
10.549426
10.879636
10.577440
9.638667
9.591579
10.021925
9.658933
10.083914
9.540915
9.325743
9.565949
8.275509
8.605719
8.154511
7.881522
7.727742
6.945729
6.610751
6.626844
5.743504
6.253719
5.985498
5.981922
5.407929
5.208850
4.866719
5.585551
4.853606
5.293489
5.564690
4.992485
##ZVALUE=265
1.117587
1.165867
1.086593
0.896454
1.106858
1.293421
1.131892
1.445413
1.083612
1.347661
1.528859
1.444817
1.723766
2.089739
5.651712
27.733445
63.128471
149.182677
261.919498
465.304852
617.000461
753.867030
865.786672
872.313976
759.130716
642.681718
474.820733
333.954692
193.997622
131.289959
89.015961
84.587932
101.508498
132.991672
151.736736
176.699758
180.485845
172.779560
160.028934
134.570003
110.393763
82.417727
66.810846
48.877001
39.463639
33.241510
30.636787
27.240515
27.187467
25.003552
23.207664
21.341443
20.093918
19.476414
18.402934
17.788410
16.234517
15.069842
15.158653
14.513731
13.597608
13.398528
12.047887
11.758804
11.802912
11.382699
10.431409
10.587573
10.871887
10.286570
10.232925
10.712743
9.428859
9.483695
10.048747
9.138584
9.199977
8.571744
8.033514
7.990599
7.457733
7.463694
6.821752
6.263852
6.039739
5.926490
6.018877
5.208850
5.544424
5.638599
4.863739
5.158782
4.827976
4.774928
4.873872
4.933476
##ZVALUE=270
0.909567
0.821948
0.978708
0.840425
0.982881
1.082420
1.397729
1.049638
1.364946
1.006722
0.995994
1.269579
1.419783
1.454949
1.690984
1.545548
3.120899
10.937452
43.700933
98.138452
190.067887
376.654863
543.698668
747.444034
868.033767
911.396742
873.239636
742.025971
613.521934
423.987508
296.105742
167.240500
111.010671
83.023906
87.142587
111.522675
133.545995
161.903501
175.998807
183.307528
176.232457
156.096816
137.352943
106.256604
83.132982
60.263872
47.733784
35.722852
31.518936
27.344823
25.434494
24.052858
22.666454
20.327568
19.399524
18.515587
17.342567
17.320514
15.570521
14.940500
14.586449
13.144612
13.116598
13.110638
11.493564
12.146831
11.827946
11.464953
10.496974
10.781884
10.538697
10.499954
10.445714
9.766817
9.321570
9.388924
9.035468
8.308887
8.169413
7.917881
7.199645
6.941557
6.465912
6.475449
6.273985
5.851984
5.811453
5.534887
5.544424
5.151629
4.858971
5.711913
4.672408
4.813671
4.683733
4.875660
##ZVALUE=275
0.838637
0.935793
0.979900
0.928640
0.929832
1.005530
0.906587
1.001954
1.077652
1.045465
0.951886
0.989437
1.159906
1.333952
1.148582
1.292825
1.543760
1.770854
2.083778
4.688501
25.662780
64.872503
171.979666
295.166969
437.777638
662.593842
804.871917
911.074877
918.202996
835.579634
716.992021
521.253943
378.044844
218.493938
138.204694
82.866549
71.026683
83.755851
102.016926
130.042434
149.948001
167.021751
170.489550
163.629651
152.383447
122.557878
103.602409
75.212717
58.614612
39.923787
30.754805
23.128986
21.595955
18.874407
17.957687
17.367601
16.497970
15.344620
14.418960
14.084578
13.816953
13.235807
12.896657
12.257695
11.856556
11.083484
11.066794
10.991693
11.176467
10.262728
10.182858
10.172725
9.668469
9.557605
8.979440
9.395480
9.039640
8.657575
8.494854
7.641912
7.705688
6.986856
6.347895
6.476641
5.996823
6.233454
5.845428
5.933642
5.354881
5.198717
5.104542
4.840493
4.467964
4.793406
4.447699
4.563928
##ZVALUE=280
0.689626
0.793934
0.779629
0.906587
0.738502
0.771880
0.900626
0.929832
1.148582
0.947714
0.836849
1.016855
1.003742
1.059771
1.306534
1.180768
1.326799
1.384616
1.514554
1.702905
1.905560
2.389550
12.983680
43.887496
125.695467
222.840905
389.066935
549.414754
749.400854
858.790874
921.084881
891.832709
761.238933
618.912578
412.786007
273.762941
144.937634
86.948872
53.681731
51.564574
68.577528
87.818503
115.840435
135.380626
152.499676
155.353546
150.019526
137.575865
111.222863
89.743733
63.224435
47.653913
31.530857
23.958683
17.471910
14.820695
13.813972
13.014674
12.886524
12.868643
12.335777
11.841655
11.274815
11.313558
11.029840
10.652542
10.381937
10.013580
10.528564
10.092854
10.025501
9.685755
9.568930
9.012818
9.119511
9.141564
8.282661
8.170605
7.830858
7.223487
7.460713
6.995797
6.446838
6.180406
6.189942
6.010532
5.468726
5.607605
5.546808
5.354881
4.936457
4.691482
4.724860
4.821420
4.474521
4.711747
##ZVALUE=285
0.826716
0.807643
0.891685
0.672936
0.652671
0.885725
0.966787
0.863671
0.786781
0.853539
1.011491
0.870824
1.033545
1.048446
1.164675
1.227856
1.002550
1.330972
1.226664
1.139641
1.299977
1.358986
1.505613
1.957417
6.940961
23.748875
72.185397
141.792893
289.216638
428.702831
575.145483
773.235559
877.365470
910.233855
849.447846
685.219765
538.970828
335.201025
209.785700
103.339553
58.149695
36.040545
39.029717
55.654645
74.250698
103.687644
121.519566
137.243867
143.410563
140.916705
129.972696
105.610490
86.153746
60.466528
43.688416
27.742982
19.207597
14.212728
11.989474
10.198951
9.927750
9.773970
9.908676
9.892583
9.612441
9.406805
9.299517
9.446740
9.105802
8.917451
9.374619
8.768439
8.613467
8.402467
8.450747
8.221865
7.750988
7.618666
7.175803
6.776452
6.647706
6.176829
6.815791
5.838871
5.825758
5.969405
5.721450
5.402565
4.907846
5.292892
4.823804
5.110502
4.995465
4.715919
4.443526
4.648566
##ZVALUE=290
0.729561
0.783801
0.661612
0.817776
0.766516
0.639558
0.706911
0.753999
0.840425
0.577569
0.853539
0.864863
0.937581
0.870824
0.895858
0.955462
1.037717
1.010895
1.163483
1.190901
1.285672
1.168847
1.268983
1.277924
1.444817
1.692772
2.707839
10.330677
43.760538
92.743635
201.412439
331.373811
490.996838
707.712770
830.806494
910.103917
889.516473
756.109953
614.737868
411.906838
271.871686
137.548447
73.303580
32.785535
25.415421
35.175681
48.058629
70.662498
88.640451
113.374591
128.126740
136.792660
135.535598
120.603442
103.719831
77.624917
58.028698
37.926435
26.101470
16.952753
12.748837
9.474754
8.394718
8.044839
7.851720
7.917881
7.788539
7.450581
8.071661
7.572770
7.991791
7.670522
7.710457
7.577538
7.195473
7.382631
7.061958
6.805658
6.767511
6.542802
6.099939
6.014705
5.819798
5.664825
5.366802
5.517602
5.337000
5.022883
5.183816
4.833937
4.505515
4.544854
4.674792
4.371405
4.276633
4.342794
##ZVALUE=295
0.640750
0.845790
0.683665
0.684857
0.822544
0.814795
0.816584
0.834465
0.723600
0.890493
0.822544
0.842810
0.890493
0.873804
0.870824
0.885725
0.886917
0.981688
1.008511
0.941753
1.085997
1.140833
1.229644
1.262426
1.178980
1.215935
1.353621
1.592636
1.997948
3.736615
22.557974
57.640672
120.404959
266.634822
411.113501
623.820424
764.426589
883.764625
899.551511
810.350776
691.334605
492.274761
342.515707
182.673931
98.849535
40.387511
23.000836
20.580888
27.895570
44.770837
61.386824
85.040927
102.788806
122.408867
129.651427
125.847459
115.163922
94.926953
76.825619
53.338408
37.723780
23.774505
16.011596
10.343790
8.271933
6.955862
6.466508
6.354451
6.064773
6.272793
6.751418
6.337762
6.649494
6.672740
6.326437
6.286502
5.947948
5.926490
6.071925
5.356669
5.583763
5.338788
5.124807
5.307794
5.040765
4.853606
5.156994
4.584789
4.762411
4.502535
4.413724
4.432797
4.200935
4.029870
4.005432
4.231930
##ZVALUE=300
0.786781
0.779629
0.641942
0.478625
0.623465
0.677705
0.723600
0.719428
0.697970
0.651479
0.850558
0.801682
0.665784
0.851750
0.869632
0.841618
0.946522
0.929832
0.743866
0.837445
1.032948
0.969768
1.136661
1.073480
1.013875
1.156926
1.153946
1.149774
1.403689
1.470447
1.505613
2.024770
9.608865
32.665730
94.538927
176.772475
341.454744
501.066446
700.351596
815.295577
893.176794
870.639682
747.159719
609.967709
401.635766
262.276530
132.070780
72.017908
27.894974
16.321540
17.538667
24.328828
39.137602
54.298639
76.326728
95.204711
112.964511
120.817423
119.203925
110.207796
91.981888
73.305964
51.779747
37.677884
23.033619
15.939474
9.459853
7.073879
5.887747
5.624890
5.572438
5.651712
5.330443
5.418658
5.548596
5.322695
5.393624
5.117655
5.233884
5.267859
5.168915
4.654527
4.896522
4.699826
4.589558
4.542470
4.549623
4.396439
4.237890
4.135966
4.479885
4.362464
4.248619
4.202724
3.946424
4.114509
##ZVALUE=305
0.635982
0.612736
0.551939
0.670552
0.713468
0.548959
0.613928
0.745654
0.754595
0.733733
0.747442
0.718832
0.668764
0.788569
0.790954
0.762939
0.720620
0.781417
0.802875
0.793934
0.779629
0.962615
0.909567
0.882745
0.959635
1.034737
0.957847
1.221895
1.188517
1.018643
1.258850
1.624823
1.786947
1.738667
4.661679
17.660856
63.197613
129.230618
273.570418
409.134626
618.404746
753.579736
870.090723
883.256793
787.462592
658.496618
467.568636
325.534940
168.868899
96.292496
38.848519
19.518733
12.306571
14.785528
23.877621
34.337640
55.406690
72.022676
92.666745
106.124878
114.462972
113.127828
103.732944
89.553595
67.506433
50.982833
33.495426
22.871494
13.005733
8.667707
6.503463
5.459785
5.248785
5.093813
4.689693
5.135536
4.538894
4.877448
4.537702
4.486442
4.566908
4.526973
4.453659
4.402995
4.575849
4.381537
4.501939
4.501939
4.270673
4.119873
3.922582
4.011989
3.974438
3.806949
3.694892
3.882647
##ZVALUE=310
0.591874
0.704527
0.613928
0.537634
0.730753
0.681877
0.722408
0.718832
0.581741
0.684857
0.652671
0.753999
0.739694
0.631809
0.724792
0.677705
0.788569
0.574589
0.810623
0.727773
0.722408
0.581741
0.905991
0.901818
0.989437
0.956655
0.906587
0.838637
0.949502
1.032948
1.056790
1.135468
1.350641
1.318455
1.404881
1.606941
2.247691
7.195473
34.915805
77.852011
183.047652
302.442908
504.883528
654.098988
812.503695
872.212648
843.172669
752.643943
576.486588
422.720909
241.710544
143.703818
62.689781
29.979944
12.292862
10.480881
13.591647
19.841790
31.928420
45.222640
65.745711
80.007911
97.565651
105.556846
107.298493
101.636648
84.746480
70.083737
48.720837
34.029484
20.542741
14.264584
8.929968
6.889701
5.108714
4.982948
4.617572
4.453659
4.453659
4.347563
4.237890
4.272461
4.126430
4.205704
4.114509
4.351735
4.213452
4.292727
4.336834
4.016757
4.056692
3.821850
3.826618
3.847480
3.903508
3.783703
##ZVALUE=315
0.529885
0.537634
0.639558
0.634789
0.641942
0.648499
0.640750
0.603795
0.717640
0.743866
0.531673
0.671744
0.682473
0.661612
0.686646
0.757575
0.693798
0.603795
0.770688
0.821948
0.767708
0.706911
0.788569
0.868440
0.894666
0.884533
0.909567
0.866652
0.960827
0.835657
0.990629
1.106858
1.102686
1.247525
1.203418
1.293421
1.355410
1.400709
1.534820
3.962517
14.454722
56.321621
118.076801
255.404711
401.171446
617.736578
745.062828
850.067735
865.917802
780.996680
665.427446
473.319888
331.778526
176.304579
95.982552
36.798716
16.846657
9.066463
9.016991
12.980700
17.876625
29.679537
41.177869
60.121417
74.556470
91.569424
98.857880
100.275874
93.670487
78.882575
64.907670
47.050714
33.642650
20.398498
13.349652
8.217692
5.951524
4.611611
4.464984
3.922582
3.863573
3.846884
4.161596
3.677607
4.167557
3.956556
3.998876
3.963709
3.872514
3.892779
3.980994
3.989935
3.886819
3.929734
3.815889
3.585815
##ZVALUE=320
0.502467
0.469685
0.543594
0.614524
0.689626
0.678897
0.667572
0.553727
0.704527
0.478625
0.508428
0.431538
0.603795
0.544786
0.659823
0.605583
0.791550
0.717640
0.720620
0.643730
0.604987
0.832677
0.616908
0.626445
0.644922
0.657439
0.830889
0.756979
0.821948
0.914931
0.940561
0.941753
0.974536
1.019835
0.997782
0.992417
1.167655
1.075864
1.166463
1.322627
1.291633
1.837611
6.278753
32.655597
78.527927
194.192529
314.911604
503.308773
650.248528
800.964832
860.458016
828.827620
738.383532
558.951497
406.394005
226.450562
129.194856
55.774450
26.495457
10.006428
7.697940
8.280873
10.331869
16.411543
24.307966
40.213466
52.874684
70.104599
83.606839
93.636513
95.422864
88.636875
78.000426
60.230494
46.917796
29.358864
20.926595
12.211800
8.226633
5.542636
4.604459
4.172921
4.128814
3.746748
3.830791
3.838539
3.748536
3.854632
3.824830
3.818870
3.869534
3.746748
3.711581
3.898740
3.768802
3.776550
##ZVALUE=325
0.563860
0.602603
0.590682
0.552535
0.579953
0.541806
0.564456
0.588894
0.678897
0.532866
0.628829
0.598431
0.592470
0.713468
0.622869
0.473857
0.572801
0.693798
0.683665
0.653863
0.664592
0.634789
0.666976
0.752807
0.647902
0.786781
0.860691
1.022816
0.796914
0.772476
0.927448
0.936985
0.962615
0.924468
0.981688
1.113415
1.096725
1.181960
1.174808
1.189709
1.208782
1.330972
1.379848
1.673698
3.364682
21.271706
53.131580
136.358738
236.717463
420.970917
572.082996
747.262836
821.545720
833.491683
762.926936
598.351955
454.725623
275.800824
167.801976
74.844956
36.875606
13.101697
7.400513
6.821752
6.970763
10.129809
14.537573
24.124980
35.250783
52.965879
64.848661
79.383850
86.504817
87.653995
82.538724
69.605708
56.171417
41.165948
29.470921
17.731786
11.913776
7.081628
5.555749
4.424453
3.831983
3.687739
3.573895
3.744960
3.374815
3.779531
3.409982
3.621578
3.498793
3.388524
3.403425
3.423691
##ZVALUE=330
0.607967
0.622869
0.657439
0.504851
0.613928
0.734925
0.565648
0.541806
0.740886
0.602603
0.711679
0.614524
0.657439
0.652671
0.674725
0.823736
0.723600
0.709891
0.570416
0.673532
0.622869
0.533462
0.727773
0.799894
0.848770
0.766516
0.655651
0.802875
0.732541
0.821948
0.801682
0.792742
0.829697
0.926852
0.942945
0.930429
0.950694
1.086593
1.076460
1.192689
1.004934
1.361966
1.206994
1.344681
1.360774
1.630783
2.213717
6.926656
34.202933
81.706643
193.146467
312.736630
508.747697
647.166967
780.538917
823.311806
771.673918
671.221614
499.349833
361.835957
200.300813
115.018487
48.161745
21.844506
8.461475
6.240606
5.861521
6.413460
9.476542
14.280677
24.103522
33.553839
49.088597
61.185956
74.388981
81.190467
82.403421
77.617764
64.363480
53.045750
37.894845
27.309656
17.613769
12.279749
7.862449
5.851984
4.214644
3.906488
3.596544
3.436804
3.514886
3.399849
3.420711
3.407598
3.628731
3.516674
##ZVALUE=335
0.599623
0.393987
0.585914
0.603795
0.521541
0.567436
0.467896
0.657439
0.628829
0.548959
0.540614
0.618696
0.642538
0.583529
0.571609
0.596642
0.472665
0.713468
0.588894
0.641942
0.611544
0.646710
0.626445
0.653863
0.718832
0.671744
0.611544
0.608563
0.828505
0.619888
0.679493
0.681877
0.743866
0.672936
0.762939
0.789762
0.847578
0.662804
0.731945
0.838637
0.760555
0.974536
0.907779
1.065731
1.082420
1.173615
1.306534
1.498461
1.621842
4.180670
15.410781
58.952570
121.888518
256.270766
395.298004
592.246652
712.178946
799.773932
791.937709
697.770715
581.399798
395.756960
267.867446
139.587522
73.911548
26.665926
11.671782
6.322861
5.362630
6.035566
6.487966
8.738637
12.999773
21.849871
31.015873
46.485662
56.939721
69.371462
75.433850
75.338483
71.926713
60.686469
50.331950
37.621856
28.215647
17.982721
12.436509
7.442832
5.541444
4.171729
3.726482
3.522635
3.464818
3.299713
3.325939
3.310442
##ZVALUE=340
0.595450
0.435710
0.519753
0.455976
0.743866
0.580549
0.634789
0.485778
0.458956
0.490546
0.596642
0.376701
0.755787
0.716448
0.612736
0.596642
0.566840
0.554919
0.542998
0.596642
0.473857
0.590682
0.442863
0.611544
0.583529
0.723600
0.640750
0.713468
0.832677
0.685453
0.739694
0.742674
0.626445
0.793934
0.763535
0.826716
0.602603
0.823736
0.781417
0.890493
0.795722
0.881553
0.894666
0.978708
0.925660
1.049638
1.078844
1.044869
1.238585
1.308918
1.516938
2.176762
7.536411
37.295818
87.758899
206.902623
333.187580
517.310500
647.063851
759.376884
785.239935
720.541477
619.336963
451.037884
320.919752
173.026919
94.136000
36.453605
15.917420
6.895661
5.484819
5.069971
5.398989
6.035566
8.130670
13.246536
19.564629
30.691624
41.145682
54.957867
63.738823
70.781708
70.991516
65.798759
58.822632
47.083497
37.355423
25.934577
18.416643
11.535883
8.066893
5.242825
4.156828
3.612638
3.195405
3.092885
##ZVALUE=345
0.338554
0.392795
0.467896
0.379682
0.308752
0.369549
0.349879
0.334978
0.276566
0.303984
0.304580
0.310540
0.410676
0.275970
0.428557
0.370741
0.469685
0.290871
0.400543
0.396967
0.448823
0.250936
0.231862
0.492930
0.369549
0.481606
0.495911
0.538826
0.312924
0.522733
0.278950
0.400543
0.517964
0.622869
0.463724
0.532866
0.530481
0.545979
0.531673
0.582933
0.619888
0.482798
0.610948
0.615716
0.600815
0.797510
0.670552
0.745654
0.857711
0.797510
0.842810
0.826716
1.205802
1.315475
3.045797
20.639896
55.962801
143.543482
245.885849
419.408679
554.613471
700.729489
757.579803
748.539567
666.935444
503.937006
374.753475
218.059421
124.827623
49.650669
23.242831
8.656979
5.791783
4.953742
4.817843
4.477501
5.175471
7.117987
10.775924
18.223524
26.385784
39.114952
48.067570
57.705641
62.951446
65.721869
63.421726
55.203438
47.761798
35.790801
26.752949
17.064810
11.607409
6.967783
5.291700
3.684759
##ZVALUE=350
0.442863
0.287890
0.425577
0.447631
0.340939
0.293851
0.294447
0.334978
0.239611
0.361800
0.265837
0.425577
0.247955
0.224710
0.483990
0.404716
0.380874
0.202656
0.348687
0.322461
0.474453
0.478625
0.347495
0.371933
0.296831
0.422597
0.385642
0.283718
0.410676
0.513792
0.592470
0.441670
0.367761
0.507832
0.478625
0.426769
0.383854
0.518560
0.493526
0.357628
0.524521
0.542998
0.515580
0.468493
0.743866
0.592470
0.418425
0.698566
0.581741
0.668764
0.800490
0.833869
0.811815
0.979900
0.954866
1.081824
1.746416
9.758472
32.781959
99.448562
182.214975
342.923999
476.342440
631.431937
719.439983
743.817687
693.901777
561.752915
427.560806
254.454017
157.738924
73.200464
34.428835
10.796785
5.783439
4.752874
4.196763
4.344583
4.228950
5.075932
6.331801
10.758638
15.378594
23.603439
32.091737
43.339729
50.992966
57.806969
60.389638
57.959557
52.695870
42.948723
34.764409
25.004745
18.377900
11.363626
##ZVALUE=355
0.196695
0.264645
0.217557
0.421405
0.312924
0.201464
0.250936
0.266433
0.249743
0.170469
0.356436
0.290871
0.374913
0.310540
0.386834
0.260472
0.248551
0.188947
0.323653
0.207424
0.280738
0.298619
0.185966
0.292659
0.327826
0.374913
0.368953
0.474453
0.230670
0.401735
0.401735
0.429749
0.518560
0.480413
0.398755
0.253916
0.310540
0.419617
0.237823
0.477433
0.474453
0.418425
0.468493
0.417829
0.489950
0.468493
0.624657
0.610948
0.659823
0.626445
0.665784
0.741482
0.718832
0.737906
0.783801
0.930429
0.979900
1.112819
1.302958
3.335476
20.666718
55.141449
141.585469
241.861939
415.936708
546.105504
676.128864
727.932453
697.962642
603.905916
440.800786
318.192840
179.709792
98.251700
38.882494
16.926527
6.404519
4.598498
4.085898
4.068613
3.746748
3.844500
4.472733
5.537868
8.601546
12.822747
20.906925
27.776957
38.264990
45.449734
51.751733
53.985715
53.776503
48.582554
40.099621
33.613443
##ZVALUE=360
0.378489
0.349879
0.259876
0.555515
0.288486
0.314713
0.473857
0.478625
0.378489
0.430942
0.484586
0.495911
0.318885
0.454783
0.535846
0.455976
0.404716
0.416636
0.350475
0.420809
0.400543
0.286698
0.503659
0.400543
0.451803
0.503659
0.579953
0.477433
0.521541
0.678897
0.518560
0.611544
0.501871
0.528693
0.461936
0.706911
0.504851
0.536442
0.527501
0.559688
0.525713
0.674725
0.528693
0.518560
0.619888
0.726581
0.806451
0.693798
0.735521
0.749826
0.786781
0.835657
0.787973
0.862479
0.947714
0.875592
0.926852
1.052618
1.019835
1.207590
1.522899
2.242923
7.453561
35.155416
83.568692
194.953680
309.056640
472.939610
593.267679
694.224834
704.103708
635.493994
529.510975
358.924866
237.321854
115.930438
60.944557
23.043752
9.897947
4.977584
4.279613
3.992915
3.691912
3.474951
3.553629
3.950000
4.737973
7.330775
10.146499
16.510487
22.598505
32.136440
39.215684
46.020746
49.318671
49.033761
##ZVALUE=365
0.548959
0.486970
0.508428
0.601411
0.650883
0.547767
0.465512
0.587702
0.439882
0.533462
0.471473
0.512600
0.522733
0.551939
0.591874
0.599623
0.558496
0.649691
0.539422
0.634789
0.498891
0.500679
0.557899
0.666976
0.591874
0.729561
0.620484
0.636578
0.684857
0.647902
0.568628
0.634789
0.605583
0.612736
0.680685
0.736713
0.747442
0.805855
0.681877
0.725985
0.801682
0.665784
0.713468
0.637770
0.681877
0.783801
0.733733
0.776649
0.762939
0.802875
0.825524
0.781417
0.782609
0.738502
0.724792
0.853539
0.890493
0.941753
1.083612
1.075864
1.179576
1.276731
1.291633
1.569986
3.369451
19.930601
53.232908
134.723783
237.891674
407.183766
527.435541
642.354488
686.769485
650.907755
564.944744
407.531857
285.809636
158.261657
86.028576
31.939745
13.599992
5.263686
4.418492
4.025698
3.685951
3.758669
3.288984
3.232956
3.353953
4.256964
5.569458
8.951426
13.020635
20.192862
26.563406
34.845471
##ZVALUE=370
0.463724
0.602603
0.589490
0.580549
0.588894
0.518560
0.425577
0.515580
0.490546
0.609756
0.481606
0.602603
0.627637
0.417829
0.499487
0.426769
0.540614
0.580549
0.574589
0.619888
0.575781
0.563860
0.634789
0.663996
0.598431
0.675917
0.614524
0.634789
0.670552
0.600815
0.540614
0.560880
0.640750
0.655651
0.594854
0.710487
0.564456
0.637770
0.558496
0.753999
0.658631
0.753999
0.571609
0.751615
0.653863
0.635982
0.649691
0.654459
0.734925
0.621676
0.725985
0.657439
0.708699
0.842810
0.586510
0.897646
0.950694
0.960827
0.853539
0.827909
0.915527
0.901818
0.984669
1.192689
1.151562
1.474619
2.000928
10.596514
34.405589
103.343725
187.815428
335.848927
465.286970
612.875819
672.412515
667.153597
601.605773
463.389754
342.388749
194.305778
111.196637
45.340657
20.597577
7.154942
4.478693
3.804564
3.381968
3.557801
3.174543
2.954602
2.920628
3.134608
3.454685
5.178452
6.996989
11.579990
##ZVALUE=375
0.592470
0.582933
0.501871
0.479817
0.449419
0.564456
0.569820
0.477433
0.664592
0.492930
0.469685
0.480413
0.563860
0.424981
0.470877
0.581741
0.416636
0.393987
0.539422
0.468493
0.487566
0.608563
0.653863
0.490546
0.490546
0.625849
0.533462
0.598431
0.675917
0.527501
0.707507
0.706911
0.765920
0.583529
0.664592
0.806451
0.696778
0.523925
0.528693
0.814795
0.607967
0.668764
0.651479
0.751615
0.668764
0.652671
0.630617
0.699759
0.710487
0.670552
0.704527
0.652671
0.556707
0.858903
0.641942
0.728965
0.793934
0.819564
0.680685
0.719428
0.708699
1.004934
0.939965
0.979900
0.949502
1.076460
1.158714
1.367927
1.606941
5.057454
17.845631
63.318610
132.414699
273.800492
401.421785
559.247732
638.811588
673.258901
637.382865
513.355732
394.225717
240.505934
151.383877
75.175762
37.756562
12.895465
5.790591
3.837943
3.543496
3.077984
3.045797
2.807975
2.728701
2.965927
2.693534
3.313422
##ZVALUE=380
0.373721
0.299811
0.290871
0.440478
0.419617
0.305772
0.334978
0.234842
0.333786
0.260472
0.323653
0.340939
0.322461
0.261664
0.336766
0.348687
0.412464
0.402927
0.280738
0.290871
0.497699
0.347495
0.292659
0.335574
0.413656
0.472665
0.509620
0.490546
0.621676
0.636578
0.576973
0.780821
0.757575
0.657439
0.807643
0.854731
0.805855
0.817776
0.811815
0.840425
0.832677
0.718832
0.688434
0.885725
0.769496
0.607967
0.687838
0.563860
0.539422
0.592470
0.589490
0.559688
0.664592
0.624657
0.700951
0.551939
0.500679
0.653863
0.593662
0.677705
0.534654
0.694990
0.677705
0.680685
0.678897
0.806451
0.864863
0.873804
0.982881
1.025796
1.221895
2.339482
9.537935
46.283007
102.970600
225.077868
343.250632
502.651930
605.195761
671.265721
655.604005
553.324819
448.601842
308.861732
206.389427
102.313757
53.121448
19.501448
8.183718
3.904700
3.228784
2.950430
2.967715
2.751946
2.566576
2.654791
##ZVALUE=385
0.322461
0.293851
0.352859
0.433922
0.266433
0.257492
0.383854
0.305772
0.243783
0.237823
0.369549
0.254512
0.243783
0.317693
0.274777
0.500679
0.366569
0.366569
0.317693
0.203848
0.400543
0.320673
0.331998
0.385642
0.449419
0.420809
0.661612
0.532866
0.874996
0.941753
1.005530
1.134872
1.186728
1.217723
1.347661
1.203418
1.384616
1.423955
1.431704
1.241565
1.158714
1.285672
1.142621
1.019835
1.057982
1.073480
0.971556
1.001954
0.957847
1.031756
0.896454
0.752807
0.797510
0.905991
0.742674
0.775456
0.677705
0.568628
0.569820
0.852942
0.718832
0.694990
0.740886
0.785589
0.705719
0.925660
0.861883
0.821948
0.935793
0.899434
1.201630
1.376867
1.271963
1.642704
4.415512
26.247501
65.968633
159.436464
269.107819
438.174009
555.674434
650.887489
663.616657
612.180829
528.158545
380.522013
266.801715
145.589709
83.783865
34.400821
14.329553
4.621744
3.283620
3.097653
2.853870
2.927780
##ZVALUE=390
0.489950
0.478625
0.447631
0.446439
0.436902
0.481606
0.371933
0.512600
0.440478
0.497699
0.395775
0.486970
0.477433
0.315905
0.338554
0.357628
0.368953
0.345707
0.359416
0.470877
0.428557
0.551939
0.630617
0.415444
0.348687
0.496507
0.718832
0.971556
1.036525
1.311898
1.707673
1.724958
2.014637
2.153516
2.108812
2.252460
2.148747
2.262592
2.169609
2.187490
2.018809
1.957417
1.802444
1.659989
1.518726
1.467466
1.556873
1.439452
1.348853
1.314878
1.124740
1.013875
1.117587
1.022816
0.943542
1.010895
1.059771
0.924468
0.822544
0.874996
0.894666
0.876784
0.924468
0.837445
0.797510
0.868440
0.844598
0.921488
1.010895
1.206994
1.023412
1.089573
1.055598
1.243949
1.080632
1.318455
2.566576
10.862947
50.467849
110.285878
239.471793
356.068611
504.062772
597.732663
665.829778
661.072731
573.450923
473.168492
317.626595
213.786960
108.613968
56.186914
20.025969
8.065701
3.661513
3.237724
##ZVALUE=395
0.624657
0.570416
0.461936
0.379682
0.440478
0.446439
0.471473
0.354648
0.425577
0.180602
0.576973
0.478625
0.454783
0.705719
0.426769
0.596642
0.645518
0.446439
0.388622
0.513792
0.542998
0.464916
0.541806
0.588894
0.487566
0.806451
0.984669
1.237988
1.343489
1.767874
2.151728
2.380610
2.417564
2.881885
2.763867
3.011823
3.063679
3.086925
2.902746
2.771616
2.808571
2.554655
2.382994
2.306700
2.136827
2.001524
2.082586
1.874566
1.647472
1.709461
1.523495
1.380444
1.285672
1.165867
1.223683
1.200438
1.018643
1.081824
1.051426
0.934601
1.128912
1.023412
0.972748
1.003742
1.041889
1.038909
0.970960
1.021624
1.043677
1.126528
1.084805
1.073480
1.236796
1.103878
1.097918
1.292825
1.260638
1.352429
1.705885
7.303953
26.478767
88.952780
167.305470
311.222672
431.405902
583.192706
659.662485
685.591698
653.272867
529.024601
404.810905
248.434544
156.875849
73.814988
35.593510
12.150407
##ZVALUE=400
0.674725
0.612736
0.630617
0.393987
0.506639
0.574589
0.475645
0.332594
0.582933
0.542998
0.470877
0.544786
0.593662
0.569820
0.453591
0.523925
0.504851
0.547767
0.538826
0.530481
0.407696
0.526905
0.643730
0.608563
0.798702
0.908971
0.955462
1.336932
1.739860
1.873970
2.162457
2.475977
2.683997
2.927780
3.099442
3.151894
3.250837
3.259778
2.941489
3.005862
2.734661
2.694726
2.579689
2.460480
2.247691
2.130866
1.894832
1.904964
1.708865
1.608729
1.595616
1.640916
1.343489
1.174808
1.181960
1.070499
1.151562
1.114607
1.095533
0.926852
0.915527
0.928640
0.988841
0.878572
0.856519
0.885725
0.901818
0.860691
1.005530
1.165867
1.104474
1.132488
1.082420
0.972748
0.975728
0.891685
1.067519
1.065731
1.145601
1.325607
1.457930
4.064441
14.518499
53.025484
111.202598
234.932899
354.653597
512.088537
605.792999
669.551492
659.887791
560.366511
452.705622
295.338631
193.991661
97.784996
##END
