##TITLE=AAI0502
##FORMAT=SPECTACLE-ASCII V-1.2
##DATA TYPE=ULTRAVIOLET SPECTRUM
##SECOND TYPE=ULTRAVIOLET SPECTRUM
##DATE=11/28/17
##TIME=17:03:07
##SPECTROMETER/DATA SYSTEM=SPECTACLE
##XUNITS=NM EM
##YUNITS=ENERGY
##YFACTOR=1
##FIRSTX=220
##LASTX=410
##NPOINTS=96
##3DDATA=Equidistant
##ZUNITS=NM EX
##FIRSTZ=210
##LASTZ=400
##ZPOINTS=39
##XYDATA=(Y..Y)
##ZVALUE=210
5.680919
5.977750
5.833507
6.383657
5.619526
5.723834
5.536675
5.147457
4.948974
4.148483
3.882647
3.617406
3.338456
3.495812
3.692508
3.789663
3.501773
3.421903
3.927946
4.439950
4.027486
5.090833
4.831553
4.920959
5.269647
5.778670
5.313754
6.283522
5.952716
6.282926
6.621480
6.569624
6.320477
7.787943
6.898642
7.904768
7.273555
8.675456
7.785559
8.028746
9.065866
9.569526
8.075833
9.878874
10.173917
10.707974
10.268688
10.501742
10.930896
11.662841
10.212660
10.856986
11.189580
11.501908
11.551976
11.705756
11.395812
11.781454
12.609959
12.135506
11.954904
13.262630
12.870431
12.405515
13.304949
12.902617
15.032887
15.375614
17.854571
19.566417
25.103688
26.919842
32.254457
34.096837
39.356947
42.809844
42.437911
40.397644
39.366484
38.073659
35.719872
33.664703
29.301643
22.764802
21.497607
18.879771
15.389919
14.750957
12.598634
12.425780
12.866855
12.390614
12.125969
13.710856
13.379455
15.396476
##ZVALUE=215
17.922521
18.203855
16.635656
13.784766
13.047457
9.766817
8.945465
9.787679
9.779930
9.357929
8.741617
7.807612
6.020665
4.851818
4.654527
4.750490
3.956556
4.838705
4.120469
5.071759
4.264712
5.168915
5.401969
5.581975
5.446672
5.862713
5.800724
6.193519
6.360412
7.773638
6.215572
6.827712
8.169413
7.810593
8.378625
8.069873
8.283854
8.730888
7.843971
9.365678
9.159446
8.854866
9.395480
9.783506
10.277629
10.654926
10.051727
9.560585
11.423826
11.296868
11.215806
10.814667
10.331869
11.087656
10.353923
11.746883
11.814833
11.415482
13.160706
12.728572
11.954904
13.262630
12.173653
12.509823
12.506843
11.597872
14.544725
13.970733
16.850829
18.267632
21.737814
24.517775
29.850602
31.401515
34.373999
36.014915
36.211610
36.813617
33.559799
31.953454
30.954480
26.680827
25.101900
21.784902
18.191934
18.221736
15.544891
13.913512
12.118816
12.431741
12.253523
11.309981
12.133718
11.014938
12.499690
11.911988
##ZVALUE=220
42.178631
42.338967
46.854615
43.623447
40.584803
35.369992
29.575825
20.636916
19.216537
18.128753
17.302632
18.726587
19.077659
14.418960
13.594627
9.806752
7.000566
6.305575
5.799532
4.925728
5.237460
4.152656
5.192757
5.849600
5.236864
6.334782
6.498694
6.721616
6.232858
6.720424
8.046627
7.150769
7.705688
7.697940
8.633733
8.959770
8.307695
8.499622
8.190870
9.417534
8.380413
9.985566
9.294748
10.041595
10.450482
10.695457
10.251999
9.862781
10.930896
10.523796
10.252595
10.904670
11.534691
11.536479
11.605620
11.215806
11.275411
11.318922
13.014674
12.125969
12.685657
13.438463
12.744665
12.941957
12.541413
12.517571
13.732910
14.908910
15.709996
18.230677
19.911528
23.206472
27.074814
31.855702
31.693578
33.378601
34.868717
34.075975
32.000542
31.442642
28.250813
24.234653
22.549629
19.825697
16.807914
16.587973
12.889504
13.346672
12.273788
11.179447
10.775924
10.755658
11.357665
11.915565
11.621714
9.961724
##ZVALUE=225
62.838793
67.756772
84.014535
105.594993
120.340586
111.587644
101.999640
80.315471
61.457753
49.793720
34.653544
31.600595
29.965639
31.585693
32.918453
28.143525
24.444461
19.754767
15.893579
10.525584
8.425713
6.285906
5.786419
5.638599
7.112622
6.687641
7.990599
7.671714
7.680655
8.436441
8.065701
8.505583
8.617640
9.482503
10.319948
9.206533
9.110570
9.713769
10.619760
11.000633
11.815429
9.405613
10.062456
10.105968
11.219978
10.679960
11.495948
12.320876
12.710690
12.216568
12.505651
13.259649
11.785626
11.948943
14.568567
13.541579
12.163520
12.651682
13.691783
14.062524
13.656616
13.716817
14.678836
14.815927
13.935566
15.290976
14.427900
17.027855
16.773939
19.214749
20.671487
24.965405
25.972724
29.606819
30.169487
33.499599
31.848550
32.341480
29.896498
27.659535
24.613738
23.415685
20.994544
19.013882
16.167760
16.783476
15.705824
15.904903
14.234781
13.078451
13.304949
12.966990
12.858510
12.563467
11.861920
11.640787
##ZVALUE=230
49.090981
49.595833
89.800954
136.722922
176.680684
235.905647
254.601836
254.058838
227.255821
180.354714
138.312578
84.849596
64.362884
52.531958
52.810907
53.139925
54.631829
52.780509
47.551990
39.840937
29.619932
19.699931
15.406609
10.056496
7.728934
7.053614
8.416772
7.775426
9.197593
8.281469
8.610487
8.553863
8.700490
10.263920
9.878874
11.118650
11.270642
10.172725
11.024475
11.795759
11.935830
12.365580
11.231899
10.215640
12.775660
12.493730
13.116598
13.582706
14.412999
12.971759
12.972951
14.178753
14.283657
14.408827
15.605688
16.746521
16.614795
17.118454
16.025901
16.740561
17.042756
16.906857
17.637610
17.002821
17.025471
18.637776
18.082857
19.896626
22.105575
25.348663
29.323697
31.457543
33.594966
36.777854
37.383437
40.618777
36.217570
38.354993
35.553575
33.427477
29.414892
29.234886
24.978518
22.011995
20.202994
21.074414
18.583536
18.377900
18.366575
15.660524
16.944408
16.615987
15.310645
15.672445
16.320944
15.187860
##ZVALUE=235
14.946461
17.753839
37.806630
88.586807
145.545602
246.622562
332.257748
423.271656
477.077961
480.404496
426.853895
354.646444
238.222480
175.833702
113.028884
87.647438
76.237917
77.830553
83.469748
84.082484
77.885985
64.820647
52.591562
39.169788
27.796626
16.912818
13.205409
10.124445
9.271502
10.161996
10.597706
10.342598
10.213852
11.141896
11.097789
10.914803
12.058616
11.342764
12.023449
11.658669
11.855960
12.153983
12.603998
12.733936
13.035536
13.041496
11.931658
12.855530
13.306737
14.335513
12.461543
14.429688
14.675856
15.408993
15.633702
14.974475
15.673637
16.271472
17.877817
16.927719
17.388463
18.112659
17.433763
19.478798
18.645525
20.592809
20.316839
22.050738
22.203922
25.585890
27.576685
32.534599
34.494996
38.633943
42.638779
42.136908
41.082501
41.045547
39.478540
36.401749
33.240914
30.219555
29.230714
26.051998
25.368929
22.608638
21.953583
19.617677
19.495487
19.862652
20.789504
18.924475
17.962456
20.037889
19.194484
19.479990
##ZVALUE=240
2.806783
2.878904
7.777810
18.174648
56.431890
105.494857
223.774910
343.334675
539.946556
656.919479
763.674974
777.763724
730.419755
610.113740
480.012894
300.870538
209.210515
131.228566
102.593899
97.705722
109.347701
113.837719
110.506415
102.128983
82.360506
67.908764
48.246980
35.558939
22.939444
16.562939
13.410449
11.413693
10.120869
11.663437
11.828542
11.263490
11.904836
12.514591
12.123585
11.393428
11.439919
12.726784
12.261868
13.939738
14.439821
12.628436
13.735890
13.966560
14.366508
14.741421
15.362501
14.752746
16.850829
15.592575
16.058683
14.875531
16.079545
17.616749
18.571615
17.421842
16.899705
18.677711
18.444657
19.855499
19.647479
18.875599
20.247698
23.326874
24.872422
27.805567
29.730797
33.390522
37.848949
38.418770
41.788816
44.441819
43.511987
43.090582
40.309429
35.827756
33.774972
31.542778
28.319955
26.305914
25.612712
24.181604
23.699999
22.317767
20.110607
22.442937
21.047592
19.217730
19.530654
20.196438
20.149946
20.466447
##ZVALUE=245
2.571940
2.675653
2.673864
3.097653
5.716681
14.078617
47.132969
104.215741
230.114460
361.542702
588.697791
746.183991
879.292488
972.281694
958.938003
838.881731
706.329942
500.786901
355.048776
197.978616
129.308701
100.496411
108.580589
117.608905
127.865672
123.956800
108.413696
95.448494
71.666837
56.945682
42.050481
23.877621
17.239451
14.040470
12.238622
10.830760
11.454821
11.956692
10.751486
10.641813
11.598468
11.925697
11.701584
11.458993
11.966825
11.224747
12.083650
13.247728
12.699962
13.617873
13.767481
14.517903
14.142990
12.767911
13.847947
13.785958
15.301704
12.836456
14.835596
14.737844
15.106797
15.176535
15.365481
15.981793
15.630722
16.605854
17.722845
18.529892
20.181537
23.085475
25.000572
28.733611
31.474829
33.195615
35.928488
36.765933
35.058856
35.979748
33.886433
31.547546
30.459762
26.519895
24.840832
23.692846
22.291541
21.426678
20.661950
19.775629
19.616485
18.431544
19.148588
18.506646
18.947721
19.203424
18.938780
16.937852
##ZVALUE=250
2.460480
2.087951
2.267957
2.396703
2.630949
2.697706
3.783703
8.998513
41.051507
88.810921
215.424895
365.148783
535.674691
789.919496
972.615480
1015.788913
1015.788913
1015.788913
993.455052
751.502514
552.187562
368.324518
185.990930
115.933418
100.455880
114.666820
128.666759
133.079886
131.487846
115.336776
100.692511
77.784657
61.669946
37.682652
26.489496
16.157627
12.606978
9.876490
11.051893
10.165572
10.705590
11.123419
10.496974
11.243820
10.700822
10.956526
11.752844
10.575652
10.986924
11.745691
12.053847
10.713935
12.287498
13.180971
12.519956
12.202859
13.037920
11.794567
12.582541
12.907982
13.434887
13.687611
13.576746
12.990832
14.012456
14.368892
13.896823
15.761852
17.173886
18.653870
20.052791
23.735762
25.150776
27.922988
29.096603
28.600693
28.673410
27.579665
26.509762
25.426745
23.965836
22.855997
20.739436
20.031929
18.760562
18.177629
17.428994
17.115474
17.558932
18.136501
17.009974
17.059445
16.112924
17.283559
16.773939
17.389655
##ZVALUE=255
1.925826
1.943707
2.006888
1.959801
2.153516
2.187490
2.827644
2.183914
2.707839
6.894469
22.848845
66.570640
180.300474
312.660933
542.033911
755.666494
1006.901860
1015.788913
1015.788913
1015.788913
959.850550
765.900016
477.908850
308.033824
189.347863
105.350614
88.717937
96.018910
113.613605
134.030581
141.307712
135.854483
125.747919
101.715922
77.171922
55.981874
40.662885
24.463534
16.311407
11.396408
10.293722
9.369850
10.043979
9.474754
10.222793
9.701848
9.789467
9.527802
8.976460
10.099411
10.233521
9.551644
10.114908
10.568500
11.288524
10.492802
10.800958
10.031462
10.198951
10.877848
10.249615
9.591579
11.574626
11.342764
11.766553
11.868477
12.187958
13.148785
14.498830
15.628934
16.984940
18.771887
20.547509
22.822618
23.228526
23.831725
23.336411
22.772551
21.773577
19.521713
19.145608
17.933846
16.857982
16.093850
14.328957
14.154911
13.804436
14.141798
14.425516
14.151931
13.861656
13.767481
14.156699
14.298558
13.704896
14.032722
##ZVALUE=260
1.775622
1.846552
1.887679
2.154708
2.049804
2.088547
1.913905
2.141595
2.171993
2.558827
2.667904
3.529787
10.500550
49.754977
113.159418
275.964737
448.952913
735.001564
973.938704
1015.788913
1015.788913
1015.788913
1015.788913
995.982885
673.772693
459.649563
260.192752
156.187415
91.046691
80.624819
93.495846
118.429661
133.855939
145.016909
139.208436
127.818584
107.115507
81.421733
59.569478
38.536787
26.412606
15.881658
11.634827
9.619594
9.080768
8.513927
9.020567
9.272695
9.559989
9.098649
9.168983
9.098649
9.354949
9.413958
8.898973
9.661913
8.897781
8.725524
9.289980
9.409785
9.033680
10.125637
9.882450
10.009408
9.912848
10.541677
10.693669
11.356473
11.738539
13.115406
15.127659
16.444921
17.164946
18.117428
18.296838
19.107461
17.701983
17.309785
17.059445
16.796589
15.676618
14.746785
13.995767
13.035536
12.375712
12.563467
12.405515
12.429953
12.130737
12.574792
12.521744
12.130737
11.966825
12.106895
11.312962
11.872649
##ZVALUE=265
1.696944
1.719594
1.872778
1.397729
1.933575
1.976490
1.906753
2.005696
1.941919
2.189875
2.209544
2.469420
2.502799
3.281832
6.678700
34.172535
88.276863
220.784545
389.105082
723.877549
989.605784
1015.788913
1015.788913
1015.788913
1015.788913
1015.788913
948.643684
679.826736
371.868014
221.007466
123.986602
75.635910
77.344775
105.075836
123.387575
144.371986
149.324536
139.646530
126.906633
104.125738
83.771944
56.910515
40.445924
23.288727
15.966892
10.745525
9.521842
8.793473
8.337498
8.806586
8.606911
8.470416
9.055734
8.869767
9.304881
9.205937
9.541512
9.276867
8.268952
8.699894
9.097457
9.362698
9.418726
9.822845
9.532571
9.692907
10.205507
11.034608
11.334419
12.653470
14.260411
15.539527
15.871525
16.490817
17.165542
17.275810
17.668605
17.469525
15.673637
14.814734
14.205575
12.947917
13.488531
12.447834
12.625456
11.640787
11.696815
11.066794
11.973977
10.933876
11.398792
11.060834
11.440516
11.421442
11.020899
10.601878
##ZVALUE=270
1.860857
1.643896
1.849532
1.702905
1.625419
1.770854
1.688600
1.734495
1.809597
1.777411
2.048612
1.862645
1.921654
2.307892
2.504587
2.923608
3.978610
16.509891
53.405762
171.605945
340.218544
595.344901
992.788672
1015.788913
1015.788913
1015.788913
1015.788913
1015.788913
1015.788913
939.548612
643.554926
333.804488
179.875493
80.943704
62.107444
79.721808
99.510550
126.408935
141.538978
149.548650
145.698786
127.793550
110.472441
80.334544
60.094595
37.157536
24.695992
15.917420
11.871457
9.430647
9.282827
8.353591
9.178519
8.597970
8.556843
9.110570
9.122491
8.715987
8.634925
9.009838
8.982420
9.256601
9.422898
8.961558
9.080768
9.093881
9.158850
10.075569
10.439754
12.013912
12.997985
13.824701
15.276670
15.574694
16.774535
16.405582
14.968514
14.808774
14.704466
13.231635
13.026595
12.241602
12.183785
11.292696
10.937452
11.090636
10.930896
10.693669
10.793805
10.689497
10.697842
10.640621
10.419488
10.248423
10.448694
10.399818
##ZVALUE=275
1.629591
1.593828
1.507998
1.583695
1.384616
1.493692
1.612902
1.811981
1.863837
1.776814
1.994967
1.935959
1.862645
2.105832
2.189875
2.276897
2.404451
2.700686
3.156662
7.671714
31.806827
95.933676
283.771753
532.947779
966.538787
1015.788913
1015.788913
1015.788913
1015.788913
1015.788913
1015.788913
1015.788913
867.980719
459.624529
257.376432
105.399489
61.058998
57.911873
74.277520
102.052689
122.575760
140.081644
147.020817
141.280890
129.895806
102.064610
83.615780
58.718920
42.695999
25.579929
18.600821
12.117624
9.758472
9.354949
8.873940
8.895993
8.749962
9.162426
8.569956
9.092689
9.554625
8.692741
9.434819
9.075999
9.169579
9.056926
8.851886
9.868741
10.261536
11.877418
13.005733
13.968945
13.893843
15.027523
15.901923
15.349984
15.345812
14.554858
13.571978
13.033748
12.610555
11.653900
10.613799
10.439754
10.500550
10.609627
10.193586
10.315776
10.064840
9.927750
10.230541
10.832548
10.158420
9.997487
10.265708
9.725690
##ZVALUE=280
1.426935
1.493692
1.641512
1.418591
1.312494
1.609921
1.634955
1.547933
1.616478
1.617670
1.821518
1.670718
1.798868
2.105832
1.986623
2.146959
2.218485
2.248883
2.389550
2.608895
3.046989
3.959537
21.279454
76.135993
246.847868
453.735590
830.261707
1015.766859
1015.766859
1015.766859
1015.766859
1015.766859
1015.766859
1015.766859
1003.940701
597.245693
351.942778
151.127577
73.422790
43.844581
52.563548
77.335835
98.310709
121.072531
134.123564
141.287446
136.741996
123.449564
107.105970
78.238845
59.927702
38.295984
26.296973
16.291738
12.428761
9.840727
8.869767
8.471608
8.472800
8.558631
8.470416
8.660555
8.573532
8.825660
9.227991
9.114742
9.381771
9.598732
10.276437
11.114478
11.751652
12.837648
13.150573
13.752580
14.140606
14.035702
14.423728
13.678670
13.262630
12.001991
11.848807
10.843873
10.813475
10.290742
10.508895
9.847879
9.923577
10.077953
9.611845
9.879470
10.142922
10.195971
9.835958
9.942651
9.593964
9.532571
##ZVALUE=285
1.622438
1.441836
1.489520
1.449585
1.323819
1.411438
1.389980
1.644492
1.725554
1.509786
1.810789
1.859665
1.767874
1.934767
1.871586
1.770854
1.931787
1.788735
2.063513
2.166629
2.703667
2.556443
2.802610
3.506541
10.578632
37.941933
138.304830
291.997790
623.712540
958.544016
1015.788913
1015.788913
1015.788913
1015.788913
1015.788913
1015.788913
1015.788913
860.888958
536.164641
245.965719
122.028589
45.437813
36.871433
51.399469
69.451928
96.790791
113.517642
130.444765
138.038993
136.128664
123.294592
104.128718
84.410906
59.166551
41.987896
25.535822
17.407537
12.218952
9.587407
8.778572
8.191466
8.484721
8.221865
7.951856
8.340478
8.858442
8.825660
9.269714
9.587407
10.184646
11.613965
11.883974
12.739897
13.383627
13.555884
13.203621
12.637973
11.428595
11.437535
11.527538
10.923743
10.683537
9.962916
9.990931
10.370612
9.842515
9.558797
9.575486
9.571910
9.920597
9.288788
9.541512
9.573698
9.633899
8.924603
9.451509
##ZVALUE=290
1.389980
1.483560
1.577735
1.251698
1.400709
1.213551
1.421571
1.721978
1.619458
1.636744
1.517534
1.547933
1.441836
1.516938
1.512766
1.667738
1.660585
1.926422
1.873970
1.959801
2.008677
2.263784
2.421737
2.736449
2.824664
3.324747
4.277825
20.540953
70.169568
179.852843
448.818803
760.744810
1015.788913
1015.788913
1015.788913
1015.788913
1015.788913
1015.788913
1015.788913
1015.788913
788.772106
395.924449
206.221938
71.599483
34.374595
34.615993
46.150684
66.358447
84.905624
104.188919
124.881864
133.264661
132.505894
122.925639
101.165771
82.755685
57.519674
42.728782
25.697947
17.861724
12.657642
9.730458
8.523464
8.065701
8.117557
8.531809
8.830428
8.737445
9.449720
9.917617
11.090636
11.067986
11.749864
11.970997
12.121797
11.387467
11.641979
11.736751
10.685921
10.792613
10.389686
9.654760
10.025501
9.634495
9.523630
9.499788
9.569526
9.755492
9.498596
9.760857
9.577870
9.453893
9.451509
9.412766
9.346604
9.346604
##ZVALUE=295
1.445413
1.225471
1.396537
1.445413
1.334548
1.273751
1.282692
1.424551
1.302958
1.338720
1.509786
1.411438
1.481771
1.509786
1.520514
1.652837
1.629591
1.613498
1.720786
1.927614
1.980662
2.143979
2.104640
2.232790
2.383590
2.545714
2.758503
3.296733
3.539920
6.943941
28.078556
124.177933
282.112956
654.844642
993.212461
1015.788913
1015.788913
1015.788913
1015.788913
1015.788913
1015.788913
1015.788913
942.735672
503.356457
276.761651
97.832680
43.618679
24.220943
28.345585
44.891834
60.300827
82.432628
102.071762
119.674802
127.497911
124.994516
114.422441
94.615817
79.429746
55.978894
40.939450
25.377870
17.711520
12.537837
9.880662
8.299947
8.305907
8.606911
9.258986
9.636879
10.105968
10.971427
11.013746
11.614561
11.400580
10.983944
11.124611
10.641813
10.077953
10.192990
9.732842
9.557605
9.433627
9.349585
9.500980
10.031462
9.725690
8.912683
9.401441
9.379983
8.936524
8.961558
9.457469
9.134412
8.939505
8.906722
##ZVALUE=300
1.266599
1.183748
1.198649
1.353621
1.348853
1.510978
1.350641
1.388788
1.514554
1.462698
1.557469
1.552701
1.433492
1.491904
1.620650
1.517534
1.583695
1.480579
1.648664
1.778603
1.561642
1.673698
1.905560
1.995564
2.204776
2.217889
2.344847
2.577901
2.806783
3.070831
3.392696
4.125834
17.366409
71.855783
252.407789
487.820506
947.305560
1015.788913
1015.788913
1015.788913
1015.788913
1015.788913
1015.788913
1015.788913
1015.788913
760.055780
371.439457
192.041993
62.511563
26.848912
20.364523
26.516914
39.679408
54.701567
76.976418
94.073415
113.644600
120.994449
119.635463
112.114549
94.671845
77.543855
55.699944
41.375756
26.566982
18.437505
12.431741
10.115504
9.509921
9.476542
9.856820
10.451674
10.833740
10.964870
11.032820
11.157990
10.247827
10.554790
9.885430
9.979606
9.875894
9.699464
9.457469
9.435415
9.266734
9.182692
9.314418
9.595752
9.513497
9.247661
9.092689
8.710623
9.041429
9.021759
8.718967
8.819699
##ZVALUE=305
1.295805
1.396537
1.421571
1.207590
1.239777
1.275539
1.238585
1.115799
1.335740
1.502633
1.547933
1.521707
1.619458
1.485944
1.459718
1.430511
1.541972
1.606941
1.504421
1.551509
1.730919
1.936555
1.847744
1.714826
2.020597
1.994967
2.192855
2.455711
2.403855
2.640486
2.619624
3.097653
3.559589
4.201531
7.509589
54.964423
160.512924
442.597866
774.211884
1015.788913
1015.788913
1015.788913
1015.788913
1015.788913
1015.788913
1015.788913
1015.788913
1015.788913
690.289736
306.699872
141.655803
40.377975
18.952489
18.920898
25.154948
38.906932
53.089857
72.338581
88.532567
105.488896
111.292601
112.343431
104.981661
88.866949
74.625611
52.061677
38.622618
26.016831
19.372702
13.304949
11.315942
11.091828
10.388494
11.190772
10.787845
10.395646
10.303855
10.224581
9.709597
9.489655
9.395480
9.021759
9.264946
9.216666
9.292960
8.900762
9.176731
9.032488
9.040833
8.931756
9.326935
9.207726
8.927584
8.977652
8.697510
8.749962
##ZVALUE=310
1.279712
1.151562
1.250505
1.195669
1.421571
1.396537
1.339912
1.334548
1.319647
1.392961
1.301765
1.374483
1.267791
1.547933
1.326799
1.638532
1.357794
1.507998
1.435876
1.798868
1.668930
1.656413
1.647472
1.664758
1.752973
1.677871
1.991987
2.041459
2.224445
2.093911
2.515912
2.700686
2.738833
3.076792
3.359914
3.804564
4.963875
24.306774
90.453625
308.376551
599.344969
1015.788913
1015.788913
1015.788913
1015.788913
1015.788913
1015.788913
1015.788913
1015.788913
1015.788913
938.136578
471.468568
248.235464
81.774592
28.621554
14.820695
16.196966
23.191571
31.798482
47.878623
62.627792
82.171559
95.226765
104.535818
107.488632
99.799633
89.154840
71.489811
55.924654
38.066506
27.582645
18.918514
14.855862
12.108684
11.160970
10.184646
9.979606
9.825826
9.508729
9.108782
8.713603
8.720756
8.964539
9.114742
9.360909
9.350777
9.137988
9.424686
9.034872
9.253621
9.063482
8.620620
8.755922
8.692741
8.771420
8.462667
##ZVALUE=315
1.135468
1.316667
1.092553
1.323819
1.316667
1.218915
1.330972
1.353621
1.443624
1.393557
1.291633
1.256466
1.545548
1.281500
1.282692
1.375675
1.372695
1.399517
1.365542
1.496673
1.473427
1.735687
1.549721
1.727939
1.820922
1.761913
1.927614
1.906753
1.936555
2.113581
2.020597
2.176762
2.345443
2.728701
2.757907
3.119707
3.284812
3.665686
4.182458
11.080503
44.849515
203.931332
452.735424
967.809558
1015.788913
1015.788913
1015.788913
1015.788913
1015.788913
1015.788913
1015.788913
1015.788913
1015.788913
634.200573
342.056751
116.965771
43.430924
15.033484
13.015866
15.894771
20.516515
31.022429
42.817593
60.061812
73.985457
91.794729
98.877549
101.403594
98.057985
82.710981
70.414543
52.700639
40.106773
26.250482
19.353628
13.637543
11.437535
10.265708
9.552836
8.918643
8.434653
8.633733
8.801818
9.200573
8.935928
8.645654
9.012818
8.781552
9.133816
9.075999
8.744597
8.971691
8.876920
8.796453
8.926988
8.634925
##ZVALUE=320
1.341701
1.248717
1.402497
1.072884
1.090765
1.268983
1.294613
1.181960
1.142621
1.252890
1.362562
1.268983
1.103878
1.286864
1.339912
1.310706
1.521707
1.362562
1.296997
1.505613
1.440644
1.388788
1.387596
1.443624
1.594424
1.587868
1.722574
1.794696
1.768470
2.053976
2.003908
2.111793
2.278686
2.204776
2.405643
2.580881
2.673864
3.024936
3.183484
3.562570
4.037619
5.795956
19.252896
109.830499
290.290713
762.926936
1015.788913
1015.788913
1015.788913
1015.788913
1015.788913
1015.788913
1015.788913
1015.788913
1015.788913
846.163034
487.741828
204.624534
86.165667
21.529794
12.484789
12.445450
14.014840
19.458532
26.552677
39.642453
52.674413
71.411729
83.844662
94.120502
96.870661
91.756582
83.386898
65.591931
51.851869
35.965443
26.413798
17.494559
13.743639
10.163784
9.541512
9.066463
9.102821
8.994937
8.828640
8.618832
8.619428
8.604527
8.921623
8.724928
8.746982
8.405447
8.533597
8.303523
8.639693
8.445978
##ZVALUE=325
1.123548
1.185536
1.085997
1.096725
1.049638
1.208782
1.261830
1.274943
1.381636
1.248717
1.345873
1.150966
1.229644
1.251698
1.396537
1.314878
1.344681
1.349449
1.231432
1.444817
1.513958
1.498461
1.653433
1.474619
1.348853
1.647472
1.708865
1.478791
1.891851
1.737475
1.794696
1.980662
1.989603
1.804829
2.183914
2.240539
2.171993
2.499819
2.715588
2.659559
3.159642
3.716946
3.893971
4.683733
10.542870
68.945885
185.213685
509.017706
919.370651
1015.786529
1015.786529
1015.786529
1015.786529
1015.786529
1015.786529
1015.786529
1015.786529
966.903567
602.437854
271.451473
124.972463
33.436418
14.308691
11.172891
11.591911
14.023781
18.140674
27.167797
37.147999
54.591894
67.177415
81.468821
89.881420
91.030002
86.632967
73.765516
61.951876
45.969486
34.515858
22.543669
16.787648
12.425780
10.405779
9.424686
9.202957
8.721948
8.821487
8.841753
8.691549
8.677840
8.628964
8.516908
8.082986
8.350611
8.342862
7.979870
##ZVALUE=330
1.084805
1.138449
1.028776
1.167655
1.008511
1.137853
1.046658
1.248717
1.119971
1.120567
0.945926
1.247525
1.241565
1.265407
1.302958
1.329780
1.305938
1.287460
1.214743
1.366735
1.326799
1.298785
1.090765
1.274943
1.357794
1.357794
1.378655
1.605749
1.386404
1.638532
1.645684
1.735687
1.949668
1.809597
1.928806
1.917481
2.063513
1.965761
2.494454
2.325773
2.634525
2.866983
3.009439
3.324747
3.695488
4.131794
6.618500
22.639632
114.847422
289.597511
748.652816
1015.731692
1015.731692
1015.731692
1015.731692
1015.731692
1015.731692
1015.731692
1015.731692
1015.731692
773.203969
421.483517
161.281824
65.299869
17.437935
11.570454
10.369420
10.938644
14.145970
18.368959
27.653575
36.827922
51.259995
63.002706
77.049732
83.006620
84.584951
80.751777
69.030523
57.956576
41.778684
32.427907
22.316575
17.462969
12.784600
10.824800
9.244680
8.513927
8.363724
8.566976
8.405447
8.254647
8.126497
8.000731
8.017421
7.844567
##ZVALUE=335
1.123548
1.176000
1.220703
1.073480
1.174808
1.144409
1.114607
1.062751
1.000762
1.101494
1.178980
1.085997
0.944734
1.116991
1.244545
1.405478
1.446605
1.176596
1.281500
1.319647
1.450777
1.266599
1.258850
1.533628
1.348853
1.362562
1.462698
1.638532
1.638532
1.470447
1.691580
1.760721
1.798868
1.809597
1.794696
1.983643
1.864433
1.984835
1.990795
2.233982
2.183914
2.304912
2.640486
2.652407
2.843738
3.280640
3.598928
3.787875
4.486442
13.082623
49.444437
197.072625
422.110558
953.763723
1015.790701
1015.790701
1015.790701
1015.790701
1015.790701
1015.790701
1015.790701
1015.790701
1000.313759
527.995825
271.941423
90.397596
32.618642
12.197495
10.774732
10.832548
11.449456
13.992786
17.482638
25.871992
34.151673
47.874451
58.904886
70.183873
76.576471
78.170896
73.663592
63.605905
53.497553
42.551756
33.217669
22.790432
17.498732
12.698770
10.802746
8.884668
8.359551
8.276701
8.206964
7.772446
7.933974
7.764697
##ZVALUE=340
1.028776
1.163483
1.076460
1.108646
1.124740
1.123548
1.147985
1.037717
1.102686
1.051426
1.089573
1.038909
1.041889
1.135468
1.178980
1.254678
1.177788
1.163483
1.278520
1.338720
1.311898
1.277924
1.315475
1.375675
1.344681
1.375675
1.417994
1.307726
1.516938
1.489520
1.615882
1.682639
1.506805
1.501441
1.555681
1.672506
1.807809
1.791716
1.952648
1.993775
1.916885
2.195835
2.313852
2.299547
2.458692
2.594590
2.963543
3.096461
3.365874
3.576875
4.166961
7.244945
24.545789
126.982331
315.702558
793.505907
1015.788913
1015.788913
1015.788913
1015.788913
1015.788913
1015.788913
1015.788913
1015.788913
1015.788913
665.987730
356.252789
133.256912
49.364567
15.028715
11.543632
11.269450
11.031628
11.844635
13.343692
17.459989
22.790432
33.197403
43.450594
56.278706
65.652728
72.776675
72.805882
69.505572
63.040853
51.123500
41.472912
30.364990
22.860765
16.685724
12.993813
9.719729
8.597970
8.034706
7.831454
7.588863
##ZVALUE=345
1.056790
1.009703
1.053810
1.185536
1.011491
1.289845
1.111627
1.170635
1.081824
1.055598
1.033545
1.089573
1.103878
1.118779
1.117587
1.182556
1.270771
1.045465
1.251698
1.080632
1.276731
1.222491
1.283884
1.380444
1.318455
1.145601
1.518726
1.380444
1.299977
1.335740
1.426935
1.517534
1.511574
1.562834
1.408458
1.649857
1.550913
1.893640
1.807809
1.714826
1.908541
1.859665
1.995564
2.051592
2.161860
2.411604
2.315640
2.574921
2.881885
2.954602
3.400445
3.490448
3.780723
4.594922
11.607409
71.803927
195.255876
510.843396
923.538804
1015.784740
1015.784740
1015.784740
1015.784740
1015.784740
1015.784740
1015.784740
1015.784740
931.255817
502.288938
192.216635
78.084469
23.245811
12.982488
11.273623
10.596514
10.116696
10.390878
11.490583
14.279485
21.089911
28.861761
40.539503
49.852729
59.659481
64.802766
68.341494
64.957738
58.687925
50.483942
40.225983
31.224489
21.479726
16.415715
12.206435
10.052919
8.483529
##ZVALUE=350
1.130700
1.055598
1.107454
1.109838
1.083612
1.143813
1.011491
1.372695
0.953674
0.976920
1.202822
1.206994
1.114607
1.237988
1.120567
1.230836
1.164675
1.305938
1.309514
1.247525
1.217723
1.332760
1.304746
1.265407
1.296997
1.304746
1.433492
1.304746
1.437664
1.453757
1.568794
1.467466
1.565814
1.559854
1.572967
1.576543
1.646876
1.569986
1.592636
1.677871
1.546741
1.728535
1.669526
1.880527
2.001524
2.074838
2.154708
2.228618
2.361536
2.558827
2.659559
2.879500
3.079772
3.356934
3.736615
4.389882
6.268620
36.608577
115.317702
358.336568
680.123568
1015.788913
1015.788913
1015.788913
1015.788913
1015.788913
1015.788913
1015.788913
1015.788913
1015.788913
725.644827
306.019783
131.465793
32.486916
14.054775
11.053681
10.017753
9.096861
8.840561
9.414554
10.885000
14.845729
19.159913
26.589632
34.021735
45.314431
52.263737
59.038997
61.729550
60.829520
56.180954
46.567917
38.839579
28.961897
22.979975
15.914440
##ZVALUE=355
1.169443
1.237988
1.289845
1.241565
1.302958
1.299977
1.119971
1.217723
1.176596
1.085997
1.157522
1.263618
1.317859
1.324415
1.433492
1.237988
1.253486
1.159906
1.431704
1.288652
1.213551
1.293421
1.375675
1.378655
1.324415
1.423955
1.469851
1.429915
1.404881
1.482964
1.449585
1.496673
1.533628
1.535416
1.575947
1.657605
1.686811
1.653433
1.834631
1.852512
1.657605
1.798868
1.788735
1.995564
2.079606
2.110600
2.028942
2.109408
2.223849
2.528429
2.592802
2.601743
2.861619
2.886653
3.337860
3.492832
3.797412
4.142523
5.303621
12.934804
80.576539
217.584968
560.535789
951.018929
1015.768647
1015.768647
1015.768647
1015.768647
1015.768647
1015.768647
1015.768647
1015.768647
832.905769
430.920720
146.788955
55.469871
15.255809
10.377765
9.124875
8.893609
8.451939
8.304715
8.619428
9.458661
12.678504
16.223788
23.028851
29.863715
39.287806
46.579838
53.323507
55.935979
55.355430
51.340461
43.197870
36.502481
##ZVALUE=360
1.224875
1.275539
1.179576
1.248717
1.214743
1.203418
1.261830
1.251698
1.178980
1.173615
1.184940
1.235604
1.139641
1.202822
1.054406
1.230836
1.389980
1.313686
1.332760
1.239777
1.325607
1.383424
1.395941
1.310706
1.450777
1.426935
1.510978
1.402497
1.253486
1.306534
1.556873
1.526475
1.542568
1.547933
1.625419
1.680851
1.631975
1.684427
1.803637
1.756549
1.708865
1.813769
1.859665
1.932979
2.071857
2.126694
2.259612
2.153516
2.299547
2.294779
2.383590
2.452731
2.591610
2.744794
2.899766
2.973676
3.291965
3.609657
3.914833
4.481673
4.901886
6.810427
31.447411
104.888678
347.870588
660.018921
1015.788913
1015.788913
1015.788913
1015.788913
1015.788913
1015.788913
1015.788913
1015.788913
1015.788913
730.817914
285.111666
112.119913
25.065541
11.641979
9.459853
8.743405
8.444786
8.179545
7.706881
7.957816
8.839965
10.350943
14.060736
18.056631
25.206804
32.553673
40.927529
46.383739
51.320791
51.208735
##ZVALUE=365
1.180768
1.160502
1.188517
1.340508
1.039505
1.168847
1.163483
1.127720
1.276731
1.170635
1.198649
1.306534
1.190901
1.358986
1.346469
1.251698
1.141429
1.236796
1.204610
1.176000
1.209974
1.291633
1.242757
1.440644
1.281500
1.367927
1.503825
1.471639
1.385808
1.441836
1.456738
1.467466
1.478791
1.409650
1.612902
1.740456
1.597404
1.592636
1.582503
1.504421
1.509786
1.663566
1.610518
1.719594
1.777411
1.688600
1.745820
2.001524
1.972914
2.122521
2.206564
2.155900
2.444983
2.321601
2.379417
2.690554
2.826452
2.992749
3.069639
3.387928
3.726482
4.120469
4.720688
5.363822
12.580752
75.326562
201.174617
527.798533
947.851539
1015.763879
1015.763879
1015.763879
1015.763879
1015.763879
1015.763879
1015.763879
1015.763879
808.036923
423.439741
138.699412
46.439767
12.285709
9.270906
8.089542
7.935762
7.431507
7.274747
7.087588
6.982684
7.383823
8.725524
11.837482
15.202761
21.826625
27.643442
35.185814
##ZVALUE=370
1.151562
1.189709
1.211762
1.074672
1.135468
1.120567
1.035929
1.235604
1.163483
1.118779
1.207590
1.078844
1.118779
1.195669
1.091957
1.334548
1.301765
1.109838
1.188517
1.052618
1.037717
1.210570
1.248717
1.422763
1.232624
1.310706
1.340508
1.252890
1.219511
1.398921
1.586676
1.269579
1.344681
1.443624
1.395941
1.443624
1.374483
1.469851
1.415610
1.472831
1.583695
1.463890
1.594424
1.487732
1.656413
1.828671
1.585484
1.716614
1.644492
1.840591
1.711845
1.924634
2.000928
1.974702
2.105832
2.216697
2.110600
2.308488
2.346635
2.643466
2.770424
3.200769
3.378987
3.597736
3.990531
4.710555
7.095933
42.729974
131.582618
380.395651
720.027685
1015.788913
1015.788913
1015.788913
1015.788913
1015.788913
1015.788913
1015.788913
1015.788913
968.539715
564.448833
213.044882
85.643530
20.558834
9.261966
7.682443
7.428527
6.760955
6.817579
6.300807
6.203651
6.150603
6.244779
7.860661
9.578466
13.363957
##ZVALUE=375
1.111627
0.924468
1.164675
1.139641
1.057982
0.974536
0.971556
1.109838
0.960827
0.956655
1.004934
1.094937
1.007915
0.916719
1.141429
1.283884
1.058578
1.012683
1.108646
1.133680
1.188517
1.123548
1.019835
1.219511
1.203418
0.901818
1.070499
1.146793
1.185536
1.251698
1.101494
1.180768
1.090765
1.228452
1.284480
1.213551
1.278520
1.302958
1.319647
1.290441
1.579523
1.315475
1.392961
1.429915
1.336932
1.519918
1.495481
1.521707
1.522899
1.514554
1.513958
1.679659
1.620650
1.756549
1.951456
1.789927
1.915693
1.881719
1.893640
1.993775
2.358556
2.244711
2.421737
2.545714
2.874732
2.979636
3.753901
4.027486
5.449653
16.543865
91.992617
218.442082
525.471568
937.517881
1015.751958
1015.751958
1015.751958
1015.751958
1015.751958
1015.751958
1015.751958
1015.751958
740.891695
420.999527
158.141851
60.575604
13.402700
7.936954
6.933808
6.295443
6.279945
5.920529
5.677938
5.634427
5.436540
5.639791
##ZVALUE=380
0.908971
1.010895
0.863671
0.952482
1.005530
0.897646
1.128912
1.072884
0.985861
0.965595
1.029968
1.029968
1.089573
1.066923
0.958443
0.990629
1.010895
1.147985
0.927448
0.897646
0.886917
0.982881
1.160502
1.060963
0.907779
1.080632
1.186728
1.244545
1.072884
1.084805
1.364946
1.180768
1.094937
1.143813
1.155734
1.245737
1.154542
1.199841
1.235604
1.347661
1.171827
1.284480
1.266599
1.291633
1.210570
1.278520
1.351833
1.505613
1.468658
1.505613
1.399517
1.514554
1.472831
1.364946
1.625419
1.745820
1.691580
1.792908
1.851916
2.014637
2.153516
1.889467
2.030730
2.380610
2.343655
2.612472
3.111959
3.135800
3.521442
4.167557
4.846454
10.401607
39.649606
170.431733
376.667380
847.222805
1015.788913
1015.788913
1015.788913
1015.788913
1015.788913
1015.788913
1015.788913
1015.788913
997.664928
528.177619
266.792774
85.921884
29.599667
8.838773
6.735921
6.003976
5.850792
5.613565
5.337596
5.261898
##ZVALUE=385
0.899434
0.871420
0.899434
0.923872
0.997782
1.115799
0.781417
0.910759
0.905991
0.851750
1.000762
0.859499
0.952482
1.010895
0.935793
0.929832
0.928640
1.079440
1.108646
1.101494
0.970960
0.981688
1.136661
1.072884
1.090765
1.021624
1.005530
0.972748
0.915527
0.963807
1.053810
1.137853
1.026988
1.132488
1.055598
0.986457
1.030564
1.048446
1.159906
1.205802
1.157522
1.089573
1.162887
1.253486
1.171827
1.152754
1.204610
1.181960
1.302958
1.296997
1.398921
1.467466
1.524687
1.384616
1.463890
1.473427
1.560450
1.517534
1.531839
1.765490
1.560450
1.600981
1.765490
2.032518
2.020597
1.952648
2.302527
2.480745
2.754927
3.168583
3.293753
3.793836
4.173517
5.314946
16.668439
97.618699
240.891576
580.915809
964.019895
1015.788913
1015.788913
1015.788913
1015.788913
1015.788913
1015.788913
1015.788913
1015.788913
667.261481
376.983881
152.457952
57.789683
12.026429
6.563663
5.554557
5.534887
5.268455
##ZVALUE=390
0.817776
0.887513
0.981688
0.973940
0.867844
0.976920
0.761747
0.892878
1.048446
0.986457
0.826716
0.852942
0.888705
0.902414
0.879765
0.814795
0.993609
0.815988
0.861883
0.924468
0.892878
0.853539
1.004934
0.930429
0.968575
0.951886
1.095533
1.154542
1.039505
1.035929
1.110435
1.157522
1.050830
0.992417
0.972748
1.024604
0.953674
1.157522
1.162887
1.150966
1.178980
1.185536
1.234412
1.267791
1.245737
1.153946
1.216531
1.349449
1.128912
1.241565
1.310706
1.449585
1.448989
1.401901
1.475811
1.405478
1.470447
1.443624
1.639724
1.470447
1.707673
1.625419
1.746416
1.778603
1.840591
2.197623
2.211928
2.545714
2.510548
2.793670
3.215671
3.491640
3.525615
3.692508
3.828406
4.190803
8.914471
54.567456
169.872642
498.268604
905.261636
1015.788913
1015.788913
1015.788913
1015.788913
1015.788913
1015.788913
1015.788913
1015.788913
931.921601
534.921885
209.497809
89.132786
20.365715
7.810593
5.778670
##ZVALUE=395
0.761747
0.935793
0.776649
0.899434
0.915527
0.719428
0.823736
0.934601
0.948906
0.873804
0.895858
0.864863
0.974536
0.812411
0.918508
0.991821
0.817776
0.852942
1.042485
0.847578
0.949502
0.924468
0.966787
0.806451
1.017451
0.911951
0.904799
0.940561
0.899434
1.155734
1.125932
1.114607
1.028776
1.056790
1.176596
1.214743
1.074672
1.134872
1.112819
1.140833
1.067519
1.074672
1.181960
1.267791
1.229644
1.282692
1.185536
1.247525
1.269579
1.433492
1.416802
1.314878
1.332760
1.457930
1.438856
1.357794
1.398921
1.504421
1.630783
1.435876
1.651645
1.601577
1.661777
1.816750
1.919866
1.975894
2.230406
2.250671
2.539754
2.635717
2.785921
3.039837
3.093481
3.003478
3.090501
3.260970
3.345609
3.697872
5.161762
31.539798
113.205910
357.958674
645.624995
1015.788913
1015.788913
1015.788913
1015.788913
1015.788913
1015.788913
1015.788913
1015.788913
1015.788913
723.542571
309.174657
142.344832
41.729808
##ZVALUE=400
0.842810
1.013875
0.991821
0.838637
0.839829
0.839829
0.939965
0.882745
0.907779
1.085997
0.904799
0.914931
0.899434
0.906587
0.904799
1.001954
0.908971
0.792742
0.886917
1.032948
0.897646
0.914931
1.102686
0.999570
1.135468
1.007915
0.958443
1.052618
1.021624
1.083612
1.267791
1.152754
0.982881
1.086593
1.088977
1.135468
0.908971
0.991821
1.088977
1.061559
1.187921
1.120567
1.095533
1.167655
1.168847
1.176596
1.119971
1.246929
1.241565
1.159906
1.294613
1.248717
1.322627
1.482964
1.333952
1.369715
1.559854
1.435876
1.261830
1.566410
1.652837
1.646876
1.681447
1.799464
1.784563
1.944900
2.033710
2.267957
2.497435
2.581477
2.690554
2.780557
2.769828
2.764463
2.922416
2.971888
2.784729
3.122687
3.326535
3.623962
4.461408
15.790462
58.465600
202.608705
419.875979
900.949836
1015.788913
1015.788913
1015.788913
1015.788913
1015.788913
1015.788913
1015.788913
1015.788913
938.361883
474.674702
##END
