##TITLE=AAI0802
##FORMAT=SPECTACLE-ASCII V-1.2
##DATA TYPE=ULTRAVIOLET SPECTRUM
##SECOND TYPE=ULTRAVIOLET SPECTRUM
##DATE=11/28/17
##TIME=13:21:20
##SPECTROMETER/DATA SYSTEM=SPECTACLE
##XUNITS=NM EM
##YUNITS=ENERGY
##YFACTOR=1
##FIRSTX=220
##LASTX=410
##NPOINTS=96
##3DDATA=Equidistant
##ZUNITS=NM EX
##FIRSTZ=210
##LASTZ=400
##ZPOINTS=39
##XYDATA=(Y..Y)
##ZVALUE=210
6.745458
6.189942
6.334782
5.106926
5.642772
6.648898
5.434752
4.899502
4.592538
4.411936
4.682541
3.665686
3.524423
2.977848
3.219843
3.672838
3.289580
4.179478
4.304647
4.297495
4.498959
5.391836
3.947616
4.479885
5.039573
5.309582
6.560683
6.347895
5.532503
6.403923
6.812811
6.825924
6.943941
8.259416
9.437799
10.033846
9.418726
10.409951
8.786917
9.730458
10.084510
10.311604
10.978580
10.882616
10.236502
10.713935
11.992455
10.580420
10.356903
11.390448
11.561513
13.192892
11.494756
11.470914
12.043715
10.292530
10.804534
11.603832
12.430549
12.969971
12.042522
12.408495
12.644529
13.204813
12.177825
12.062788
13.239980
13.405681
17.319918
17.027855
19.211769
23.223758
26.040673
28.142929
29.878616
32.462478
33.263564
30.583739
27.373433
27.238727
23.916960
21.910667
18.771887
16.638637
14.843941
11.839867
10.746717
10.916591
10.556579
11.118650
10.599494
10.878444
11.908412
10.376573
11.478662
11.576414
##ZVALUE=215
19.197464
18.588901
18.143654
14.926791
12.029409
10.035634
10.171533
9.796619
10.200739
10.136962
8.657575
8.567572
6.328821
5.622506
4.797578
4.210472
4.340410
3.884435
4.194975
4.317760
4.699826
5.455613
5.034804
5.040765
5.649924
5.632639
6.441474
6.645918
6.871819
7.035732
7.873774
7.720590
9.530783
10.316968
11.026859
11.313558
12.363791
12.570620
13.166666
12.825727
13.401508
14.359951
15.358925
13.694763
14.199615
14.732480
13.848543
14.327765
12.263656
13.952851
13.638735
13.066530
13.472438
13.019443
14.116764
13.696551
13.951659
12.655854
13.110638
12.609959
13.549924
14.307499
14.466643
14.633536
15.363693
15.121698
14.403462
16.287565
15.441775
17.836690
18.144846
21.099448
23.306608
27.672648
28.790832
27.907491
28.724670
28.217435
29.110909
26.276708
23.277998
20.898581
18.795729
15.836954
15.625954
12.622476
13.326406
11.005998
11.966825
12.305975
10.750890
9.598732
10.943413
10.975599
10.678768
11.131763
##ZVALUE=220
45.586824
45.576692
48.308969
47.375560
45.010448
37.578940
30.326843
21.322966
17.989874
16.450882
17.036796
17.581582
16.962886
16.080737
12.514591
9.663701
7.824898
6.494522
5.482435
5.444884
5.060434
5.518794
6.017685
5.837679
6.381869
6.540418
6.261468
6.938577
7.867813
9.008646
10.293722
11.941791
13.729930
16.843677
18.916726
20.206571
21.441579
21.517873
24.243593
22.918582
25.800467
24.357438
25.441647
24.984479
23.339987
24.054646
24.612546
23.566484
21.728873
22.528768
21.020770
19.534826
19.080639
19.487739
19.455552
18.743873
19.223690
17.358661
18.589497
17.946959
18.521547
17.226934
16.932487
18.147826
17.897487
17.063618
17.557740
18.277764
17.906427
20.358562
21.327734
24.473667
25.874972
28.828979
30.117631
29.827952
29.370785
28.407574
28.197765
25.956631
26.944876
23.612976
22.417903
19.224882
18.403530
15.535951
14.711618
13.187528
13.147593
11.446476
11.481643
11.607409
11.193752
9.685755
9.454489
10.160804
##ZVALUE=225
64.948797
68.998933
89.114904
111.782551
131.651759
128.674507
115.496516
90.030432
64.999461
48.049688
34.241676
30.067563
30.885935
32.043457
32.493472
29.710531
24.374723
19.930601
13.880730
11.890531
9.147525
7.362962
5.993843
6.115437
6.780624
6.507635
7.422566
8.704662
9.886622
13.354421
14.670491
19.782782
24.411678
28.765798
29.436946
34.280419
37.657619
39.826632
41.420460
46.264529
47.266483
47.237873
47.924519
44.257641
44.710636
41.769743
40.766597
37.871599
37.996769
37.322640
33.011436
33.362508
34.836531
31.942725
30.279756
27.883649
28.679967
27.114749
27.639866
28.706789
26.122928
25.802851
23.950934
26.154518
25.964975
22.315979
26.799440
25.793910
24.811625
27.146935
27.758479
30.290484
31.410456
34.231544
34.291744
37.878752
34.518838
35.148859
34.284592
31.565428
30.002594
28.053522
25.844574
24.346709
20.650625
20.471811
18.052459
18.354654
16.587973
15.227795
15.340447
15.374422
13.980865
14.585853
14.491677
14.509559
##ZVALUE=230
49.221516
51.189661
93.828440
140.907764
183.239579
236.607790
261.569619
264.053941
233.922005
186.079741
142.907500
87.380409
65.446496
51.128864
50.817728
53.178668
52.927732
51.597953
46.569705
38.553476
28.628707
19.046664
13.438463
9.895563
8.352995
7.984638
8.145571
9.447932
12.326837
15.754700
20.075440
26.784539
31.874776
40.370822
46.947598
52.413940
58.080554
62.181950
70.050955
69.780946
70.685744
68.745613
72.769523
66.688657
68.065524
62.830448
63.506961
60.956478
57.645440
55.411458
54.889917
52.119493
50.086975
47.657490
48.208833
45.782924
43.484569
40.462613
42.577982
40.022731
38.426518
40.359497
39.655566
36.935806
36.613941
39.471984
37.041903
34.390688
37.453771
38.198829
39.766431
39.654970
42.616725
43.285489
44.635534
44.069886
43.393970
42.599440
39.594769
39.324760
35.076737
33.693910
32.129884
27.502775
26.261806
26.476979
24.149418
23.482442
21.665692
20.409822
21.259785
20.849705
18.955469
19.580722
17.523766
18.077493
##ZVALUE=235
16.530752
17.138720
38.502812
89.353919
147.406459
243.240595
325.078964
419.818759
469.928980
482.435822
426.316857
349.512696
240.674019
178.761482
115.240812
87.195635
74.195862
75.320601
77.123642
81.776977
77.580810
61.793923
53.723454
39.686561
27.303696
17.085671
12.627840
12.810826
13.674498
18.752813
21.808743
32.298565
37.846565
46.650767
53.489804
61.431527
64.726472
72.842836
77.986717
80.171824
79.472661
81.568956
81.030726
78.761578
73.568821
75.556636
71.252584
71.783662
69.679618
69.543719
64.846873
62.215924
59.154630
60.672760
56.808591
56.155920
55.453777
54.667592
56.454539
54.235458
52.879453
51.862597
53.830743
52.368641
50.551891
51.243901
48.403740
48.207641
49.811602
47.513843
51.189661
50.513744
49.195886
50.890446
49.614906
49.726963
49.455762
48.268437
47.396421
42.666793
44.596791
41.974783
36.394000
33.794641
33.841729
30.879974
28.713942
27.481914
27.269721
25.188923
24.076700
24.110675
24.105906
23.516417
23.813844
21.343827
##ZVALUE=240
2.790689
2.715588
7.282495
16.803741
48.481822
89.501739
194.334984
299.730897
468.742847
566.052794
670.809746
674.705505
631.698966
514.519811
398.325920
254.922509
178.342462
122.042894
96.738935
95.232725
104.451776
109.206438
105.069876
96.085668
80.305934
64.306855
46.951771
33.526421
25.975704
20.976663
19.814968
26.740432
32.041669
36.864877
42.383671
49.167871
52.726865
59.721470
60.485601
65.512657
63.373446
69.611669
65.584779
67.669749
65.752864
66.994429
63.662529
61.826706
61.209798
62.630773
60.276985
61.066747
61.064959
59.918761
59.935451
60.431957
61.069727
62.980652
63.379407
63.411593
64.074993
63.291788
64.000487
63.897967
64.176917
64.702630
62.325597
63.565969
63.413978
62.823892
62.319636
64.186454
63.777566
62.386990
64.368844
62.743425
61.390996
57.670474
54.597855
50.910711
48.463941
46.104789
43.109655
41.142702
40.561557
38.566589
37.502646
34.410954
32.411814
30.993819
30.550957
28.316975
28.749704
27.427673
27.434826
26.153922
##ZVALUE=245
2.604723
2.361536
2.726912
2.693534
5.692840
12.145638
40.172935
82.235932
202.950835
314.452648
516.499877
668.404698
777.530670
848.508477
809.683800
675.512552
554.554462
365.145802
252.355933
148.281455
105.696917
97.652674
106.105804
116.383433
120.968819
119.374990
109.031796
93.852878
70.593953
53.151846
41.347742
30.193925
23.584962
23.959875
22.356510
26.725531
27.809739
30.880570
31.566620
32.331944
34.343600
36.577582
34.506917
36.026835
37.706494
38.646460
38.252473
40.575862
41.080713
43.762922
45.726895
48.051476
49.699545
52.184463
53.256750
59.548616
59.587955
61.739683
64.642429
69.463849
70.319772
71.356893
69.479942
72.575808
71.632862
72.585940
71.260929
75.513721
71.770549
72.017908
72.560906
72.903633
71.216822
68.487525
66.590905
67.011714
66.148639
60.266852
58.473945
56.861639
52.786469
48.930645
48.597455
45.550466
43.667555
39.755702
38.848519
35.381913
35.922527
32.738447
32.435656
30.702949
29.884577
28.829575
27.258992
27.371645
##ZVALUE=250
2.129674
2.465844
2.405643
2.254844
2.213717
2.484918
3.293753
7.818937
34.458637
70.955753
182.408690
308.056474
472.825766
693.950653
840.626955
960.474014
964.951515
875.770450
733.560920
507.323742
340.657830
215.596557
125.976801
95.258951
94.549656
111.013651
121.710896
131.130815
124.480724
114.455819
101.783872
76.434612
59.297681
39.971471
31.826496
23.152828
20.551682
19.184947
20.190477
20.686984
21.107793
21.620989
22.194982
22.970438
24.364591
28.657913
28.535724
33.131838
32.683611
36.407709
38.776994
43.008924
48.018694
53.672791
57.060719
62.108636
66.910982
69.060922
73.080659
78.368783
81.075430
86.036921
82.018971
86.854696
87.900758
88.993907
87.445974
88.163614
84.917545
85.670948
85.161924
85.179806
84.562898
83.825588
78.761578
76.971650
74.239969
71.388483
67.786574
63.742995
61.327815
56.265593
53.985715
49.395561
49.035549
45.381784
44.112802
39.196610
38.850904
36.499500
34.941435
33.543706
31.585693
30.965805
30.878782
28.769970
##ZVALUE=255
2.056956
1.996756
2.108812
2.182722
2.299547
2.362728
2.249479
2.791882
3.013611
6.068945
17.758608
62.639713
129.274726
287.212729
451.401472
690.618753
863.626003
1015.939713
1015.939713
1015.601754
915.533900
735.360980
465.236902
289.658904
152.356625
102.452636
83.198547
95.531940
114.870667
131.564736
138.423443
135.249496
126.441717
105.381608
89.175701
60.067773
48.096776
32.275915
25.090575
20.992756
19.764900
19.355416
21.386743
23.198724
22.938848
26.385784
27.992725
31.219721
34.066439
37.765503
41.199923
46.461821
52.317977
57.143569
59.495568
64.369440
71.302652
77.532530
78.737736
83.352923
89.695454
91.836452
92.429519
97.135901
96.785426
96.991658
97.638965
97.167492
97.448826
95.885992
95.176697
93.153715
93.017817
88.347793
88.376999
84.274411
80.646873
75.936913
72.532892
67.099929
65.985918
62.112808
58.901906
52.973628
52.547455
50.122738
46.237707
43.801665
42.493939
40.380955
37.748814
35.900474
33.364892
33.168793
30.414462
29.462576
##ZVALUE=260
1.971722
1.890659
2.047420
2.006888
2.068877
1.833439
1.967549
2.206564
2.150536
2.434850
2.273917
3.460646
11.413693
33.549666
96.762776
198.137760
417.163968
615.717769
830.031633
1015.788913
1015.788913
1015.788913
1015.788913
892.001987
651.905537
379.762650
240.875483
126.062632
86.617470
81.169605
98.486543
120.777488
139.449835
148.788691
146.479607
133.188963
119.744539
90.000629
71.964860
50.319433
38.529634
30.194521
26.948452
25.439858
26.470423
28.509498
29.034615
32.913685
32.982826
36.373734
39.500594
43.603778
46.965480
51.607490
55.503845
60.376525
65.359473
70.442557
71.128607
78.548789
81.653595
84.645748
87.319613
87.423921
89.744925
91.110468
92.638731
93.254447
91.600418
92.146993
89.443922
88.445544
85.583925
85.340738
81.623793
78.700781
76.316595
71.831942
69.466829
65.607429
61.939955
59.885979
55.812597
54.502487
49.788952
45.618415
45.322776
42.681694
40.648580
38.804412
35.246611
33.844709
31.992793
31.438470
29.074550
27.947426
##ZVALUE=265
1.856685
1.961589
1.851916
1.712441
1.784563
2.104640
1.996756
2.005696
2.123713
2.273917
2.383590
2.284646
2.874732
2.969503
6.293654
21.194816
78.520775
161.451697
355.002880
569.370389
909.101963
1015.788913
1015.788913
1015.788913
1015.788913
1015.788913
870.811939
550.234914
355.097651
184.295774
110.042691
73.507428
80.005527
108.410716
129.157901
151.307583
158.442855
154.236555
141.951442
119.534731
100.568533
72.465539
58.855414
43.468475
36.380887
31.774640
31.423569
31.712651
32.766461
34.586787
36.319494
39.305687
40.858984
43.479800
46.823621
50.154924
52.750707
56.006908
58.248639
62.831640
62.424541
66.266656
69.415569
70.564747
71.093440
71.632862
71.300864
72.271824
73.286891
71.296692
70.945621
71.478486
69.294572
69.241524
65.563917
62.795877
60.949922
58.035851
54.984689
53.186417
50.402880
47.370791
45.324564
41.638613
40.953755
37.849545
37.277937
34.746528
32.920837
31.567812
29.589534
27.815700
26.066899
24.998784
24.636984
23.943782
##ZVALUE=270
1.543760
1.788735
1.610518
1.601577
1.785755
1.741648
1.787543
1.741648
2.074838
2.067685
2.020597
1.654625
2.159476
2.264977
2.419949
2.660751
3.041625
12.235641
36.679506
129.194856
261.885524
471.927524
839.950442
1015.788913
1015.788913
1015.788913
1015.788913
1015.788913
1015.788913
820.078850
562.075973
288.073421
165.503621
82.144737
70.543885
89.599490
112.005472
138.421655
156.784654
164.517760
162.406564
146.564841
129.575729
101.445913
81.347823
58.334470
47.161579
40.263534
35.817623
33.641458
33.207536
34.031868
34.640431
37.868619
38.878918
39.754510
41.942596
43.658614
45.612454
46.894550
47.024488
48.919916
50.180554
50.573945
51.483512
51.336884
52.257776
51.642656
51.429868
50.812960
50.070882
51.472783
49.617887
47.520995
46.714544
43.571591
43.999553
42.852759
40.371418
39.207935
37.352443
35.157800
33.253431
32.241940
30.628443
29.789805
27.275681
25.531650
25.208592
23.889542
23.771524
21.926761
21.406412
19.548535
19.243956
17.875433
##ZVALUE=275
1.527667
1.619458
1.472831
1.396537
1.627803
1.545548
1.563430
1.705885
1.671910
1.610518
1.910925
1.842976
1.917481
1.973510
1.937747
2.252460
2.114773
2.550483
2.822876
5.117655
26.612878
77.139735
239.008665
438.765883
806.922913
1015.788913
1015.788913
1015.788913
1015.788913
1015.788913
1015.788913
994.193554
727.801919
390.112996
227.332711
105.788708
69.732666
71.695447
89.397430
118.526816
137.625933
156.498551
164.455771
160.136819
148.465633
123.655796
106.205940
81.100464
65.083504
48.841834
41.790605
36.814809
34.308434
35.205483
35.268664
36.855936
38.104653
38.117766
38.479567
40.572882
40.091872
41.441917
41.162968
42.587519
41.018724
41.825771
41.860938
41.845441
41.892529
41.573644
41.460991
41.628480
39.876699
40.805936
40.245652
37.973523
37.305951
35.379529
34.976602
32.302737
30.902624
29.386878
27.759671
26.144981
25.931001
24.197698
22.255778
22.299886
21.194816
19.754767
19.289851
18.800497
18.542409
17.046928
16.640425
15.788674
##ZVALUE=280
1.277924
1.550913
1.426935
1.635551
1.453757
1.604557
1.592636
1.625419
1.603961
1.440644
1.772642
1.847744
1.621842
1.952648
2.006888
1.891851
2.156496
2.274513
2.292991
2.367496
2.538562
3.768802
15.888810
53.940415
176.190734
332.112908
622.738600
919.407606
1015.788913
1015.788913
1015.788913
1015.788913
1015.788913
1015.788913
910.876393
528.737903
316.219926
147.155523
80.151558
55.491924
66.094995
88.458657
109.662414
136.531591
150.742531
158.577561
156.868696
140.595436
124.607682
100.481510
80.488920
61.416626
50.201416
41.208863
36.229491
33.909678
35.049915
36.523938
36.685467
37.683845
38.038492
39.668679
39.990544
39.288998
39.929748
40.627718
40.271878
40.600896
40.112734
40.364861
39.688945
38.405657
38.695931
37.881732
37.535429
36.070943
35.114884
34.744740
33.519864
31.669736
30.799508
28.492808
27.458668
25.515556
25.947690
24.247766
23.737550
21.778941
21.026731
20.272732
19.444823
17.969608
17.311573
17.630458
16.440749
15.740991
##ZVALUE=285
1.539588
1.432896
1.378655
1.687407
1.357794
1.651645
1.558661
1.593828
1.527667
1.945496
1.518726
1.585484
1.732707
1.674891
1.718998
1.843572
1.931787
1.870990
2.250671
2.260804
2.253652
2.630949
2.733469
2.978444
7.827878
27.846694
96.032619
210.608840
470.152497
740.637779
1000.768542
1015.872955
1015.872955
1015.872955
1015.872955
1015.872955
1015.872955
710.718036
441.268682
211.577415
110.635757
51.147938
43.871999
60.190558
77.473521
102.726817
123.071671
139.739513
147.616863
148.772001
137.420893
119.100809
101.417899
77.671409
62.903762
48.047900
41.581988
38.255453
36.625862
36.712885
36.844611
38.495660
39.713979
39.194822
40.407777
40.185452
40.686727
40.117502
40.770769
39.500594
40.269494
39.837956
39.627552
39.875507
38.473606
37.540793
36.681890
36.109686
34.039617
32.620430
30.647516
29.246807
28.502941
27.423501
27.121902
24.683475
24.244785
23.360848
22.535920
22.205710
21.170974
19.787550
19.045472
17.988682
17.218590
16.066432
##ZVALUE=290
1.300573
1.361966
1.276731
1.272559
1.338720
1.374483
1.153946
1.456738
1.483560
1.375675
1.509786
1.533628
1.662970
1.694560
1.619458
1.735687
1.531839
1.975894
1.808405
1.939535
2.191663
1.999736
2.223849
2.317429
2.670884
3.203750
3.709793
14.344454
45.931935
149.341822
290.986896
620.547533
945.194960
1015.788913
1015.788913
1015.788913
1015.788913
1015.788913
1015.788913
942.530036
619.647503
299.158692
158.031583
57.746768
35.420656
37.818551
50.086975
73.684454
92.590451
117.570758
133.983493
142.790675
143.258572
132.388473
119.590759
96.270442
78.401566
61.291456
50.554872
42.086840
38.924813
36.351681
36.937594
36.805868
37.214756
38.575530
38.951635
39.137602
39.405823
39.560795
39.500594
39.612651
39.209723
38.501620
38.174987
35.874844
35.688877
34.161806
32.824874
31.459928
31.188726
30.372739
28.676987
27.145743
27.179718
26.037693
24.537444
24.318695
22.398829
21.802783
21.027923
19.379854
19.047856
18.306971
17.684698
17.045736
##ZVALUE=295
1.242757
1.428723
1.279712
1.232624
1.254678
1.246929
1.284480
1.306534
1.333952
1.296997
1.487732
1.384616
1.397729
1.372695
1.481771
1.358986
1.461506
1.768470
1.652837
1.418591
1.799464
2.055764
1.751781
2.064705
2.128482
2.391934
2.637506
2.732873
3.218651
5.458593
18.862486
84.068775
196.064711
474.810600
778.598785
1015.733480
1015.733480
1015.733480
1015.733480
1015.733480
1015.733480
1015.733480
772.949457
403.755903
217.506886
78.591704
37.594438
26.111603
32.471418
48.124790
65.120459
89.474916
107.815862
128.909945
136.837959
136.244893
129.781961
111.042857
96.701980
74.529648
62.497854
48.495531
41.762590
38.053989
36.250949
35.508871
35.313964
36.120415
36.208630
35.966635
37.072897
36.052465
36.536455
36.088824
34.983754
33.983588
34.189820
31.946898
32.097697
30.730963
29.680729
28.448701
27.548671
26.070476
25.219917
25.555491
24.574995
23.446679
21.882653
21.158457
20.664930
19.444823
19.195676
18.140674
17.749667
17.221570
##ZVALUE=300
1.229644
1.237988
1.282692
1.304746
1.345873
1.443624
1.405478
1.441836
1.414418
1.192689
1.303554
1.388788
1.457930
1.524687
1.588464
1.507998
1.465678
1.572967
1.660585
1.711845
1.720786
1.793504
1.784563
1.608729
2.074838
2.001524
1.990795
2.487898
2.696514
2.876520
3.273487
3.737807
13.038516
45.373440
155.566931
311.227441
662.283897
986.681581
1015.788913
1015.788913
1015.788913
1015.788913
1015.788913
1015.788913
978.184938
644.357800
317.404866
168.999434
58.707595
27.692914
23.058653
29.549599
44.783950
58.835745
83.234906
101.525784
122.240782
130.348802
131.486654
127.407908
110.600591
95.837712
76.161623
63.439608
48.754811
41.545630
36.507845
34.703612
34.503937
33.880472
34.190416
34.550428
33.252835
33.580661
32.959580
32.718778
31.191707
31.483769
30.113459
28.222799
27.817488
27.498603
26.699901
26.310682
25.094748
23.514628
23.406744
21.921992
21.876693
21.264553
19.881725
18.977523
18.198490
17.660856
16.715527
16.398430
##ZVALUE=305
1.267791
1.444817
1.303554
1.255870
1.347661
1.255870
1.287460
1.355410
1.141429
1.146793
1.309514
1.368523
1.328588
1.558661
1.231432
1.480579
1.561642
1.496673
1.413822
1.679659
1.479983
1.721978
1.633763
1.811981
1.623631
1.772642
1.889467
2.008677
2.049804
2.263784
2.325773
2.583861
2.849698
3.243685
5.642772
33.090711
90.294480
256.114602
476.831794
918.295979
1015.785933
1015.785933
1015.785933
1015.785933
1015.785933
1015.785933
1015.785933
865.866542
542.588830
241.646767
112.781525
37.081838
20.632744
22.505522
28.753877
45.096874
60.385466
83.632469
98.497868
116.188526
125.430822
126.353502
121.192932
107.260942
91.957450
71.970820
59.294701
46.762824
39.967895
35.063624
33.346415
32.039881
31.716824
31.566620
31.121969
29.806495
29.645562
28.842688
27.535558
26.858449
26.450753
25.668740
24.420619
24.594665
23.350716
22.650957
21.875501
21.959543
20.321608
19.572973
19.018650
17.946959
17.176867
16.964674
16.253591
15.866756
##ZVALUE=310
1.130700
1.080632
1.246929
1.251698
1.134872
1.268983
1.101494
1.078844
1.141429
1.313686
1.298785
1.284480
1.207590
1.268983
1.333952
1.448989
1.382828
1.336932
1.414418
1.504421
1.382828
1.377463
1.622438
1.575947
1.703501
1.801848
1.874566
1.807809
1.984835
2.061725
2.180934
2.279878
2.409816
2.624989
2.750754
2.854466
3.651977
15.022755
50.780773
168.671608
331.159830
694.783926
1013.692617
1015.792489
1015.792489
1015.792489
1015.792489
1015.792489
1015.792489
1004.937887
694.497824
332.952738
172.049999
59.349537
27.227998
18.109679
21.302700
29.582977
39.015412
56.202412
71.084499
92.957616
106.163621
117.012858
120.052695
115.228891
103.982687
87.946653
72.887540
55.662990
45.468807
37.017465
31.905770
28.722882
27.421713
26.262999
25.890470
24.794936
24.029613
23.248792
23.152828
22.582412
21.839738
21.151900
20.660758
20.717978
20.107627
19.709468
18.695593
18.221736
17.718673
17.194748
16.306639
15.716553
15.139580
14.817715
##ZVALUE=315
1.097918
1.333952
1.156926
1.157522
1.136661
1.091957
1.042485
1.083612
1.198649
1.217723
1.114607
1.236796
1.197457
1.254678
1.351833
1.321435
1.255870
1.258850
1.396537
1.371503
1.389980
1.476407
1.430511
1.475811
1.679659
1.681447
1.746416
1.765490
2.008677
1.696944
1.767874
2.024770
2.140999
1.935959
2.261996
2.459884
2.730489
2.998710
3.513694
7.467866
28.216839
113.738775
242.412686
541.890860
867.986679
1015.788913
1015.788913
1015.788913
1015.788913
1015.788913
1015.788913
1015.788913
870.133638
447.351933
237.197876
82.504749
33.822656
17.820597
17.603636
21.395683
26.743412
39.781928
51.091909
67.950487
83.255768
100.045800
109.339952
112.223625
107.670426
93.815923
81.194639
63.607693
51.243901
37.861466
30.828714
25.970936
23.036599
21.372437
20.661950
19.586682
19.981861
19.121766
18.646717
18.410683
17.852783
17.841458
16.938448
17.038584
16.376972
15.515685
15.657544
14.628768
14.465451
14.059544
13.909936
13.112426
##ZVALUE=320
1.030564
1.080632
1.236796
1.105666
1.232624
1.114607
1.080632
1.187921
1.166463
1.242757
1.173615
1.179576
1.310706
1.279712
1.129508
1.178980
1.184940
1.230836
1.232624
1.285672
1.299977
1.199841
1.312494
1.378655
1.511574
1.528859
1.555681
1.514554
1.447797
1.679659
1.615882
1.767874
1.825690
1.949668
1.996756
2.076626
2.106428
2.180934
2.452731
2.681613
2.791882
3.881454
12.294650
67.515969
160.886645
399.425626
663.560033
1015.788913
1015.788913
1015.788913
1015.788913
1015.788913
1015.788913
1015.788913
1015.788913
598.310828
335.863829
136.178732
59.740543
19.974709
14.414787
15.632510
18.167496
23.283958
31.432509
45.769811
57.587624
75.625777
87.856650
98.828673
102.288723
96.361637
88.346004
71.203709
58.567524
42.456985
32.695532
24.581552
20.067692
17.318726
15.986562
15.709996
15.359521
15.070438
14.618635
13.921857
13.918877
13.877749
13.571978
12.847781
12.936592
12.909770
12.385845
12.160540
11.844635
11.761785
##ZVALUE=325
1.089573
1.092553
1.051426
1.057982
1.080632
1.157522
1.029968
1.078844
1.069903
1.154542
1.150966
1.189709
0.999570
1.203418
1.247525
1.104474
1.010895
1.385808
1.407862
1.314878
1.264811
1.357794
1.366735
1.443624
1.362562
1.273751
1.410842
1.247525
1.506805
1.508594
1.596808
1.617670
1.523495
1.658797
1.766682
1.881719
1.835823
1.916885
2.072453
2.251863
2.488494
2.738833
2.760887
3.347993
6.641746
42.671561
112.033486
288.624763
512.413979
942.578912
1015.788913
1015.788913
1015.788913
1015.788913
1015.788913
1015.788913
1015.788913
755.862594
460.096598
195.082426
87.545514
26.891828
14.383793
12.186766
13.118982
15.517473
19.629598
29.171705
39.398670
55.455565
67.861676
82.197785
89.859962
91.676712
86.900592
74.798465
63.543916
48.979521
37.411451
26.824474
20.154715
15.625954
13.972521
12.882948
12.376904
12.178421
12.241602
11.554956
11.406541
11.243820
10.987520
10.920763
10.683537
10.639429
10.439754
10.397434
##ZVALUE=330
1.066923
1.116991
0.995994
0.961423
1.208782
1.053810
1.127720
1.094937
1.025796
1.044869
0.952482
1.165867
1.046658
1.249909
1.251698
1.090765
1.215935
1.122952
1.301765
1.190901
1.079440
1.063943
1.195669
1.363754
1.250505
1.242757
1.250505
1.377463
1.416802
1.492500
1.324415
1.471639
1.305938
1.480579
1.648664
1.767874
1.861453
1.822710
1.881719
2.001524
2.046824
2.255440
2.227426
2.543926
2.917647
3.033876
3.963709
19.705892
63.050985
206.136703
392.436981
771.881938
1015.788913
1015.788913
1015.788913
1015.788913
1015.788913
1015.788913
1015.788913
948.855877
613.728762
283.047557
138.997436
44.637918
17.522573
10.706782
10.824800
11.142492
13.081431
18.605590
24.997592
36.701560
47.237873
63.959956
73.675513
82.085729
84.097981
78.867674
70.509911
56.148767
44.613481
31.467676
24.641752
18.164515
14.889836
11.811852
11.084676
10.419488
10.464787
9.920597
9.700656
9.826422
9.291768
9.415746
9.283423
9.220839
##ZVALUE=335
1.100898
1.021624
1.111627
0.857711
1.014471
1.085997
1.135468
1.153946
1.068711
0.998974
1.144409
0.884533
0.993609
1.145601
1.069903
1.092553
1.045465
1.063943
1.059771
1.118779
1.218915
1.235604
1.315475
1.176000
1.101494
1.131892
1.369715
1.283884
1.343489
1.476407
1.464486
1.485944
1.458526
1.568794
1.469851
1.554489
1.654625
1.698732
1.775622
1.895428
1.972914
1.976490
2.098680
2.153516
2.295971
2.422929
2.789497
2.847910
3.361702
8.849502
32.377839
129.288435
273.821950
617.657900
971.037745
1015.788913
1015.788913
1015.788913
1015.788913
1015.788913
1015.788913
1015.788913
840.677619
449.653864
239.822865
76.176524
27.721524
11.365414
9.848475
9.642839
10.695457
13.003945
16.610622
24.194717
32.671690
45.956969
56.778789
68.340898
74.099898
77.622533
72.578788
63.270926
54.073930
41.759610
33.055544
23.420453
17.880797
13.255477
11.237860
9.782910
9.301901
8.891821
8.842945
8.877516
8.347631
8.573532
##ZVALUE=340
0.997782
0.999570
0.930429
0.992417
1.090765
1.099706
0.936985
0.962615
1.054406
1.029968
0.899434
1.106858
0.904799
0.924468
1.006722
1.167655
1.141429
1.096725
1.293421
1.124740
1.209974
1.145601
1.026988
1.173615
1.133680
1.227856
1.125932
1.280904
1.264811
1.324415
1.199841
1.367927
1.366735
1.383424
1.436472
1.464486
1.393557
1.529455
1.578927
1.644492
1.729727
1.814961
1.707673
1.833439
1.861453
2.105832
2.345443
2.343655
2.524853
2.972484
3.083944
5.060434
16.493797
76.590776
184.840560
475.422740
807.448030
1015.788913
1015.788913
1015.788913
1015.788913
1015.788913
1015.788913
1015.788913
990.510583
550.115705
297.808647
106.530786
39.819479
12.647510
9.808540
9.447932
9.626746
9.947419
12.037754
16.328692
21.987557
31.661987
41.435957
53.956509
62.268972
69.524646
70.669651
67.138672
60.503483
49.294829
40.659904
30.186772
23.020506
16.157627
13.179779
9.828806
8.960962
8.279681
7.781982
7.890463
##ZVALUE=345
0.971556
1.022816
1.081824
0.959635
1.119971
1.017451
1.008511
1.012683
0.922680
1.042485
0.936985
1.010895
1.031756
0.919700
1.092553
1.118779
1.185536
1.116991
1.127720
1.202822
1.156926
1.116991
1.118779
1.220703
1.176596
1.153946
1.161695
1.134872
1.183748
1.364946
1.186728
1.177788
1.217723
1.378655
1.359582
1.484752
1.454949
1.535416
1.609921
1.509786
1.497865
1.531839
1.676679
1.749992
1.971722
1.964569
1.933575
2.107620
2.177954
2.140999
2.351999
2.875924
2.988577
3.517866
7.852912
48.840642
135.417581
353.679657
637.856722
1015.791893
1015.791893
1015.791893
1015.791893
1015.791893
1015.791893
1015.791893
1015.791893
804.879665
460.683703
171.601772
68.283677
18.171668
10.763407
9.200573
9.008646
8.792877
9.233952
10.655522
13.562441
20.262003
27.816892
39.153695
47.749877
57.666898
61.831474
64.585805
63.271523
56.438446
49.373507
38.878918
30.346513
21.117926
15.750527
11.766553
9.571910
7.978678
##ZVALUE=350
1.032948
1.100898
0.995994
0.926852
0.880957
0.947714
0.919700
1.095533
1.075864
1.115799
1.135468
0.950694
0.998974
1.070499
1.111627
1.095533
1.131892
0.983477
1.169443
1.217723
1.009703
1.165867
1.335740
1.258850
1.176596
1.127720
1.263618
1.299977
0.962615
1.217723
1.025796
1.312494
1.347661
1.351833
1.431704
1.423955
1.543760
1.448989
1.370907
1.430511
1.494884
1.529455
1.599789
1.620650
1.682639
1.694560
1.821518
1.759529
2.000928
2.007484
2.121925
2.316833
2.563596
2.743602
2.949834
3.203750
4.629493
23.552775
74.907541
241.630673
467.187762
920.642614
1015.788913
1015.788913
1015.788913
1015.788913
1015.788913
1015.788913
1015.788913
901.729465
560.163856
257.491469
114.660859
27.647614
10.979772
8.664727
8.040667
7.659793
7.523894
8.281469
9.596944
13.268590
17.545819
24.875998
31.759739
42.522550
50.315857
57.353973
59.189796
57.859421
53.703785
45.016408
37.132502
27.032495
21.038651
14.923811
##ZVALUE=355
0.969768
1.132488
1.093745
1.067519
1.073480
1.063943
1.009703
0.916719
1.167655
1.074672
1.003742
0.989437
1.064539
1.157522
0.999570
1.140833
1.046658
1.179576
1.183748
1.012683
1.111627
1.012683
1.018643
1.180768
1.159906
1.270771
1.192689
1.322627
1.318455
1.252890
1.211762
1.320839
1.278520
1.263618
1.316667
1.289845
1.198649
1.259446
1.212955
1.542568
1.467466
1.452565
1.428723
1.588464
1.511574
1.701713
1.798868
1.811981
1.808405
1.888871
2.093911
2.053976
2.197623
2.286434
2.452731
2.502799
2.838969
3.013611
3.600717
11.385679
40.741563
149.735808
307.715535
654.217005
985.598564
1015.788913
1015.788913
1015.788913
1015.788913
1015.788913
1015.788913
949.909687
592.850447
253.546834
116.451979
32.548904
12.849569
8.010864
7.400513
7.031560
6.773472
6.725788
7.292628
8.452535
10.633469
15.319586
20.165443
29.035807
36.209822
44.457912
50.077438
53.216815
52.604675
47.466755
42.509437
33.885837
##ZVALUE=360
0.876784
0.977516
0.969768
1.016855
0.925660
1.018643
1.093745
1.100898
0.956655
0.915527
0.964999
0.885725
1.003742
1.223683
1.139641
1.136661
1.102686
1.159906
1.215935
1.192689
1.012683
1.207590
1.316667
1.046658
1.054406
1.142621
1.148582
1.169443
1.164675
1.095533
1.206994
1.233816
1.330972
1.310706
1.251698
1.340508
1.380444
1.362562
1.312494
1.266599
1.414418
1.407862
1.427531
1.365542
1.386404
1.509786
1.465678
1.579523
1.624823
1.650453
1.839995
1.858473
2.040863
1.937747
2.024770
2.197623
2.180934
2.354980
2.610683
2.858639
2.908707
5.373955
17.659664
75.110793
172.062516
419.100523
704.225898
1015.788913
1015.788913
1015.788913
1015.788913
1015.788913
1015.788913
963.878036
637.157559
312.498808
161.446929
56.584477
20.824671
8.047819
6.966591
6.516576
6.430745
6.175637
5.898476
6.199479
7.039905
8.960962
11.714697
17.328858
23.306608
32.065511
37.639737
44.294000
47.160983
48.740506
##ZVALUE=365
0.916719
0.985861
1.024604
1.039505
0.950694
1.056790
0.904799
0.941753
1.020432
1.061559
0.880957
1.086593
0.887513
1.162887
1.098514
0.983477
1.128912
1.131892
1.147985
1.102686
1.151562
1.015663
1.046658
1.076460
1.007915
1.076460
1.156926
1.145601
1.109838
1.231432
1.122952
1.193881
1.202822
1.159906
1.209974
1.365542
1.134872
1.339912
1.289845
1.424551
1.461506
1.322627
1.363754
1.416802
1.507998
1.452565
1.253486
1.539588
1.533628
1.518726
1.594424
1.660585
1.727939
1.788735
1.707673
1.909733
1.759529
2.019405
2.158880
2.333522
2.518892
2.934933
3.128648
3.569722
7.751584
46.627522
120.227933
301.255584
539.911389
968.091488
1015.788913
1015.788913
1015.788913
1015.788913
1015.788913
1015.788913
807.690024
416.481495
225.009918
79.070926
29.735565
8.787513
6.550550
6.086826
5.969405
5.675554
5.430579
5.493760
5.449653
6.115437
7.593632
10.294914
14.009476
20.434856
26.313663
33.477545
##ZVALUE=370
0.993609
0.824928
1.022816
1.078844
1.014471
1.119971
0.969768
1.102686
0.939965
1.051426
1.099706
0.989437
0.898838
1.020432
0.884533
1.101494
0.990629
0.972748
0.960827
1.071692
0.965595
1.059771
0.977516
1.035929
1.100898
0.980496
1.033545
1.105666
1.174808
1.136661
1.152754
1.169443
1.040697
1.199841
1.097918
1.025796
1.172423
1.159906
1.123548
1.140833
1.292825
1.296997
1.330972
1.322627
1.487732
1.360774
1.363754
1.275539
1.271963
1.340508
1.327991
1.290441
1.534820
1.285672
1.508594
1.513958
1.600981
1.565814
1.711845
2.138615
1.946688
2.154708
2.248883
2.499819
2.657771
3.238916
4.462600
23.012757
71.872473
221.424699
412.153006
768.296719
1015.788913
1015.788913
1015.788913
1015.788913
1015.788913
1015.788913
878.657699
483.474731
269.936919
105.005503
45.454502
14.130473
7.006526
5.819798
5.628467
5.462766
5.038977
4.742742
4.697442
5.062819
5.516410
6.669760
8.644462
11.976957
##ZVALUE=375
0.978708
0.865459
0.894666
0.834465
0.872612
0.861883
1.062751
0.984669
0.892878
0.976920
0.929832
1.031756
1.019835
1.047850
1.015663
1.018643
0.930429
1.074672
1.042485
1.080632
1.140833
0.993609
0.826716
0.927448
0.871420
1.022816
0.988841
1.006722
1.003742
1.169443
1.128912
1.161695
1.088977
1.144409
0.998974
1.048446
1.034737
1.128912
1.166463
1.220703
1.035929
1.275539
1.059771
1.261830
1.176596
1.300573
1.148582
1.227856
1.185536
1.192689
1.150966
1.259446
1.319647
1.301765
1.506805
1.541972
1.535416
1.462698
1.561642
1.611710
1.712441
1.657605
1.954436
1.976490
2.027750
2.369881
2.390742
2.790689
3.262758
10.802746
37.873983
131.330490
275.216699
601.544976
926.679969
1015.788913
1015.788913
1015.788913
1015.788913
1015.788913
1008.290052
643.080473
407.939553
197.746754
95.963478
27.159452
10.203719
5.727410
5.304813
4.877448
5.056858
4.614592
4.566908
4.482865
4.481673
4.941821
##ZVALUE=380
0.875592
0.852942
0.927448
0.919700
0.828505
0.918508
0.913739
0.923872
0.985861
0.975728
0.913739
0.883937
1.067519
0.826716
0.789762
0.982881
0.881553
0.856519
0.875592
0.935793
0.895858
1.123548
0.832677
0.890493
0.890493
1.001954
0.953674
1.025796
1.005530
1.094937
1.160502
1.061559
1.111627
1.036525
1.133680
1.000762
1.099706
1.075864
1.124740
1.257658
1.083612
1.235604
1.269579
1.333952
1.166463
1.360774
1.163483
1.182556
1.177788
1.160502
1.341701
1.274943
1.426935
1.349449
1.511574
1.343489
1.471639
1.326799
1.492500
1.347661
1.433492
1.505613
1.617670
1.631975
1.785755
1.805425
2.087951
2.279878
2.613664
2.964735
3.268719
6.030798
21.228790
95.181465
214.219689
497.512817
808.309913
1015.788913
1015.788913
1015.788913
1015.788913
1015.788913
1015.788913
851.462483
553.186536
265.772939
133.125782
42.833686
16.149879
6.248951
5.210638
4.739761
4.711747
4.545450
4.256964
4.290938
##ZVALUE=385
0.867844
0.842810
0.899434
0.821948
0.854731
0.832677
0.760555
0.845790
0.822544
0.868440
0.796914
0.752807
0.780821
0.932813
0.926852
0.882745
0.937581
1.034737
0.973940
0.942945
0.776649
1.027584
0.869632
0.848770
1.112819
0.972748
0.825524
1.007915
0.862479
0.927448
0.983477
1.027584
1.088977
1.200438
1.180768
1.126528
1.176000
1.155734
1.160502
1.020432
1.026988
1.194477
1.072884
1.169443
1.125932
1.174808
1.236796
1.258850
1.185536
1.296997
1.230836
1.241565
1.387596
1.368523
1.421571
1.409650
1.415610
1.345873
1.544952
1.340508
1.394749
1.452565
1.613498
1.514554
1.508594
1.919866
1.872778
2.051592
2.090931
2.279878
2.669692
2.714992
3.033876
3.707409
10.234714
53.088665
133.809447
339.760780
596.714616
1014.159918
1015.786529
1015.786529
1015.786529
1015.786529
1015.786529
1015.786529
806.397796
421.655774
233.043432
91.767907
34.572482
8.724928
5.440712
4.871488
4.709959
4.634857
##ZVALUE=390
0.940561
0.864863
0.884533
0.998974
0.861883
0.927448
0.916719
0.943542
0.912547
0.839829
0.831485
0.967979
0.915527
0.920892
0.953674
0.885725
0.954866
0.818968
0.919700
1.075864
0.935793
0.940561
0.927448
0.816584
0.856519
0.919700
0.867844
0.892878
1.026988
0.932813
1.009703
0.926852
1.074672
1.108646
1.193881
1.236796
1.321435
1.021624
1.290441
1.206994
1.178980
1.239777
1.218915
1.271963
1.273751
1.352429
1.289845
1.258850
1.337528
1.303554
1.345873
1.384616
1.456738
1.329780
1.334548
1.359582
1.273751
1.470447
1.449585
1.456738
1.531839
1.471639
1.394749
1.462698
1.653433
1.870990
1.846552
1.879930
2.202988
2.417564
2.409816
2.551675
2.676845
2.982616
2.887845
2.991557
5.146861
28.901696
86.897612
256.085992
477.908850
903.612971
1015.788913
1015.788913
1015.788913
1015.788913
1015.788913
1015.788913
1002.558470
615.217686
346.415639
136.609674
59.023499
14.286637
6.233454
4.894733
##ZVALUE=395
0.859499
0.947714
0.956655
0.903606
0.751615
0.753999
0.883937
0.814795
0.740886
0.897646
0.694990
0.879765
0.883937
0.904799
0.869632
0.932813
0.874996
0.936985
0.799894
0.893474
0.976920
0.873804
0.765920
0.830889
0.792742
0.919700
0.989437
0.869632
0.941753
0.969768
0.947714
1.056790
1.146793
1.276731
1.167655
1.209974
1.186728
1.244545
1.427531
1.329780
1.391768
1.399517
1.471639
1.390576
1.422763
1.440644
1.257658
1.412630
1.361966
1.448989
1.435876
1.472831
1.307726
1.437664
1.326799
1.355410
1.272559
1.381636
1.421571
1.514554
1.555681
1.580715
1.396537
1.536608
1.761913
1.636744
1.736879
1.893640
2.073646
2.205968
2.326965
2.382994
2.169609
2.505779
2.591610
2.399683
2.624989
2.733469
3.611445
17.277598
60.911775
199.326873
370.275974
690.003633
988.342762
1015.788913
1015.788913
1015.788913
1015.788913
1015.788913
1015.788913
734.176636
461.733937
209.253430
97.638965
29.568672
##ZVALUE=400
0.847578
0.933409
0.798702
0.801682
0.817776
0.923872
0.821948
0.868440
0.862479
0.910759
0.876784
0.828505
0.807643
0.917912
0.839829
0.877976
0.803471
1.077652
0.950694
0.855923
0.945926
0.807643
0.897646
0.924468
0.823736
0.806451
0.861883
0.797510
0.910759
0.959635
1.101494
1.051426
1.148582
1.298785
1.177788
1.211762
1.108646
1.287460
1.365542
1.096725
1.343489
1.234412
1.271963
1.269579
1.227856
1.343489
1.378655
1.304746
1.308918
1.356602
1.400709
1.358986
1.382828
1.506805
1.342893
1.366735
1.396537
1.432896
1.473427
1.501441
1.637936
1.647472
1.536608
1.616478
1.619458
1.841784
1.924634
1.931787
2.104640
2.258420
2.443790
2.303720
2.266765
2.277493
2.332926
2.277493
2.369881
2.423525
2.656579
2.641678
3.032684
8.729696
32.812953
124.257803
257.124901
554.343462
869.327784
1015.788913
1015.788913
1015.788913
1015.788913
1015.788913
1015.788913
963.196754
636.105537
305.488706
##END
