##TITLE=AAI0551
##FORMAT=SPECTACLE-ASCII V-1.2
##DATA TYPE=ULTRAVIOLET SPECTRUM
##SECOND TYPE=ULTRAVIOLET SPECTRUM
##DATE=11/28/17
##TIME=17:19:07
##SPECTROMETER/DATA SYSTEM=SPECTACLE
##XUNITS=NM EM
##YUNITS=ENERGY
##YFACTOR=1
##FIRSTX=220
##LASTX=410
##NPOINTS=96
##3DDATA=Equidistant
##ZUNITS=NM EX
##FIRSTZ=210
##LASTZ=400
##ZPOINTS=39
##XYDATA=(Y..Y)
##ZVALUE=210
6.380677
6.829500
6.487966
6.312728
6.117821
6.012917
6.294847
5.784631
4.998446
5.248785
4.528761
3.749728
3.873706
3.688931
2.877712
3.395677
3.052950
3.782511
4.053712
4.840493
4.293919
5.096793
4.742742
5.350709
5.641580
6.034970
5.966425
7.059574
5.904436
6.673932
7.379651
6.840825
6.568432
8.751750
6.832480
7.757545
7.195473
8.211732
8.008480
7.603765
8.555651
8.864999
8.184910
8.770823
9.361506
8.774996
9.261966
8.422732
9.062886
9.055734
9.887815
10.632873
10.068417
10.613799
10.460615
10.009408
10.586977
10.527968
10.744929
11.170506
9.911656
10.363460
10.542870
11.225939
11.277795
11.829734
12.049675
12.640953
14.657974
17.197728
22.839904
25.725961
28.163791
32.369494
34.112930
36.054850
36.482811
33.732653
33.678412
33.176541
29.365420
26.488900
23.710728
19.444823
16.891956
14.425516
11.976957
11.019707
9.925961
10.764599
11.015534
10.235906
10.762811
11.363626
11.129975
12.861490
##ZVALUE=215
17.517805
18.009543
15.945435
13.958812
11.230707
9.820461
10.579824
10.846853
9.622574
10.220408
8.898973
8.566976
7.081628
5.472898
4.947782
4.276633
4.624724
4.010797
4.549623
4.646778
5.219579
5.216599
6.094575
6.173849
5.994439
5.922914
6.733537
7.329583
7.576942
7.793903
7.221699
7.840991
7.939935
8.591413
8.412600
8.172989
7.947683
8.656979
7.864833
8.794665
8.655787
8.306503
9.056926
10.604858
8.664727
10.582805
8.682609
9.460449
10.175705
9.837747
11.072755
10.245442
10.941625
10.688901
9.720922
11.952519
9.778738
11.325479
10.096431
11.166930
11.872649
11.922717
11.910796
11.378527
11.583567
11.869669
13.148785
13.316870
16.785860
18.002987
21.563768
22.250414
27.450919
29.748678
31.998754
33.080578
35.688877
33.371449
31.801462
30.538440
27.799606
23.465753
21.968484
18.657446
15.635490
13.464689
11.251569
12.176633
10.842681
9.666681
9.614825
9.957552
9.930730
9.444952
10.557771
9.956956
##ZVALUE=220
48.585534
46.605468
54.636002
50.518513
44.112802
36.982894
30.030608
21.227598
18.196702
17.133951
17.436743
17.463565
16.956925
14.590621
12.708902
10.274649
7.334948
6.301999
5.195737
5.701780
5.456805
5.517602
6.191730
5.883574
6.818771
6.793737
6.309748
8.046627
7.844567
7.254481
7.475615
7.586479
7.928610
8.414984
8.513927
8.325577
9.189844
8.807778
9.498596
10.030866
9.036660
10.665655
9.762645
10.595918
12.059808
11.101961
9.619594
10.762811
10.510683
11.341572
10.654926
9.575486
11.715889
10.542870
10.835528
11.838675
11.694431
11.548996
11.842847
12.851954
12.722611
12.319684
12.961626
12.228489
12.894869
12.789965
13.742447
15.583634
16.953945
18.441677
21.740794
24.761558
27.774572
29.973984
31.271577
31.098723
35.772920
33.743978
32.600760
30.147433
28.332472
25.324821
24.334788
19.599795
16.681552
16.076565
12.838840
12.877584
12.688637
11.593699
9.904504
10.301471
10.323524
10.499954
10.243654
9.891987
##ZVALUE=225
72.358847
77.311993
98.662972
125.964880
134.617686
129.751563
118.719935
83.887577
65.687895
43.866634
35.596490
31.375885
31.800866
31.011701
32.909513
30.489564
24.268627
19.066930
13.110638
10.691881
8.403659
6.952882
6.218553
7.255673
7.242560
7.226467
7.465482
7.662773
8.396506
8.785725
8.210540
8.230805
7.926822
8.906722
9.210706
8.852482
9.841919
8.367896
9.301901
9.703636
9.955764
11.239648
11.229515
9.231567
9.777546
11.200905
10.652542
9.883642
10.756850
11.743903
11.232495
11.546612
11.677742
12.537837
12.212992
12.903810
13.157725
12.394786
12.920499
12.907982
12.791753
12.740493
13.532639
14.040470
14.337897
14.450550
13.457537
15.222430
17.059445
19.738674
22.069812
24.123788
27.454495
29.942989
30.402541
31.812787
31.266809
28.854609
28.710961
26.586652
25.740862
23.431778
20.421743
16.855597
16.664863
14.335513
12.523532
13.622642
12.044907
11.672974
11.147857
11.352897
11.480451
11.319518
11.569858
11.046529
##ZVALUE=230
56.965947
63.607693
97.944736
167.581439
225.540996
270.050764
292.522907
276.919603
245.305896
199.573636
129.326582
89.983940
58.469772
51.883459
50.393939
53.797960
54.489970
50.399899
45.462847
40.068626
28.760433
20.887852
14.880896
11.218786
9.360909
7.265806
8.207560
7.817745
9.371638
9.500980
9.558797
9.317994
9.590983
9.832978
10.886788
11.461973
10.824800
10.271668
9.880662
10.684729
10.521412
11.563897
11.371970
11.485815
11.338592
11.687875
12.195706
10.821819
12.604594
12.290478
13.347864
13.061762
12.080669
11.708736
13.216734
12.992620
13.957620
13.274550
14.201999
14.522672
14.252663
15.458465
14.556646
13.479590
15.088916
15.669465
16.138554
18.487573
19.775629
20.964742
23.821592
26.253462
28.990507
27.892590
32.259822
31.682849
31.289458
30.099750
29.395819
25.756955
23.990870
22.047758
20.773411
17.767549
16.177893
16.112924
15.238523
12.402534
13.586879
13.714433
12.568831
13.576746
12.248755
11.660457
11.364818
12.775660
##ZVALUE=235
17.383695
20.041466
44.988990
113.058686
183.046460
292.164683
384.967923
504.487753
552.085638
542.402864
462.740660
365.905762
236.589909
166.106820
105.961561
83.384514
73.808432
79.859495
81.765652
85.942745
77.819824
66.291690
53.587556
38.927794
27.468801
16.960502
13.752580
10.396838
10.288954
10.697842
11.437535
10.811687
10.357499
10.514855
11.735559
10.688901
11.378527
11.415482
11.047721
11.109710
11.941791
12.342930
12.368560
12.222528
12.617707
13.367534
15.467405
12.827516
12.667775
13.064742
13.415813
14.271736
14.917850
14.925599
15.260577
14.291406
14.413595
14.663935
14.050603
15.780926
16.121864
15.989542
15.771985
15.998483
16.585588
17.709732
18.599629
17.501712
19.889474
23.902655
24.608970
29.604435
30.564666
36.215782
36.618710
33.372641
34.239888
33.292770
31.805634
30.767918
27.612448
23.334622
22.666454
20.974874
18.032789
17.882586
15.771985
15.641451
15.324950
15.516877
15.957952
14.197826
14.673471
14.189482
15.730858
13.277531
##ZVALUE=240
2.989769
3.257990
8.389950
22.831559
69.655776
134.909749
280.925632
423.185825
645.706654
766.467452
850.736499
818.614960
746.560693
565.952659
434.814692
267.067552
180.388689
119.985938
98.316669
98.441839
107.744932
114.470720
106.032491
103.320479
81.638694
64.594746
47.820807
35.557747
22.219419
17.828941
13.955832
11.871457
11.811852
13.086796
12.054443
13.001561
12.014508
12.662411
11.345744
11.516809
12.937784
14.015436
12.341738
12.698770
14.206767
13.941526
13.564825
13.379455
13.703704
15.167594
14.642477
16.070604
15.156865
17.899871
16.795993
16.271472
16.290545
17.953515
17.538667
17.742515
19.610524
19.409657
18.913746
17.959476
19.647479
19.049644
19.205809
22.208691
23.490787
25.957823
30.055642
31.558871
35.096407
37.523508
37.984848
37.346482
38.489699
35.885572
34.067631
30.511618
29.416680
26.232600
24.149418
21.417737
21.080971
17.918944
17.386675
16.680956
17.464757
17.362833
16.442537
16.538501
15.046597
15.117526
15.716553
15.684962
##ZVALUE=245
2.488494
2.142787
2.409816
3.017783
6.400943
18.000603
62.839985
136.187673
304.111838
477.247834
736.424923
911.940932
1015.788913
1015.788913
1000.867486
795.009732
621.170998
417.521000
274.103880
153.458714
112.510920
100.149512
107.899904
118.887424
124.311447
121.228695
107.517838
92.560649
70.270896
53.435564
39.740801
26.590824
17.742515
12.405515
12.447834
11.505485
11.935830
10.938644
11.183619
10.303855
10.826588
10.810494
10.697842
11.831522
10.675788
11.899471
11.370778
11.374950
11.409521
12.478828
12.462735
12.675524
13.250709
13.586879
14.176965
14.841557
14.198422
13.959408
14.749765
14.886856
15.090704
15.391707
14.696717
14.744997
14.612675
16.020536
15.618801
18.545985
18.668771
21.066666
23.682714
25.354624
27.469993
28.752685
30.289888
31.228662
30.294657
27.890801
25.880933
24.921894
23.133755
20.119548
19.712448
18.463731
17.433763
17.120838
15.815496
15.409589
14.984608
14.354587
14.406443
14.088750
12.860894
13.116598
14.237761
14.146566
##ZVALUE=250
2.459884
2.326965
2.136827
2.267957
2.558827
2.948642
3.656745
14.192462
44.082403
129.790902
259.075761
513.377786
744.688511
1000.631452
1015.788913
1015.788913
1015.788913
1002.559662
829.208493
547.730923
368.189812
243.109465
133.454800
100.883842
100.938678
111.435652
128.654838
134.819746
128.047466
117.313862
96.710920
77.907443
57.945848
36.227703
26.369691
15.524626
12.483597
10.844469
10.024905
10.314584
9.397864
10.293722
10.432601
10.265708
10.386705
9.929538
10.989904
9.568930
10.050535
10.836720
11.050701
10.759830
11.063814
11.270642
11.127591
11.540651
12.154579
11.485815
12.140870
12.213588
12.287498
12.756586
12.540817
12.117624
13.671517
12.802482
13.607740
14.174581
16.871691
17.651916
20.199418
21.780729
23.870468
22.879839
25.104880
25.351644
25.623441
24.699569
22.058487
21.112561
20.727515
18.539429
17.127991
15.147924
14.920831
14.342666
13.531446
12.820959
12.500882
13.101697
13.142824
11.979938
12.333989
13.156533
11.053681
12.325644
##ZVALUE=255
2.452731
2.184510
2.201796
2.716780
2.429485
2.449751
2.240539
2.559423
2.824664
7.285476
37.433505
95.753670
209.263563
454.750657
697.292686
1011.637449
1015.788913
1015.788913
1015.788913
1015.788913
1015.788913
818.336010
491.518974
310.168862
160.541534
105.744004
88.957548
99.326968
117.836595
131.205916
137.625933
136.363506
121.995807
100.649595
83.213449
53.480864
37.657619
24.123788
16.190410
12.433529
9.943843
9.442568
9.080768
9.612441
9.002686
9.672642
9.445548
9.251833
9.857416
10.035634
9.544492
9.554625
9.539723
9.721518
10.014772
9.564757
9.898543
10.416508
9.904504
10.386705
10.834932
10.417700
11.055470
11.020899
10.982752
11.349916
11.631846
11.990666
13.384819
14.952421
15.643835
18.086433
19.868612
21.399856
20.713806
20.818710
20.803809
18.573999
17.488599
16.741753
15.931726
15.044808
13.203621
12.256503
11.558533
11.496544
12.167692
12.050867
10.759830
10.717511
10.017753
10.964870
10.886788
10.384917
10.418892
10.472536
##ZVALUE=260
2.155900
2.369881
1.992583
1.879930
2.406836
2.259612
2.361536
2.644658
2.706647
2.835989
2.949834
4.034638
13.868809
65.327883
157.474875
391.008854
645.541549
993.364453
1015.788913
1015.788913
1015.788913
1015.788913
1015.788913
1014.829874
670.911670
446.651578
251.107812
149.805546
86.869001
82.448721
94.151497
120.372772
135.381818
144.270658
143.214464
125.229955
108.570457
82.303882
58.327913
37.545562
25.289655
14.927983
11.164546
9.667873
9.081960
8.691549
8.574724
8.854866
9.205937
8.739829
9.407997
8.946657
9.258986
9.218454
9.353757
9.244680
9.527802
9.408593
9.516478
9.169579
9.128451
9.303689
9.323955
9.774566
9.350777
10.095835
9.765625
10.985732
11.769533
12.906790
14.150739
14.819503
16.495585
17.068982
18.242598
17.942786
16.771555
16.713738
15.516877
14.307499
13.589859
11.974573
12.433529
11.020899
10.353923
10.554790
10.789633
9.534955
9.745955
9.771585
9.565949
8.904934
9.148717
9.279847
9.324551
9.169579
##ZVALUE=265
2.048612
1.723766
1.765490
1.988411
2.019405
2.137423
2.138615
2.171993
2.056956
2.206564
2.637506
2.492666
2.592802
3.363490
7.773638
44.922829
114.918947
305.428505
552.548766
983.477831
1015.788913
1015.788913
1015.788913
1015.788913
1015.788913
1015.788913
953.337550
659.673810
355.604887
208.234787
120.087862
74.009895
78.048706
104.050636
122.973919
142.529607
149.173737
139.953494
127.046704
101.480484
80.984831
54.869652
39.260983
22.654533
15.526414
10.045767
9.479523
8.825660
8.398890
8.322597
9.037852
8.816719
8.921623
8.832812
8.781552
9.232759
8.523464
8.449554
8.862615
8.626580
8.791685
8.360744
8.490682
8.626580
9.106994
9.521842
9.397864
10.234714
10.353923
12.168884
12.573600
13.172626
14.220476
14.955997
15.983582
15.499592
13.823509
13.082623
12.117624
11.538863
11.153817
10.156631
10.062456
9.498000
9.068847
8.283854
8.641481
8.415580
7.872581
9.121895
7.950664
8.115768
8.422732
7.697940
8.049607
8.205771
##ZVALUE=270
1.922846
1.878738
1.988411
1.838803
1.933575
1.905560
1.883507
2.026558
1.939535
2.240539
2.488494
2.401471
2.250671
2.603531
3.049970
3.111959
4.298687
21.695495
66.083670
231.420994
471.704602
826.237798
1015.788913
1015.788913
1015.788913
1015.788913
1015.788913
1015.788913
1015.788913
944.739580
631.466508
319.265723
174.378753
77.948570
62.747598
80.980659
101.731420
126.022696
139.004588
147.000551
143.736601
124.112964
107.944012
79.546571
59.252977
36.216974
25.264621
16.058683
11.785626
8.731484
8.288622
8.054972
8.307695
8.448958
8.641481
8.590817
8.664727
8.555651
8.745790
8.988976
9.065866
8.516908
8.428693
8.297563
8.416772
8.839965
8.215904
9.458661
10.353923
11.312962
11.984706
12.839437
12.734532
13.984442
13.797879
13.972521
13.933778
12.181997
11.631846
10.370612
10.145903
9.166598
9.379983
8.583665
8.429885
8.297563
7.567406
7.794499
8.083582
7.581711
7.533431
7.488728
7.745624
7.265806
7.580519
7.707477
##ZVALUE=275
1.491904
1.482964
1.784563
1.475811
1.708865
1.657605
1.896620
1.798868
1.896620
2.039671
2.027750
1.902580
2.176762
2.336502
2.437830
2.374649
2.781749
3.135800
3.363490
9.956956
40.262938
122.730732
385.786891
730.699897
1015.788913
1015.788913
1015.788913
1015.788913
1015.788913
1015.788913
1015.788913
1015.788913
852.960944
442.622900
244.654417
100.028515
59.006810
57.003498
74.687600
99.364519
120.339990
137.819648
144.371986
140.591860
126.691461
100.341439
80.693960
56.432486
40.677786
24.318695
16.762614
11.088848
9.568930
8.520484
8.236766
8.671880
7.745624
8.554459
8.278489
8.961558
8.467436
8.341670
8.257627
8.242726
8.230805
8.425713
8.730888
9.183884
9.550452
10.362864
10.966659
11.846423
12.075901
12.942553
13.251901
13.167858
12.574792
11.829734
11.215806
10.383725
9.515882
8.375645
8.479953
7.871985
7.606745
7.183552
7.386804
7.424951
6.827712
6.957650
6.666780
6.725788
7.194877
6.650686
6.780624
6.591678
##ZVALUE=280
1.658797
1.633763
1.541972
1.559854
1.628995
1.781583
1.723766
1.810789
1.812577
1.954436
1.996756
1.999736
2.025962
2.313852
2.075434
2.157688
2.344847
2.250671
2.858639
3.221631
3.403425
4.356503
27.972460
97.539425
320.844650
601.451993
1015.788913
1015.788913
1015.788913
1015.788913
1015.788913
1015.788913
1015.788913
1015.788913
984.740853
562.257767
328.056812
139.208436
69.778562
44.617653
52.181482
77.396631
98.658800
123.153925
135.545731
140.818954
136.379600
121.100545
103.493929
76.551437
59.691668
38.091540
26.728511
15.992522
11.827946
9.386539
8.672476
8.314848
8.759499
8.347631
8.533597
8.564591
8.486509
8.665919
8.568764
8.414984
8.605719
9.027719
8.905530
9.884834
10.727644
11.182427
11.977553
12.152791
12.256503
12.603998
12.151599
11.072755
10.383725
9.140968
8.505583
8.158684
8.001924
7.303953
7.367730
7.391572
6.809831
6.689429
6.276965
6.320477
6.498694
6.269813
6.613731
6.496906
6.368756
6.397963
##ZVALUE=285
1.485944
1.503825
1.500845
1.767874
1.485944
1.584888
1.666546
1.519918
1.700521
1.798868
1.695752
1.795888
1.906753
1.958609
1.994967
2.035499
2.071857
2.097487
2.308488
2.536774
3.000498
2.942681
3.160834
3.829002
13.273954
50.466657
177.347064
395.162702
872.895718
1015.788913
1015.788913
1015.788913
1015.788913
1015.788913
1015.788913
1015.788913
1015.788913
827.434659
501.128435
226.421952
110.381842
44.652820
36.322474
51.730871
69.682002
97.466707
116.148591
139.379501
138.115883
128.160715
120.521784
87.631941
82.531571
43.126941
40.799975
18.425584
17.581582
10.340810
10.304451
9.482503
8.750558
8.564591
9.003878
8.868575
8.173585
8.723736
9.076595
9.305477
9.155869
10.004640
9.775758
10.962486
11.047721
11.520982
11.312962
11.493564
10.605454
10.233521
8.980632
9.104609
8.439422
7.650852
7.523894
7.134676
6.677508
7.193685
6.751418
6.619692
6.373525
6.464720
6.170869
5.924702
5.979538
6.101727
5.669594
5.775690
##ZVALUE=290
1.404881
1.570582
1.365542
1.227856
1.520514
1.535416
1.644492
1.503825
1.541972
1.530647
1.613498
1.746416
1.718998
1.662970
2.037883
2.001524
1.783967
2.030730
2.273917
2.435446
2.377629
2.483726
2.593994
3.128648
3.476739
3.800988
5.497932
17.843843
93.652010
235.678554
608.704686
984.390974
1015.788913
1015.788913
1015.788913
1015.788913
1015.788913
1015.788913
1015.788913
1015.788913
660.530925
389.305949
156.039596
68.645477
31.012893
32.144785
48.191547
64.110756
90.970993
108.165741
128.358603
133.417845
132.930875
122.423768
102.210641
83.498955
55.500865
42.418838
27.267933
18.817782
13.260841
10.937452
9.231567
8.801818
8.489490
9.092689
8.755922
8.976460
9.954572
9.985566
10.379553
10.920763
10.907650
11.144876
10.661483
10.544658
10.376573
9.045601
8.715987
8.453727
8.161664
7.595420
7.173419
6.841421
6.803870
6.540418
6.523728
6.197691
6.060600
6.207824
5.965829
5.973577
5.997419
5.955696
5.619526
5.735755
##ZVALUE=295
1.364946
1.410842
1.422763
1.418591
1.189709
1.444817
1.535416
1.446605
1.606941
1.555681
1.457930
1.704693
1.578927
1.617670
1.855493
1.710653
1.837611
1.767874
1.998544
2.013445
2.059937
2.218485
2.300739
2.464652
2.877712
2.962947
3.069639
3.719926
4.283786
8.763671
35.849810
160.321593
376.424789
891.485810
1015.788913
1015.788913
1015.788913
1015.788913
1015.788913
1015.788913
1015.788913
1015.788913
934.082866
489.124656
256.738663
88.352561
40.352941
24.585724
30.064583
45.777559
61.799884
84.122419
103.210807
120.900869
127.069950
126.360655
117.840767
97.595453
78.790784
56.356788
42.223930
26.354790
19.242764
13.564825
10.855794
10.178685
9.523630
9.354949
9.393692
10.091662
10.279417
11.354685
10.691881
10.862947
10.758638
10.443926
9.575486
8.979440
8.686781
7.613897
7.801652
7.103682
7.043481
6.800890
6.517768
6.351471
6.564856
6.336570
6.197691
6.161928
6.035566
6.191730
5.539656
5.918741
5.435944
5.584955
##ZVALUE=300
1.385808
1.355410
1.461506
1.370907
1.391768
1.397729
1.326799
1.520514
1.436472
1.428723
1.560450
1.572967
1.639724
1.599789
1.725554
1.804829
1.600981
1.647472
1.801848
1.895428
1.886487
2.078414
2.109408
2.204776
2.450943
2.461672
2.617836
2.971888
3.089905
3.627539
3.862977
4.867911
22.875667
86.990595
308.225751
608.213544
1015.788913
1015.788913
1015.788913
1015.788913
1015.788913
1015.788913
1015.788913
1015.788913
1015.788913
732.263923
363.201499
189.599991
61.458945
27.117729
21.963716
26.963949
41.679740
56.723952
78.931451
96.221566
114.569664
121.964812
121.152997
112.862587
95.913410
78.249574
56.423545
42.360425
28.055906
19.457936
13.996959
11.767745
10.065436
10.454655
10.712743
11.015534
10.676980
10.360479
10.395646
9.913445
9.559989
9.024739
8.411407
7.897615
7.465482
7.208586
7.245541
6.813407
6.484985
6.393790
6.417632
6.092787
5.996823
6.022453
5.887747
5.904436
5.874634
5.452633
5.301833
5.528927
##ZVALUE=305
1.292825
1.286864
1.319647
1.315475
1.355410
1.645684
1.536608
1.356602
1.472831
1.498461
1.413822
1.486540
1.531839
1.448989
1.366735
1.456738
1.551509
1.618862
1.596808
1.729727
1.626611
2.053976
1.987815
2.013445
2.423525
2.133846
2.254844
2.616644
2.727509
2.704859
3.319979
3.172755
3.919601
4.415512
9.517670
62.601566
175.274611
500.987768
912.072659
1015.819907
1015.819907
1015.819907
1015.819907
1015.819907
1015.819907
1015.819907
1015.819907
902.711749
545.449853
233.584642
110.638738
35.294890
19.469857
20.586848
26.199818
40.881634
55.555701
75.498819
92.966557
109.405518
115.200877
114.836693
109.183788
91.417432
73.828697
53.097606
39.672852
26.811957
18.816590
13.479590
11.909604
10.870695
10.384917
10.358691
10.115504
9.104609
8.788705
8.691549
7.951856
7.646680
7.142425
7.077456
6.762743
6.636977
6.492734
6.379485
6.190538
5.871654
5.926490
5.737543
5.366802
5.455613
5.510449
5.220771
5.400777
4.943609
##ZVALUE=310
1.321435
1.140833
1.321435
1.301765
1.386404
1.241565
1.500845
1.348853
1.486540
1.413822
1.354814
1.533628
1.520514
1.441836
1.577735
1.528859
1.492500
1.569986
1.585484
1.702905
1.680851
1.797676
1.743436
1.957417
2.018809
2.096891
2.080798
2.362728
2.375841
2.307892
2.633929
2.819896
2.915859
3.291965
3.646612
4.088879
5.245805
30.199885
100.481510
335.006714
658.410788
1015.788913
1015.788913
1015.788913
1015.788913
1015.788913
1015.788913
1015.788913
1015.788913
1015.788913
852.794647
418.285728
213.428736
71.271658
26.464462
16.222000
18.696785
25.405884
34.358501
50.706863
65.173507
85.343719
99.065900
107.011795
109.359622
101.435781
89.658499
71.259737
55.102706
38.492680
28.001666
18.586516
15.029907
11.454821
10.607839
9.301901
8.545518
7.885695
7.586479
6.977916
7.172823
6.516576
6.395578
6.349683
6.272793
6.393790
5.672574
5.997419
5.650520
5.718470
5.755424
5.671978
5.935431
5.383492
5.245805
4.952550
##ZVALUE=315
1.297593
1.307726
1.286864
1.134872
1.176596
1.127720
1.286864
1.402497
1.367927
1.287460
1.270771
1.453757
1.464486
1.390576
1.432896
1.473427
1.605749
1.512766
1.519918
1.650453
1.609921
1.653433
1.717806
1.652837
1.870990
1.683831
1.985431
2.072453
2.057552
2.139807
2.137423
2.563596
2.492666
2.674460
2.878904
3.252625
3.447533
4.055500
4.639626
14.009476
56.453943
225.771666
489.224792
997.252464
1015.793681
1015.793681
1015.793681
1015.793681
1015.793681
1015.793681
1015.793681
1015.793681
1015.793681
577.068925
303.620696
102.744699
39.543509
15.631914
14.840961
17.691851
21.901727
32.862425
44.043660
62.856674
76.636672
93.140602
100.508928
101.182461
97.324848
81.404448
68.267584
51.149726
38.041472
24.561882
18.103719
12.109876
9.767413
8.229613
7.320642
6.960630
6.539822
6.392598
6.214976
5.943775
5.993843
5.877614
5.761981
5.731583
5.958676
5.423427
5.461574
5.314946
5.470514
5.195737
5.109906
4.817843
##ZVALUE=320
1.304746
1.217723
1.346469
1.198649
1.264811
1.161695
1.412630
1.344681
1.163483
1.242757
1.338720
1.297593
1.264811
1.270771
1.314878
1.478791
1.308918
1.368523
1.370907
1.484752
1.478791
1.618862
1.696944
1.579523
1.638532
1.731515
1.720786
1.714826
1.838803
1.889467
2.021790
2.272725
2.097487
2.406836
2.551675
2.699494
2.864599
3.231764
3.271699
3.639460
4.115701
6.724000
26.320815
132.975578
330.410600
837.314725
1015.780568
1015.780568
1015.780568
1015.780568
1015.780568
1015.780568
1015.780568
1015.780568
1015.780568
741.014481
415.083766
169.422626
70.563555
20.079613
13.027787
12.632608
14.170408
19.202828
26.830435
41.246414
53.553581
72.317719
84.258914
93.834996
96.585751
90.963840
81.397891
63.947439
49.933791
33.887625
24.139881
15.275478
10.997653
8.325577
6.863475
6.246567
5.999804
5.650520
5.511642
5.700588
5.429983
5.256534
5.274415
5.115867
5.257726
5.106926
4.860759
4.836917
4.800558
5.122423
##ZVALUE=325
1.136661
0.966787
1.100898
1.241565
1.297593
1.274943
1.231432
1.209974
1.317859
1.363754
1.225471
1.324415
1.210570
1.253486
1.485944
1.254678
1.485944
1.352429
1.401901
1.592636
1.450777
1.342893
1.423955
1.609921
1.724958
1.491904
1.536608
1.864433
1.816750
1.901984
1.904964
1.788735
2.118945
2.188683
2.252460
2.404451
2.403855
2.868772
2.779961
3.020763
3.169775
3.857613
3.965497
4.906654
13.663769
92.001557
229.261518
582.569838
977.271795
1015.790701
1015.790701
1015.790701
1015.790701
1015.790701
1015.790701
1015.790701
1015.790701
952.698588
571.403503
238.958597
105.033517
28.444529
13.436675
10.494590
10.935664
13.400912
17.470717
26.153922
36.901832
53.886771
66.567659
81.678629
87.416768
88.438988
84.762573
70.331693
58.790445
42.678714
31.518936
19.658804
13.908744
9.043813
7.256866
6.108880
5.711913
5.577803
5.380511
5.207658
5.093813
5.156994
4.979968
4.985929
4.869699
4.893541
4.859567
4.824996
##ZVALUE=330
1.248717
1.267791
1.084805
1.147985
1.117587
1.115799
1.015663
1.224875
1.179576
1.302958
1.234412
1.494884
1.173615
1.428723
1.380444
1.348853
1.333952
1.176000
1.284480
1.329780
1.542568
1.487732
1.507998
1.551509
1.507998
1.681447
1.809597
1.514554
1.649857
1.845956
1.828671
1.789927
1.821518
1.940727
2.034903
2.053976
2.097487
2.314448
2.428889
2.495646
2.567768
2.890825
3.095865
3.468990
3.715754
4.334450
6.875992
43.639541
133.006573
411.573648
762.649775
1015.803814
1015.803814
1015.803814
1015.803814
1015.803814
1015.803814
1015.803814
1015.803814
1015.803814
751.647949
346.542597
166.661739
51.990747
18.631816
10.248423
9.491444
10.292530
12.493730
18.121600
24.197698
36.082864
48.115849
64.871907
73.860884
81.788898
82.352757
76.907873
67.539811
52.476525
40.720701
26.325583
19.721985
13.232827
9.781718
6.982684
6.009936
5.526543
5.188584
5.085468
4.946589
5.106926
4.614592
4.835725
4.487634
4.714727
##ZVALUE=335
1.029968
1.108646
1.162887
1.014471
1.158714
1.164675
1.156926
1.272559
1.077652
1.216531
1.316667
1.190901
1.200438
1.107454
1.285672
1.266599
1.306534
1.271963
1.148582
1.319647
1.416802
1.131892
1.440644
1.521707
1.434684
1.237988
1.460910
1.451969
1.580715
1.430511
1.645684
1.544952
1.679659
1.700521
1.767874
1.868606
1.862645
2.108812
2.079606
2.370477
2.220869
2.343655
2.591610
2.928972
3.033876
3.263950
3.535748
4.411936
4.654527
18.942952
69.015026
253.530741
513.049960
1003.495455
1015.788913
1015.788913
1015.788913
1015.788913
1015.788913
1015.788913
1015.788913
1015.788913
961.252451
494.745970
255.497694
79.970956
28.161407
11.508465
9.786487
9.605885
10.204911
12.212992
15.744567
24.472475
33.193827
46.595931
57.765841
68.980455
74.348450
74.989796
70.261955
60.552955
51.765442
38.660765
29.682517
19.669533
14.131665
9.352565
7.053614
5.763769
5.179644
4.791617
4.724860
4.448891
4.401803
4.444718
##ZVALUE=340
1.091957
1.081824
1.060963
1.109838
1.092553
1.181960
1.096725
1.100898
1.139641
1.099706
1.118779
1.221895
1.135468
1.080632
1.147985
1.208782
1.257658
1.218915
1.132488
1.112819
1.183748
1.403689
1.035929
1.223683
1.431704
1.302958
1.404881
1.429915
1.364946
1.537800
1.429915
1.393557
1.457930
1.577735
1.633763
1.704693
1.774430
1.833439
1.866817
1.859665
2.017617
2.066493
2.126694
2.273917
2.544522
2.772808
2.883673
3.344417
3.188848
3.905892
4.188418
8.933544
36.342740
168.387890
390.982628
909.531713
1015.749574
1015.749574
1015.749574
1015.749574
1015.749574
1015.749574
1015.749574
1015.749574
1015.749574
577.334762
313.107967
120.817423
44.084787
12.951493
10.032654
9.485483
9.607673
10.144711
11.230707
15.850663
21.298528
30.855536
41.135550
54.754615
63.139796
69.585443
70.255995
66.590905
59.736967
48.409700
38.803816
27.339458
19.986629
13.547540
9.823442
7.020831
5.971789
4.830956
4.663467
4.714727
##ZVALUE=345
1.104474
0.978708
1.055598
1.137853
1.076460
1.193881
1.195669
1.254678
1.152754
1.156926
1.254678
1.215935
1.159906
1.349449
1.276731
1.271963
1.267791
0.991821
1.123548
1.177788
1.113415
1.255870
1.193881
1.267791
1.423955
1.362562
1.470447
1.531839
1.470447
1.527667
1.395941
1.596808
1.638532
1.574755
1.469851
1.641512
1.681447
1.800656
1.702905
1.617670
1.886487
2.016425
2.001524
2.216697
2.220869
2.308488
2.295971
2.605915
2.839565
2.985597
3.211498
3.861785
4.034638
5.025864
16.354918
100.069642
258.394480
640.098453
1011.469960
1015.785933
1015.785933
1015.785933
1015.785933
1015.785933
1015.785933
1015.785933
1015.785933
840.767622
460.677743
173.028708
72.371960
20.028949
11.519790
9.727478
9.253621
8.467436
8.869767
10.463595
13.341904
19.490719
26.875734
38.412809
47.880411
58.298707
62.698722
65.582991
62.775612
55.623651
48.320889
36.917925
28.479695
18.635988
14.046431
9.375811
7.239580
5.703568
##ZVALUE=350
1.227856
1.047850
1.040697
1.197457
1.125932
1.236796
1.294613
0.988841
1.153946
1.250505
1.406670
1.096725
1.274943
1.207590
1.106858
1.264811
1.279712
1.193881
1.213551
1.256466
1.215935
1.227856
1.388788
1.369715
1.445413
1.419783
1.349449
1.459718
1.428723
1.295805
1.401901
1.459718
1.453757
1.488924
1.534820
1.736879
1.678467
1.763701
1.753569
1.816750
1.904964
1.905560
1.859665
2.039671
1.936555
2.147555
2.338886
2.286434
2.650619
2.624989
2.809763
3.148913
3.252625
3.550649
3.871918
4.415512
8.514524
57.045817
160.800815
446.096659
825.223923
1015.788913
1015.788913
1015.788913
1015.788913
1015.788913
1015.788913
1015.788913
1015.788913
973.212719
593.860745
250.764489
109.341741
27.843714
12.492537
9.510517
8.702874
7.727742
7.448792
7.678866
9.300709
13.104677
17.727613
24.927855
32.621622
43.863654
50.923824
57.510734
59.516430
57.982802
53.049922
43.263435
35.313964
25.349855
19.103885
13.015866
##ZVALUE=355
1.109838
1.144409
1.154542
1.349449
1.142621
1.108646
1.311898
1.271963
1.419783
1.299977
1.241565
1.269579
1.387596
1.215935
1.323819
1.227856
1.238585
1.406670
1.320839
1.311898
1.368523
1.379848
1.465678
1.400709
1.395941
1.563430
1.310706
1.461506
1.443624
1.600981
1.452565
1.606941
1.480579
1.453757
1.635551
1.684427
1.713634
1.890659
1.882911
1.803637
1.895428
1.948476
1.994967
1.974702
2.069473
2.367496
2.324581
2.250671
2.435446
2.470613
2.689958
2.940893
2.853870
3.049970
3.327727
3.690720
4.024506
4.465580
5.563498
27.293563
92.730522
318.995714
617.658496
1015.785933
1015.785933
1015.785933
1015.785933
1015.785933
1015.785933
1015.785933
1015.785933
1015.785933
797.273517
335.206985
151.707530
41.726828
15.237927
9.151697
8.349419
7.687807
7.510781
7.002950
7.261634
8.672476
10.707974
15.620589
20.944476
29.782653
37.037730
45.272708
51.305890
54.136515
53.629875
48.258901
42.282939
33.449531
##ZVALUE=360
1.268983
1.145601
1.032948
1.144409
1.328588
1.272559
1.223683
1.246929
1.110435
1.251698
1.243949
1.335740
1.350641
1.400709
1.320839
1.365542
1.228452
1.215935
1.289845
1.395941
1.242757
1.554489
1.438856
1.374483
1.410842
1.574755
1.472831
1.510978
1.391768
1.338720
1.560450
1.612902
1.583695
1.600981
1.713634
1.719594
1.716614
1.686811
1.799464
1.711845
1.857877
1.811981
1.902580
1.961589
2.056956
2.228618
2.144575
2.187490
2.323985
2.450943
2.408624
2.559423
2.598763
2.724528
2.828836
3.202558
2.980828
3.576875
4.061460
4.748702
5.146861
11.019707
43.032765
171.562433
380.010605
857.200027
1015.788913
1015.788913
1015.788913
1015.788913
1015.788913
1015.788913
1015.788913
1015.788913
955.369473
452.081561
222.616792
73.104501
25.570989
9.623766
8.492470
7.432699
7.166862
6.777644
6.401539
6.580949
7.273555
9.191632
11.797547
17.940998
24.027824
32.809973
38.948655
45.774579
49.194694
48.898458
##ZVALUE=365
1.255870
1.137853
1.266599
1.037717
1.280904
1.253486
1.252890
1.155734
1.310706
1.234412
1.304746
1.241565
1.305938
1.288652
1.281500
1.363754
1.232624
1.234412
1.239777
1.384616
1.255870
1.300573
1.407862
1.357794
1.414418
1.439452
1.529455
1.513958
1.558661
1.476407
1.607537
1.448989
1.426935
1.665950
1.591444
1.634955
1.699924
1.655817
1.630783
1.644492
1.589656
1.605749
1.676679
1.718998
1.844764
1.982450
1.879930
2.017617
2.164841
2.064705
2.194643
2.205968
2.328753
2.406836
2.513528
2.736449
2.624989
2.922416
3.436804
3.525615
3.814697
4.479885
4.988909
5.856752
17.285943
99.365711
247.877836
599.679947
987.579823
1015.809774
1015.809774
1015.809774
1015.809774
1015.809774
1015.809774
1015.809774
1015.809774
622.732639
328.356624
110.031962
38.706660
10.856986
7.607937
6.966591
6.446838
6.095767
5.670786
5.507469
5.386472
6.159544
7.503629
10.606647
14.524460
20.746589
26.932955
34.138560
##ZVALUE=370
1.154542
1.166463
1.026988
1.118779
1.104474
1.224875
1.157522
0.953674
1.154542
1.116991
1.017451
1.253486
1.079440
1.186728
1.274943
1.222491
1.152754
1.194477
1.301765
1.283884
1.216531
1.228452
1.082420
1.379848
1.274943
1.442432
1.463890
1.334548
1.305938
1.215935
1.308918
1.214743
1.279712
1.388788
1.365542
1.550913
1.484752
1.460910
1.370907
1.522899
1.429915
1.458526
1.635551
1.436472
1.648664
1.624823
1.813769
1.688600
1.687407
1.816750
1.759529
1.911521
1.894832
1.963973
1.988411
2.167821
2.176762
2.303720
2.513528
2.687573
2.924800
3.245473
3.221631
3.632903
3.783703
4.276633
8.455515
54.400563
161.341429
448.805690
805.935860
1015.788913
1015.788913
1015.788913
1015.788913
1015.788913
1015.788913
1015.788913
1015.788913
797.547698
441.805720
162.981749
66.261888
17.084479
8.147955
6.708503
6.252527
5.953908
5.632639
5.195737
5.103946
5.124807
5.285740
6.630421
8.524656
12.545586
##ZVALUE=375
1.154542
1.050830
1.033545
1.182556
1.093745
1.045465
1.032948
1.132488
1.154542
0.928640
1.124740
1.105666
1.109838
1.020432
1.127720
1.070499
1.016855
1.090765
1.145601
1.149774
1.100898
1.088977
1.203418
1.321435
1.280904
1.166463
1.260638
1.322627
1.228452
1.117587
1.213551
1.160502
1.187921
1.389980
1.284480
1.328588
1.438856
1.210570
1.376867
1.262426
1.381636
1.357794
1.317859
1.374483
1.383424
1.512766
1.478791
1.603961
1.537800
1.583695
1.596808
1.669526
1.683831
1.762509
1.725554
1.990795
1.948476
2.141595
2.066493
2.065897
2.296567
2.508759
2.539754
2.588630
2.814531
3.339648
3.628731
4.022717
5.041957
25.984645
91.680884
299.221873
595.322847
1015.788913
1015.788913
1015.788913
1015.788913
1015.788913
1015.788913
1015.788913
1015.788913
972.455740
626.830459
301.998854
142.666698
38.801432
13.082623
6.931424
6.251931
5.674958
5.522966
5.092621
4.976988
4.708767
4.532933
4.921556
##ZVALUE=380
1.042485
1.102686
1.021624
0.951886
0.962615
0.888705
0.957847
1.078844
0.973940
0.911951
0.996590
0.961423
0.984669
1.155734
1.023412
1.144409
1.096725
1.026988
1.154542
1.255870
1.149774
0.817776
1.018643
1.114607
1.158714
1.275539
1.056790
0.994802
1.267791
1.265407
1.287460
1.144409
1.186728
1.093745
1.268983
1.094937
1.246929
1.168847
1.141429
1.250505
1.289845
1.331568
1.189709
1.370907
1.343489
1.603961
1.429915
1.326799
1.477599
1.641512
1.546741
1.662970
1.723766
1.505613
1.531839
1.767874
1.937747
1.734495
1.857877
1.981854
2.068877
2.123713
2.245903
2.160668
2.556443
2.470613
2.840757
3.116727
3.845692
4.297495
4.885793
10.752678
66.143870
189.305544
522.163510
910.401940
1015.788913
1015.788913
1015.788913
1015.788913
1015.788913
1015.788913
1015.788913
1015.788913
826.833844
480.131507
185.187459
76.947808
18.280745
7.842779
6.102920
5.624890
5.156994
4.986525
4.939437
4.690886
##ZVALUE=385
0.953674
0.869632
0.971556
1.159906
0.986457
0.954866
0.860691
0.980496
0.905991
1.023412
0.966787
0.973940
1.210570
1.097918
1.016855
1.148582
0.994802
1.032948
0.969768
0.884533
0.998974
1.188517
1.037717
0.955462
1.177788
1.058578
1.155734
1.062751
1.147985
1.021624
1.170635
1.030564
1.202822
1.087785
1.037717
1.139641
1.232624
1.064539
1.159906
1.169443
1.188517
1.303554
1.176000
1.310706
1.302958
1.203418
1.352429
1.393557
1.302958
1.327991
1.293421
1.513958
1.592636
1.390576
1.446605
1.518726
1.660585
1.663566
1.549721
1.701713
1.828671
1.838803
2.044439
1.860857
2.018809
2.229810
2.548695
2.726912
2.828836
3.160834
3.620982
4.000664
4.336834
6.409883
24.678707
131.549835
311.703682
722.355843
1015.788913
1015.788913
1015.788913
1015.788913
1015.788913
1015.788913
1015.788913
1015.788913
1015.788913
636.743903
355.764627
137.211680
50.295591
10.937452
6.472468
5.608797
5.089641
4.882812
##ZVALUE=390
0.916719
0.888705
0.881553
1.072884
0.901818
0.919700
1.025796
1.044869
1.095533
0.956655
0.946522
0.969768
1.031756
0.837445
0.855923
1.036525
0.917912
0.973940
1.033545
1.031756
0.987649
0.967979
0.903606
1.178980
1.095533
0.999570
1.042485
1.042485
1.214743
1.065731
1.169443
1.025796
1.277924
1.249909
1.119971
1.232624
1.267791
1.122952
1.127720
1.160502
1.190901
1.193881
1.273751
1.146793
1.269579
1.325607
1.230836
1.372695
1.368523
1.341701
1.338720
1.452565
1.468658
1.558661
1.490712
1.522899
1.645684
1.604557
1.601577
1.708865
1.735687
1.853704
1.806617
1.906753
2.063513
2.150536
2.278686
2.470613
2.786517
3.051758
3.450513
3.640652
3.614426
3.966689
4.014969
4.470944
11.970997
74.587464
212.830901
590.577722
983.380675
1015.788913
1015.788913
1015.788913
1015.788913
1015.788913
1015.788913
1015.788913
1015.788913
932.303071
537.261963
209.854841
89.583993
22.163987
8.388758
5.949736
##ZVALUE=395
0.956655
0.896454
0.910759
0.833869
0.831485
1.032948
0.799894
0.872612
0.993609
0.743866
0.799894
0.893474
1.065731
0.985861
1.140833
0.924468
1.070499
0.854731
0.884533
1.030564
1.021624
0.954866
1.017451
1.012683
1.057982
0.975728
1.019835
1.127720
1.130700
1.110435
1.234412
1.131892
1.197457
1.028776
1.152754
1.226664
1.169443
1.081824
1.168847
1.353621
1.227856
1.259446
1.287460
1.264811
1.153946
1.325607
1.226664
1.201630
1.267791
1.458526
1.410842
1.388788
1.495481
1.512766
1.473427
1.442432
1.529455
1.587868
1.498461
1.658797
1.662970
1.751781
1.738667
1.885891
1.860857
2.114773
2.247691
2.252460
2.514720
2.832413
2.910495
3.164411
3.253818
3.187656
3.315806
3.360510
3.717542
4.073977
6.174445
40.801764
138.497949
431.971550
786.260962
1015.788913
1015.788913
1015.788913
1015.788913
1015.788913
1015.788913
1015.788913
1015.788913
1015.788913
727.847815
337.517858
155.629516
43.754578
##ZVALUE=400
0.948906
1.057982
1.100898
1.137853
0.891685
1.052618
1.053810
0.786781
0.886917
0.844598
0.983477
0.979900
0.772476
0.816584
0.957847
1.006722
1.068711
0.927448
0.978708
0.954866
0.986457
1.083612
0.993609
1.146793
1.044869
1.034737
1.050830
1.185536
1.041889
1.108646
1.409650
1.290441
1.250505
1.262426
1.190901
1.148582
1.324415
1.150966
1.023412
1.159906
1.180768
1.281500
1.225471
1.327991
1.260638
1.224875
1.374483
1.379848
1.268983
1.513958
1.382828
1.396537
1.429915
1.428723
1.549721
1.403689
1.690984
1.509786
1.534820
1.622438
1.747608
1.825690
1.697540
1.935959
1.854897
1.889467
2.126694
2.333522
2.684593
2.910495
2.950430
2.927780
2.787709
2.938509
2.919436
3.078580
3.053546
3.269911
3.539920
3.999472
4.712939
23.376942
84.340572
276.382565
550.907850
1014.016867
1015.828848
1015.828848
1015.828848
1015.828848
1015.828848
1015.828848
1015.828848
1015.828848
832.969546
424.222946
##END
