##TITLE=DDW1
##FORMAT=SPECTACLE-ASCII V-1.2
##DATA TYPE=ULTRAVIOLET SPECTRUM
##SECOND TYPE=ULTRAVIOLET SPECTRUM
##DATE=11/28/17
##TIME=12:51:49
##SPECTROMETER/DATA SYSTEM=SPECTACLE
##XUNITS=NM EM
##YUNITS=ENERGY
##YFACTOR=1
##FIRSTX=220
##LASTX=410
##NPOINTS=96
##3DDATA=Equidistant
##ZUNITS=NM EX
##FIRSTZ=210
##LASTZ=400
##ZPOINTS=39
##XYDATA=(Y..Y)
##ZVALUE=210
13.118982
12.004972
12.215972
11.429787
10.250807
11.232495
9.164810
8.681417
6.373525
5.398989
4.322529
3.031492
3.286600
2.652407
3.355742
2.991557
3.165603
3.336668
2.740622
3.997684
3.307462
3.434420
3.683567
4.084706
3.743768
4.071593
4.264712
4.107952
4.669428
4.194975
4.586577
4.259944
4.493594
5.424619
4.694462
4.528761
4.787445
5.342960
4.853606
5.077720
4.640818
4.347563
4.434586
4.903674
5.208850
4.818439
5.241632
5.627871
5.626678
6.329417
4.487634
5.851984
6.112456
5.844831
5.654693
5.082488
5.489588
4.558563
5.799532
5.944967
4.901886
5.840659
5.342960
5.162954
5.775690
5.758405
5.580783
6.334782
6.882548
7.493496
8.270741
8.439422
9.840727
10.893941
11.125803
10.858774
11.747479
11.178851
11.228919
10.465980
9.131432
9.044409
6.929636
6.932616
5.946755
6.138682
5.827546
5.456805
5.345941
5.895495
6.795526
9.460449
12.400746
15.410781
20.164847
24.032593
##ZVALUE=215
32.401681
32.358766
25.503635
20.867586
17.741919
15.404820
13.525486
14.671683
13.936758
11.602640
12.109876
10.061860
6.928444
5.818605
4.290938
3.590584
3.272891
3.454685
3.800988
3.526807
3.199577
3.876686
3.676414
3.914833
4.003644
4.315972
3.701448
4.058480
4.245639
4.876852
5.012751
4.578829
5.337596
5.302429
5.052686
5.058646
4.830956
5.145669
5.296469
5.780458
5.132556
4.698634
5.269647
4.701614
5.215406
5.747676
5.440712
4.298687
5.711913
5.378723
6.100535
5.295873
6.715655
5.277991
5.493760
5.848408
4.874468
6.093979
5.603433
5.189776
5.798936
5.476475
5.768538
5.213618
6.360412
5.643964
6.240606
6.405711
6.873608
7.496476
8.047819
8.614659
10.131598
9.586811
10.682940
10.898709
11.860728
10.085702
10.293722
10.040998
9.426475
8.533597
7.997751
7.166862
6.976724
5.613565
6.134510
4.883409
5.100965
4.652739
4.465580
4.818439
5.115867
5.113482
6.927848
9.314418
##ZVALUE=220
63.553452
64.903498
65.392852
57.862997
50.689578
37.429929
30.391812
24.323463
23.153424
21.696687
21.596551
21.354556
19.980669
17.287731
13.743639
11.332631
7.112622
5.786419
4.869699
3.741980
3.814697
4.310608
3.332496
4.137754
4.318953
4.543662
4.193783
4.224777
4.597902
4.813671
4.924536
5.025864
4.877448
4.662871
4.679561
5.762577
5.438924
5.327463
4.742742
6.189942
5.347729
5.729795
5.706549
5.234480
6.178617
6.117821
5.505681
5.803704
5.383492
5.911589
6.187558
6.215572
6.233454
5.886555
5.630851
5.846620
6.373525
6.618500
5.516410
6.220937
6.412864
7.187724
6.425977
6.781816
6.528497
6.862879
6.214976
7.011890
7.940531
7.842779
9.695888
10.462999
10.172725
11.338592
10.559559
11.812449
11.562705
10.835528
10.695457
10.681748
8.980632
8.646846
8.787513
7.436872
7.382631
7.259846
6.406903
5.202889
5.432963
5.702972
5.092621
5.600452
4.640818
4.899502
5.458593
5.265474
##ZVALUE=225
74.793696
80.187917
97.774863
109.054446
109.525919
102.468729
88.895559
64.142942
55.242777
41.245818
35.000443
34.583807
34.917593
34.751892
35.745502
29.743910
27.681589
18.627644
15.601516
9.397864
6.816983
4.998446
4.649758
3.923774
4.968643
4.174709
4.312992
5.175471
5.057454
5.492568
5.170703
5.428791
5.851984
4.839897
5.223751
5.825758
6.467700
6.250739
5.589724
5.953908
6.076694
6.724596
6.728768
5.490780
5.765557
6.226897
5.686879
6.232858
6.060600
5.909801
6.162524
6.310940
6.663799
7.100701
6.691813
7.956624
6.711483
8.750558
6.994605
7.761717
7.387996
7.008910
7.520914
6.986856
7.452965
8.151531
8.546710
9.043813
7.809997
8.803606
9.403825
9.677410
10.961890
11.262894
11.413693
11.934638
12.207627
10.648966
10.606647
8.959770
8.912683
9.504557
7.569790
7.973909
6.903410
6.949902
6.585717
5.845428
6.201863
5.494952
6.017685
6.162524
5.039573
6.349683
5.984902
5.474687
##ZVALUE=230
45.561790
52.876472
76.195598
120.703578
154.623985
188.234448
192.245841
188.486576
164.414644
134.220719
94.370842
66.369772
55.171847
48.312545
50.765872
56.797862
54.216981
53.466558
49.603581
39.048791
27.522445
19.656420
12.328625
7.385612
6.244779
4.730821
4.697442
5.313754
5.083680
5.586743
5.698800
5.816817
4.971623
5.725622
5.395412
5.810857
5.827546
7.087588
6.116629
5.920529
6.405711
6.336570
7.898808
7.166862
6.957650
5.891919
6.439686
6.799698
6.619692
7.398725
6.849766
6.933808
7.292628
7.630587
8.231997
7.236600
8.356571
8.240938
8.035898
8.115768
8.845925
8.605719
8.685589
8.762479
8.225441
8.951426
8.850694
9.636879
8.949637
11.439919
10.067821
11.755824
10.929704
12.202859
12.155771
12.532473
10.862947
11.749864
11.409521
10.549426
9.623766
8.759499
8.169413
8.173585
8.096695
7.523894
6.966591
6.954670
6.763935
6.207824
6.425977
5.635619
5.642772
6.603599
6.477833
5.836487
##ZVALUE=235
12.048483
14.706850
34.804940
63.106418
117.596984
166.929960
240.522623
287.868977
310.072899
308.209658
259.847641
206.860900
157.765746
102.086663
81.256628
68.718791
70.826411
77.592731
81.789494
82.992911
77.856779
67.707896
51.479936
38.229823
23.726821
15.933514
10.403991
7.957816
7.041693
6.583929
6.690621
6.185770
6.857514
5.961657
6.155968
6.231666
6.180406
6.579757
6.294847
6.841421
5.861521
7.196665
6.237626
6.743670
7.079840
7.427931
6.661415
6.930828
6.957650
7.673502
6.611943
7.612705
7.385612
7.419586
8.229613
8.020997
7.217526
8.371472
7.773638
8.114576
8.383989
7.825494
8.930564
8.572936
7.595420
8.789897
10.147691
9.194613
8.950830
10.944605
11.077523
10.608435
10.660887
12.455583
12.047887
10.807514
12.736917
11.796951
11.940598
10.168552
9.261966
10.761619
9.432435
8.385777
8.913875
7.961988
7.890463
7.862449
7.354617
7.033944
7.297993
6.230474
7.930994
7.753968
6.296635
7.352829
##ZVALUE=240
2.717972
2.760887
4.741549
14.089942
33.315420
72.462559
132.640004
227.380991
313.737988
405.666828
434.642434
434.384942
388.591886
329.953432
240.159631
178.653002
108.706951
89.604855
83.815455
90.900660
108.428597
112.123489
110.856891
97.592473
78.352690
63.169599
47.186613
30.011535
20.686984
12.098551
8.768439
8.787513
7.879734
7.587671
7.386804
6.996989
7.639527
7.387996
7.056594
7.707477
7.003546
7.396936
6.404519
7.090569
5.735755
6.688833
6.463528
6.902814
7.426739
7.127523
6.845593
8.002520
7.963777
7.637739
8.024573
8.316636
7.850528
8.618832
7.931590
7.212758
7.082820
7.977486
8.321404
8.539557
8.471608
7.207990
9.517670
8.658767
8.616447
10.389686
10.204911
11.470914
11.796951
12.244582
12.108684
12.482405
12.496710
11.662841
11.963844
11.688471
10.370612
9.991527
9.621978
8.575916
8.920431
8.334517
8.320808
8.262992
8.019805
7.818937
6.776452
6.689429
7.618666
6.498694
7.277727
7.698536
##ZVALUE=245
2.269745
2.189875
2.588630
2.301931
4.640818
9.839535
29.519796
60.225725
142.175555
224.752426
354.454517
440.953970
506.715775
536.963940
502.626896
417.670608
332.911611
226.423740
161.926746
105.040669
87.931752
88.236928
103.522539
110.150576
125.249624
117.474794
104.878545
89.072585
66.770911
52.783489
36.542416
23.815632
16.128421
9.838939
8.746982
7.779598
7.110834
6.993413
6.491542
6.730556
7.094741
6.686449
6.562471
7.427931
7.726550
6.021857
6.256700
6.973743
6.575584
6.108880
6.456971
6.112456
7.137656
6.210804
6.221533
6.068945
6.477833
6.599426
5.963445
6.406903
7.011890
6.207824
6.597638
7.222891
6.777644
6.597638
6.452799
8.138418
7.582903
8.009672
8.259416
9.487867
10.509491
10.118484
10.734797
10.420680
10.900497
9.666681
9.678602
9.659529
9.000897
9.206533
8.635521
8.115768
7.559657
6.069541
7.015467
6.377697
7.358789
7.033944
6.506443
6.798506
6.959438
6.223917
6.391406
6.108880
##ZVALUE=250
1.999736
1.995564
1.773834
2.080798
2.127886
2.213717
2.675653
7.084608
20.004511
58.760643
113.795400
228.113532
334.533453
474.704504
556.465983
595.147610
594.933629
535.205603
422.279835
323.962569
206.846595
130.228400
89.352727
82.463622
97.710490
107.872486
121.456981
126.795769
126.473904
113.835931
97.543597
75.618625
54.027438
33.270717
21.246672
13.736486
9.491444
7.639527
7.017851
7.155538
6.995797
6.677508
5.806684
6.298423
6.092787
5.942583
5.947948
5.928874
6.093979
5.975962
6.168485
5.960464
6.018877
5.758405
6.364584
5.878806
5.614758
5.780458
5.631447
5.490780
5.317926
6.114841
6.063581
5.954504
5.928874
6.220937
6.384850
6.016493
6.919503
7.165670
7.866621
8.963943
7.964969
8.559823
9.855628
9.585619
9.162426
8.360744
7.557869
8.406639
8.146763
7.589459
6.761551
6.143451
6.724000
6.516576
6.318688
5.434752
5.370975
6.012917
5.417466
5.563498
5.902648
5.866885
5.588531
5.393624
##ZVALUE=255
1.651645
1.711845
1.705885
1.854897
2.018809
2.069473
1.978874
2.171993
2.112985
3.685951
17.527938
44.403672
89.551806
194.357634
301.821828
458.043814
570.355654
662.013888
684.480667
634.595752
540.346503
433.018804
268.218517
179.294944
101.641417
80.062747
80.091953
89.502931
113.235712
126.269460
132.939816
133.311749
122.122765
97.590685
80.050826
51.723719
36.062598
20.066500
12.649894
8.336902
6.765723
6.477833
5.962849
6.020665
5.996823
5.277991
5.930662
6.025434
6.171465
5.468726
6.006956
5.039573
5.534887
5.689859
5.243421
5.310774
5.266666
5.058646
5.387664
4.743934
5.315542
5.048513
5.427599
5.297661
5.776882
5.660653
5.874634
5.835891
5.684495
6.443858
6.579757
6.725788
7.359982
7.236600
7.871985
7.200837
7.405877
6.650686
7.004738
6.515980
5.847812
6.203651
5.834699
5.262494
5.091429
5.295873
4.938841
4.624724
4.948974
4.755855
4.535913
4.473925
4.779696
5.339980
4.709959
4.223585
##ZVALUE=260
1.242757
1.612902
1.620650
1.395941
1.806617
1.563430
1.599789
1.476407
1.776814
1.632571
1.982450
2.321601
7.398725
28.937459
67.277551
162.764788
266.447663
428.308845
556.388497
706.282854
766.045451
755.549669
657.934546
526.709557
349.560976
237.280726
141.878724
93.262792
69.333911
72.750449
86.216927
115.550756
129.150748
140.948892
136.065483
124.956965
103.430748
79.565644
56.707859
35.752654
22.231936
12.485981
7.929802
6.080866
5.641580
5.496740
5.326867
5.619526
5.318522
5.256534
5.127788
4.855990
4.856586
5.025864
5.315542
4.755855
4.770756
4.709959
5.202889
4.612803
4.783869
4.730821
4.330873
4.843473
4.698634
5.182624
4.763603
4.685521
4.924536
5.243421
5.607605
5.751848
6.002784
6.726980
7.128716
6.183982
6.147623
6.210804
5.453825
5.319715
4.847646
4.915595
4.394650
4.462600
4.109740
4.326701
3.999472
4.143715
3.832579
3.531575
3.496408
4.021525
3.643632
3.162622
3.422499
3.510714
##ZVALUE=265
1.524687
1.439452
1.316667
1.389980
1.552701
1.645684
1.621842
1.553893
1.644492
1.809597
1.707673
1.895428
1.898408
2.130866
4.884601
18.192530
62.103868
125.076771
211.587548
395.822525
557.252765
738.759637
823.583007
831.168890
758.981705
602.393746
475.998521
302.629471
200.634003
106.752515
71.931481
59.349537
70.004463
97.444654
116.165876
134.720802
142.194629
136.929750
124.557614
100.364685
77.537894
51.961541
34.849644
21.042824
13.419986
7.825494
5.997419
5.562901
5.402565
4.826784
5.222559
5.397797
5.449653
5.230904
5.063415
4.756451
4.891753
5.235672
4.778504
4.913807
4.919767
4.167557
4.740953
4.648566
4.940629
4.469752
4.206896
4.812479
4.894733
5.375743
5.465746
5.684495
5.517602
5.673766
5.030632
5.727410
5.251765
5.683899
5.278587
4.435778
4.573464
4.264712
4.373789
4.541874
4.536510
4.129410
4.262924
3.616810
3.774762
3.621578
3.723502
3.559589
3.514886
3.527999
3.784895
3.237724
##ZVALUE=270
1.297593
1.399517
1.272559
1.467466
1.500845
1.410842
1.564622
1.680851
1.611710
1.452565
1.797676
1.548529
1.833439
1.734495
2.238750
1.949668
2.462864
9.773970
30.570626
98.282695
193.402767
328.536630
551.450849
710.659623
857.057571
897.231698
858.836770
767.493844
587.548018
433.812737
301.994681
157.456994
92.807412
53.047538
51.478744
74.653625
95.559955
119.476914
134.902596
141.032934
139.319897
122.921467
105.422735
78.067780
57.359934
34.302473
23.666620
13.313890
9.069443
6.156564
5.662441
5.417466
5.096793
4.913807
5.231500
5.355477
5.007982
4.586577
4.698634
4.374981
4.501939
4.844666
4.644990
4.258752
4.857779
4.527569
4.887581
4.284978
4.966855
5.240440
5.241632
4.943609
5.111694
5.446672
5.322695
4.989505
4.799962
4.919767
4.959702
4.366636
4.376769
3.998876
4.159808
3.763437
4.260540
3.562570
3.268719
3.410578
3.524423
3.663898
3.255606
3.397465
3.245473
3.267527
3.386736
3.587604
##ZVALUE=275
1.147985
1.347661
1.086593
1.381636
1.269579
1.279712
1.284480
1.385808
1.321435
1.575947
1.598597
1.690984
1.674891
1.550913
1.439452
1.953840
1.891851
1.928806
1.756549
4.799962
20.334721
58.269501
165.481567
296.448469
517.884493
664.231777
833.529830
915.778875
929.203629
856.992602
747.179985
541.096926
382.805467
203.349590
117.521882
58.167577
42.479634
51.468611
68.401694
94.724894
112.388730
134.529471
140.774846
136.168599
125.070810
99.458694
80.530643
55.010915
39.929748
22.467971
14.582872
7.918477
6.645918
5.324483
5.356669
4.809499
4.799962
5.301833
4.751682
5.008578
4.784465
4.760623
4.614592
4.516840
4.747510
4.056692
4.075766
4.542470
4.562736
4.667640
4.866719
5.140901
5.135536
5.392432
5.395412
5.158782
5.027652
4.710555
4.575849
4.259944
3.951788
3.727674
3.420711
3.610849
3.643632
3.523827
3.519654
3.525615
3.321767
3.355742
3.088713
3.294945
3.344417
3.324747
3.153682
3.092885
##ZVALUE=280
1.361966
1.498461
1.208782
1.119971
1.263618
1.298785
1.475811
1.448989
1.287460
1.169443
1.382828
1.420975
1.298785
1.471639
1.557469
1.729727
1.469851
1.609921
1.803637
1.828671
2.089739
2.597570
13.406873
45.772791
138.064623
244.401693
426.419973
594.300628
795.923471
909.484625
964.716673
923.950672
819.910765
612.528920
451.833010
254.278779
153.172612
72.367787
42.410493
34.969449
46.986938
69.560409
89.501739
115.159750
127.916932
137.739778
132.143497
118.848681
102.484822
74.778795
56.369901
35.152435
23.020506
13.056993
8.926988
5.859733
5.176663
5.110502
4.859567
4.698634
4.467964
4.522800
4.677773
4.387498
4.692674
4.424453
4.381537
4.516840
4.419684
4.524589
4.785657
4.796982
4.681945
4.603863
4.773736
4.719496
4.441738
4.464984
4.000664
3.918409
3.780723
4.110932
3.761649
3.366470
3.470778
3.460646
3.102422
3.577471
3.202558
3.347993
3.095865
3.111959
2.992749
3.120899
3.214478
3.160834
##ZVALUE=285
1.468658
1.356602
1.221895
1.119971
1.162887
1.262426
1.325607
1.339912
1.396537
1.337528
1.308918
1.453757
1.364946
1.269579
1.422763
1.399517
1.524687
1.601577
1.653433
1.618862
1.806617
1.924634
1.968741
2.304912
6.538630
24.211407
81.411004
165.923834
338.850617
501.283407
713.976026
853.706598
973.452926
982.714891
878.061652
745.413899
526.775718
369.446874
194.771886
113.431811
50.270557
29.866695
31.199455
43.048859
65.891743
86.191893
108.706951
123.037696
132.244825
130.670667
117.301941
101.916790
76.968670
58.122873
36.960840
24.370551
13.025999
8.820891
5.761981
5.402565
4.384518
4.324913
4.471540
4.337430
4.421473
4.171729
4.266500
4.325509
4.509687
4.202724
4.412532
4.496574
4.580617
4.846454
4.628897
4.457831
3.936887
3.995895
3.788471
3.683567
3.732443
3.452897
3.525615
3.333688
3.707409
3.012419
3.185868
3.139973
2.994537
3.164411
3.324747
2.805591
3.053546
2.960563
2.910495
3.052950
##ZVALUE=290
1.230836
1.050830
1.220703
1.129508
1.025796
1.276731
1.343489
1.367927
1.269579
1.191497
1.308918
1.256466
1.242757
1.168847
1.239777
1.278520
1.237988
1.277924
1.425743
1.512766
1.728535
1.575947
1.638532
1.725554
1.884699
2.161860
3.016591
10.206699
48.019886
112.540722
211.496949
415.070653
594.770908
821.574926
938.244462
998.953581
960.550904
816.012025
655.841827
435.322523
288.578868
143.886805
77.789426
32.248497
22.506714
29.073954
40.897727
61.820745
80.183744
103.870630
117.681623
126.095414
126.535892
113.382936
98.981857
73.590875
55.497885
35.778880
23.621917
12.841821
8.698702
5.576611
4.590750
3.998876
3.989935
4.087687
3.829598
4.007816
4.025698
4.219413
4.316568
4.329681
4.171729
4.655719
4.067421
4.127622
4.285574
3.627539
3.818870
3.351569
3.327727
3.199577
3.306866
3.119707
2.976656
2.934933
3.172755
3.018975
2.935529
3.043413
2.879500
3.143549
2.979636
3.108978
3.187656
3.259778
##ZVALUE=295
1.216531
1.114607
1.068711
1.042485
1.088977
1.017451
1.029968
1.300573
1.258850
1.242757
1.187921
1.168847
1.171827
1.114607
1.096725
1.178980
1.241565
1.213551
1.181960
1.458526
1.429915
1.204610
1.558661
1.442432
1.766682
1.882911
1.745820
1.815557
2.313852
4.545450
25.953650
72.888732
160.004497
348.036885
522.254705
759.086609
895.916820
996.868610
989.210606
882.962942
746.275783
529.365540
362.719893
188.481808
105.845928
42.750835
23.054481
18.459558
24.299622
39.839745
53.873658
77.594519
95.002651
113.813877
122.197866
118.960738
111.745596
91.026425
74.290633
51.815510
36.324859
21.503568
14.090538
7.982850
5.646944
4.066825
3.947616
3.770590
3.791451
3.892779
3.627539
3.920794
4.062653
3.935695
3.872514
3.743768
3.609657
3.656745
3.545880
3.480911
3.190637
3.130436
3.051758
2.815723
3.097653
2.892613
2.961755
3.050566
2.984405
3.159642
3.247857
3.142953
3.001690
3.225803
2.966523
2.836585
##ZVALUE=300
1.043677
1.018643
0.959635
1.041889
1.126528
1.122952
0.980496
1.146793
1.050830
1.197457
1.042485
1.020432
0.968575
1.247525
1.115799
1.166463
1.238585
1.174808
1.200438
1.412630
1.280904
1.339912
1.403689
1.404881
1.377463
1.672506
1.625419
1.705885
1.558661
2.027750
1.836419
2.754927
8.037686
47.493577
113.962889
265.562534
424.187779
653.956532
813.810825
962.565541
1002.900600
946.473479
832.591653
628.882647
460.169911
252.910852
152.736902
71.184635
34.817457
15.856624
15.034676
22.824407
31.849742
51.285625
67.746639
91.444850
104.956627
113.424659
113.418698
103.900433
92.090964
69.786906
51.865578
34.816861
23.317933
12.918711
8.624792
5.462766
4.369617
3.991723
3.737807
3.839731
3.812909
3.546476
3.572702
3.481507
3.379583
3.132820
3.294945
3.176928
3.170967
3.080964
2.860427
3.082752
2.862811
2.794862
3.075600
2.979636
2.894998
2.927780
2.808571
2.895594
2.784729
2.871752
2.755523
2.672672
##ZVALUE=305
1.064539
1.041889
0.951886
1.032948
1.012683
1.068711
1.002550
0.887513
0.788569
0.931621
1.024604
1.052618
1.036525
1.006722
1.089573
1.189709
1.226664
1.225471
1.094937
1.137853
1.336932
1.133680
1.429915
1.174808
1.453757
1.594424
1.541972
1.505613
1.608729
1.515746
1.700521
1.934767
1.860857
2.208948
4.427433
28.431416
78.435540
201.923847
341.863632
572.869778
738.376975
916.599035
992.476940
979.261994
889.398456
700.019002
539.501905
336.475968
212.372541
99.197626
50.949454
19.159913
11.799932
14.427900
19.996762
33.832788
48.107505
67.516565
83.376765
99.602938
107.561946
106.207728
99.715590
85.512996
68.505406
47.572851
33.943653
20.471811
13.355613
7.507801
5.170703
4.164577
3.936887
3.505945
3.505945
3.616810
3.331900
3.151894
3.072619
2.980828
2.942681
2.647638
2.877712
2.704859
2.641678
2.956986
2.808571
2.926588
2.752542
2.966523
2.726912
2.908707
2.896786
2.608895
2.731681
2.770424
##ZVALUE=310
0.993609
1.075864
1.035929
1.178980
0.952482
1.132488
1.118779
1.187921
1.161695
1.064539
1.108646
1.173615
1.161695
1.286864
1.223683
1.129508
1.185536
1.288652
1.255870
1.218915
1.170635
1.255870
1.355410
1.401901
1.584888
1.530647
1.358986
1.399517
1.652837
1.533628
1.654625
1.700521
1.688600
1.805425
2.004504
2.186894
2.865791
13.075471
42.964816
133.368969
246.758461
457.576513
631.438494
837.404728
950.525999
991.933942
945.246816
804.138780
657.707453
437.974930
293.811560
149.993896
80.803633
29.389858
13.952851
9.642839
12.082458
19.595623
27.175546
42.809844
56.662560
75.723529
89.556575
98.570585
100.888610
94.350576
83.116889
65.444708
50.268769
31.365752
21.534562
13.018847
8.804798
5.213618
4.152656
3.543496
3.245473
3.364682
3.027916
3.105998
2.648830
2.824664
2.845526
2.870560
2.836585
2.712607
2.795458
2.840757
2.956986
2.794862
2.939701
2.987981
2.751946
2.642870
2.943873
2.881885
##ZVALUE=315
1.031756
1.022816
1.063943
0.933409
1.231432
1.030564
0.957847
0.963807
0.957847
1.104474
0.999570
0.993609
0.985861
0.856519
1.083612
0.919700
0.914931
1.044869
1.115799
1.003742
1.052618
1.116991
1.231432
1.127720
1.279712
1.304746
1.201630
1.354814
1.246929
1.361966
1.475811
1.523495
1.379848
1.452565
1.645684
1.560450
1.742840
1.790524
2.367496
4.994869
20.364523
83.945990
176.743865
365.414023
541.646481
773.892999
896.737576
978.694558
980.430841
907.247663
728.541613
566.737652
350.548625
217.380524
98.693967
48.264861
15.712976
8.771420
8.478761
10.538697
16.810894
25.062561
38.461685
51.771998
71.101785
81.981421
93.243718
94.682574
87.080002
77.298880
61.710477
47.385693
29.961467
20.485520
12.479424
7.918477
4.712939
3.601909
2.979636
2.840757
2.626777
2.470613
2.594590
2.535582
2.468824
2.669692
2.436638
2.524853
2.636909
2.471805
2.555847
2.785921
2.586842
2.652407
2.676845
2.628565
##ZVALUE=320
0.858903
0.954866
0.884533
1.029968
0.909567
0.946522
0.878572
0.840425
1.023412
0.951886
0.862479
1.044869
0.968575
0.927448
0.923872
0.990629
1.050830
0.883937
1.098514
1.054406
0.904799
0.967979
1.036525
1.242757
1.209974
1.099706
1.192689
1.355410
1.272559
1.242757
1.280904
1.306534
1.325607
1.351833
1.251698
1.408458
1.452565
1.591444
1.780987
1.775622
2.043843
2.993941
10.554790
54.213405
127.188563
291.448832
443.370938
652.428865
800.880790
938.714743
974.959731
918.262601
815.830827
624.240637
454.609990
254.587531
146.648884
64.414740
29.172897
10.301471
7.423759
7.810593
9.598732
15.085936
21.791458
35.789609
47.252774
63.709617
76.309443
86.221695
89.473724
83.953738
75.107813
58.300495
44.132471
28.982759
19.667745
10.984540
7.210970
4.492998
3.370643
2.867579
2.661943
2.725720
2.587438
2.556443
2.711415
2.491474
2.464652
2.603531
2.596974
2.564788
2.600551
2.570748
2.599955
2.489686
##ZVALUE=325
0.984669
0.881553
0.914931
0.877976
1.007915
0.858903
0.964999
0.939965
0.755787
0.805855
0.875592
1.083612
1.011491
1.045465
0.976920
1.008511
1.083612
1.026988
0.852942
0.816584
0.984669
1.039505
0.923872
0.959635
1.129508
1.187921
1.149774
1.026988
1.122952
1.130700
1.002550
1.367927
1.168847
1.266599
1.133680
1.295805
1.436472
1.516938
1.516938
1.633763
1.663566
1.849532
2.040863
2.139807
5.920529
37.734509
89.502931
206.594467
343.272686
567.188859
719.519854
881.075859
943.130851
933.638811
851.221681
665.238500
502.392650
311.311483
192.551613
84.067583
40.938854
14.256835
7.398725
6.315708
6.656647
9.449720
13.133883
21.695495
31.070709
47.866702
60.465932
73.773861
80.078840
82.222819
78.542829
66.051483
54.315925
39.499998
27.947426
16.471744
10.568500
6.256700
4.232526
3.451705
2.938509
2.735853
2.366900
2.502799
2.510548
2.390742
2.263784
2.536774
2.367496
2.582669
2.485514
2.483726
##ZVALUE=330
0.791550
0.926852
0.973940
0.960827
0.858903
0.868440
0.866652
0.831485
0.737906
0.863671
0.790954
0.844598
0.929832
0.894666
0.819564
0.850558
0.953674
1.011491
0.944734
1.069903
0.898838
1.018643
1.022816
0.955462
0.860691
0.950694
0.854731
1.058578
1.116991
1.067519
1.058578
1.112819
1.104474
1.268983
1.135468
1.233816
1.264811
1.199841
1.229644
1.289845
1.393557
1.414418
1.487732
1.643896
1.762509
2.173781
2.696514
16.224980
49.871802
148.493648
260.082483
457.713604
613.739491
800.246596
897.077918
933.744907
882.375836
740.643740
592.302680
396.921635
258.694887
129.240751
63.456893
21.543503
9.646416
5.994439
5.787611
6.477833
8.232594
13.496876
19.749999
30.314922
41.898489
57.464838
67.212582
75.188875
76.672435
72.202682
62.832832
49.167871
37.134886
24.744868
16.469955
10.596514
7.015467
4.396439
3.404617
2.787709
2.603531
2.339482
2.406836
2.306700
2.343655
2.205968
2.190471
2.270937
##ZVALUE=335
0.680685
0.770688
0.870824
0.706911
0.859499
0.773668
0.883937
0.913739
1.088977
0.976920
0.907779
0.946522
0.806451
0.905991
0.849962
0.917912
0.906587
1.006722
0.913739
0.994802
0.872612
0.969768
1.060963
0.927448
1.130700
1.069903
1.049638
1.071692
1.179576
1.156926
0.982881
1.124740
1.165867
0.961423
1.110435
1.094937
0.990629
1.184940
1.195669
1.196861
1.285672
1.271963
1.464486
1.501441
1.714826
1.745820
1.654625
1.852512
2.183914
7.818937
27.403831
94.861984
183.659792
361.109972
523.128510
725.953579
838.356614
902.026892
884.580016
775.550008
643.914938
438.120961
299.659967
162.447691
86.895823
30.948520
12.625456
6.173849
5.557537
5.577803
6.303787
8.152723
11.496544
19.371510
28.157830
41.590929
51.973462
63.228607
69.246888
70.675611
66.402555
56.106448
47.585964
34.340620
25.740862
16.495585
11.318922
6.953478
4.708767
3.458858
2.846718
2.623796
2.355576
2.171993
2.342463
2.249479
##ZVALUE=340
0.931621
0.806451
1.038909
0.925660
0.794530
0.803471
0.891685
1.015663
0.938773
0.973940
0.953674
1.083612
0.911951
0.995994
1.042485
0.997782
0.977516
0.941753
0.992417
0.953674
0.874996
0.782609
1.106858
0.963807
1.106858
1.023412
0.904799
1.163483
1.143813
1.060963
0.956655
1.151562
1.071692
1.136661
1.083612
1.027584
1.210570
1.165867
1.242757
1.316667
1.203418
1.431704
1.185536
1.436472
1.448989
1.616478
1.585484
1.534820
1.682639
1.857877
1.880527
3.643632
13.922453
62.191486
136.150718
293.465853
449.639559
648.294687
767.530799
860.257745
879.323483
798.882842
690.133572
513.347983
362.669826
191.646814
108.653903
45.819879
18.663406
6.829500
5.600452
5.426407
5.096793
6.044507
7.654428
11.818409
17.423630
26.870966
36.999583
50.119758
58.996677
65.206885
65.614581
62.285662
56.321621
45.026541
36.119819
24.507642
17.185807
10.740757
6.950498
4.400611
3.371835
2.814531
2.513528
2.455711
##ZVALUE=345
1.027584
0.882745
1.054406
1.022816
1.260638
1.144409
1.007915
1.013875
1.097918
1.004934
1.021624
1.021624
0.951886
1.046658
1.249909
0.921488
1.018643
1.064539
0.892878
0.979900
1.167655
1.121759
1.025796
1.160502
1.302958
1.276731
1.046658
1.127720
1.121759
1.093745
1.151562
1.165867
1.247525
1.208782
1.092553
1.223683
1.278520
1.243949
1.261830
1.275539
1.314878
1.385808
1.344681
1.380444
1.554489
1.287460
1.373887
1.598597
1.701713
1.717806
1.616478
1.808405
1.937747
2.242923
7.751584
29.866695
104.571581
194.335580
354.702473
502.627492
683.344007
788.338780
848.210454
835.746527
725.291967
599.407554
411.551595
273.301601
127.662420
64.325929
21.673441
10.098815
5.881786
5.451441
5.175471
4.759431
5.558729
6.673932
10.318756
15.733838
24.631619
32.852888
44.267774
51.209927
58.919787
60.033798
57.767630
52.993894
42.638779
34.731627
24.738908
18.099546
10.604858
7.407665
4.588962
3.797412
##ZVALUE=350
0.842810
0.974536
0.823736
0.914931
0.945926
0.844598
0.860691
1.015663
0.814795
0.744462
0.851750
0.827909
0.867844
0.840425
0.984669
0.868440
0.900626
0.983477
0.774860
0.857711
0.850558
0.853539
0.893474
0.770688
1.050830
0.945926
1.068711
1.019835
0.974536
1.022816
0.970960
0.820756
0.883937
1.030564
0.866652
0.921488
0.950694
0.987649
0.944734
1.084805
1.005530
1.081824
1.149774
1.251698
1.201630
1.198649
1.313686
1.269579
1.254678
1.285672
1.289845
1.310706
1.455545
1.581907
1.637936
2.144575
3.270507
21.074414
57.104826
147.277713
253.320932
439.062715
576.840639
721.962452
801.236629
819.085836
765.606761
628.851652
485.654473
294.687748
178.453922
78.709722
35.905838
10.969639
6.124973
5.067587
4.570484
4.343987
4.080534
4.674792
5.993843
9.520650
13.939738
21.331906
27.838945
38.511753
46.116710
52.755475
54.890513
53.233504
48.684478
40.144920
32.268763
22.681952
16.491413
10.570884
##ZVALUE=355
0.829697
0.877976
0.806451
0.751615
0.625849
0.796914
0.833869
0.779629
0.834465
0.845790
0.861883
0.819564
0.814795
0.858903
0.871420
0.865459
0.802875
0.874996
0.907779
0.974536
0.904799
0.844598
0.737906
0.884533
0.919700
0.902414
0.918508
1.033545
0.949502
0.778437
0.937581
0.910759
0.922680
1.035929
0.923872
1.019835
1.109838
0.980496
1.053810
1.049638
1.114607
0.885725
0.992417
0.976920
1.074672
1.040697
1.087785
1.044869
1.043677
1.076460
1.323819
1.476407
1.309514
1.360774
1.361966
1.460910
1.454949
1.672506
1.940727
9.489655
32.351613
103.350878
187.548995
344.533920
483.379960
661.670566
754.513741
804.424882
778.435469
659.438968
535.700917
353.158712
226.470828
102.479458
49.835443
15.338659
6.797910
4.729629
4.386902
3.828406
3.648996
4.104972
4.186630
5.565882
7.420778
11.870861
17.165542
25.809407
32.763481
40.855408
46.612620
49.723983
48.976541
45.010448
39.754510
30.424595
##ZVALUE=360
0.746846
0.816584
0.868440
0.889897
0.776649
0.884533
0.914931
0.816584
0.992417
0.779629
0.862479
0.777841
0.815988
0.884533
0.908971
1.016855
0.839829
0.938773
0.905991
0.992417
0.790954
0.921488
0.851750
1.000762
0.960827
1.028776
0.990629
0.928640
1.015663
1.000762
0.917912
0.973940
1.086593
1.065731
0.770688
0.753999
1.037717
0.987649
0.939965
1.002550
1.128912
1.059771
1.080632
1.056790
1.098514
1.183748
0.987649
1.172423
1.172423
1.199841
1.258850
1.167655
1.262426
1.211762
1.355410
1.324415
1.394749
1.628995
1.680851
1.961589
1.983643
4.199743
15.407801
58.360696
121.758580
257.193446
387.827754
567.121506
679.819584
764.220953
778.455734
705.424547
593.462586
408.439636
274.302959
135.188699
71.791410
26.726723
10.423660
4.974604
4.351735
4.002452
3.985763
3.486872
3.478527
3.920794
4.493594
6.462932
8.954406
14.410615
20.355582
28.847456
34.983754
40.947795
44.529438
44.929981
##ZVALUE=365
0.923872
0.851750
0.760555
0.811815
0.808835
0.851750
0.672936
0.798702
0.817776
0.824928
0.976920
0.814795
0.810623
0.815988
0.803471
0.849962
0.790954
0.855923
0.784993
0.972748
0.795722
0.855923
0.806451
0.749826
0.892878
0.985861
1.025796
1.056790
0.934601
0.907779
0.933409
1.027584
1.059771
0.916719
0.829697
0.984669
0.889897
1.016855
0.961423
0.986457
1.101494
1.030564
0.902414
1.049638
1.095533
0.987649
1.049638
1.068711
1.084805
1.062751
1.125932
1.112819
1.054406
1.171827
1.082420
1.123548
1.089573
1.394749
1.480579
1.646876
1.787543
1.796484
1.933575
2.331734
6.339550
34.698844
81.431866
181.632638
300.775766
478.236675
603.219867
715.451837
757.791996
730.116963
650.307536
478.886962
345.526934
195.538998
105.550885
38.554668
15.212893
5.248785
4.230738
3.888607
3.770590
3.480911
3.249645
3.082752
3.254414
3.898740
4.967451
7.900596
11.436939
17.902851
23.379922
30.715466
##ZVALUE=370
0.880957
0.921488
0.967979
0.711679
0.879765
0.732541
0.864863
0.820756
0.702739
0.686646
0.636578
0.863671
0.804663
0.955462
0.860691
0.977516
0.795722
0.801682
0.710487
0.805855
0.709891
0.885725
0.910759
0.866652
0.846982
0.840425
0.837445
0.855923
0.890493
0.847578
0.884533
0.863671
0.932813
1.065731
0.900626
0.949502
0.994802
0.983477
0.865459
1.052618
1.030564
1.034737
1.022816
0.967979
1.001954
0.970960
1.116991
1.096725
0.956655
0.877976
0.975728
1.008511
0.856519
1.167655
1.185536
1.020432
1.088977
1.193881
1.383424
1.452565
1.398921
1.280904
1.490712
1.517534
1.628995
1.742840
3.205538
19.582510
54.925680
140.726566
238.951445
400.883555
529.064536
673.450828
730.381608
726.500750
660.237670
521.490574
391.457677
225.942731
130.555630
53.018928
23.617744
7.575750
4.633665
3.791451
3.403425
3.278852
3.192425
2.968907
2.817512
2.834797
3.208518
4.480481
6.306767
10.055900
##ZVALUE=375
0.757575
0.802875
0.770688
0.715852
0.699759
0.662804
0.648499
0.746846
0.875592
0.706911
0.831485
0.858903
0.781417
0.797510
0.902414
0.864863
0.758767
0.755787
0.816584
0.724792
0.888705
0.812411
0.889897
0.792742
0.943542
0.810623
0.719428
0.712872
0.847578
0.873804
0.768900
0.773668
0.938773
0.747442
0.994802
1.038909
1.030564
0.907779
1.001954
0.833869
0.999570
0.990629
0.887513
0.984669
1.031756
1.002550
0.931621
0.976920
0.888705
1.090765
1.173615
1.078844
0.914931
1.131892
1.038909
0.895858
0.994802
1.111627
1.111627
1.102686
1.217723
1.131892
1.161695
1.318455
1.357794
1.390576
1.656413
1.818538
2.097487
9.738803
30.976534
94.686747
177.088976
334.673524
464.074612
618.084669
698.155761
734.654665
704.206824
580.086708
451.846719
277.406573
176.223516
88.975430
45.236945
14.294982
5.880594
3.908873
3.594756
3.370643
3.186464
3.118515
2.958775
2.743602
2.623796
3.204942
##ZVALUE=380
0.803471
0.789762
0.663996
0.770688
0.683665
0.837445
0.753999
0.727773
0.753999
0.767708
0.873804
0.830889
0.791550
0.799894
0.791550
0.869632
0.776649
0.874996
0.753999
0.799894
0.707507
0.725985
0.764728
0.750422
0.891685
0.917912
0.940561
0.829697
0.678897
0.836849
0.906587
0.674725
0.702739
0.718832
0.868440
0.841618
0.965595
0.848770
0.952482
0.827909
0.943542
0.923872
0.853539
0.852942
0.752807
0.757575
0.837445
0.865459
0.854731
0.819564
0.919700
0.911951
0.951886
0.876784
0.954866
1.076460
0.918508
0.994802
0.963807
1.045465
1.150966
1.183748
1.077652
1.195669
1.077652
1.171827
1.431704
1.511574
1.592636
1.853704
1.947880
4.457831
17.592907
69.445968
139.282942
278.101563
400.398970
554.845929
653.706789
725.418925
713.547468
619.581938
507.639647
345.003605
232.172012
116.710663
61.312914
21.633506
8.937716
4.003644
3.525615
3.217459
3.102422
3.090501
2.906919
2.688766
##ZVALUE=385
0.722408
0.780821
0.830889
0.683665
0.740886
0.804663
0.671744
0.829697
0.871420
0.732541
0.637770
0.752807
0.784993
0.636578
0.725985
0.727773
0.659823
0.694990
0.749826
0.816584
0.559688
0.775456
0.742674
0.790954
0.975728
0.935793
0.902414
0.783801
0.949502
0.809431
0.794530
0.863671
0.890493
0.797510
0.902414
0.812411
0.786781
0.928640
0.901818
0.675917
0.934601
0.774860
0.788569
0.771880
0.881553
0.923872
0.926852
1.029968
0.848770
0.888705
0.927448
0.998974
0.860691
0.928640
0.874996
0.955462
0.951886
1.118779
1.053810
1.034737
1.070499
1.135468
1.153946
1.084805
1.088977
1.122952
1.242757
1.257658
1.295805
1.421571
1.483560
1.740456
1.798868
2.374649
8.543730
41.856766
94.059706
202.203989
315.425992
479.318500
589.819551
689.492822
709.033608
660.908818
576.182008
426.720977
303.795934
167.745948
97.619891
40.144920
16.093850
4.939437
3.604889
3.105998
3.136992
2.948642
##ZVALUE=390
0.719428
0.741482
0.813603
0.810623
0.771880
0.866652
0.703931
0.896454
0.767708
0.649691
0.658631
0.735521
0.584722
0.661612
0.817776
0.694990
0.725985
0.703931
0.727773
0.672936
0.689626
0.674725
0.842810
0.808835
0.898838
0.801682
0.766516
0.760555
0.712872
0.883937
0.922680
0.823736
0.752807
0.849962
0.780821
0.808835
0.878572
0.703931
0.851750
1.062751
0.772476
0.889897
0.902414
0.947714
0.884533
0.929832
0.966787
0.894666
0.962615
1.022816
0.867844
1.081824
0.875592
0.885725
0.811815
0.982881
1.080632
1.037717
0.987649
1.035929
0.936985
1.018643
0.991821
0.977516
1.017451
1.098514
1.193881
1.115799
1.171827
1.409650
1.502633
1.393557
1.492500
1.456738
1.593828
1.719594
4.115701
23.806691
62.993765
160.213709
268.143415
431.288481
540.092587
649.484992
702.615976
703.367591
644.151568
511.610508
392.940640
241.338611
141.970515
59.249997
27.518868
8.393526
4.148483
3.324747
##ZVALUE=395
0.742674
0.759959
0.755787
0.655651
0.764728
0.744462
0.698566
0.701547
0.643730
0.620484
0.719428
0.797510
0.812411
0.758767
0.720620
0.740886
0.942945
0.776649
0.739694
0.785589
0.723600
0.808835
0.739694
0.680685
0.725985
0.808835
0.744462
0.972748
0.822544
0.756979
0.793934
0.750422
0.836849
0.841618
0.721812
0.814795
0.781417
0.910759
0.792742
0.986457
0.890493
0.883937
0.889897
0.858903
0.914931
1.037717
0.932813
0.919700
0.864863
1.037717
0.950694
0.829697
0.901818
0.807643
0.944734
0.907779
0.775456
0.945926
0.995994
1.005530
1.062751
0.977516
1.041889
1.002550
0.975728
1.047850
1.068711
1.215935
1.216531
1.393557
1.300573
1.444817
1.280904
1.386404
1.487732
1.401901
1.381636
1.549721
2.325773
13.645887
42.588711
119.844675
208.444595
356.345773
472.330451
613.147616
691.323876
726.150870
696.488619
591.470599
468.393564
297.751427
197.063684
97.875595
48.405528
15.104413
##ZVALUE=400
0.810623
0.924468
0.752807
0.786781
0.771880
0.741482
0.719428
0.679493
0.800490
0.797510
0.800490
0.861883
0.716448
0.689626
0.651479
0.682473
0.597835
0.766516
0.829697
0.624657
0.868440
0.737906
0.885725
0.787973
0.765920
0.776649
0.598431
0.879765
0.780821
0.815988
0.849962
0.677705
0.828505
0.614524
0.798702
0.777841
0.766516
0.834465
0.791550
0.873804
0.876784
0.739694
0.815988
0.834465
0.709891
0.908971
0.818968
0.787973
0.892878
0.869632
0.956655
0.824928
0.888705
0.919700
1.043677
0.798702
0.949502
0.892878
0.953674
0.906587
0.919700
0.874996
1.107454
0.915527
0.998974
1.018643
1.084805
1.058578
1.209974
1.214743
1.093745
1.288652
1.232624
1.305938
1.259446
1.275539
1.260638
1.374483
1.351833
1.686811
1.738667
7.688999
25.730729
76.692700
144.921541
277.177691
398.024917
548.715591
637.979507
704.251528
701.435804
612.305999
507.953763
341.680646
225.526690
114.775896
##END
