##TITLE=FAAI0501
##FORMAT=SPECTACLE-ASCII V-1.2
##DATA TYPE=ULTRAVIOLET SPECTRUM
##SECOND TYPE=ULTRAVIOLET SPECTRUM
##DATE=11/28/17
##TIME=17:09:24
##SPECTROMETER/DATA SYSTEM=SPECTACLE
##XUNITS=NM EM
##YUNITS=ENERGY
##YFACTOR=1
##FIRSTX=220
##LASTX=410
##NPOINTS=96
##3DDATA=Equidistant
##ZUNITS=NM EX
##FIRSTZ=210
##LASTZ=400
##ZPOINTS=39
##XYDATA=(Y..Y)
##ZVALUE=210
7.695556
7.991791
6.423593
6.215572
6.589890
5.329847
5.509853
5.824566
4.925728
4.746914
4.211664
4.324913
3.696680
3.994703
3.833771
4.512668
4.405975
5.265474
4.788637
5.041957
5.182624
5.828738
6.091595
6.282926
6.787777
7.880926
7.527471
8.224845
8.570552
9.911656
10.351539
10.591745
10.865927
11.627674
10.933876
11.013746
10.945797
10.976791
11.912584
11.325479
11.417866
10.930896
10.460615
11.132956
11.750460
12.366772
12.095571
12.484789
11.218786
12.006760
12.289882
12.698770
12.603998
11.815429
12.990832
12.599826
11.888742
13.872981
12.303591
12.315512
12.776852
12.706518
13.042688
12.114644
13.589859
14.938712
14.377832
15.041828
18.588901
19.228458
21.498799
24.886727
29.329658
32.701492
36.836863
39.465427
42.303801
43.678880
44.996738
42.362809
41.427612
39.387941
32.534599
28.842688
24.584532
20.338893
15.917420
12.502670
11.911988
11.471510
11.545420
12.115836
13.805628
14.180541
14.119744
16.217828
##ZVALUE=215
22.527575
20.262599
19.457936
15.113950
12.911558
11.812449
9.665489
10.796785
9.822845
10.024905
9.027719
8.097887
6.317496
5.357862
5.823970
5.459785
5.179644
4.199743
5.529523
5.788803
5.482435
5.991459
5.988479
7.172823
7.253885
7.706881
8.126497
9.597540
9.972453
10.391474
11.084676
12.340546
12.334585
12.758970
12.234449
12.516975
13.203621
13.822913
11.854768
12.037754
13.509989
12.710690
12.547970
12.567639
12.342930
13.644695
13.095737
12.549758
12.506843
12.038946
13.319850
12.850761
12.180805
14.091730
12.277961
12.468696
12.362599
13.643503
12.680888
12.155771
12.148619
13.121963
13.132691
13.270974
12.178421
12.390614
13.666749
15.987754
15.805960
18.213987
20.103455
21.786690
26.034713
27.995706
29.519796
32.153726
33.522844
35.890937
32.315850
31.412840
30.376911
27.799606
24.339557
22.300482
19.575953
16.318560
13.883710
12.119412
12.011528
10.415912
10.258555
10.205507
10.781884
10.529757
10.152459
11.023879
##ZVALUE=220
59.085488
61.015487
59.025884
59.223771
51.405430
42.058825
33.453703
24.788976
19.479990
18.229485
18.831491
19.378662
17.809868
15.438795
13.068914
10.890961
8.693933
5.784631
6.080866
6.249547
5.421638
5.779862
6.675720
7.556677
6.832480
7.884502
9.625554
9.696484
10.174513
11.398792
12.836456
14.165640
14.933944
14.411807
15.316606
14.501810
13.974905
13.900995
14.037490
13.104677
13.388991
13.833642
13.534427
14.625788
13.248920
12.315512
14.024973
13.576746
13.586879
13.775826
14.247894
13.340712
12.590885
12.818575
13.183951
13.661981
13.012886
11.981726
12.997985
12.059808
13.700724
13.837814
12.682676
13.238788
14.069676
13.879538
12.746453
14.309883
16.429424
16.484857
20.283461
19.791722
23.209453
26.518703
29.287934
30.120611
30.329823
29.268861
29.942989
28.908849
26.937723
25.536418
21.439791
18.879771
16.629696
15.604496
13.740659
11.667609
11.781454
12.660623
11.865497
11.888742
10.349751
11.390448
10.813475
11.408925
##ZVALUE=225
80.874562
86.230636
112.562776
135.073662
144.858956
133.667588
121.450424
90.774894
68.094730
44.477582
34.128428
31.611919
30.092597
31.484962
30.907989
30.702949
24.037957
21.433830
16.017556
10.556579
8.135438
7.368922
6.139874
5.931854
7.614493
7.703900
8.282661
8.776784
10.353923
10.946989
12.506843
12.503862
12.571812
13.919473
14.233589
13.905764
15.220642
14.289618
13.906956
13.823509
15.478730
14.577508
14.840961
14.652610
14.584661
14.889836
14.797449
14.534593
14.965534
13.945699
15.297532
15.284419
16.105771
15.204549
16.682744
16.027689
16.226768
14.411807
15.247464
16.422868
16.091466
16.476512
16.506910
17.219782
17.083883
15.854836
17.117858
17.120838
19.122958
20.732880
21.746755
24.540424
23.440719
28.125644
29.036999
30.131936
29.041767
29.634833
26.643872
27.132630
24.398565
22.916794
21.238923
19.384623
18.140674
16.667843
15.177727
15.238523
15.417933
13.596416
13.317466
13.702512
14.463663
12.837648
14.873743
13.102889
##ZVALUE=230
61.344504
70.103407
108.801723
180.962682
229.657888
279.402733
297.987461
287.411809
253.245831
203.765631
135.573745
93.177557
61.903596
52.170753
50.126910
51.875710
55.804849
54.283738
47.945976
39.838552
30.142665
19.969940
14.863610
10.454655
9.360909
8.553863
8.200407
8.668900
8.867979
9.836555
10.312796
10.858774
11.716485
11.722445
11.819601
11.919737
13.869405
13.109446
13.565421
12.871623
14.580488
15.158653
16.607642
17.052889
15.823841
17.298460
16.931891
18.557906
17.895699
18.868446
20.099878
21.371841
21.251440
19.950867
21.100640
19.453764
20.413995
20.645857
20.337701
21.645427
20.934939
22.197962
21.851659
22.685528
22.129416
23.082495
22.446513
24.232864
25.174618
24.360418
29.093623
29.386878
30.758977
34.751892
33.948421
33.781528
34.000874
34.220815
35.712719
32.762885
30.602813
26.609898
25.685430
25.696754
22.451878
22.166967
22.186637
17.873645
19.294620
19.582510
18.433928
17.380714
18.014908
17.056465
15.850663
17.192960
##ZVALUE=235
18.387437
20.629764
54.172873
106.175542
196.858644
284.768939
407.581925
480.452776
540.151000
513.647795
428.899527
335.673690
251.387954
153.797865
106.368661
77.012777
73.360801
73.269606
79.714656
83.731413
78.032613
69.704652
49.785972
38.303733
25.691986
18.841624
11.966825
9.371638
9.850860
9.365678
9.730458
9.664893
10.595918
12.391806
11.434555
10.497570
12.496710
13.645887
12.863874
14.502406
16.042590
16.234517
17.159581
19.289851
19.474626
20.759702
23.242831
24.784803
25.947690
24.741888
27.893782
27.315617
28.222799
28.775930
28.178692
29.643774
29.026866
29.761791
29.560924
29.014945
29.917955
30.178428
30.392408
29.985905
32.650828
31.972528
31.263828
33.275485
33.699870
36.674738
36.909580
38.217902
38.397908
42.132735
40.871501
41.584969
41.266680
42.354465
38.058758
39.412975
35.793781
34.283996
31.688809
28.501749
29.710531
27.828813
28.188825
26.551485
26.530623
24.219751
23.836493
25.347471
23.617744
23.968816
21.670461
22.489429
##ZVALUE=240
2.841949
3.125668
9.000897
23.533702
69.768429
139.056444
275.725722
415.597558
611.673594
722.993016
796.195865
775.018930
707.743764
532.240868
408.875942
249.627829
174.638629
118.137002
92.800856
94.177723
105.533600
109.822750
107.870698
99.630952
81.818700
67.250729
46.683550
34.355521
21.547675
17.950535
12.808442
12.276769
10.795593
13.151765
11.599660
11.363626
13.018847
13.257861
15.117526
15.949607
17.201900
20.819902
20.433664
23.967624
25.045872
26.620626
30.116439
32.502413
34.228563
34.559965
35.383701
37.298799
38.380623
39.702654
40.455461
40.213466
40.938854
39.405823
39.410591
39.327741
38.635731
38.726926
40.157437
41.491985
39.759874
38.621426
40.573478
40.039420
41.823983
42.287707
44.628978
47.149658
46.786666
48.314929
49.603581
49.316883
48.865676
49.036741
42.227507
44.012666
42.764544
39.944649
38.735867
35.519600
33.264756
32.758713
33.195615
34.304857
31.188726
29.769540
30.728579
27.835965
27.334690
26.931763
26.323795
25.686622
##ZVALUE=245
1.935959
2.293587
2.515912
2.972484
5.538464
17.717481
62.936544
134.635568
298.642516
463.727713
700.183511
858.297944
956.787467
970.340967
902.312994
725.323558
573.149920
378.279686
261.425972
145.606995
104.510784
98.402500
106.448531
119.223595
122.043490
119.521618
109.095573
91.205835
69.187880
55.575967
41.900873
26.272535
18.155575
13.320446
11.704564
13.328791
12.420416
14.550686
14.839768
15.752912
19.275546
22.478700
23.510456
25.416613
29.799938
33.598542
34.153461
38.609505
38.095713
41.769743
41.087866
44.035912
44.642687
44.445992
45.656562
45.755506
44.493675
44.764876
45.404434
44.536591
41.980743
42.522550
42.775869
42.027831
41.682720
39.269924
41.217804
42.360425
41.500926
42.907000
41.870475
43.305755
45.216680
45.264959
44.663548
44.085979
46.219826
44.059753
41.996837
39.591789
39.450526
39.054751
34.714937
33.817887
32.945871
31.377673
29.854774
30.269623
27.842522
25.881529
28.111935
25.300980
26.109815
25.875568
27.701855
24.149418
##ZVALUE=250
2.362728
2.610683
2.796650
2.050996
2.376437
2.682805
4.096627
11.969805
53.321719
120.385885
292.326808
466.700792
665.235519
917.823911
1015.788913
1015.788913
1015.788913
931.725502
781.836510
528.458953
357.813835
226.191878
125.812888
97.771883
99.906921
113.686919
122.068524
132.859945
130.505562
117.969513
104.065537
77.553988
60.611963
39.598942
28.854609
19.225478
15.346408
15.313625
16.184449
18.839836
19.598603
23.407936
23.547411
28.187633
30.448437
34.415722
37.482977
38.766861
40.321946
45.351982
43.840408
46.720505
47.008991
45.900941
45.560002
48.130751
47.587752
44.405460
43.819547
45.520663
43.088794
44.331551
42.107701
40.599704
40.327907
39.017797
37.509799
38.015842
37.803650
37.815571
37.529469
37.932992
39.013624
39.579868
38.708448
38.438439
38.393736
35.819411
37.437677
33.791661
32.706857
30.441880
28.570890
28.737783
28.490424
27.333498
26.824474
24.681687
24.344921
24.460554
23.637414
23.737550
23.971796
22.150874
21.501780
21.852851
##ZVALUE=255
1.987815
2.102852
2.025962
2.284646
2.030730
2.226830
2.427697
2.525449
3.009439
6.898642
40.619969
102.498531
212.044716
438.869596
653.488636
945.016742
1015.685797
1015.685797
1015.685797
1015.685797
967.839956
742.814541
459.148884
289.727449
151.946545
105.233788
88.235736
97.269416
117.001534
132.974982
137.640834
137.307644
124.705434
104.165673
84.265471
58.670640
46.089888
29.076934
22.693872
18.590689
21.155477
23.204684
24.663806
27.320981
30.389428
33.655763
34.863949
36.104918
39.349794
40.937662
42.583942
43.496490
43.776631
44.992566
43.420792
43.396950
40.968657
41.312575
42.858720
39.242506
38.596988
38.562417
37.808418
36.414862
36.084652
32.782555
33.491850
32.151937
33.428669
32.130480
32.393932
32.236576
32.196641
33.343434
32.362938
31.965971
30.654669
30.038953
28.980970
27.865767
27.037859
26.082993
24.931431
24.841428
23.855567
23.057461
21.990538
21.415949
22.846460
21.700859
21.189451
20.430684
21.467805
20.152926
19.278526
20.607710
##ZVALUE=260
1.908541
2.174973
2.175570
1.725554
1.859665
2.392530
2.047420
2.325773
2.565980
2.334714
3.101826
4.278421
15.543699
71.362853
161.451697
375.848413
593.277812
912.372470
1015.788913
1015.788913
1015.788913
1015.788913
1015.788913
927.269459
600.165725
400.180817
221.976638
134.173632
84.089637
79.273582
93.396902
121.224523
135.276914
147.222877
144.333839
128.929615
112.439990
86.195469
66.189766
45.392513
37.162900
28.604865
27.592778
27.813911
27.992725
29.783845
32.668710
33.667684
34.523606
35.814643
38.059950
36.345720
37.214756
37.669539
38.104653
36.781430
36.516786
35.766959
33.382773
32.941699
32.371879
31.867623
30.745864
30.543804
29.614568
28.741956
26.958585
26.122928
26.732683
27.103424
27.048588
27.601719
27.239919
27.512908
27.146935
27.924776
27.273893
26.121736
24.169683
23.794770
23.498535
22.322536
22.182465
20.440817
19.973516
19.722581
19.401908
19.987822
20.690560
18.976927
18.721819
17.983913
17.851591
17.826557
18.569827
17.984509
##ZVALUE=265
1.870990
1.723766
1.875758
1.848936
1.805425
1.968741
1.988411
2.103448
2.305508
2.244711
2.327561
2.628565
2.635717
3.424883
8.168817
49.626827
128.456950
311.374664
528.631806
906.576514
1015.788913
1015.788913
1015.788913
1015.788913
1015.788913
1015.788913
810.313821
560.342669
298.290849
177.351832
111.290812
71.719885
78.780651
108.174682
127.141476
146.556497
152.253509
146.266818
133.051872
110.815763
91.035962
67.753792
52.951574
38.679838
33.621788
29.354692
29.142499
30.015707
29.888749
30.462742
32.005906
32.030940
31.556487
30.500889
31.844974
30.996799
30.331612
29.902458
27.824640
27.430654
28.097630
25.970936
25.992990
23.978949
25.486946
23.616552
23.642778
24.108887
23.546815
22.831559
24.072528
23.958683
23.229718
25.649667
24.056435
24.282932
23.630857
22.235513
22.248626
21.129847
20.258427
20.091534
19.607544
18.600821
19.084811
16.999841
18.454790
17.802715
17.363429
17.015934
16.840696
16.271472
17.001629
15.977621
17.145872
15.141964
##ZVALUE=270
1.422763
1.776814
1.701713
1.696944
1.641512
1.789927
1.988411
1.723766
1.935959
2.048612
2.191663
1.768470
2.106428
2.404451
2.555847
2.917647
3.845692
22.795796
75.030923
248.124599
469.709039
771.347880
1015.793681
1015.793681
1015.793681
1015.793681
1015.793681
1015.793681
1015.793681
781.093836
525.282621
262.175798
144.081712
72.452426
64.039826
82.535744
103.888512
128.567815
144.756436
153.536797
149.955750
137.859583
121.453404
96.037984
75.251460
53.297877
42.710900
34.426451
31.812787
27.223825
28.469563
27.687550
28.478503
27.990937
27.277470
26.893616
26.602745
25.782585
26.329756
24.873614
23.172498
22.995472
22.248626
21.483898
21.500587
21.381974
20.979643
20.920634
21.126866
21.796823
21.351576
22.496581
23.190975
22.694468
22.845864
22.381544
21.689534
21.413565
20.993948
19.850731
18.932819
18.667579
18.604994
17.741919
17.512441
16.826987
17.353892
16.983747
16.802549
16.939640
15.860796
16.438961
15.792847
15.694499
14.219880
15.588999
##ZVALUE=275
1.659989
1.604557
1.551509
1.536608
1.612902
1.448989
1.772642
1.813769
1.842976
1.931787
2.002716
2.158880
2.247691
2.139807
2.383590
2.226830
2.591610
3.169775
3.385544
8.676648
39.150715
177.689791
370.918512
743.115544
1015.788913
1015.788913
1015.788913
1015.788913
1015.788913
1015.788913
1015.788913
964.610577
669.131875
354.632735
200.891495
89.526772
57.827830
60.646534
78.400970
107.205510
127.585530
147.421956
153.465867
149.908662
139.759779
116.099715
96.983910
73.935986
56.636930
41.445494
33.892989
28.514862
26.453733
24.904609
24.253726
23.303628
23.318529
23.633838
22.503734
22.279620
21.423697
20.981431
21.552444
20.950437
19.651651
21.153688
21.016598
20.298958
20.374656
20.471811
20.902753
21.609664
21.598935
21.606684
21.612644
22.227764
22.130609
21.837950
20.677447
19.435883
19.123554
18.268824
17.656684
17.699599
17.189980
17.074943
16.415715
16.002655
15.640855
15.525818
15.664697
15.345812
14.926791
14.815927
14.185905
14.694929
##ZVALUE=280
1.526475
1.477599
1.381636
1.426935
1.596808
1.687407
1.576543
1.762509
1.531839
1.878738
1.959801
1.777411
2.007484
1.881719
2.032518
2.016425
2.168417
2.346635
2.455711
2.772808
3.250837
4.413724
29.422641
108.385682
335.492492
580.578446
970.484018
1015.853882
1015.853882
1015.853882
1015.853882
1015.853882
1015.853882
1015.853882
865.661502
479.452610
278.144479
120.259523
63.359737
46.408772
57.144761
81.077814
102.744699
129.175782
141.300559
150.702596
147.391558
135.140419
118.549466
91.762543
74.267983
52.504539
39.655566
28.836727
24.877787
22.278428
20.502806
20.411611
20.275712
19.768476
20.430684
19.392967
19.427538
19.317865
19.165874
19.361973
19.363761
19.293427
19.673705
20.633936
19.799471
19.808412
20.368695
20.759702
21.311641
20.678639
19.872785
20.300746
19.525886
19.023418
17.904639
17.486811
17.903447
17.074943
16.935468
16.488433
16.396642
16.671419
16.406775
14.903545
14.821887
15.026927
15.091896
14.555454
14.905930
14.333725
##ZVALUE=285
1.479983
1.322627
1.361966
1.396537
1.494884
1.418591
1.531839
1.534820
1.717806
1.704693
1.412630
1.644492
1.756549
1.855493
1.722574
1.654625
2.011657
2.087951
2.362728
2.460480
2.481937
2.910495
2.956986
3.637671
10.558963
70.151687
179.025531
442.702770
718.575716
1015.788913
1015.788913
1015.788913
1015.788913
1015.788913
1015.788913
1015.788913
1015.788913
672.485828
412.497520
189.207792
96.677542
43.940544
39.587617
55.499673
73.273778
101.485848
119.857788
139.638782
146.683455
142.859817
134.421587
112.712979
94.128847
67.633986
51.329732
34.876466
26.823878
21.061897
18.559694
16.851425
17.373562
17.391443
17.050505
17.412901
17.095804
17.677546
17.184615
17.789602
17.763972
18.361807
18.636584
19.249916
19.262433
19.749999
19.357800
18.860698
18.496513
19.136667
18.366575
17.269850
17.693639
16.867518
17.084479
16.426444
16.422868
15.661716
15.573502
15.666485
15.613437
15.127659
15.222430
14.860630
14.772415
14.321804
14.308691
14.069676
##ZVALUE=290
1.269579
1.456738
1.486540
1.344681
1.415610
1.501441
1.320839
1.446605
1.590848
1.470447
1.673698
1.454949
1.680851
1.671910
1.639724
1.770854
1.827478
1.746416
1.870990
2.050996
2.383590
2.356768
2.688766
2.978444
3.163815
3.463626
5.444884
21.711588
115.093589
264.098644
576.830506
916.939974
1015.788913
1015.788913
1015.788913
1015.788913
1015.788913
1015.788913
1015.788913
840.471983
550.397635
272.830725
139.587522
51.252842
32.440424
36.737919
48.889518
70.588589
89.368820
113.561749
128.148794
137.327909
137.715936
125.605464
110.307932
83.478689
64.599514
43.552518
32.649636
23.342967
19.245744
16.336441
15.592575
14.974475
14.993548
15.231967
15.297532
15.252829
16.134977
16.775727
16.766787
17.465949
18.042922
18.137693
17.986894
17.606616
17.510653
17.150640
16.374588
16.891956
16.007423
16.364455
16.503930
15.876889
16.040802
15.526414
14.978647
14.946461
15.288591
14.859438
14.655590
14.742613
14.472604
14.247894
13.854504
13.864636
##ZVALUE=295
1.315475
1.376867
1.364946
1.382828
1.252890
1.245737
1.361966
1.248717
1.488924
1.334548
1.405478
1.473427
1.396537
1.528859
1.518726
1.476407
1.774430
1.743436
1.744628
1.922846
2.062917
1.939535
2.078414
2.221465
2.414584
2.645850
2.810955
3.225803
3.628731
8.917451
39.708018
181.146860
389.463902
827.671885
1015.738845
1015.738845
1015.738845
1015.738845
1015.738845
1015.738845
1015.738845
989.258885
695.187449
357.191563
193.418860
70.940852
34.922957
24.690628
30.798912
46.779513
61.375499
86.243749
103.541613
121.038556
129.411817
127.345920
119.230747
99.049807
81.895590
57.878494
44.241548
29.444695
22.323728
16.338825
14.355779
13.574958
13.000965
13.424754
13.745427
14.381409
14.666915
15.039444
15.654564
16.705990
16.291738
16.251802
16.129613
16.051531
15.278459
15.259981
15.634894
14.913678
15.255809
15.151501
15.123487
15.187860
15.525818
14.847517
14.621615
15.073419
14.507771
14.464855
14.222860
14.016628
13.319850
13.450980
##ZVALUE=300
1.287460
1.218915
1.199841
1.232624
1.415610
1.353621
1.245737
1.415610
1.417994
1.409650
1.465678
1.390576
1.546741
1.307726
1.537800
1.581907
1.657605
1.683831
1.631975
1.818538
1.661777
1.894832
1.818538
1.960993
2.187490
2.213717
2.496839
2.535582
2.886653
3.126860
3.300905
4.494786
17.408729
110.023022
265.931487
613.096952
955.723524
1015.788913
1015.788913
1015.788913
1015.788913
1015.788913
1015.788913
1015.788913
928.309560
514.511466
294.419527
124.501586
58.665872
22.577643
19.763708
27.237535
37.964582
56.334734
74.480772
97.451806
111.238956
119.647980
120.451450
111.501813
97.198486
75.136423
59.847832
41.265488
30.099750
20.315647
15.923977
13.756752
12.804866
12.930632
13.601780
14.310479
14.626980
14.696717
14.894605
14.816523
14.780760
15.153885
14.724731
14.987588
15.068650
15.225410
15.163422
15.318990
15.009642
15.170574
14.800429
15.261769
15.108585
14.843941
14.377832
14.505982
14.002919
13.786554
14.391541
14.043450
##ZVALUE=305
1.344681
1.265407
1.104474
1.217723
1.165867
1.101494
1.165867
1.281500
1.319647
1.203418
1.224875
1.441836
1.347661
1.432896
1.219511
1.472831
1.429915
1.338720
1.481771
1.620650
1.632571
1.580715
1.833439
2.063513
1.948476
2.257824
2.092719
2.310872
2.295971
2.466440
2.744794
3.117919
2.916455
3.855824
9.377599
68.326592
186.768770
471.853614
785.738826
1015.788913
1015.788913
1015.788913
1015.788913
1015.788913
1015.788913
1015.788913
1015.788913
678.277016
421.515703
186.886787
88.647604
29.770732
17.161965
18.526912
23.680925
38.760900
53.511858
75.985789
90.320706
105.322599
113.930702
113.447905
107.801557
92.072487
76.164603
54.743886
40.668845
28.351545
21.442771
15.866756
14.630556
14.529824
14.307499
14.546514
15.191436
14.707446
14.960766
14.941692
15.387535
15.453696
15.102625
15.238523
15.222430
15.666485
15.122890
15.441775
15.628934
15.569925
15.428662
15.489459
14.797449
15.208721
15.142560
14.616847
14.611483
13.938546
##ZVALUE=310
1.293421
1.245737
1.253486
1.143813
1.215935
1.222491
1.295805
1.202822
1.312494
1.409650
1.409650
1.245737
1.215935
1.363754
1.521707
1.419783
1.399517
1.397729
1.477599
1.573563
1.634955
1.568794
1.738667
1.766682
1.769662
1.503825
1.801848
1.935959
2.031922
2.092719
2.302527
2.272725
2.464652
2.630949
3.090501
3.494620
4.793406
30.371547
102.146864
313.681960
570.807457
994.582772
1015.788913
1015.788913
1015.788913
1015.788913
1015.788913
1015.788913
1015.788913
961.433649
635.437965
303.336978
155.677795
52.656531
21.506548
13.999939
15.615821
23.460984
32.216907
48.281550
63.360929
84.729791
97.252727
107.676983
107.183456
101.442933
89.718699
73.288679
58.092475
40.529966
31.032562
22.812486
19.008517
16.276836
15.417933
15.542507
14.924407
15.008450
15.703440
15.599728
15.846491
16.255975
15.916824
16.032457
16.208887
16.647577
16.276836
16.320944
17.121434
16.099811
16.358495
15.789866
15.778542
15.070438
14.882684
15.216470
##ZVALUE=315
0.972748
1.112819
1.024604
1.058578
1.270771
1.165867
1.091957
1.283884
1.106858
1.266599
1.087785
1.197457
1.281500
1.077652
1.295805
1.340508
1.434684
1.443624
1.444817
1.385808
1.226664
1.417994
1.508594
1.436472
1.689792
1.765490
1.839995
1.885891
1.753569
1.975894
1.961589
1.859665
2.017617
2.417564
2.442598
2.739429
2.911687
3.318787
3.507733
12.964606
55.805445
210.982561
434.127450
871.593952
1015.788913
1015.788913
1015.788913
1015.788913
1015.788913
1015.788913
1015.788913
1015.788913
795.176625
415.707827
221.332908
77.291727
29.294491
12.795925
12.465715
15.476942
20.689964
32.385588
42.962432
60.880780
75.686574
92.757940
99.535584
103.568435
98.618865
85.744858
73.126554
54.310560
42.418838
30.264854
24.127960
19.254684
17.433763
16.290545
16.259551
16.380548
16.394854
16.360879
16.223788
16.665459
17.273426
16.788840
16.896725
16.627908
17.178655
16.657710
16.765594
16.529560
16.538501
16.217828
16.142726
15.695691
##ZVALUE=320
1.224875
1.414418
1.245737
1.123548
0.987649
1.163483
0.901818
1.073480
1.079440
1.046658
1.179576
1.110435
1.244545
1.327991
1.317859
1.375675
1.361966
1.340508
1.375675
1.332760
1.368523
1.512766
1.511574
1.520514
1.693964
1.631975
1.576543
1.587868
1.520514
1.840591
1.511574
1.842976
1.993775
2.153516
1.963973
2.209544
2.504587
2.561808
2.688766
3.137589
3.601909
5.977750
26.010871
131.840706
302.465558
681.213737
992.923975
1015.788913
1015.788913
1015.788913
1015.788913
1015.788913
1015.788913
1015.788913
985.491872
560.583472
318.709016
133.150816
55.710673
17.282963
11.417866
11.822581
14.121532
19.598603
26.774406
41.331649
55.201650
72.540641
85.600615
95.795989
99.030733
94.841719
85.893869
69.501996
56.856871
41.520000
31.343699
24.710894
20.559430
17.877817
17.368793
17.331839
17.076731
17.400980
17.385483
17.234683
17.424822
17.443895
17.610788
17.521977
16.995668
17.270446
16.743541
16.377568
16.328692
16.257763
##ZVALUE=325
1.047850
0.933409
0.979900
0.964999
0.928640
1.044869
1.020432
1.099706
1.055598
1.032948
0.972748
1.153946
1.154542
1.072884
1.172423
1.214743
1.140833
1.245737
0.982881
1.283884
1.264811
1.191497
1.285672
1.381636
1.291633
1.258850
1.363754
1.301765
1.443624
1.628995
1.626611
1.469851
1.754761
1.691580
1.725554
1.810789
1.870990
1.978874
2.157688
2.441406
2.627969
2.981424
3.130436
3.838539
12.820959
91.045499
215.871930
491.472483
805.279016
1015.697718
1015.697718
1015.697718
1015.697718
1015.697718
1015.697718
1015.697718
1015.697718
716.778636
438.549519
190.410614
88.571906
26.214719
13.036728
11.082888
11.647940
14.885664
19.156933
28.058887
39.224625
56.896806
69.567561
84.004998
92.582703
93.485713
89.736581
78.842640
67.680478
52.345991
41.148663
30.336976
24.279952
19.688606
18.464923
17.940998
17.272830
17.358661
17.007589
17.444491
17.139912
17.256737
16.996861
17.062426
17.076731
16.914606
16.584992
15.979409
##ZVALUE=330
1.035929
0.973940
1.005530
0.958443
0.927448
1.016855
1.113415
1.146793
1.072884
1.051426
1.053810
1.208782
1.203418
1.210570
1.215935
1.184940
1.131892
1.135468
1.026988
1.195669
1.291633
1.295805
1.285672
1.353621
1.324415
1.398921
1.582503
1.477599
1.438856
1.505613
1.419783
1.413822
1.407862
1.450777
1.576543
1.739860
1.946688
1.997948
1.958609
2.085567
2.314448
2.387762
2.833605
2.756715
3.013611
3.579855
5.766749
42.976737
126.603842
353.967547
612.919927
1004.564762
1015.788913
1015.788913
1015.788913
1015.788913
1015.788913
1015.788913
1015.788913
847.967863
541.043878
249.402523
123.965740
43.142438
17.504692
11.139512
11.131763
12.444854
14.457703
19.858479
27.180910
39.536953
51.330924
68.392754
79.001784
87.165833
88.711977
83.329678
76.286793
61.875582
50.492883
37.944913
30.029416
23.954511
21.034479
18.883944
17.633438
17.463565
16.699433
16.746521
16.658902
16.599894
16.773939
16.227961
16.405582
16.325712
##ZVALUE=335
1.121759
1.146793
1.130700
1.273751
1.202822
1.080632
1.227856
1.212955
1.053810
1.136661
1.308918
1.151562
1.154542
1.171827
1.024604
1.262426
1.250505
1.342893
1.068711
1.313686
1.250505
1.282692
1.306534
1.250505
1.381636
1.407862
1.439452
1.378655
1.407862
1.698732
1.605749
1.530647
1.602769
1.626611
1.656413
1.755953
1.720786
1.694560
1.751781
1.984835
2.010465
2.303720
2.274513
2.447963
2.480745
2.930760
2.906919
3.466606
3.799796
18.741488
72.759986
240.324736
449.648499
860.356688
1015.868783
1015.868783
1015.868783
1015.868783
1015.868783
1015.868783
1015.868783
968.268514
663.035512
345.037580
180.368423
59.796572
24.422407
12.041926
11.598468
12.114644
12.980700
15.261769
18.994808
27.279854
36.389828
50.702691
62.298775
74.623823
81.183910
83.351731
79.648495
69.824457
60.125589
49.279928
40.022731
30.315518
25.071502
20.236969
18.438697
16.943812
16.654730
16.030669
15.676618
15.623569
15.846491
15.763640
##ZVALUE=340
0.970960
0.999570
0.968575
1.036525
1.041889
0.961423
1.188517
1.027584
1.054406
1.010895
0.904799
1.137853
1.068711
1.039505
1.020432
1.089573
0.941753
1.069903
1.164675
1.261830
1.157522
1.144409
1.212955
1.155734
1.315475
1.302958
1.366735
1.375675
1.242757
1.435876
1.285672
1.192689
1.241565
1.471639
1.375675
1.523495
1.386404
1.577735
1.790524
1.793504
1.881719
1.742840
1.913905
2.073646
2.034903
2.063513
2.315640
2.553463
2.742410
3.190637
3.387928
8.010864
37.236810
163.799524
349.524021
730.085969
1015.788913
1015.788913
1015.788913
1015.788913
1015.788913
1015.788913
1015.788913
1015.788913
799.365640
412.666798
228.743553
90.897679
36.112666
13.071895
11.469722
11.534691
11.502504
12.605786
14.298558
19.429922
24.948716
35.560727
45.896769
60.965419
70.086718
77.763796
78.343749
74.739456
69.126487
57.935715
48.507452
36.764741
30.164719
23.471713
19.458532
16.837716
15.756488
15.206933
14.829636
14.688969
##ZVALUE=345
1.173615
1.023412
0.969768
1.060963
0.993609
1.133680
1.093745
1.085997
1.140833
1.044869
1.180768
1.026988
1.015663
1.067519
1.132488
1.105666
1.223683
1.123548
1.168847
1.234412
1.231432
1.228452
1.207590
1.196861
1.212955
1.297593
1.217723
1.441836
1.548529
1.428723
1.319647
1.331568
1.284480
1.440644
1.455545
1.506805
1.602769
1.464486
1.625419
1.706481
1.711845
1.592636
1.583695
1.817942
1.915693
1.979470
1.957417
2.165437
2.432466
2.724528
2.772808
2.816916
3.277659
4.267693
15.639663
101.319551
244.275928
536.530614
849.235654
1015.855670
1015.855670
1015.855670
1015.855670
1015.855670
1015.855670
1015.855670
924.610496
543.226004
304.143429
118.888617
51.991940
18.225908
11.948943
10.720491
10.564923
10.953546
11.485815
13.521910
16.646981
24.128556
31.518936
43.296814
52.694678
63.049793
68.947673
72.045922
70.500970
63.720942
56.326985
45.803785
36.836863
27.238727
22.573471
18.131733
16.095638
14.585853
##ZVALUE=350
0.973940
0.888705
0.995994
0.996590
1.134872
1.027584
1.012683
1.278520
1.204610
1.040697
0.977516
1.220703
1.113415
0.982881
1.136661
1.011491
1.129508
1.136661
1.238585
0.971556
1.092553
1.009703
1.140833
1.189709
1.253486
1.123548
1.174808
1.297593
1.389980
1.187921
1.322627
1.279712
1.375675
1.305938
1.261830
1.488924
1.362562
1.480579
1.388788
1.577735
1.510978
1.649857
1.609921
1.800656
1.650453
1.799464
1.797676
1.951456
1.974702
2.096891
2.323985
2.358556
2.559423
2.828836
3.092885
3.551841
7.189512
53.546429
154.775977
408.888459
689.775944
1015.787721
1015.787721
1015.787721
1015.787721
1015.787721
1015.787721
1015.787721
1014.100909
627.598763
378.322005
168.973804
77.216625
22.266507
11.963844
10.394454
9.795427
9.606481
9.947419
10.696650
12.258887
16.230941
21.122694
29.542446
37.286878
48.109889
56.050420
63.123703
66.191554
63.798428
59.419870
50.594807
43.100715
33.365488
27.295947
21.365881
##ZVALUE=355
1.071692
1.108646
1.144409
1.157522
1.134872
1.014471
0.999570
1.034737
1.142621
1.064539
1.144409
1.164675
1.085997
1.242757
1.158714
1.190901
1.241565
1.131892
1.104474
1.258850
1.170635
1.231432
1.152754
1.216531
1.367927
1.156926
1.163483
1.187921
1.344681
1.308918
1.213551
1.303554
1.340508
1.296997
1.256466
1.412630
1.406670
1.417994
1.473427
1.539588
1.459718
1.671910
1.426935
1.446605
1.542568
1.535416
1.613498
1.740456
1.742840
1.890659
2.155900
2.199411
2.094507
2.476573
2.572536
2.834797
2.999902
3.160834
4.105568
25.321841
90.260506
286.104679
516.275764
914.531946
1015.795469
1015.795469
1015.795469
1015.795469
1015.795469
1015.795469
1015.796065
725.197792
456.047654
201.629996
96.074939
28.982759
13.215542
9.578466
8.838773
8.874536
9.108782
9.342432
9.913445
11.428595
14.096498
18.790960
24.337769
33.336878
40.683746
49.245954
55.589676
59.565902
58.973432
53.924918
48.582554
39.815903
##ZVALUE=360
1.065731
1.046658
1.060963
0.972748
1.198649
1.166463
1.093745
1.114607
1.155734
1.243949
1.203418
1.138449
1.033545
1.182556
1.092553
1.070499
1.168847
1.116991
1.089573
1.305938
1.285672
1.294613
1.269579
1.088977
1.134872
1.207590
1.297593
1.369715
1.324415
1.335740
1.469851
1.460910
1.517534
1.398921
1.336932
1.424551
1.356602
1.510978
1.481771
1.676679
1.416802
1.588464
1.582503
1.729727
1.663566
1.859665
1.695752
1.879930
1.761913
1.889467
1.998544
2.213717
2.077818
2.135634
2.132654
2.375841
2.700686
2.666712
3.185868
3.540516
4.067421
9.445548
40.476918
163.965821
346.803069
735.423565
1015.810966
1015.810966
1015.810966
1015.810966
1015.810966
1015.810966
1015.810966
884.081721
577.109456
276.755691
142.463446
50.615668
20.043850
9.520650
8.687973
8.722544
8.450747
8.700490
8.433461
9.180903
10.174513
12.348890
15.222430
20.896792
26.754737
36.298633
42.666793
50.149560
53.333640
53.760409
##ZVALUE=365
1.134872
1.122952
1.094937
1.094937
1.255870
1.093745
1.266599
1.249909
1.216531
1.153946
1.237988
1.191497
1.110435
1.070499
1.181960
1.194477
1.272559
1.193881
1.119971
1.188517
1.190901
1.436472
1.290441
1.389980
1.135468
1.267791
1.331568
1.352429
1.324415
1.306534
1.278520
1.512766
1.459718
1.445413
1.430511
1.439452
1.486540
1.543760
1.486540
1.345873
1.522899
1.475811
1.684427
1.751781
1.802444
1.620650
1.648664
1.655817
1.669526
1.782775
1.706481
2.057552
2.190471
1.976490
2.048612
2.278686
2.262592
2.479553
2.781749
2.937913
3.073812
3.471971
3.941655
4.957914
16.320944
94.516873
219.825506
498.258471
818.553567
1015.875936
1015.875936
1015.875936
1015.875936
1015.875936
1015.875936
1006.178856
738.399029
401.134491
215.319991
76.144934
29.893517
10.190606
8.374453
8.004904
8.018613
7.871985
7.794499
7.860661
8.100867
8.940697
10.437965
13.522506
17.596483
24.217963
30.229688
38.300753
##ZVALUE=370
0.964999
1.193881
1.141429
1.090765
1.113415
1.084805
1.024604
0.942945
0.984669
1.025796
1.114607
1.082420
0.914931
1.117587
1.014471
1.074672
1.105666
1.056790
1.005530
1.039505
1.024604
1.030564
1.136661
1.183748
1.073480
1.168847
1.096725
1.140833
1.199841
1.188517
1.127720
1.057982
1.221895
1.213551
1.165867
1.252890
1.272559
1.394749
1.459718
1.531839
1.309514
1.325607
1.402497
1.358986
1.294613
1.398921
1.340508
1.511574
1.386404
1.500845
1.471639
1.689792
1.640916
1.651645
1.550913
1.844764
1.909733
2.018809
1.970530
2.075434
2.309680
2.300739
2.711415
2.890825
2.980828
3.601909
7.186532
49.560666
143.894553
380.431414
643.832684
1013.590693
1015.788913
1015.788913
1015.788913
1015.788913
1015.788913
1015.788913
872.237682
472.399592
258.208513
98.230839
43.550730
15.126467
8.689761
7.161498
7.072687
6.804466
6.935596
7.039905
7.053614
7.120967
7.723570
9.631515
11.612773
15.962720
##ZVALUE=375
0.943542
0.830889
0.920892
0.931621
0.892878
0.934601
0.988841
1.027584
0.943542
1.046658
1.030564
1.026988
1.120567
1.096725
0.950694
0.895858
1.139641
0.872612
1.125932
0.978708
1.117587
1.036525
1.032948
1.077652
0.948906
1.035929
0.928640
0.995994
0.979900
1.211762
1.095533
1.055598
1.295805
1.084805
1.092553
1.087785
1.146793
1.150966
1.062751
1.186728
1.263618
1.143813
1.234412
1.289845
1.033545
1.315475
1.292825
1.294613
1.314878
1.375675
1.402497
1.538992
1.431704
1.354814
1.526475
1.375675
1.489520
1.563430
1.608729
1.754761
1.796484
1.929998
2.047420
2.230406
2.247691
2.534986
2.947450
3.208518
4.235506
23.962855
85.356832
253.002644
478.134751
927.077532
1015.788913
1015.788913
1015.788913
1015.788913
1015.788913
1015.788913
997.107625
614.086390
372.481942
168.632865
81.999898
25.212765
11.036992
7.368922
6.770492
6.467700
6.422997
6.367564
6.417632
6.329417
6.467700
7.071495
##ZVALUE=380
0.943542
0.927448
0.979900
1.083612
0.963807
0.830889
0.959635
1.062751
1.041889
0.969768
1.133680
1.127720
0.949502
0.989437
1.036525
0.940561
1.112819
1.000762
1.039505
1.051426
1.042485
1.001954
1.047850
0.936985
1.127720
1.100898
1.013875
1.023412
0.958443
1.004934
1.181960
1.077652
1.149774
1.090765
1.064539
1.021624
1.131892
1.247525
1.150966
1.189709
1.204610
1.308918
1.227856
1.258850
1.324415
1.383424
1.283884
1.271963
1.270771
1.333952
1.262426
1.369715
1.444817
1.307726
1.363754
1.500845
1.507998
1.504421
1.422763
1.563430
1.468658
1.872778
1.825690
1.931787
1.973510
2.139807
2.158880
2.540946
2.885461
3.258586
3.570914
10.788441
48.178434
186.074972
369.042754
742.582679
1015.844941
1015.844941
1015.844941
1015.844941
1015.844941
1015.844941
1015.844941
803.783536
521.885753
247.064829
122.796893
40.866733
16.318560
7.392764
6.418824
6.271601
6.026626
6.006956
6.036758
5.998611
##ZVALUE=385
0.966787
0.904799
0.790954
0.833869
0.837445
0.683665
0.863671
0.834465
0.899434
0.878572
0.860691
0.724792
0.777841
0.911951
1.013875
0.830889
0.853539
0.732541
0.893474
0.997782
0.867844
0.942945
0.904799
0.886917
0.870824
1.004934
1.056790
0.907779
1.046658
1.022816
1.028776
1.095533
1.087785
0.999570
1.152754
1.196861
1.074672
1.234412
1.164675
1.186728
1.099706
1.253486
1.201630
1.189709
1.059771
1.148582
1.220703
1.181960
1.038909
1.231432
1.276731
1.145601
1.254678
1.329780
1.286864
1.288652
1.200438
1.349449
1.385808
1.408458
1.348853
1.462698
1.665950
1.749992
1.836419
1.862645
1.958609
2.106428
2.328753
2.529621
2.600551
2.927780
3.269911
5.122423
22.253990
113.978386
249.997973
532.933474
841.196775
1015.780568
1015.780568
1015.780568
1015.780568
1015.780568
1015.780568
998.176932
711.307526
368.393660
200.797915
78.785419
30.552745
8.757710
5.923510
5.625486
5.674958
5.594492
##ZVALUE=390
0.733733
1.022816
0.919700
0.967979
0.906587
0.862479
0.846982
1.005530
0.890493
0.816584
0.828505
0.846982
0.877976
0.927448
1.029968
0.925660
0.998974
0.917912
1.007915
0.957847
0.873804
0.868440
1.102686
0.883937
0.975728
0.973940
0.997782
1.069903
1.057982
1.119971
1.181960
1.134872
1.073480
1.268983
1.357794
1.101494
1.065731
1.332760
1.290441
1.253486
1.187921
1.144409
1.213551
1.373887
1.303554
1.291633
1.275539
1.110435
1.198649
1.253486
1.303554
1.204610
1.379848
1.518726
1.371503
1.224875
1.410842
1.260638
1.437664
1.431704
1.510978
1.478791
1.542568
1.645684
1.669526
1.748800
1.795888
1.983643
2.199411
2.386570
2.563000
2.627969
2.778769
2.854466
3.015995
3.494620
9.483695
63.011646
167.576671
420.055389
695.802569
1015.788913
1015.788913
1015.788913
1015.788913
1015.788913
1015.788913
1015.788913
996.817946
610.303879
341.719985
127.020478
53.571463
13.510585
6.963611
5.579591
##ZVALUE=395
0.827909
0.828505
0.889897
0.912547
1.025796
0.942945
0.935793
0.879765
0.909567
0.942945
1.035929
0.894666
0.687838
0.907779
0.812411
0.932813
0.934601
1.065731
0.821948
0.920892
0.887513
0.958443
0.970960
0.998974
0.951886
0.967979
1.078844
1.101494
1.022816
1.110435
1.280904
1.095533
1.239777
1.318455
1.160502
1.167655
1.203418
1.070499
1.241565
1.077652
1.284480
1.316667
1.243949
1.319647
1.278520
1.120567
1.124740
1.267791
1.269579
1.332760
1.253486
1.204610
1.359582
1.427531
1.393557
1.369715
1.375675
1.509786
1.472831
1.321435
1.571774
1.483560
1.397729
1.529455
1.677871
1.733899
1.753569
2.101660
2.065897
2.312660
2.352595
2.335906
2.378821
2.442598
2.600551
2.554655
2.745986
3.084540
4.982948
38.254857
119.915605
324.471593
547.176003
902.831554
1015.834808
1015.834808
1015.834808
1015.834808
1015.834808
1015.834808
1015.834808
738.198757
457.039475
203.607678
91.634989
27.551651
##ZVALUE=400
0.908971
0.695586
0.820756
0.921488
0.900626
0.895858
0.847578
0.815988
0.754595
0.809431
0.907779
1.003742
0.820756
0.879765
0.823736
0.987649
0.982881
0.893474
0.808835
0.915527
0.911951
0.943542
1.077652
0.983477
1.029968
0.864863
0.961423
1.037717
1.063943
1.117587
1.044869
0.996590
1.131892
1.071692
1.137853
1.091957
1.207590
1.010895
1.140833
1.046658
1.208782
1.206994
1.055598
1.283884
1.292825
1.102686
1.200438
1.324415
1.201630
1.148582
1.450777
1.413822
1.278520
1.499653
1.249909
1.259446
1.315475
1.520514
1.427531
1.404881
1.372695
1.487732
1.622438
1.494884
1.578927
1.705885
1.750588
1.807809
1.917481
2.085567
2.262592
2.046824
2.136827
2.396703
2.202988
2.276897
2.309680
2.453923
2.646446
2.952814
3.551841
18.660426
70.943832
221.892595
408.113003
763.410926
1015.788913
1015.788913
1015.788913
1015.788913
1015.788913
1015.788913
1015.788913
940.255523
608.400702
289.709568
##END
