##TITLE=FAAI0551
##FORMAT=SPECTACLE-ASCII V-1.2
##DATA TYPE=ULTRAVIOLET SPECTRUM
##SECOND TYPE=ULTRAVIOLET SPECTRUM
##DATE=11/28/17
##TIME=17:27:31
##SPECTROMETER/DATA SYSTEM=SPECTACLE
##XUNITS=NM EM
##YUNITS=ENERGY
##YFACTOR=1
##FIRSTX=220
##LASTX=410
##NPOINTS=96
##3DDATA=Equidistant
##ZUNITS=NM EX
##FIRSTZ=210
##LASTZ=400
##ZPOINTS=39
##XYDATA=(Y..Y)
##ZVALUE=210
18.213987
18.742681
11.881590
9.472966
7.507801
7.485747
8.990765
7.909536
8.297563
7.700920
7.874966
7.608533
7.585883
8.275509
9.909868
10.211468
11.619925
12.335777
11.842847
13.373494
14.053583
14.694929
15.991926
16.363859
18.411875
20.625591
19.810796
21.550655
23.097992
23.416877
23.989677
25.085807
25.119781
26.854873
28.540492
28.633475
28.288960
28.265715
29.761791
29.020905
29.995441
30.357838
30.429959
30.340552
33.683777
32.638907
31.447411
33.290982
34.913421
33.052564
33.608675
36.127567
35.430789
37.869811
36.855936
35.878420
36.975741
36.320686
36.871433
35.617948
38.916469
37.643909
38.106441
38.629770
37.798882
41.458607
42.852759
49.304962
53.951740
64.277649
75.678825
91.573000
106.939673
128.912926
146.055818
156.230927
169.006586
180.355906
179.335475
181.482434
168.070793
146.158934
137.292743
102.102757
89.745522
65.723658
52.842498
43.258667
37.985444
36.893487
37.099719
34.571886
39.968491
42.275786
44.491887
47.963858
##ZVALUE=215
68.852901
65.147877
58.489442
38.031936
28.571486
19.485950
14.261603
11.349916
11.833906
12.044907
11.313558
12.621880
10.773540
9.544492
9.779930
8.872747
10.311604
10.838509
10.433793
10.253787
11.981726
12.402534
13.830662
14.635921
14.362931
16.089678
18.738508
18.996596
20.833611
22.260547
20.125508
22.845864
23.187995
23.975968
26.142597
24.186969
24.954677
25.553703
26.079416
24.654865
24.552941
24.062991
26.710629
26.447773
25.591850
25.998950
25.162697
26.521683
29.318929
28.319955
29.360652
28.741956
28.473735
30.115843
29.565692
28.142929
28.522611
30.760765
31.657815
30.796528
30.157566
28.969646
29.043555
28.479695
29.455423
29.401779
32.690763
35.172701
43.723583
46.742558
56.960583
65.259933
76.947808
88.460445
97.846985
104.796886
118.957758
116.170645
117.762685
117.319822
107.832551
101.095438
86.683631
71.547627
57.173967
46.677589
36.701560
33.036470
28.289557
25.843978
24.816990
25.072694
25.544763
25.391579
26.495457
27.916431
##ZVALUE=220
149.377584
157.591701
159.016848
159.121752
129.450560
94.832778
68.468451
39.677620
27.020574
21.492839
19.296408
20.772815
19.095540
17.330647
17.290711
13.904572
12.100935
10.820627
10.187626
11.349916
10.073781
11.618733
11.262894
13.377666
14.013648
14.490485
14.651418
18.964410
17.765760
18.561482
21.267533
19.977689
21.590590
21.519661
22.537708
22.525787
23.153424
25.051832
22.210479
21.087527
23.693442
23.662448
22.330880
24.304986
22.941828
23.975968
24.384856
22.765994
22.247434
24.161935
24.704933
24.692416
24.013519
24.406910
23.227930
24.591684
25.890470
25.650859
27.173758
24.982691
26.467443
25.802851
25.851727
25.761724
26.581883
28.224587
28.641820
30.762553
34.736991
39.914846
44.833422
53.490996
58.436990
72.119832
75.626969
82.705617
84.874630
88.491440
87.732673
87.209940
85.084438
75.970888
67.228675
55.395961
46.994686
35.628676
31.065941
28.096437
23.734570
25.162697
21.471977
22.082925
20.461679
18.224716
20.195842
20.911694
##ZVALUE=225
188.198686
201.575756
249.208808
301.805735
318.888426
297.511816
258.462429
182.737708
130.028725
87.987781
49.723983
36.939979
35.637617
36.722422
36.112666
33.149719
27.997494
22.410750
19.013882
14.447570
12.179613
11.057854
11.052489
11.757612
13.626814
13.744831
14.710426
15.380979
15.610456
16.554594
17.428994
18.686652
18.601418
19.215941
21.618605
20.316839
19.558668
21.723509
20.846725
20.045638
20.342469
19.918680
19.654632
22.101998
21.552444
21.978617
21.565557
22.868514
22.763610
22.817850
21.087527
25.060773
21.658540
23.515821
24.349689
25.132895
21.782517
23.513436
23.790598
26.316643
24.568439
24.719834
23.652911
24.226904
23.784637
25.583506
24.688840
28.095841
29.284954
35.664439
37.325621
44.685602
47.685504
52.698851
54.853559
57.630539
57.186484
59.540868
55.989623
53.190589
50.581694
43.863654
41.605830
32.043457
28.838515
26.801825
23.467541
21.230578
20.901561
18.871427
19.129515
18.793941
18.013716
16.891956
16.922951
16.877651
##ZVALUE=230
126.501918
137.245655
207.162499
342.937708
438.761711
518.954992
541.020632
509.634614
442.677736
351.446867
208.567977
134.636760
80.130696
58.244467
53.373575
52.186847
57.378411
55.390596
49.808621
42.684674
33.389926
19.885898
18.284917
13.577938
11.886954
11.597872
11.466742
13.098717
12.494922
15.429854
14.003515
15.598536
15.294552
13.615489
15.890598
15.794635
16.094446
16.895533
15.736818
16.976595
17.287731
17.478466
19.361973
19.553900
20.888448
20.596981
20.029545
21.497607
21.227598
23.977757
23.460984
24.116635
25.842786
23.680925
25.784969
22.567511
23.775697
25.389791
24.166703
25.358796
25.720596
25.131702
27.200580
26.568770
27.124882
27.819872
28.350949
28.356910
30.100942
31.738877
35.235882
36.827922
38.581491
45.838952
45.318604
45.553446
46.987534
44.830441
43.186545
41.631460
40.821433
34.607649
29.275417
27.505755
27.225614
22.857785
21.496415
20.573735
20.615458
20.122528
18.396974
17.180443
17.010570
17.557740
16.519427
16.259551
##ZVALUE=235
37.056804
38.850904
83.227754
194.675922
304.505825
472.791791
589.866638
734.245777
778.346658
738.624930
610.795617
476.201773
293.262601
193.983912
119.873881
86.458921
78.011751
80.778599
85.367560
82.755685
79.943538
67.410469
52.792430
40.662885
28.793812
20.137429
15.632510
11.746883
11.015534
9.980798
12.115836
12.432933
11.642575
13.196468
11.822581
11.658669
13.956428
14.782548
15.914440
15.127659
15.878677
18.280745
18.357635
19.846559
20.397902
23.461580
24.652481
25.534630
26.474595
29.546618
27.837753
29.077530
29.136539
30.677915
33.260584
31.425953
30.569434
31.740665
31.749606
32.824874
32.592416
35.721660
31.856894
35.164952
35.062432
34.571886
34.744740
36.278963
38.680434
40.865541
42.079687
43.140650
43.923855
44.512749
49.128532
49.031973
49.022436
47.660470
45.393705
42.345524
38.169622
35.445690
33.379793
30.477643
26.056767
27.176738
25.829673
24.377704
22.957921
23.675561
21.631718
19.135475
20.688772
19.453764
18.241405
18.494725
##ZVALUE=240
3.359914
4.192591
13.786554
34.945607
100.080967
186.492801
350.043774
527.322888
769.037008
901.613832
978.538990
939.715505
832.047462
629.670620
454.413891
271.656513
178.504586
118.052959
97.803473
97.093582
105.629563
111.353993
110.670924
99.978447
79.200864
65.196753
49.044490
36.439896
23.840666
17.628670
14.518499
12.024641
11.922717
12.785792
12.194514
11.763573
13.353825
13.975501
15.311837
15.146732
17.338991
19.085407
21.208525
24.199486
27.248859
28.453469
31.169653
33.786893
33.607483
36.688447
39.040446
39.569736
40.524602
43.764710
41.636825
44.551492
42.334795
43.298602
43.449998
44.890642
43.456554
44.186711
44.965744
43.048859
44.580698
41.986704
45.407414
44.479966
44.622421
46.875477
49.418807
50.578713
52.011609
51.116943
51.141977
52.837729
48.138499
45.438409
47.812462
43.051839
40.236712
35.886765
37.701726
32.072663
31.536818
28.344989
30.138493
27.882457
26.007891
26.049614
22.997856
22.955537
21.789670
19.942522
20.797849
19.568801
##ZVALUE=245
2.252460
2.771616
2.180934
2.963543
6.276965
25.304556
64.677000
162.815452
299.227834
475.326777
733.340979
910.117030
1015.788913
1015.788913
942.998528
788.581967
549.594760
393.188000
263.408422
152.677894
104.327798
95.524788
106.765628
119.484663
125.828981
119.176507
107.975602
89.073777
73.258877
52.397847
37.564635
24.203658
18.730760
13.019443
12.011528
10.435581
11.021495
12.828708
14.173985
16.674995
19.282699
20.334721
23.179650
25.054812
28.342605
32.306910
33.800602
38.676858
40.070415
42.451620
41.419864
43.486953
45.292974
48.611760
47.813654
48.326850
45.532584
46.597719
45.502782
47.486424
47.326684
46.312809
47.200918
44.524670
42.024851
42.729974
42.947531
42.876601
40.323734
44.658780
42.382479
44.483542
44.389963
44.065714
43.831468
46.057701
43.092966
39.587617
38.360953
38.951635
35.704970
32.991767
31.380653
28.230548
26.889443
25.079846
26.477575
22.852421
22.935867
21.256804
20.888448
20.957589
20.693541
19.360781
17.910600
17.447472
##ZVALUE=250
2.054572
2.373457
2.222657
2.316833
3.013611
2.653599
4.148483
11.604428
50.931573
110.597014
268.473625
438.590646
641.764998
890.311003
1012.015939
1015.788913
1015.788913
918.312669
732.391477
489.570498
317.709446
196.042657
111.610889
92.964768
100.891590
112.580657
126.287937
130.453706
125.144720
119.875669
80.170631
75.821877
40.386915
39.819479
27.031898
18.870831
14.999509
13.821721
15.828609
16.902685
19.255877
20.287633
22.284985
26.540756
28.166771
33.039451
34.667850
36.406517
41.619539
42.660832
44.315457
43.306947
48.636794
46.919584
47.459602
45.190454
46.989918
46.082735
46.727657
44.914484
44.232607
42.536855
42.765737
39.138794
38.397908
40.945411
38.161874
37.684441
37.672520
37.089586
37.246943
36.519766
36.009550
36.856532
37.167668
34.281611
32.937527
32.194853
30.667782
28.121471
27.118921
25.344491
24.016500
22.502542
21.991730
20.734668
19.668937
19.397736
19.266605
16.805530
17.946959
17.152429
15.851855
17.387867
16.306639
14.368892
##ZVALUE=255
2.118945
2.196431
1.898408
1.881719
2.375841
2.365708
2.052784
2.440810
3.055930
6.593466
24.392605
85.166693
176.923871
377.340913
558.356643
842.912793
1006.094813
1015.788913
1015.788913
1015.788913
912.455916
708.552003
438.640714
261.268616
133.777857
96.815825
84.412694
95.600486
120.350718
130.655766
137.531757
138.724446
124.957561
106.039643
79.001784
61.353445
40.814877
28.745532
21.333694
18.140674
18.160939
20.121932
22.987723
24.936795
27.169585
30.293465
32.597780
34.875870
36.045909
39.564967
40.131807
41.051507
40.085912
41.279793
41.337609
40.761828
42.030811
41.262507
40.264726
38.567781
37.566423
36.517978
36.395788
36.135912
32.650828
32.486916
32.774806
32.133460
31.666756
29.624701
30.444860
29.221773
28.885603
29.215813
27.708411
27.802587
27.586818
24.850965
24.614930
23.644567
21.541715
19.281507
17.779469
18.104911
17.849803
16.653538
15.674829
15.037656
15.177727
15.203953
14.899969
14.541745
14.038682
13.113618
12.405515
12.029409
##ZVALUE=260
1.803637
1.836419
1.680851
1.940727
2.068877
2.097487
1.860857
2.279878
2.137423
2.229810
2.373457
4.125834
12.764931
55.906773
121.211410
289.000869
469.100475
766.835809
984.866023
1015.788913
1015.788913
1015.788913
1015.788913
868.727565
549.921989
364.963412
204.756856
123.979449
79.726577
80.002546
98.282695
119.360685
139.446855
145.651698
142.703652
129.000545
109.652877
87.138414
61.847568
46.496987
32.100677
26.230812
24.597645
23.390651
25.100708
25.827885
28.736591
28.969646
30.581951
31.302571
31.911731
34.357905
33.844709
34.218431
33.218861
34.117699
33.463836
33.553839
31.870604
30.277967
28.860569
29.478669
28.369427
27.854443
26.944876
26.325583
26.388764
24.904609
24.893880
22.721887
24.992824
24.490952
23.966432
24.448633
24.223924
22.902489
22.433996
21.130443
19.794703
18.927455
18.093586
16.397834
16.639829
16.139746
14.772415
14.365911
14.044642
13.778806
12.509823
12.912750
12.264848
12.593865
11.493564
11.617541
11.398792
11.600852
##ZVALUE=265
1.647472
1.495481
1.925826
1.890659
1.474619
1.742840
1.928806
1.934767
1.902580
2.100468
2.061725
2.148747
2.491474
2.947450
6.865859
38.642883
96.340775
234.885812
405.914783
729.756951
978.918672
1015.788913
1015.788913
1015.788913
1015.788913
1006.767750
739.176869
506.402850
267.575979
158.931613
87.186694
70.259571
80.933571
100.665689
129.156709
144.474506
150.893927
146.232843
129.171610
114.036798
86.431503
68.588853
47.436953
35.237670
28.258562
25.442839
23.923516
25.448799
26.243925
26.660562
26.840568
27.394891
26.832819
27.486682
26.453733
28.062463
25.389791
26.378632
25.667548
25.417805
24.740696
23.293495
23.252964
21.446943
21.041632
21.805763
21.417737
20.601749
20.147562
20.556450
20.774603
20.973682
20.020604
20.686984
19.840598
20.063519
19.128919
17.668605
17.182827
17.099977
15.689731
15.097857
14.060736
14.082789
12.975931
12.692809
11.895895
13.290644
11.491776
11.622906
11.386871
11.112690
10.598898
10.668635
10.184646
9.814501
##ZVALUE=270
1.627803
1.669526
1.685619
1.452565
1.408458
1.504421
1.724958
1.876950
1.617670
1.602769
1.670718
1.804829
2.160668
2.214909
2.321601
2.924800
3.638864
20.296574
60.835481
180.102587
343.312621
569.442511
938.926935
1015.788913
1015.788913
1015.788913
1015.788913
1015.788913
945.174694
680.309534
447.982550
224.196911
123.526454
66.714883
60.812831
82.165003
103.081465
128.350854
144.358873
152.880549
148.504972
133.824944
117.645860
88.443756
69.882870
48.024654
37.429929
28.078556
25.182962
23.366809
22.624731
23.127794
23.105741
21.955967
21.910667
22.556782
22.103786
21.354556
21.480918
21.504760
19.938946
20.035505
19.983649
19.483566
18.533468
18.791556
18.589497
17.842650
18.086433
17.780662
18.905997
18.705726
18.812418
19.147992
18.101931
18.124580
17.911792
16.275644
15.955567
15.034676
14.654994
13.808608
12.732744
12.404919
12.427568
11.605620
11.408925
10.979772
10.952950
10.583997
10.040998
9.804964
9.899735
9.547472
9.453893
9.903908
##ZVALUE=275
1.327991
1.454949
1.468658
1.485944
1.655817
1.504421
1.536608
1.613498
1.806617
1.532435
1.795888
1.855493
2.127886
1.921654
2.072453
2.035499
2.035499
2.595782
2.837777
10.331869
42.072535
117.463470
299.802423
514.988899
870.391726
1015.788913
1015.788913
1015.788913
1015.788913
1015.788913
1015.788913
847.484469
588.586926
299.988985
170.253515
74.953437
51.181912
57.267547
74.927807
102.951527
122.474432
143.312812
152.467489
148.690939
136.017799
110.638738
91.003776
68.577528
53.155422
36.206841
28.540492
24.030805
22.004843
20.067692
19.983649
19.892454
19.603968
19.132495
19.580722
19.205809
18.182993
18.423796
18.025637
18.670559
17.782450
17.342567
17.301440
17.199516
17.293692
17.419457
16.954541
18.308759
17.830729
18.261671
17.757416
17.564893
16.798973
16.398430
15.692711
14.835000
13.817549
13.505816
12.281537
12.731552
11.862516
11.937618
10.890961
11.047721
11.071563
9.933710
9.732842
9.910464
9.707808
9.643435
8.916855
8.483529
##ZVALUE=280
1.336932
1.276731
1.340508
1.316667
1.286864
1.624823
1.343489
1.483560
1.446605
1.688600
1.641512
1.557469
1.836419
1.812577
1.883507
1.820922
1.862645
2.093911
2.286434
2.343655
3.011823
3.780723
33.492446
104.428530
271.973610
451.226830
753.237605
997.605920
1015.788913
1015.788913
1015.788913
1015.788913
1015.788913
970.461369
695.163012
381.771922
221.550465
97.751617
53.925514
43.334961
53.275824
78.170896
98.725557
126.194954
141.196847
148.610473
146.333575
130.653977
113.139749
88.066459
68.291426
47.683716
36.298633
25.926828
21.908879
18.608570
18.133521
17.464757
17.618537
17.170906
17.745495
16.629696
17.689466
16.919971
17.959476
16.946793
16.911626
16.540885
16.984940
16.466975
17.491579
17.759800
16.498566
16.920567
16.811490
16.765594
16.226768
15.477538
14.286637
13.513565
13.585687
12.951493
12.264848
11.727810
12.110472
11.217594
10.448694
10.251999
10.188818
9.822845
9.543896
9.165406
8.860826
8.261800
8.600950
8.404851
##ZVALUE=285
1.411438
1.493692
1.160502
1.268983
1.354814
1.401901
1.322627
1.485944
1.349449
1.536608
1.445413
1.661777
1.697540
1.535416
1.751781
1.670718
1.772642
1.618862
1.833439
2.014637
2.318621
2.189875
2.796650
3.101826
17.335415
64.663887
186.423659
330.916643
613.434911
868.913531
1015.789509
1015.789509
1015.789509
1015.789509
1015.789509
1015.789509
871.231556
520.270467
316.232443
143.758655
75.775981
37.091970
36.374927
53.427815
71.619749
99.741817
119.134784
136.575699
143.549442
142.793655
132.092834
110.531449
91.566443
65.910816
48.666596
32.704473
25.132895
18.710494
17.077923
16.065836
15.725493
15.378594
16.173720
15.714765
15.248656
15.723705
15.360713
15.444756
15.614629
15.544891
15.934706
16.601682
15.782714
15.768409
15.324950
15.550852
14.788508
13.946891
12.971759
13.302565
12.388825
11.792779
11.843443
11.014938
10.700822
10.586977
10.222793
9.446740
9.855628
8.993745
8.597970
8.576512
8.393526
7.849932
7.956624
7.368922
##ZVALUE=290
1.295805
1.154542
1.191497
1.297593
1.305938
1.340508
1.054406
1.314878
1.156926
1.299977
1.538992
1.416802
1.576543
1.402497
1.396537
1.566410
1.599789
1.522899
1.824498
1.810789
2.021790
2.061725
2.205968
2.379417
2.749562
3.031492
6.044507
28.637648
123.273730
250.947475
427.465439
752.537847
998.896956
1015.788913
1015.788913
1015.788913
1015.788913
1015.788913
1010.008454
680.783987
436.490774
209.853649
110.353827
43.643713
28.864741
35.542846
47.686696
69.366693
87.567568
112.779737
127.315521
138.591528
137.123466
124.865770
108.732581
82.561970
64.155459
44.480562
32.787919
22.209883
18.544793
14.620423
14.024973
13.871789
14.223456
13.557673
13.706684
14.055967
13.767481
14.053583
14.518499
14.174581
14.911890
14.353991
13.744831
13.494492
13.036728
12.255907
11.965632
11.736751
11.284947
11.092424
10.139942
10.278821
9.905696
9.974837
9.281635
9.465814
9.260774
8.157492
8.505583
7.872581
7.675886
7.673502
7.234812
7.330775
##ZVALUE=295
1.217723
1.159906
1.144409
1.150966
1.164675
1.094937
1.178980
1.418591
1.319647
1.226664
1.483560
1.365542
1.481771
1.450777
1.299977
1.607537
1.531839
1.608729
1.743436
1.581907
1.641512
1.782775
1.751781
2.088547
2.393723
2.325773
2.785921
2.745986
3.371835
11.368990
53.321719
185.667872
344.608426
659.735799
926.404595
1015.788913
1015.788913
1015.788913
1015.788913
1015.788913
1015.788913
830.290914
557.567477
284.551978
151.828527
56.324601
28.796792
23.251772
29.194951
44.911504
60.658455
85.661411
101.475716
120.947957
130.333900
128.495693
118.974447
98.978877
82.692504
59.665442
44.728518
29.251575
21.240711
15.703440
12.827516
12.357831
12.256503
11.915565
12.006760
12.443662
11.864901
12.428761
12.501478
12.743473
11.919737
11.311769
11.508465
10.968447
10.193586
9.752512
9.874701
9.041429
9.419918
8.999705
8.841753
8.075833
8.126497
8.118749
7.699728
7.716417
7.272959
7.447600
7.336736
7.273555
6.845593
6.688833
##ZVALUE=300
1.220703
1.118779
0.996590
1.213551
1.006722
1.086593
1.194477
1.227856
1.266599
1.380444
1.366735
1.399517
1.340508
1.446605
1.315475
1.350641
1.316667
1.448989
1.452565
1.437664
1.800656
1.680851
1.545548
1.735687
2.090931
2.031922
2.008677
2.101660
2.538562
2.530813
3.082752
4.262924
36.526918
118.269920
302.634835
495.926738
832.755566
1015.788913
1015.788913
1015.788913
1015.788913
1015.788913
1015.788913
1015.788913
673.667789
427.524447
207.815766
107.374787
38.332939
21.026731
20.132661
25.977492
40.855408
54.933429
77.934861
94.865561
115.050673
121.194720
120.283961
113.331676
97.700953
79.924464
58.474541
44.712424
28.997660
21.091700
14.848709
12.402534
10.566711
10.959506
10.762811
10.665655
10.828972
10.878444
10.439754
10.111928
10.062456
9.863973
9.228587
9.376407
8.578897
8.517504
8.468628
8.191466
7.880926
7.751584
7.953644
7.173419
7.466674
7.157922
6.779432
6.525517
6.572604
6.518960
6.383657
6.288886
##ZVALUE=305
1.030564
1.209974
1.213551
1.186728
1.189709
1.068711
1.112819
1.120567
1.087785
1.395941
1.336932
1.278520
1.135468
1.261830
1.260638
1.335740
1.142621
1.240969
1.339912
1.312494
1.338720
1.623631
1.562834
1.560450
1.524687
1.891851
1.851916
1.879930
2.050996
2.410412
2.458692
2.576709
2.793670
3.432631
11.718869
88.927746
204.696655
435.866714
673.257709
999.881029
1015.788913
1015.788913
1015.788913
1015.788913
1015.788913
1015.788913
855.730772
521.561503
316.918492
138.707757
67.191720
24.153590
15.946627
18.643737
25.082827
39.215684
53.506494
73.507428
89.433789
107.386708
114.223957
112.935901
106.990933
92.489719
75.799823
54.584742
40.887594
27.015805
20.066500
13.802648
12.141466
10.642409
10.257959
9.976625
9.682775
9.628534
9.222627
8.991957
8.604527
8.608699
8.622408
8.087754
7.984638
7.811785
7.687807
7.741451
7.641912
7.367730
7.299781
6.786585
6.769896
6.815791
6.514788
6.700754
6.531477
6.316900
##ZVALUE=310
1.160502
1.080632
0.994802
1.072884
1.081824
1.015663
1.262426
1.221895
1.235604
1.345873
1.088977
1.224875
1.258850
1.156926
1.158714
1.347661
1.270771
1.145601
1.372695
1.266599
1.270771
1.449585
1.495481
1.435876
1.586676
1.532435
1.530647
1.730919
1.827478
1.930594
1.971722
2.070665
2.252460
2.637506
2.725720
3.037453
4.468560
41.341782
126.941800
314.643979
514.943600
868.986845
1015.788913
1015.788913
1015.788913
1015.788913
1015.788913
1015.788913
1015.788913
698.390007
446.785688
216.142535
112.047791
39.657950
18.573403
13.429523
16.276836
22.915602
31.730533
49.144626
63.804984
83.604455
96.205473
106.619596
108.312964
102.426410
90.772510
71.975589
55.577755
38.571954
28.471947
19.219518
15.108585
11.583567
10.405779
9.420514
9.217858
8.509755
8.652806
8.241534
8.116961
7.954836
8.006692
7.736683
7.579923
7.541776
7.616878
7.457733
7.225871
7.117987
7.025599
6.828904
6.433725
6.550550
6.420612
6.311536
##ZVALUE=315
1.040697
1.074672
1.115799
1.042485
1.164675
1.060963
1.094937
0.980496
1.084805
1.020432
1.190901
1.106858
1.202822
1.080632
1.178980
1.207590
1.070499
1.307726
1.096725
1.262426
1.460910
1.251698
1.343489
1.383424
1.446605
1.300573
1.472831
1.634955
1.551509
1.661777
1.733899
1.848936
1.960993
2.073646
2.170801
2.366900
2.437830
3.011823
3.368855
16.725659
73.013902
231.730938
411.941409
736.274719
995.478630
1015.788913
1015.788913
1015.788913
1015.788913
1015.788913
1015.788913
851.391554
581.097603
295.216441
155.470967
55.670738
24.464726
12.761950
12.612939
15.520453
20.078421
31.119585
42.579770
60.700774
76.332688
92.126727
100.653768
103.774667
96.922517
83.088875
71.080923
52.618980
39.420724
25.546551
18.623471
12.612939
10.742545
8.915663
8.784533
7.959604
7.862449
8.097887
8.052588
7.816553
7.687807
7.782578
7.550716
7.438660
7.294416
6.944537
6.956458
6.915927
6.939769
6.655455
6.181598
6.348491
##ZVALUE=320
1.089573
1.158714
1.027584
1.112819
1.073480
1.181960
1.059771
0.957847
0.888705
1.178980
1.085997
1.214743
1.222491
1.202822
1.078844
1.160502
1.144409
1.098514
1.116991
1.148582
1.100898
0.859499
1.375675
1.483560
1.151562
1.429915
1.490712
1.541972
1.469851
1.564622
1.703501
1.525879
1.755953
1.797676
1.911521
2.035499
2.075434
2.340674
2.364516
2.810955
3.355742
4.540682
42.475462
132.117867
339.362621
555.942655
905.738473
1015.817523
1015.817523
1015.817523
1015.817523
1015.817523
1015.817523
1015.817523
701.853037
440.667868
193.441510
97.995996
35.688877
16.838908
10.847449
11.057854
13.383627
17.869473
27.846694
38.246512
54.756999
68.697929
85.208416
94.409585
95.781684
91.117620
81.092715
67.655444
50.114989
38.184524
24.460554
17.581582
12.370944
9.877682
8.429885
8.037686
8.018613
7.689595
7.384419
7.562637
7.298589
7.273555
7.254481
7.097721
7.415414
6.985664
7.001758
6.862879
6.800890
6.323457
##ZVALUE=325
0.993609
1.020432
1.155734
1.011491
1.129508
0.958443
0.978708
0.990629
0.983477
1.048446
1.054406
1.105666
1.114607
0.969768
1.050830
1.089573
1.006722
1.269579
1.235604
1.302958
1.194477
1.154542
1.059771
1.285672
1.238585
1.274943
1.301765
1.367927
1.379848
1.446605
1.343489
1.408458
1.476407
1.745820
1.750588
1.609921
1.763701
2.140999
2.101660
2.319813
2.551675
2.561808
2.995729
3.396869
15.754700
110.575557
236.626863
471.879840
716.225505
1015.787721
1015.787721
1015.787721
1015.787721
1015.787721
1015.787721
1015.787721
841.831565
497.030616
292.546749
122.255683
56.340694
18.872619
10.951757
9.540915
9.784698
12.535453
16.848445
25.568604
36.373734
53.047538
66.090822
79.711676
87.494850
89.907646
84.558725
71.891546
60.203671
44.649839
33.406615
21.501780
15.579462
10.970831
9.358525
8.199811
7.722974
7.322431
7.058978
6.704926
7.110834
6.772876
7.019639
6.624460
6.550550
6.543994
6.468892
6.492734
##ZVALUE=330
1.182556
1.237988
1.127720
1.174808
1.110435
1.122952
0.954866
1.246929
1.134872
1.113415
1.113415
1.058578
1.070499
1.244545
1.127720
1.057982
1.012683
1.298785
1.301765
1.215935
1.251698
1.422763
1.164675
1.241565
1.249909
1.244545
1.363754
1.368523
1.427531
1.545548
1.627803
1.496673
1.552701
1.609921
1.633763
1.853704
1.753569
1.987815
1.971722
1.974702
1.880527
1.999736
2.291799
2.746582
2.911687
3.144741
6.139874
51.910877
146.681666
359.737873
571.190715
914.414525
1015.879512
1015.879512
1015.879512
1015.879512
1015.879512
1015.879512
980.694890
612.646937
381.487608
172.309875
84.621906
29.512644
13.409853
9.150505
9.229779
9.797812
11.745691
17.187595
24.155974
36.505461
47.562718
64.157844
73.750615
82.777739
83.493590
78.925490
69.637895
55.230856
43.067932
29.971600
22.198558
14.804602
11.884570
9.060502
7.873774
7.478595
7.146597
7.026792
6.762743
6.574988
6.471872
6.581545
6.479621
6.407499
##ZVALUE=335
0.990629
0.909567
1.012683
1.119971
0.968575
1.122952
0.971556
0.894666
1.030564
0.937581
0.961423
0.908971
0.985861
1.009703
1.035929
0.918508
1.266599
1.060963
1.110435
1.034737
1.007915
1.168847
1.256466
1.035929
1.192689
1.007915
1.250505
1.212955
1.208782
1.216531
1.295805
1.536608
1.377463
1.518726
1.367927
1.420975
1.576543
1.616478
1.587868
1.626611
1.653433
1.875758
1.878738
2.061725
2.069473
2.446771
2.390742
3.005862
3.466606
21.934509
84.655881
256.035924
432.430506
760.031939
1003.012657
1015.792489
1015.792489
1015.792489
1015.792489
1015.792489
1015.792489
742.748976
486.682653
245.124698
126.993656
44.377446
18.458962
9.330511
8.791685
8.766651
9.385943
12.070537
15.214682
24.209619
32.457709
46.253800
57.557821
69.053769
74.599981
77.208877
72.986484
63.550472
52.620769
40.232539
31.220913
20.845532
15.291572
10.978580
8.708835
7.558465
6.868839
6.793737
6.451607
6.540418
6.249547
6.355643
##ZVALUE=340
0.954866
0.983477
0.935793
0.892878
0.964999
1.045465
0.930429
1.048446
0.879765
1.016855
0.948906
1.017451
1.128912
1.057982
0.963807
1.016855
0.962615
1.007915
1.002550
1.106858
1.064539
1.090765
1.105666
1.154542
1.186728
1.062751
1.153946
1.184940
1.213551
1.278520
1.215935
1.257658
1.392961
1.444817
1.298785
1.382828
1.470447
1.552701
1.526475
1.511574
1.431704
1.711845
1.646876
2.013445
1.905560
1.860857
2.276897
2.318621
2.424717
2.904534
3.057718
7.816553
39.939880
169.595480
330.373049
639.432669
907.056928
1015.813947
1015.813947
1015.813947
1015.813947
1015.813947
1015.813947
917.080641
630.684495
316.758752
171.178579
66.553950
26.186705
10.263920
8.762479
8.328557
8.415580
9.254813
10.616779
15.484691
20.689964
31.520724
41.806698
54.403543
63.506961
70.710778
72.006583
68.103671
62.083602
50.091743
40.625930
28.953552
21.920800
14.964938
11.189580
8.259416
7.249713
6.492734
6.213784
5.917549
##ZVALUE=345
0.905991
0.915527
1.017451
0.910759
0.938773
0.824928
1.042485
0.960827
1.098514
1.092553
1.059771
1.004934
1.115799
0.962615
0.909567
0.811815
0.929832
1.011491
1.088977
0.990629
1.036525
1.015663
1.021624
1.085997
1.157522
1.061559
1.115799
1.290441
1.021624
1.165867
1.184940
1.119971
1.285672
1.293421
1.293421
1.261830
1.275539
1.411438
1.327991
1.451969
1.519918
1.630783
1.667738
1.611710
1.790524
1.685619
1.875758
1.953840
1.934767
2.199411
2.210736
2.435446
2.674460
3.671646
15.923977
104.962587
235.628486
474.189520
718.513727
1015.790701
1015.790701
1015.790701
1015.790701
1015.790701
1015.790701
989.224911
728.072524
415.731668
230.502486
87.539554
38.175583
13.735890
9.221435
8.094907
7.540584
7.391572
8.036494
9.485483
12.574792
19.044876
26.932955
38.579702
47.935843
58.404803
63.802600
66.733956
64.069629
56.727529
49.363971
38.473606
30.220747
20.152926
14.921427
10.575652
8.444786
7.004738
##ZVALUE=350
0.999570
1.033545
0.832677
1.045465
1.007915
0.926852
0.818968
0.969768
0.924468
0.886917
0.945926
1.012683
0.980496
0.947714
0.883937
0.883937
0.995994
0.994802
1.018643
1.022816
0.954866
1.065731
1.124740
1.182556
1.030564
1.010895
1.171827
1.280904
1.073480
1.318455
1.030564
1.171827
1.230836
1.071692
1.294613
1.207590
1.552701
1.464486
1.369715
1.330972
1.454949
1.349449
1.554489
1.460910
1.636744
1.571774
1.595616
1.728535
1.586676
1.896620
2.012849
2.164841
2.325773
2.496839
2.563596
3.025532
6.415844
53.758621
149.926543
358.706713
571.278930
915.431976
1015.793681
1015.793681
1015.793681
1015.793681
1015.793681
1015.793681
863.559842
491.690636
292.835832
126.488805
56.645870
16.751885
9.049773
7.373691
6.991625
6.649494
6.661415
7.268786
8.619428
12.409687
16.805530
24.302602
31.912923
42.707920
50.741434
57.364702
59.919953
58.945417
54.245591
44.648647
37.303567
26.686788
20.175576
13.907552
##ZVALUE=355
0.984669
0.922680
0.995994
1.036525
1.046658
1.100898
0.836849
0.939965
0.948906
1.015663
1.073480
1.184940
1.081824
1.024604
1.156926
1.212955
1.144409
1.077652
1.097918
0.956655
1.039505
1.301765
0.977516
1.170635
1.102686
1.102686
1.224875
1.077652
1.224875
1.085997
1.302958
1.159906
1.082420
1.217723
1.239777
1.171827
1.274943
1.299977
1.361966
1.370907
1.280904
1.488924
1.381636
1.398921
1.419783
1.576543
1.541972
1.605749
1.615882
1.862645
1.721978
1.928806
1.913905
2.111793
2.228618
2.498627
2.556443
2.819896
3.590584
25.328994
90.506673
259.115696
441.429019
749.887824
990.448594
1015.788913
1015.788913
1015.788913
1015.788913
1015.788913
948.596001
598.006845
368.623734
157.765746
73.594451
22.160411
10.014772
7.196665
6.599426
6.349683
5.970597
6.327629
6.613731
7.875562
10.217428
14.849901
20.407438
29.292703
35.846829
44.871569
50.848722
54.221749
54.105520
48.536658
43.287873
34.461617
##ZVALUE=360
0.938773
0.894666
0.925660
1.010895
0.890493
0.921488
1.027584
0.929832
0.970960
1.053810
0.973940
0.920892
1.158714
1.036525
1.043677
0.943542
1.126528
1.053810
1.247525
0.995994
1.008511
0.935793
1.140833
1.197457
1.274943
1.110435
1.033545
1.250505
1.070499
1.206994
1.159906
1.202822
1.037717
1.180768
1.239777
1.126528
1.300573
1.239777
1.210570
1.354814
1.343489
1.375675
1.272559
1.548529
1.526475
1.521707
1.588464
1.574755
1.660585
1.642704
1.781583
1.732707
1.838803
1.828671
1.893640
2.107620
2.030730
2.502799
2.535582
2.926588
3.555417
8.601546
40.456653
152.369738
296.800733
573.335886
833.064914
1015.788913
1015.788913
1015.788913
1015.788913
1015.788913
1015.788913
721.169710
464.020967
219.998956
110.653639
38.368702
15.422702
7.280707
6.479621
6.018877
5.735755
5.659461
5.639791
5.804896
6.537437
8.532405
11.234879
17.539859
22.928715
32.170415
38.303733
44.856668
47.959685
49.138665
##ZVALUE=365
1.196861
1.346469
1.145601
1.045465
1.251698
1.110435
1.166463
1.096725
1.204610
1.213551
1.146793
1.157522
1.323819
1.335740
1.270771
1.225471
1.188517
1.196861
1.266599
1.242757
1.269579
1.189709
1.147985
1.229644
1.262426
1.394749
1.414418
1.264811
1.460910
1.478791
1.485944
1.240969
1.264811
1.410842
1.373887
1.387596
1.558661
1.443624
1.404881
1.409650
1.557469
1.376867
1.500845
1.340508
1.449585
1.440644
1.519918
1.521707
1.561642
1.627803
1.819730
1.808405
1.829863
1.881719
1.727939
1.838803
2.121925
2.272725
2.580881
2.841949
2.882481
3.248453
3.259778
4.227757
14.951825
93.525648
209.430456
428.903699
672.226548
999.307036
1015.964746
1015.964746
1015.964746
1015.964746
1015.964746
842.708945
580.183864
307.369828
161.458850
54.977536
21.317601
7.931590
6.458759
6.079674
5.922914
5.404949
5.402565
5.270839
5.290508
5.970597
7.328987
10.432601
13.861656
20.202994
25.799870
33.678412
##ZVALUE=370
0.932813
0.898838
0.983477
0.827909
0.919700
0.957847
0.892878
0.970960
0.878572
0.900626
0.934601
1.068711
1.038909
1.015663
1.036525
1.021624
1.012683
0.968575
0.813603
0.920892
1.032948
0.976920
0.953674
0.987649
0.949502
1.082420
1.162887
0.974536
1.002550
0.992417
1.118779
1.177788
1.141429
1.125932
1.203418
1.229644
1.145601
1.201630
1.188517
1.098514
1.295805
1.283884
1.309514
1.254678
1.428723
1.390576
1.222491
1.273751
1.161695
1.362562
1.411438
1.331568
1.343489
1.505613
1.481771
1.480579
1.780987
1.899600
1.778603
1.862645
2.108812
2.112985
2.262592
2.335906
2.555847
3.038645
7.528663
39.404631
166.449547
325.744748
618.266463
859.708786
1015.788913
1015.788913
1015.788913
1015.788913
1015.788913
996.801853
651.201606
407.506824
182.300806
89.810491
31.639934
13.179779
6.222725
5.490780
5.285740
5.146861
4.878640
4.679561
4.562736
4.630685
5.429983
6.181598
8.994937
11.643767
##ZVALUE=375
0.958443
0.959635
0.970960
0.889897
0.893474
0.916719
0.959635
0.949502
0.949502
1.056790
0.984669
1.007915
0.887513
0.942945
0.932813
0.874996
1.043677
1.006722
0.910759
1.098514
0.933409
0.923872
0.859499
0.894666
0.970960
0.867844
0.901818
0.957847
1.147985
0.995994
0.919700
1.074672
0.942945
0.941753
0.982881
1.040697
1.034737
1.034737
1.249909
1.068711
1.250505
1.136661
1.152754
1.185536
1.303554
1.140833
1.156926
1.209974
1.304746
1.223683
1.133680
1.377463
1.367927
1.368523
1.417994
1.466870
1.472831
1.388788
1.595616
1.690984
1.710653
1.687407
1.643896
1.776814
1.979470
2.265573
2.338886
2.952814
3.416538
21.940470
78.856945
232.998729
413.374901
746.732950
991.221666
1015.788913
1015.788913
1015.788913
1015.788913
1015.788913
840.040445
490.682721
301.039815
144.694448
69.420934
20.967722
8.939505
5.473495
5.182624
4.854798
4.605651
4.530549
4.164577
4.019737
3.907681
4.486442
##ZVALUE=380
0.675917
0.702739
0.592470
0.671744
0.736713
0.556707
0.760555
0.724792
0.745654
0.684857
0.505447
0.681877
0.665784
0.731945
0.772476
0.709891
0.838637
0.724792
0.680685
0.688434
0.734925
0.696778
0.608563
0.779629
0.793934
0.853539
0.814795
0.884533
0.868440
0.711679
0.836849
0.831485
0.965595
0.824928
0.871420
0.924468
0.834465
0.976920
1.025796
0.988841
1.007915
0.937581
0.899434
0.926852
0.953674
0.971556
0.844598
0.836849
1.079440
1.024604
0.939965
1.096725
0.948906
1.096725
1.020432
1.205802
1.029968
1.063943
1.157522
1.123548
1.348853
1.315475
1.346469
1.424551
1.580715
1.665950
1.750588
2.073646
2.197623
2.533793
3.044605
9.251833
45.619607
175.750852
337.891579
640.161633
897.601843
1015.610695
1015.610695
1015.610695
1015.610695
1015.610695
972.805619
659.278035
428.515673
202.913880
100.774765
32.845736
12.938976
5.659461
4.554987
4.338622
4.045963
4.001856
3.851652
3.774762
##ZVALUE=385
0.755787
0.866652
0.695586
0.726581
0.811815
0.808835
0.817776
0.814795
0.828505
0.729561
0.861883
0.804663
0.963807
0.888705
0.864863
0.898838
0.911951
0.790954
0.971556
0.943542
0.910759
0.867844
1.062751
0.891685
0.913739
1.052618
0.886917
1.032948
1.058578
0.937581
0.921488
1.023412
1.102686
1.101494
1.085997
1.131892
1.074672
1.157522
1.024604
1.098514
1.030564
1.133680
0.962615
1.075864
1.207590
1.011491
1.127720
1.121759
1.226664
1.146793
1.193881
1.359582
1.174808
1.208782
1.334548
1.311898
1.368523
1.238585
1.287460
1.287460
1.225471
1.357794
1.385808
1.405478
1.508594
1.568794
1.829863
1.811981
2.035499
2.381802
2.418756
2.641678
2.849698
4.121661
20.342469
110.053420
238.281488
492.933989
745.201707
1015.785933
1015.785933
1015.785933
1015.785933
1015.785933
1015.785933
795.351863
546.950698
285.051465
156.773925
61.110854
23.469925
6.815791
4.788637
4.234910
4.256964
4.028678
##ZVALUE=390
0.918508
0.917912
0.813603
0.952482
0.757575
0.954866
0.977516
0.970960
0.876784
0.921488
0.895858
0.896454
0.798702
0.939965
0.801682
0.878572
0.877976
0.870824
0.885725
1.001954
0.987649
0.984669
1.059771
0.890493
1.060963
1.060963
1.082420
1.157522
1.228452
1.259446
1.122952
1.148582
1.053810
1.038909
1.187921
1.142621
1.216531
1.199841
1.242757
1.113415
1.155734
1.321435
1.229644
1.260638
1.331568
1.220703
1.263618
1.332760
1.283884
1.307726
1.376867
1.132488
1.150966
1.078844
1.232624
1.382828
1.275539
1.457930
1.480579
1.377463
1.657605
1.506805
1.352429
1.629591
1.624823
1.482964
1.618862
1.820922
2.064705
2.301931
2.235770
2.417564
2.545714
2.493858
2.618432
3.102422
8.613467
61.083436
163.019896
396.894813
645.439029
987.241864
1015.889645
1015.889645
1015.889645
1015.889645
1015.889645
975.989699
722.241998
419.704914
236.343741
91.755986
40.863752
11.883974
5.796552
4.329681
##ZVALUE=395
0.837445
0.744462
0.715852
0.721812
0.767708
0.869632
0.867844
0.828505
1.050830
0.810623
0.757575
0.971556
0.746846
0.773668
0.792742
0.897646
0.687838
0.717640
0.954866
0.787973
0.874996
0.976920
0.830889
1.061559
0.869632
0.928640
1.028776
0.833869
0.968575
0.910759
1.128912
1.063943
1.162887
1.009703
1.077652
0.998974
0.977516
1.095533
1.104474
1.076460
1.190901
1.151562
1.081824
1.028776
1.187921
1.227856
1.138449
1.236796
1.224875
1.068711
1.085997
1.076460
1.218915
1.244545
1.084805
1.167655
1.239777
1.307726
1.334548
1.404881
1.438856
1.172423
1.390576
1.341701
1.388788
1.367927
1.576543
1.690984
1.858473
2.010465
2.207756
2.108812
2.018809
2.040863
2.218485
2.307892
2.459884
2.739429
5.140901
27.088523
133.302808
273.805857
529.863834
782.140493
1015.788913
1015.788913
1015.788913
1015.788913
1015.788913
1015.788913
838.496685
566.133857
285.193920
149.974823
52.254796
21.504760
##ZVALUE=400
0.760555
0.904799
0.886917
0.773668
0.881553
0.858903
0.815988
0.687838
0.824928
0.722408
0.824928
0.834465
0.831485
0.735521
0.864863
0.855923
0.941753
1.076460
0.826716
0.940561
0.859499
0.803471
0.784993
0.894666
0.979900
0.942945
0.843406
0.931621
1.074672
1.018643
1.185536
1.106858
1.034737
1.021624
1.045465
1.020432
1.059771
0.987649
1.084805
1.166463
1.029968
1.118779
1.143813
1.158714
1.007915
1.033545
1.050830
1.154542
1.204610
1.134872
1.238585
1.209974
1.015663
1.129508
1.116991
1.160502
1.163483
1.106858
1.194477
1.367927
1.295805
1.317859
1.327991
1.402497
1.484752
1.550913
1.418591
1.692772
1.853704
2.006888
1.996756
1.895428
1.989603
1.955628
1.954436
1.920462
2.087951
2.239943
2.242923
2.896786
3.292561
16.545653
64.558983
208.242536
376.832485
688.657761
955.690742
1015.788913
1015.788913
1015.788913
1015.788913
1015.788913
980.141759
648.738742
415.902734
201.388597
##END
