##TITLE=FAAI0552
##FORMAT=SPECTACLE-ASCII V-1.2
##DATA TYPE=ULTRAVIOLET SPECTRUM
##SECOND TYPE=ULTRAVIOLET SPECTRUM
##DATE=11/28/17
##TIME=17:34:46
##SPECTROMETER/DATA SYSTEM=SPECTACLE
##XUNITS=NM EM
##YUNITS=ENERGY
##YFACTOR=1
##FIRSTX=220
##LASTX=410
##NPOINTS=96
##3DDATA=Equidistant
##ZUNITS=NM EX
##FIRSTZ=210
##LASTZ=400
##ZPOINTS=39
##XYDATA=(Y..Y)
##ZVALUE=210
4.973412
4.646778
5.332828
4.936457
5.738735
5.574822
5.573630
4.955530
5.428791
4.758835
3.622770
3.643632
2.945662
2.872944
2.963543
2.659559
3.167987
3.339648
3.163815
3.614426
3.742576
3.746748
3.617406
4.171729
4.257560
5.008578
5.056858
6.462932
6.300807
7.927418
8.109808
7.613897
8.234978
7.994771
8.720756
8.152723
7.592440
7.848740
7.679462
7.597804
6.985664
7.521510
7.136464
6.565452
7.182956
7.079840
6.309748
6.098747
6.292462
6.894469
6.732941
6.020665
6.027818
6.417632
5.426407
6.799698
6.616712
6.419420
6.087422
7.104874
6.384850
5.535483
6.757975
7.259846
6.765723
6.821752
6.558895
6.623864
7.553697
9.552836
9.474754
9.922981
11.230707
12.892485
13.336539
12.312531
12.889504
13.216734
12.447834
11.331439
10.440946
8.955598
9.627938
7.773638
7.322431
6.519556
5.327463
5.317926
6.075501
5.108714
5.255938
6.107688
6.833673
6.458759
6.926656
7.644892
##ZVALUE=215
13.211966
13.313890
13.520718
12.853742
9.817481
8.939505
9.851456
10.248423
9.909868
8.602738
8.496642
7.255673
5.562901
4.667640
4.269481
3.681779
3.251433
3.445745
3.272891
3.854632
3.435612
4.022717
4.163980
5.215406
5.736947
6.019473
6.590486
7.719994
9.041429
9.506941
9.614825
10.323524
10.188818
9.878874
11.898875
10.866523
8.988976
9.985566
9.423494
10.000467
8.778572
9.277463
8.910894
8.217692
8.464456
8.373857
8.433461
7.934570
7.836819
7.908940
7.126927
7.570982
6.371737
8.300543
6.739497
6.475449
7.051826
6.914735
6.660819
6.766915
7.518530
6.939769
6.442666
6.620884
6.729960
7.568598
8.150935
7.864833
8.082986
9.242892
9.878874
10.753870
11.504889
12.260675
13.526678
13.071895
12.102723
12.295842
13.034940
11.495948
10.048747
9.088516
9.124875
6.094575
6.085634
5.696416
5.343556
5.282760
6.489754
5.089641
5.269647
4.598498
5.173683
4.943609
5.091429
5.237460
##ZVALUE=220
35.057664
33.388734
36.230683
37.164688
32.492876
26.308894
21.786690
20.033717
15.746951
16.750693
18.184781
17.124414
17.422438
13.615489
11.623502
8.285642
6.801486
6.135702
4.998446
4.621744
3.888607
4.010797
4.381537
4.723668
5.428791
7.460713
6.509423
8.872747
8.768439
11.056662
10.872483
10.821819
11.701584
13.414621
12.917519
11.912584
11.407733
12.141466
10.609627
11.173487
10.707974
10.702610
11.451840
10.526776
10.057688
9.224415
8.519888
8.748770
8.817911
8.118749
7.973909
8.241534
8.671880
8.045435
8.054972
8.774996
8.576512
8.053780
6.789565
7.301569
7.815957
7.846951
8.132458
9.179711
7.904768
9.140968
7.832646
8.235574
8.485913
9.681582
9.685755
11.664629
12.537837
12.767911
13.230443
11.837482
12.584925
13.547540
11.777878
12.505651
11.120439
9.760857
9.385943
7.863641
7.881522
8.135438
6.461740
6.139874
6.080866
6.139874
5.975962
6.639957
6.513000
4.931688
6.027818
6.012917
##ZVALUE=225
49.723983
46.938658
63.411593
83.916783
87.777972
91.391802
76.527596
65.034628
49.627423
39.599538
31.052828
31.286478
31.886697
31.883717
27.661920
26.135445
23.112893
19.871593
14.280677
9.891987
6.828904
5.595684
4.721880
5.258918
5.400777
7.465482
7.056594
7.996559
9.627938
11.319518
10.637641
10.216832
11.831522
11.920929
12.536645
12.269616
11.949539
10.773540
11.806488
11.602640
10.667443
11.375546
11.017919
9.947419
9.304881
10.040998
10.574460
9.673834
9.040833
8.941889
9.485483
10.495782
10.508895
10.386705
10.569692
9.805560
11.198521
8.638501
10.208488
10.353923
8.828640
10.117888
8.984804
10.730624
10.194778
10.082722
10.247827
9.794831
10.964870
10.074973
11.941791
13.262630
13.932586
14.285445
14.223456
15.199780
14.781952
13.896823
14.253855
12.864470
13.157725
11.440516
10.613799
9.985566
10.556579
8.639693
8.446574
7.860661
8.597970
7.774830
7.297993
6.866455
7.073879
7.514954
7.108450
6.369948
##ZVALUE=230
36.027431
39.874911
62.500834
102.175474
138.488412
169.999003
188.381672
187.787414
164.431930
127.618909
94.456673
68.121552
52.907467
47.488809
49.178600
52.230954
54.325461
49.964786
44.350624
37.191510
29.227734
19.579530
13.312697
9.189844
6.673932
5.672574
6.765723
6.942749
7.412434
7.288456
8.049607
8.909702
7.872581
8.999705
8.364916
9.811521
10.461807
9.196997
9.741783
11.096597
10.280609
10.183454
10.752678
10.793805
10.525584
12.169480
12.125969
12.088418
11.268854
12.670755
12.532473
13.756752
12.395978
12.807846
13.517737
12.174845
12.758970
12.712479
12.622476
13.923645
13.371706
13.586879
13.634562
14.361739
13.496876
14.427900
14.578700
14.917850
14.934540
16.969442
15.818477
17.111897
16.948581
18.062592
18.058419
18.623471
17.884970
17.272830
15.833974
16.557574
14.716983
14.999509
12.837648
12.058616
11.482835
9.514689
10.593534
10.163784
10.321736
10.301471
9.701848
9.474754
9.936690
8.276701
8.086562
8.588433
##ZVALUE=235
10.977983
15.343428
26.257634
68.706870
114.879608
184.159875
236.857533
319.972634
346.907973
344.931483
299.588442
237.469673
168.519616
121.191740
86.999536
74.590445
68.509579
75.388551
79.944730
80.976486
79.626441
61.967969
53.693652
34.612417
24.719834
15.924573
11.335611
8.274913
7.372499
7.570982
7.828474
8.243918
7.968545
8.301735
8.279681
8.536577
8.699894
9.826422
9.009838
10.260940
10.245442
11.684895
11.596680
12.037754
13.015866
14.144778
14.688969
15.104413
17.511845
16.617775
18.257499
18.323660
18.759966
19.392967
18.787980
19.260645
19.101501
18.432736
18.726587
19.450784
19.014478
18.678904
19.179583
18.987656
20.601749
19.829869
20.505786
20.176768
21.458864
20.939708
20.945668
22.137761
24.581552
24.096966
23.285747
25.144815
23.311973
22.389889
22.925735
20.543933
20.476580
18.302798
16.924739
16.769767
15.140772
16.252995
14.021993
13.861656
11.820793
12.382865
13.935566
12.993813
11.138916
11.605620
10.589957
11.460781
##ZVALUE=240
2.058744
3.222823
5.904436
15.368462
44.996738
80.343485
163.009763
251.832008
382.365584
461.159945
516.169667
519.962907
480.682850
376.622677
287.684798
180.093646
132.580996
97.664595
89.680552
92.033744
102.119446
109.367967
107.216835
98.148584
80.917478
65.941811
46.501756
31.888485
20.959973
14.520884
10.633469
8.165836
9.700656
9.258986
9.795427
9.487867
9.652972
10.519624
10.071993
11.303425
11.446476
13.838410
14.550686
17.955899
17.657876
18.651485
20.039678
22.161603
21.166801
23.842454
24.700761
24.977922
25.705695
25.634766
25.321841
27.084947
25.339723
26.518703
25.955439
24.952888
25.781989
25.655627
26.145577
26.481748
25.466681
25.092959
24.697781
25.661588
26.169419
26.848912
26.680827
28.873682
27.870536
28.740764
28.318763
28.460622
27.778745
27.228594
24.508834
24.070740
21.635890
22.937655
21.252632
19.644499
19.287467
17.396808
17.156601
17.350912
16.803741
15.358925
16.831756
13.997555
15.185475
14.101863
14.041662
13.063550
##ZVALUE=245
2.230406
2.236962
2.249479
2.250671
4.133582
13.345480
31.610727
84.887743
153.403878
250.588655
406.298041
529.548526
612.753630
637.715459
585.843921
503.232479
366.039872
273.817778
196.525455
123.452544
97.085834
90.450644
103.776455
118.998885
123.584867
118.713975
106.893778
87.081790
70.107579
51.305890
36.543608
22.559762
15.746951
11.556745
8.891821
9.240508
9.168983
10.476708
11.862516
11.881590
12.994409
15.685558
15.502572
17.572641
19.188523
20.968914
22.143722
22.454858
24.419427
26.756525
26.140809
29.086471
27.004480
28.360486
28.824806
27.762651
28.847456
29.077530
28.083920
28.040409
28.669834
27.810931
25.972724
25.842786
27.684569
25.688410
25.674701
27.443767
25.871992
26.314855
25.768876
24.936795
25.339723
25.417805
26.298761
26.273727
24.758577
23.786426
24.264455
21.172762
20.509958
18.705726
20.339489
18.490553
17.827749
15.526414
16.349554
16.100407
14.590621
14.398694
15.287995
13.233423
13.727546
12.455583
12.069941
12.125969
##ZVALUE=250
1.574755
1.466870
1.584888
1.330972
1.713634
1.736879
2.801418
6.874800
29.345751
66.315532
161.216855
269.321799
394.516587
564.337969
663.815737
732.783675
713.451505
628.482699
513.908863
360.952616
238.177776
157.522559
100.289583
85.887909
97.928643
111.152530
127.190948
130.241513
128.354430
115.964413
103.244781
75.934529
59.173703
35.989881
24.241805
15.212893
13.161898
11.880994
12.325644
13.738871
14.062524
15.790462
16.438961
17.167926
19.172430
21.365881
21.398664
23.423433
24.793744
25.941730
26.331544
27.774572
27.786493
28.861761
27.859807
29.338598
28.093457
27.707815
28.411746
26.854873
26.036501
25.532842
25.070906
25.397539
23.453832
25.222898
23.535490
22.273660
22.339821
21.934509
22.600889
22.201538
21.254420
21.575689
21.219850
20.987988
20.215511
18.614531
19.043684
18.754601
17.334819
14.918447
15.470982
13.911724
14.207959
14.720559
13.088584
13.906956
12.448430
11.993647
12.081861
11.212826
12.328625
10.301471
10.570884
10.349751
##ZVALUE=255
1.651645
1.672506
1.808405
1.979470
1.770854
1.540780
2.218485
1.758933
2.251863
5.037785
17.247796
61.276555
123.995543
257.996917
388.676524
524.966717
706.874728
793.847442
833.661556
784.600973
643.016696
498.281717
303.112864
195.316672
112.983584
84.535480
80.612898
100.284815
114.672780
132.868886
137.944818
134.988427
123.889446
103.214979
81.187487
56.780577
40.809512
26.176572
18.614531
14.685988
14.280677
15.850663
15.541911
16.758442
18.310547
20.012856
21.510720
21.408796
22.479892
24.552941
24.285913
25.324821
25.934577
24.046898
26.418567
25.110841
25.643706
23.473501
24.296641
23.721457
22.417903
22.235513
21.202564
21.259785
20.095706
19.026995
19.124746
17.966628
17.593503
18.653870
18.512607
18.078685
19.215941
17.893910
18.060803
17.995834
17.437935
16.137958
15.683770
14.739633
14.230609
12.822747
12.886524
12.775660
12.451410
11.594892
11.538863
11.561513
10.502934
11.052489
10.476708
10.024905
10.172725
9.499788
8.889437
10.376573
##ZVALUE=260
1.564622
1.613498
1.468658
1.713634
2.070665
1.589656
1.854897
1.742840
1.854897
2.016425
1.976490
3.079772
8.337498
35.728812
82.947612
204.970837
331.334472
530.668497
681.849718
866.057873
932.732821
914.368033
793.824792
637.269020
414.503813
282.319784
164.610744
105.516911
75.556636
77.751875
95.243454
120.931864
136.563778
144.214630
142.411590
126.914978
109.023452
83.934665
63.199997
40.486455
29.831529
20.153522
17.077923
16.157627
16.642809
17.070770
18.051863
18.869638
18.646717
19.636750
19.629598
20.681620
20.932555
19.921660
21.043420
20.119548
18.732548
19.409657
17.877817
18.972754
18.342733
17.416477
16.918778
16.357899
16.984940
15.827417
15.593767
14.734864
15.026927
15.015602
14.385581
14.658570
15.653968
14.958978
14.857650
14.148951
13.621449
13.786554
13.250709
12.450814
11.517406
11.537671
10.963678
10.224581
10.561943
9.894967
8.995533
9.388924
9.565949
8.544922
9.222627
9.162426
8.713603
8.350611
7.900596
8.265972
##ZVALUE=265
1.678467
1.582503
1.698732
1.701713
1.751781
1.512766
1.614690
1.668930
1.737475
1.824498
1.939535
1.962781
1.676679
2.385974
5.045533
25.282502
65.048933
160.194635
282.618403
512.622595
700.363517
873.522758
1010.501981
1014.319658
901.404619
756.598711
549.910665
386.312008
213.472843
133.364797
86.346865
66.549778
76.024532
104.703903
122.891665
143.268704
147.488713
142.020583
129.335523
106.079578
86.913705
57.479739
44.061542
28.535724
20.946860
16.463995
14.923811
16.361475
15.969872
16.861558
16.163588
16.730428
16.115904
16.670823
16.164780
16.260743
16.431808
15.764832
14.678836
14.852881
14.705658
13.914704
13.849735
13.617873
13.490915
13.728738
12.761950
13.072491
12.439489
12.900829
13.128519
12.130737
12.771487
12.463927
13.058782
11.746883
11.123419
10.976791
11.059642
10.739565
10.442734
9.844899
9.963512
9.011626
8.888841
8.467436
8.852482
7.952452
8.497834
7.685423
7.982850
7.828474
7.771850
7.737875
7.236600
7.471442
##ZVALUE=270
1.412630
1.405478
1.628995
1.427531
1.403689
1.490712
1.317859
1.501441
1.583695
1.616478
1.783967
1.912713
1.766682
1.621842
2.059937
2.188683
3.453493
10.593534
31.461716
111.672878
222.683549
451.200008
653.585792
897.473693
1015.561819
1015.788913
1015.788913
885.357857
726.583004
488.677621
330.413580
169.236660
100.249648
60.475469
58.466792
78.722835
98.414421
126.217008
138.231516
149.064660
145.176649
130.426884
111.563802
84.386468
63.679814
41.851997
30.054450
20.845532
16.817451
15.236735
13.416409
14.583468
13.920665
13.480783
13.271570
13.687611
13.268590
13.715625
13.889670
13.122559
13.202429
11.864901
11.848807
12.171865
11.803508
11.457801
11.610985
11.625886
11.455417
11.692643
11.275411
12.086630
12.127757
11.683702
11.612773
11.356473
10.689497
10.775924
10.429621
9.804964
9.768605
8.446574
8.363724
8.334517
8.255839
8.005500
8.543730
7.880926
7.591844
7.639527
7.403493
7.223487
6.626844
6.896853
6.722808
6.499887
##ZVALUE=275
1.240969
1.341701
1.474619
1.332760
1.220703
1.276731
1.425743
1.297593
1.365542
1.479983
1.455545
1.528859
1.492500
1.465678
1.819730
1.717806
1.880527
1.902580
2.211928
6.025434
22.493601
66.667795
197.552443
354.253650
634.167790
825.192928
1012.050509
1015.736461
1015.736461
1015.736461
886.467695
640.274882
450.244546
238.174796
138.662457
65.466762
47.079921
55.781603
72.569847
100.034475
121.923685
140.075684
145.195723
141.971707
130.819678
106.266737
85.724592
61.736703
45.691729
29.016733
21.445751
16.215444
13.857484
13.418794
12.593865
12.473464
12.552738
12.416840
12.453794
11.978745
11.733770
11.864901
11.074543
11.094809
11.300445
11.117458
10.660887
11.359453
10.770559
10.663867
11.089444
10.660887
10.897517
10.953546
11.227727
11.136532
10.976791
9.946823
9.639859
9.331703
9.032488
9.178519
8.528829
8.234978
8.166432
7.861853
7.820725
7.437468
7.314682
6.888509
6.771684
6.789565
6.505847
6.688833
6.788969
6.243587
##ZVALUE=280
1.180768
1.149774
1.285672
1.293421
1.485944
1.354814
1.349449
1.298785
1.246929
1.396537
1.311898
1.483560
1.405478
1.568794
1.264811
1.602769
1.654625
1.779795
1.970530
1.970530
2.314448
2.838969
15.310645
51.510930
159.770846
288.630724
520.461798
732.857585
994.018912
1015.788913
1015.788913
1015.788913
977.617502
726.026893
529.585481
299.167633
178.908706
84.752440
47.149658
40.166974
50.814748
75.895786
97.968578
121.956468
136.342645
145.028830
140.281916
126.614571
110.036731
80.094934
62.796474
41.568875
29.406548
19.478798
15.424490
12.315512
12.163520
11.332631
11.178851
11.699796
11.224747
11.496544
10.890961
11.316538
11.007786
11.118650
10.392666
10.796785
10.849833
10.461807
10.449886
11.010766
11.770725
11.145473
10.865927
10.800958
10.064840
10.206699
9.837747
9.052753
8.974671
8.577704
8.514524
8.388758
8.297563
7.762909
7.304549
7.024407
7.043481
7.004738
6.868839
6.673932
6.193519
5.990863
5.776882
5.942583
##ZVALUE=285
1.095533
1.465678
1.129508
1.226664
1.363754
1.233816
1.234412
1.213551
1.255870
1.339912
1.380444
1.288652
1.512766
1.373887
1.469851
1.562834
1.594424
1.692772
1.773834
1.528859
1.788735
1.928806
2.185702
2.356768
6.900430
25.434494
89.080930
185.496807
392.566919
594.545603
863.390565
1015.788913
1015.788913
1015.788913
1015.788913
886.029005
626.384020
429.176688
227.860808
131.040812
58.843493
34.945607
34.528971
46.653748
71.823001
90.438724
115.602612
129.335523
139.292479
137.307644
122.984648
109.612942
83.511472
64.575672
42.089820
30.047894
18.520951
14.465451
11.841655
11.024475
10.817647
10.818839
10.722876
10.295510
10.277629
10.287762
10.391474
10.373592
10.785460
10.660887
10.651946
10.475516
10.693669
10.449886
10.367632
10.110736
10.088682
9.376407
8.815527
9.006858
8.871555
8.360744
7.996559
7.789731
7.388592
7.400513
6.862879
6.824732
6.714463
6.873608
6.448627
6.157756
6.397963
6.159544
6.354451
6.029606
##ZVALUE=290
1.182556
1.086593
1.074672
1.110435
1.128912
1.168847
1.091957
1.151562
1.367927
1.154542
1.192689
1.398921
1.363754
1.316667
1.410842
1.375675
1.433492
1.540780
1.596808
1.457930
1.515746
1.746416
1.902580
2.007484
2.085567
2.319813
3.326535
10.326505
51.448941
120.895505
237.233639
481.935740
708.791018
994.207859
1015.788913
1015.788913
1015.788913
974.985957
779.708028
515.395999
338.419676
167.769790
89.861751
36.671758
25.070906
32.286644
45.330524
66.988468
86.856484
109.533668
124.865770
135.463476
133.312941
120.815635
105.593801
78.247786
59.773922
40.661693
28.846860
18.622875
14.188886
11.591911
10.712743
10.435581
9.436607
9.805560
9.659529
9.896755
9.935498
10.182858
9.878874
9.474754
10.002851
9.725690
9.492636
9.367466
9.028912
8.707643
8.890629
8.052588
7.796884
7.759929
7.153749
7.268786
6.924868
6.809831
6.491542
6.525517
6.661415
6.220937
6.208420
5.906820
5.916953
6.010532
5.572438
5.272627
##ZVALUE=295
1.021624
1.122952
1.023412
1.049638
1.141429
1.103878
1.257658
1.028776
1.041889
1.055598
1.236796
1.260638
1.237988
1.378655
1.416802
1.390576
1.182556
1.407862
1.352429
1.435876
1.636744
1.455545
1.597404
1.811981
1.917481
1.822710
2.057552
2.187490
2.559423
4.685521
17.938614
77.875853
175.663829
402.266979
616.298914
908.391476
1015.791893
1015.791893
1015.791893
1015.791893
888.231993
622.286797
426.282883
222.414732
120.596886
46.910644
24.528503
20.957589
26.321411
43.262839
58.421493
82.715750
100.621581
121.148825
125.908852
126.420856
115.809441
97.008944
80.235004
56.198835
41.493773
26.823878
18.471479
13.280511
10.982752
9.046793
9.543896
9.065866
9.055734
9.093881
8.521676
9.099841
8.766651
9.146929
9.175539
8.541942
8.390546
8.096695
7.485747
7.292628
7.240772
7.075667
6.962419
6.608963
6.692410
6.448627
6.370544
6.107688
5.816817
5.809665
5.895495
5.807877
5.441904
5.380511
5.559921
5.043745
##ZVALUE=300
1.102686
0.900626
0.969768
0.939965
0.833869
1.134872
1.145601
0.925660
1.278520
1.076460
1.153946
1.101494
1.155734
1.192689
1.180768
1.028776
1.216531
1.130700
1.251698
1.195669
1.402497
1.370907
1.420975
1.356602
1.522899
1.673698
1.688600
1.734495
1.900792
1.962781
2.529621
2.835989
11.776686
42.648911
138.778687
268.584490
520.732999
747.027993
1003.928781
1015.788913
1015.788913
1015.788913
967.639685
779.253840
505.822897
324.686766
163.964629
87.692738
33.760667
17.995834
17.957687
24.587512
39.465427
53.800941
76.410770
94.635487
112.354755
121.096969
118.841529
112.080574
94.277859
77.778697
56.706667
42.378902
26.776791
19.064546
13.483763
10.645986
9.048581
8.563995
8.395910
8.203983
8.581877
8.540750
8.141994
8.201599
7.532835
7.646680
7.019639
7.244945
7.064939
6.526709
6.578565
6.122589
6.283522
6.163716
6.150603
5.827546
5.585551
5.673766
5.675554
5.470514
5.113482
5.145669
5.346537
5.007982
##ZVALUE=305
0.804663
0.858903
1.109838
1.003742
1.259446
1.180768
1.060963
1.085997
1.254678
1.034737
0.918508
1.158714
0.954866
1.006722
1.086593
0.919700
1.348853
1.256466
1.180768
1.198649
1.126528
1.285672
1.186728
1.417994
1.310706
1.419783
1.480579
1.632571
1.600981
1.829863
1.834631
2.114773
2.007484
2.646446
4.847646
30.144453
83.046556
224.656463
392.179489
671.064854
887.437463
1015.788913
1015.788913
1015.788913
1015.788913
825.398564
626.067519
378.371477
236.594677
112.330914
56.299567
21.779537
14.422536
17.510653
23.714900
37.736893
51.706433
73.509812
88.483691
106.974840
114.123821
113.392472
106.170774
90.165734
75.371861
54.422617
40.080547
25.182962
17.590523
12.452602
9.881854
8.792877
8.335710
7.933974
7.808805
7.239580
7.394552
7.347465
7.156730
6.792545
6.688833
6.737709
6.404519
6.208420
6.127954
6.009936
5.909801
5.625486
5.562901
5.599856
5.666614
5.181432
5.204678
5.155802
4.943609
5.007982
##ZVALUE=310
0.838637
0.845790
0.915527
1.088977
0.928640
0.887513
0.937581
0.828505
0.809431
0.792742
0.778437
0.876784
0.914931
0.846982
1.002550
1.043677
1.009703
1.067519
1.075864
1.171827
0.986457
1.083612
1.032948
1.100898
1.176000
1.307726
1.112819
1.271963
1.377463
1.466870
1.463890
1.438856
1.645684
1.639724
2.066493
2.250671
2.461672
12.934804
43.112636
139.157772
266.602635
513.959527
741.098523
999.782681
1015.660763
1015.660763
1015.660763
954.885483
769.648552
508.831739
338.015556
168.625712
89.755654
33.591986
16.461611
11.881590
15.065670
22.675991
31.318665
46.983957
62.682629
82.958937
93.017817
104.560852
106.251836
99.960566
88.495612
70.965886
56.108832
36.506653
26.242733
17.353892
12.440681
8.903742
7.749796
7.105470
6.944537
6.542802
6.214976
6.190538
6.196499
6.092787
5.895495
6.143451
6.042719
5.638599
5.402565
5.543828
5.466938
5.444884
5.380511
5.391836
4.818439
5.111694
4.920959
4.473925
##ZVALUE=315
0.856519
1.002550
0.870824
0.919700
1.099706
1.000762
0.920892
1.039505
0.797510
0.867844
0.833869
1.082420
1.180768
1.111627
1.171827
1.014471
1.151562
1.026988
1.142621
1.043677
1.087785
1.040697
1.074672
1.208782
1.138449
1.101494
1.307726
1.349449
1.388788
1.382828
1.368523
1.514554
1.483560
1.458526
1.677871
1.892447
1.908541
1.972914
2.530813
5.736947
23.527741
93.188882
194.108486
411.456823
627.900958
923.761725
1015.788913
1015.788913
1015.788913
1009.884477
865.371823
608.629584
426.273942
225.191712
121.887922
45.907497
20.262599
10.851622
11.261702
14.465451
18.919706
29.642582
56.143999
57.453513
80.660582
95.889568
100.984573
100.394487
94.289780
72.925687
64.576864
42.818785
35.512447
24.645925
17.061830
11.056662
8.541942
6.883740
6.559491
6.230474
6.333590
5.780458
5.758405
5.740523
5.685687
5.439520
5.517602
5.443692
5.355477
5.657673
5.349517
5.362630
5.029440
5.067587
4.801750
5.028844
##ZVALUE=320
0.956655
1.012683
0.880957
1.002550
0.979900
0.959635
0.829697
0.874996
0.924468
0.969768
0.910759
1.048446
0.977516
1.058578
0.969768
0.990629
0.940561
1.096725
1.148582
1.103878
0.955462
1.062751
1.142621
1.109838
1.128912
1.126528
1.297593
1.310706
1.219511
1.281500
1.343489
1.411438
1.401901
1.347661
1.470447
1.459718
1.483560
1.663566
1.806617
2.139807
2.236962
3.024936
11.131763
58.233738
135.572553
320.939422
504.352450
776.860714
967.026949
1015.788913
1015.788913
1015.788913
970.813036
727.043748
524.757504
288.843513
164.224505
69.661736
32.491684
12.389421
9.575486
9.767413
11.607409
17.096996
24.325848
38.882494
52.320957
68.846941
82.388520
93.103647
94.535947
88.971853
80.492496
62.538981
48.988461
32.593608
23.190975
15.007854
10.466576
7.610917
6.637573
5.929470
5.991459
5.635619
5.657673
5.656481
5.406737
5.229712
5.347729
5.195737
5.056858
5.048513
5.183816
5.062819
4.930496
4.823804
##ZVALUE=325
0.835657
0.804663
0.855923
0.885725
0.848770
0.908971
0.908971
0.948906
0.915527
0.980496
0.939965
0.968575
0.919700
1.102686
0.950694
1.098514
0.930429
0.890493
1.075864
0.992417
0.830889
1.012683
0.993609
0.962615
1.173615
1.123548
1.203418
1.324415
1.159906
1.172423
1.178980
1.088977
1.169443
1.404881
1.205802
1.486540
1.336932
1.491904
1.585484
1.831651
1.842976
1.774430
2.109408
2.469420
5.906820
37.233829
92.286468
225.137472
382.415652
656.499863
855.504870
1015.788913
1015.788913
1015.788913
1007.509828
784.306526
584.274530
354.111791
215.194821
93.737841
44.841766
15.314817
9.056926
7.778406
8.716583
11.239648
15.672445
24.577975
34.341812
51.875710
63.219666
78.266859
84.656477
87.935925
83.086491
70.040822
58.453679
42.730570
31.191707
19.767880
13.830662
9.378791
7.506609
6.356835
5.688667
5.029440
5.282760
5.050898
4.959702
5.104542
5.018711
4.784465
4.872680
4.875660
4.820824
4.835725
##ZVALUE=330
0.731945
0.939965
0.962615
0.850558
0.896454
0.792742
0.931621
0.727773
0.981688
0.813603
0.909567
0.866652
0.781417
1.002550
1.033545
1.018643
0.886917
0.865459
1.024604
1.009703
1.121759
1.204610
0.939965
1.105666
0.971556
1.019835
1.200438
1.228452
1.297593
1.290441
0.993609
1.176000
1.115799
1.135468
1.171827
1.209974
1.216531
1.251698
1.446605
1.469851
1.493692
1.489520
1.742840
1.705885
1.982450
2.482533
2.967715
15.937686
49.932599
154.254436
281.361938
526.724458
727.810860
970.534682
1015.788913
1015.788913
1015.788913
860.576630
677.439570
432.514548
275.070667
129.445791
65.130591
23.201704
10.897517
7.477999
7.270575
8.046627
10.078549
15.305877
21.901727
33.751726
45.591593
62.258840
72.123408
80.747604
82.087517
76.045990
67.428946
52.691698
40.616989
26.810765
19.817948
13.233423
9.433627
7.288456
6.064773
5.331635
5.156994
4.979968
5.042553
4.913807
4.524589
4.607439
4.644990
4.431605
##ZVALUE=335
0.948906
0.945926
0.791550
0.861883
0.948906
0.945926
0.807643
0.870824
0.968575
0.931621
0.847578
0.704527
0.792742
1.048446
0.954866
0.871420
0.909567
0.931621
0.762939
0.947714
0.954866
0.943542
0.947714
0.814795
0.907779
0.929832
0.890493
1.058578
0.926852
1.025796
1.201630
0.985861
1.064539
1.163483
1.142621
1.107454
1.246929
1.214743
1.397729
1.111627
1.385808
1.371503
1.659989
1.459718
1.622438
1.717806
1.828671
2.050996
2.243519
7.292628
26.462674
97.303987
192.510486
398.965478
596.396923
855.813622
997.574925
1015.791893
1015.791893
909.989476
749.991536
510.082841
339.008570
177.468657
92.203617
32.535791
14.010668
7.553697
6.841421
7.097721
7.622838
10.069609
13.747811
21.854639
30.619502
44.583678
55.653453
66.994429
72.264671
74.837804
71.426630
60.628653
51.016808
38.180947
28.727651
19.314885
14.089942
9.368658
7.119775
5.989671
5.180836
5.012751
4.937649
4.633665
4.769564
4.479885
##ZVALUE=340
0.796914
0.895858
0.649691
0.830889
0.785589
0.921488
0.913739
0.877976
0.858903
0.796914
0.896454
0.974536
0.871420
0.954866
0.878572
0.838637
0.897646
0.762939
0.849962
1.037717
0.913739
1.178980
1.151562
1.042485
1.013875
0.881553
1.004934
0.998974
0.839829
0.995994
0.928640
0.961423
0.958443
1.134872
1.110435
1.212955
1.072884
1.094937
1.167655
1.128912
1.318455
1.232624
1.333952
1.527667
1.535416
1.490712
1.454949
1.600981
1.635551
1.956820
2.110600
3.029704
17.449856
52.133799
151.692629
281.694531
530.701876
713.606477
922.222733
1012.496948
1015.788913
969.786644
788.367987
619.701743
383.694768
237.748623
111.335516
53.621531
16.139746
8.272529
7.045865
6.665587
6.410480
7.015467
9.219646
12.370944
19.802451
28.018951
41.091442
52.120686
63.025951
69.095492
70.486665
67.103505
58.402419
49.715638
36.951900
29.089451
19.166470
13.653636
8.683801
7.019639
5.404949
4.849434
4.828572
4.422665
##ZVALUE=345
0.800490
0.879765
0.785589
0.733733
0.971556
0.836849
0.712872
0.839829
0.982881
0.946522
0.851750
0.766516
0.795722
0.778437
0.826716
0.897646
0.818968
0.696778
0.921488
0.911951
0.896454
0.972748
1.002550
0.829697
0.917912
0.893474
0.959635
1.019835
0.904799
0.930429
1.226664
1.030564
1.015663
0.991821
1.011491
1.158714
1.021624
1.072884
1.085997
1.101494
1.180768
1.177788
1.205802
1.229644
1.219511
1.235604
1.369715
1.597404
1.588464
1.433492
1.561642
1.673698
1.848936
2.332926
5.808473
35.579801
90.437531
217.851996
365.494490
606.139898
780.787468
954.948664
1014.376879
988.183618
880.396962
659.475923
484.808683
284.837484
161.846876
62.985420
28.675795
10.365844
6.739497
6.461740
6.096959
5.986691
6.335974
8.194447
11.259913
18.553734
26.403666
37.600994
46.591759
56.318641
61.720610
64.577460
62.285662
55.451989
48.094988
36.724806
28.143525
18.908978
13.440847
9.008646
6.853938
5.219579
##ZVALUE=350
0.696778
0.762939
0.706911
0.729561
0.847578
0.881553
0.918508
0.945926
0.887513
0.995994
0.872612
0.846982
0.624657
0.853539
0.798702
0.906587
0.930429
0.830889
1.107454
0.897646
1.008511
0.880957
1.070499
0.782609
0.910759
0.951886
0.964999
0.968575
1.017451
1.002550
0.966787
0.908971
0.941753
1.099706
1.029968
0.993609
1.204610
1.079440
1.011491
1.281500
1.058578
1.020432
1.194477
1.090765
1.166463
1.135468
1.216531
1.249909
1.500845
1.469851
1.420975
1.491904
1.706481
1.590848
1.766682
2.128482
3.234744
18.014908
51.344633
147.459507
269.658566
495.623946
668.625832
857.928991
955.956578
980.063677
904.473662
721.386671
551.000834
336.975455
202.045441
88.784695
40.816665
12.423992
7.355809
5.784631
5.522966
5.383492
5.307794
5.948544
7.239580
11.028647
15.505552
24.053454
31.273961
41.909814
49.122572
56.288838
58.746934
57.449937
52.619576
43.008924
35.512447
26.034713
19.850731
12.685657
##ZVALUE=355
0.825524
0.800490
0.864863
0.743866
0.856519
0.972748
0.823736
0.956655
0.852942
0.823736
0.759959
0.846982
0.990629
0.776649
0.985861
1.021624
1.037717
0.862479
0.831485
0.870824
0.909567
0.972748
0.982881
0.954866
0.953674
0.899434
0.998974
1.106858
1.003742
0.900626
1.014471
1.032948
1.004934
0.948906
1.090765
1.045465
1.043677
1.114607
1.097918
1.102686
1.129508
1.077652
1.242757
1.176000
1.326799
1.210570
1.152754
1.181960
1.397729
1.424551
1.401901
1.322627
1.487732
1.433492
1.720786
1.644492
1.674891
2.032518
2.311468
8.561611
30.414462
103.520751
197.851658
375.767946
550.237894
773.787498
895.608664
958.419442
926.761627
769.682527
620.242953
403.527617
255.654454
112.157464
53.974986
16.855597
8.113980
5.821586
5.271435
5.038977
4.859567
5.151629
5.317926
6.577969
8.851886
13.671517
18.940568
28.030872
35.293698
43.889880
49.966574
54.296851
53.182840
47.635436
41.899681
32.243729
##ZVALUE=360
0.980496
0.954866
1.014471
0.974536
0.974536
0.971556
1.072884
1.199841
1.062751
0.996590
0.956655
1.048446
1.091957
1.021624
1.074672
1.067519
1.104474
0.988841
1.083612
1.138449
1.027584
0.963807
1.215935
1.224875
0.917912
1.220703
1.072884
1.138449
1.146793
1.059771
1.055598
1.090765
1.152754
1.228452
1.139641
1.090765
1.118779
1.309514
1.126528
1.344681
1.210570
1.336932
1.294613
1.378655
1.409650
1.200438
1.211762
1.423955
1.292825
1.555681
1.500845
1.512766
1.507998
1.409650
1.681447
1.553893
1.852512
1.821518
1.857877
2.365708
2.340674
4.129410
13.460517
55.424571
124.668479
282.028913
435.894728
643.091798
796.462893
908.960700
915.735960
821.560621
688.918829
466.727018
311.371684
150.716901
78.281760
28.872490
11.612773
5.946755
5.307794
5.180836
4.885793
4.831553
4.632473
4.896522
5.672574
7.909536
10.892749
15.902519
21.970868
30.886531
37.426949
43.672919
47.141910
48.159957
##ZVALUE=365
0.770688
0.626445
0.745654
0.775456
0.924468
0.783801
0.896454
0.936985
0.918508
0.768900
0.723600
0.788569
0.944734
0.793934
0.840425
0.758767
0.830889
0.873804
0.777841
0.792742
0.838637
0.832677
1.040697
0.964999
0.911951
0.904799
0.886917
0.929832
0.922680
0.989437
0.913739
0.939965
0.789762
0.912547
1.038909
0.985861
1.042485
0.973940
0.962615
0.992417
1.164675
1.007915
0.971556
0.953674
0.997782
1.087785
1.112819
1.002550
1.167655
1.127720
1.157522
1.149774
1.242757
1.156926
1.211762
1.410842
1.298785
1.521707
1.533628
1.582503
1.762509
1.793504
1.948476
2.387762
5.704761
32.274723
79.959631
191.887021
330.420732
547.436476
701.739788
848.217010
894.860625
846.333504
733.600855
533.028841
376.485586
205.705762
110.561848
39.892793
16.069412
6.113648
4.920959
4.651546
4.389882
4.354715
4.127622
4.181862
4.035830
4.727840
6.115437
9.330511
12.919903
19.597411
25.453568
32.923818
##ZVALUE=370
0.881553
0.834465
0.874996
0.906587
0.812411
0.835657
0.893474
0.835657
0.943542
0.911951
0.969768
0.874996
1.037717
0.937581
0.888705
0.675917
0.996590
0.965595
1.008511
0.935793
0.795722
0.986457
0.873804
0.973940
0.896454
0.999570
0.806451
0.971556
0.964999
0.914931
0.890493
1.021624
0.901818
1.038909
0.993609
1.032948
0.921488
1.117587
0.959635
1.021624
0.906587
1.061559
0.983477
1.133680
1.086593
1.116991
0.911951
1.083612
0.842810
1.027584
1.070499
1.059771
1.294613
1.194477
1.258850
1.166463
1.205802
1.227856
1.464486
1.414418
1.322627
1.550913
1.501441
1.716614
1.831651
1.971722
3.180504
16.653538
50.726533
147.486925
257.411599
451.031923
607.578754
787.758827
864.198804
854.800940
766.607523
594.022870
434.495807
239.575505
133.803487
52.697659
23.663640
8.916855
5.385876
4.617572
4.158616
4.116893
3.994703
3.596544
3.750920
3.758669
4.259944
5.759597
7.687807
11.718869
##ZVALUE=375
0.815988
0.622869
0.685453
0.800490
0.742674
0.703931
0.686646
0.819564
0.757575
0.798702
0.827909
0.765920
0.923872
0.876784
0.850558
0.782609
0.727773
0.771880
0.823736
0.836849
0.840425
0.888705
0.791550
0.936985
0.925660
0.814795
0.809431
0.908971
0.828505
0.809431
0.869632
0.917912
0.898838
0.960827
0.854731
0.888705
0.946522
0.879765
0.896454
0.856519
0.815988
1.071692
0.988841
1.044869
0.971556
0.991821
1.053810
0.986457
0.895858
0.984669
0.883937
0.962615
1.014471
1.172423
1.047850
1.178980
1.049638
1.078844
1.132488
1.258850
1.107454
1.120567
1.250505
1.576543
1.481771
1.573563
1.713634
1.793504
2.305508
8.236766
28.566718
92.903972
184.892416
371.317863
532.952547
725.506544
824.414492
863.851905
816.701651
662.675500
512.800813
312.164426
191.853642
87.329745
43.336749
14.030933
6.744862
4.362464
4.126430
3.942847
3.788471
3.484488
3.419518
3.287792
3.274679
3.599524
##ZVALUE=380
0.613928
0.675917
0.701547
0.762939
0.587702
0.670552
0.663996
0.675917
0.829697
0.720620
0.755787
0.752807
0.776649
0.839829
0.798702
0.775456
0.707507
0.671744
0.754595
0.886917
0.816584
0.609756
0.733733
0.850558
0.932813
0.917912
0.832677
0.820756
0.962615
1.012683
0.908971
0.889897
0.778437
0.857711
0.943542
0.781417
0.755787
0.950694
0.907779
0.814795
0.911951
0.838637
0.868440
0.911951
1.030564
1.011491
0.933409
0.948906
0.810623
0.939965
0.966787
0.797510
1.089573
0.929832
1.005530
0.983477
0.938773
1.096725
0.992417
1.110435
1.231432
1.174808
1.144409
1.156926
1.335740
1.182556
1.342893
1.407862
1.934767
1.853704
2.065897
3.865957
20.122528
57.722926
156.150460
271.326900
469.312668
625.092983
789.543986
847.270489
813.255906
720.666647
557.227731
414.991975
239.451528
139.897466
57.918429
26.552677
8.147955
4.560947
4.030466
3.556609
3.494620
3.494620
3.374815
3.244877
##ZVALUE=385
0.634789
0.643730
0.553727
0.647902
0.691414
0.735521
0.695586
0.693798
0.611544
0.603795
0.624657
0.676513
0.729561
0.688434
0.674725
0.691414
0.677705
0.671744
0.753999
0.696778
0.606775
0.713468
0.691414
0.810623
0.621676
0.762939
0.663996
0.777841
0.898838
0.900626
0.902414
0.806451
1.014471
0.884533
0.965595
0.906587
0.836849
0.892878
0.964999
0.961423
0.927448
0.806451
0.740886
0.955462
0.798702
0.784993
0.900626
0.765920
0.843406
0.924468
0.955462
0.791550
0.905991
0.978708
0.940561
0.905991
0.740886
0.924468
0.849962
0.975728
1.067519
0.947714
0.987649
1.113415
0.992417
1.242757
1.307726
1.291633
1.418591
1.559854
1.543760
1.636744
1.810789
2.159476
9.353757
31.246543
101.479888
196.509957
382.306576
539.136529
725.352764
813.127756
836.846828
785.362720
644.813776
506.274700
317.678452
201.080441
90.944767
44.954419
14.900565
6.156564
3.800988
3.727674
3.388524
3.325939
##ZVALUE=390
0.665784
0.777841
0.750422
0.623465
0.706911
0.748634
0.803471
0.526905
0.846982
0.806451
0.678897
0.635982
0.668764
0.826716
0.738502
0.732541
0.743866
0.784993
0.603795
0.799894
0.752807
0.928640
0.770688
0.950694
0.791550
0.880957
0.751615
0.789762
1.030564
0.882745
0.858903
0.982881
0.997782
1.019835
1.025796
1.008511
0.892878
1.054406
0.948906
0.805855
1.063943
0.899434
0.947714
0.916719
0.974536
0.886917
0.951886
0.801682
0.936985
0.999570
0.919700
0.924468
0.873804
0.819564
1.067519
0.942945
0.995994
0.937581
1.002550
1.010895
0.957847
1.072884
1.177788
1.056790
1.204610
1.068711
1.186728
1.196861
1.196861
1.398921
1.492500
1.597404
1.533628
1.501441
1.613498
1.817942
3.909469
22.040606
62.348843
168.712735
293.260813
495.260954
633.298755
769.094825
823.634863
812.071562
731.811523
571.510792
430.829525
261.142850
151.190758
60.508847
27.302504
7.622838
4.307628
3.520846
##ZVALUE=395
0.768900
0.708699
0.744462
0.777841
0.707507
0.582933
0.579953
0.648499
0.720620
0.582933
0.814795
0.685453
0.613928
0.696778
0.817776
0.721812
0.923872
0.817776
0.752807
0.664592
0.851750
0.644922
0.744462
0.714660
0.807643
0.818968
0.880957
0.965595
0.841618
0.881553
0.884533
0.998974
0.974536
0.848770
0.951886
0.823736
0.994802
0.911951
0.854731
0.946522
1.051426
1.006722
0.989437
0.914931
0.979900
0.912547
0.973940
1.060963
0.896454
0.928640
0.847578
1.003742
0.983477
0.901818
0.958443
0.988841
0.992417
0.886917
0.892878
1.014471
0.980496
0.888705
1.023412
1.001954
1.131892
1.141429
1.116991
1.149774
1.360774
1.241565
1.394749
1.496673
1.524687
1.470447
1.500845
1.550913
1.551509
1.862645
2.260804
13.149977
43.110847
129.477978
227.274895
389.817953
540.980697
721.786618
813.179016
850.107670
807.434916
672.555566
520.020723
317.400694
199.204683
94.438791
44.716597
13.918877
##ZVALUE=400
0.758767
0.693798
0.616908
0.631809
0.810623
0.690818
0.587702
0.751615
0.793934
0.667572
0.792742
0.839829
0.633597
0.676513
0.703931
0.755787
0.741482
0.695586
0.803471
0.843406
0.732541
0.791550
0.865459
0.886917
0.792742
0.912547
0.928640
0.758767
0.879765
0.848770
1.010895
0.961423
1.059771
0.834465
0.925660
0.785589
0.813603
0.890493
0.839829
0.964999
1.098514
0.980496
1.088977
0.930429
0.891685
0.736713
0.982881
0.996590
0.788569
0.975728
0.921488
0.932813
1.075864
1.023412
1.209974
0.958443
0.936985
1.060963
1.064539
0.978708
0.984669
1.058578
0.967979
0.952482
1.094937
1.006722
1.033545
1.106858
1.171827
1.428723
1.273751
1.273751
1.212955
1.365542
1.451969
1.447797
1.510978
1.406670
1.536608
1.769662
1.758933
6.600618
23.272634
80.675483
158.245564
315.759778
460.926890
649.207830
758.599639
831.557512
814.190507
698.431730
574.728847
394.139886
259.570479
130.919814
##END
