##TITLE=FDDW2
##FORMAT=SPECTACLE-ASCII V-1.2
##DATA TYPE=ULTRAVIOLET SPECTRUM
##SECOND TYPE=ULTRAVIOLET SPECTRUM
##DATE=11/28/17
##TIME=13:10:01
##SPECTROMETER/DATA SYSTEM=SPECTACLE
##XUNITS=NM EM
##YUNITS=ENERGY
##YFACTOR=1
##FIRSTX=220
##LASTX=410
##NPOINTS=96
##3DDATA=Equidistant
##ZUNITS=NM EX
##FIRSTZ=210
##LASTZ=400
##ZPOINTS=39
##XYDATA=(Y..Y)
##ZVALUE=210
13.451576
13.482571
12.029409
9.889603
9.802580
9.870529
9.412766
7.441640
8.260608
5.721450
4.548430
3.852844
3.740788
3.211498
3.113747
3.113747
3.038645
3.611445
2.942681
4.162788
3.893971
3.816485
4.298687
4.326701
4.795790
4.910827
6.058812
6.097555
6.920695
7.902980
7.445812
8.864999
8.831620
9.539723
9.641647
9.064674
9.311438
10.070801
8.762479
9.709597
10.307431
9.852648
9.906888
9.404421
9.617805
9.899735
10.661483
9.778738
9.741783
9.649992
10.104775
9.712577
9.552836
9.371638
9.591579
10.581613
9.158850
9.425879
9.104609
9.762645
9.372830
8.231997
8.023977
8.670688
8.942485
8.773804
8.615851
10.367632
10.050535
10.803938
12.211800
13.391972
14.631748
15.645623
13.299584
14.593601
16.158819
15.072823
14.660954
13.365746
12.373924
12.627840
10.878444
10.684729
8.854866
7.803440
7.857680
6.727576
7.823706
8.703470
8.975863
11.816621
13.828874
16.896725
20.021796
25.431514
##ZVALUE=215
34.712553
34.889579
27.941465
23.668408
18.925667
17.320514
15.054941
14.652610
15.445948
15.092492
11.181831
9.687543
7.072687
5.289912
4.454851
4.392862
3.605485
3.739595
3.196597
3.373623
3.639460
4.167557
4.082918
4.141927
4.799962
5.690455
6.266832
5.816817
6.982684
8.588433
8.156896
10.370612
10.224581
10.994673
11.383891
10.827780
10.888577
11.796951
10.501742
11.210442
10.510683
10.608435
10.589957
10.057688
9.958744
10.560751
11.784434
9.683967
10.485649
8.954406
10.542870
10.145903
10.625720
10.645986
9.886622
9.325743
10.494590
8.794665
10.195971
9.022951
9.705424
10.454655
10.242462
9.658933
8.571744
8.883476
9.179711
10.757446
10.457635
10.045767
11.330843
11.910796
13.680458
14.078617
13.258457
15.503764
15.974641
14.856458
14.503598
13.295412
13.593435
10.243654
10.101795
8.904934
9.024739
7.829666
7.237792
6.984472
7.139444
6.874800
6.444454
7.217526
7.417798
8.870959
8.829832
9.482503
##ZVALUE=220
62.975883
63.558817
65.712929
61.134696
52.898526
41.587949
31.613708
25.538802
23.656487
23.475885
23.155808
22.163987
20.864606
18.019676
13.546944
10.640621
6.747842
5.351901
4.962683
3.771782
3.826618
3.864765
3.838539
4.143715
5.333424
5.943775
6.629825
6.605983
7.884502
8.851886
10.360479
10.335445
11.935830
12.592673
11.917949
13.203621
13.333559
13.411641
12.706518
14.319420
12.920499
10.848641
11.233687
12.795925
10.948777
10.515451
10.716915
11.744499
11.311769
11.035800
11.230707
11.182427
12.433529
11.063814
11.166930
11.254549
10.369420
10.962486
11.514425
10.393858
11.106730
10.931492
11.968613
11.183619
10.451674
10.089874
11.394620
11.439919
11.624694
11.095405
11.108518
12.533665
14.071465
15.007854
14.301538
15.077591
14.706850
15.254617
14.003515
13.477802
13.756752
12.831688
11.297464
10.389686
9.689927
8.919835
8.755922
9.184480
8.437634
8.233786
7.586479
6.938577
7.628798
7.677674
7.623434
7.606745
##ZVALUE=225
74.022412
80.581903
96.338987
113.199949
116.912723
108.601451
92.679858
71.709752
56.976676
40.546656
36.435723
35.213828
34.640431
34.860969
37.164688
30.031800
24.084449
18.804669
14.822483
9.835958
5.981922
5.547404
4.543662
5.085468
5.496740
5.566478
5.659461
6.918907
7.530451
8.682609
9.337664
10.320544
11.181831
11.799932
10.826588
12.329817
12.377501
12.172461
11.481643
11.973977
12.244582
11.373758
14.614463
13.260841
12.390614
13.294816
13.055801
13.040900
12.464523
13.052821
13.576746
12.831688
14.706850
13.136864
13.389587
14.670491
13.477802
14.219880
13.091564
14.006495
13.984442
14.018416
14.237761
14.004707
12.657642
13.606548
14.400482
12.646914
13.916492
14.505982
14.439821
16.119480
16.876459
14.539957
16.808510
15.966892
15.303493
15.845895
15.025735
14.986992
15.067458
12.165904
13.849735
12.748837
11.559725
11.120439
10.294914
9.836555
8.947849
9.666681
10.262728
8.172989
9.534955
9.064674
9.117723
9.145737
##ZVALUE=230
48.726797
51.469803
80.831647
126.276612
157.824755
188.919902
201.644897
196.642876
169.931650
138.558745
95.209479
67.950487
51.451921
48.463941
52.695870
53.898692
52.748919
53.761601
49.661994
37.114620
29.401779
19.521713
14.022589
7.611513
6.309748
5.446672
6.459951
6.647706
6.056428
7.103682
7.609725
8.253455
8.874536
8.796453
9.495616
9.498000
10.407567
11.439919
12.349486
12.910962
12.422800
12.911558
13.465881
14.910698
14.858842
15.330911
15.157461
15.916824
16.256571
18.477440
16.447902
17.124414
17.666817
18.675923
17.905831
20.309687
18.341541
17.795563
20.337701
17.336607
19.173622
18.414855
17.916560
17.768741
17.877817
17.534494
16.692877
17.534494
17.431974
17.771721
19.653440
21.106601
19.806623
21.204948
20.322800
20.438433
19.280910
20.286441
19.258857
18.494725
17.124414
19.220710
17.088652
15.067458
14.005899
14.232993
13.179779
12.475848
11.810660
12.690425
10.820627
12.765527
11.486411
11.234879
11.103749
11.529922
##ZVALUE=235
12.392998
13.591647
33.592582
62.760711
119.529963
168.221593
245.286822
286.404490
316.869617
320.075750
267.000794
215.162635
165.401697
106.146932
84.202886
68.531632
67.894459
79.074502
86.653829
83.274841
75.119734
62.512755
48.631430
37.293434
25.928617
14.274716
9.142756
8.159876
6.846786
6.762743
7.028580
6.886721
6.783605
7.851720
8.741617
8.737445
9.941459
10.799766
10.675788
12.683868
12.669563
14.346838
14.940500
17.034411
18.703938
18.827915
20.186901
21.324754
21.853447
22.950768
25.349855
25.332570
24.350882
26.644468
27.498603
26.647449
25.156736
23.975968
26.503801
24.317503
26.017427
24.224520
25.132895
23.998618
26.353598
25.148988
25.433898
25.040507
25.176406
25.637746
25.614500
27.528405
27.100444
28.190613
27.479529
27.153492
25.142431
26.180744
23.578405
24.344921
21.967888
20.102859
21.231771
19.335747
18.037558
18.192530
18.541813
17.687678
16.683936
15.792847
15.910864
14.943480
14.851689
14.871955
13.135672
12.882948
##ZVALUE=240
2.577901
2.826452
5.541444
13.938546
35.972595
69.664717
146.796703
215.971470
328.078866
398.060679
452.844501
458.871722
419.709682
335.886478
262.438655
167.794824
122.727752
93.468428
87.535977
94.028711
103.971958
111.340880
104.924440
98.337531
75.551867
59.961677
44.103861
31.897426
18.979907
13.144612
9.877682
8.835793
7.763505
7.970929
8.345842
9.711981
10.271668
10.737777
11.880994
14.481544
16.278625
18.730760
20.485520
22.039413
23.854971
25.251508
28.557777
28.856993
32.693744
33.083558
34.226775
33.689737
35.852790
36.944747
35.408735
36.477447
35.024881
35.494566
36.116838
32.354593
33.599734
33.739805
34.963489
33.418536
30.119419
33.898950
32.603741
32.224655
31.429529
32.698512
31.004548
33.252835
32.110810
33.768415
31.764507
30.122995
30.825734
29.371977
28.239489
27.290583
26.124716
26.322603
23.180842
23.994446
22.841692
21.730661
20.092726
19.947886
18.737912
19.113421
17.703772
17.819405
17.160773
16.920567
17.009974
16.424656
##ZVALUE=245
2.423525
2.264977
1.981854
2.136827
3.905892
10.265708
25.153756
68.277717
125.184655
226.639509
326.963663
450.681448
516.077876
551.021695
519.436002
434.894562
347.927809
242.728591
166.731477
105.229616
87.780952
87.381601
99.822879
114.895701
122.445822
115.260482
106.644630
87.453723
68.345666
50.641894
33.271909
23.728609
16.599894
10.088682
9.228587
8.854866
10.098815
12.061000
12.430549
15.588999
16.822815
19.587874
20.849705
23.746490
26.319623
29.554963
29.811859
33.412576
34.387708
36.787987
38.682818
38.996935
39.748549
40.717721
39.967895
39.278865
40.176511
38.748980
37.935972
38.043857
36.701560
34.757853
34.806728
34.544468
35.079718
33.075809
33.445954
33.546686
32.598972
30.335784
30.479431
29.615760
30.205846
30.365586
31.005740
29.953718
28.086901
27.635694
27.599931
25.979877
25.714636
22.729635
22.011995
21.836758
20.426512
21.984577
17.870665
18.630624
17.649531
16.866922
16.821623
16.389489
17.118454
16.558766
15.006661
14.759898
##ZVALUE=250
1.928806
1.886487
1.923442
1.993775
2.284646
2.068877
2.981424
6.147623
23.549795
50.377846
123.642683
206.354856
313.584805
455.749631
552.711487
630.466938
621.748567
554.546714
471.457839
327.035785
223.532915
146.538615
96.786618
85.717440
94.373822
106.268525
121.663809
129.251480
126.398802
114.857554
97.958446
74.342489
57.013631
36.092997
24.865866
16.051531
12.469888
11.825562
12.764931
15.105605
16.278625
20.702481
21.364689
23.525953
27.139783
29.541850
31.372905
33.304691
34.378767
39.741993
37.927628
39.802790
40.773749
39.780736
41.339993
39.447546
40.263534
40.494800
38.910508
37.996769
37.535429
33.604503
34.140944
35.033822
33.453703
31.442642
30.318499
30.334592
29.615760
27.877688
27.580857
27.169585
27.388930
26.834607
25.444627
26.451945
26.319623
24.639964
23.362637
21.791458
20.572543
19.434690
18.408895
16.888976
18.126965
15.840530
15.951991
16.480684
14.775991
14.086962
14.565587
13.842583
13.953447
13.808608
12.209415
12.806654
##ZVALUE=255
1.707673
1.551509
1.650453
1.653433
1.853704
2.106428
2.307892
2.021790
2.484918
3.305674
13.149977
34.912825
96.268654
170.916915
301.394463
427.059531
591.584444
672.578812
710.978508
674.417019
591.819882
430.637002
309.072733
179.732442
116.627812
81.647635
78.533888
95.427632
111.794472
127.259493
135.978460
131.347775
120.319724
100.393891
82.153678
55.130720
40.178895
24.151802
20.327568
16.842484
17.106533
17.885566
20.243526
24.044514
24.461746
27.351975
28.507710
30.532479
30.380487
33.190846
34.517646
35.043955
33.379793
35.189986
35.900474
35.445690
35.248995
35.098791
33.394694
32.284856
31.907558
31.442642
30.583739
30.056834
28.227568
27.154684
25.813580
24.637580
24.694800
23.568869
22.981763
22.601485
22.140741
21.186471
22.058487
21.406412
19.559860
19.785762
19.373894
18.125772
17.598867
16.784668
16.149879
15.424490
14.003515
13.830662
13.318658
13.003945
12.483597
11.386871
11.560917
11.782646
11.838675
11.315942
11.595488
10.690689
##ZVALUE=260
1.760721
1.568794
1.594424
1.661777
1.706481
1.794696
1.801848
1.858473
1.749992
2.207756
2.000928
2.503991
6.026626
25.284886
57.877898
142.933726
244.569778
401.886702
545.340776
712.391734
788.657665
796.165466
704.153776
577.585697
387.752652
267.928839
160.164833
104.006529
72.914958
73.047876
90.897679
115.364790
133.551955
142.168999
138.277411
125.189424
111.129880
81.638694
64.628720
43.265820
32.734871
23.572445
21.339655
21.366477
21.837950
23.310781
22.696853
25.485754
25.784969
27.819872
27.419925
27.897954
28.333664
27.928948
28.303862
28.350949
27.344823
26.667714
26.573539
25.640726
25.632977
24.939775
24.224520
23.340583
22.093654
22.446513
21.305680
21.427870
19.416809
19.068718
19.345880
19.444823
18.449426
19.501448
19.221902
17.709732
17.345548
17.307997
16.403794
15.281439
14.413595
13.856888
13.965964
13.382435
12.249947
11.678934
12.212992
10.495782
11.627674
10.555983
10.469556
10.634661
10.502934
9.531975
9.107590
9.520650
##ZVALUE=265
1.512766
1.562834
1.409650
1.793504
1.722574
1.423955
1.443624
1.680851
1.791716
1.792908
2.207756
1.909733
2.009869
2.462864
4.764795
13.194680
50.331950
102.687478
152.583718
363.941789
529.765487
731.609464
849.911571
882.833004
817.570686
660.338998
527.059436
337.395668
229.167938
121.449828
79.877973
63.485503
76.144934
100.751519
120.637417
139.892697
147.508979
139.748454
131.569505
106.938481
87.392926
63.769817
47.123432
31.680465
26.933551
21.557808
21.540523
21.217465
22.123456
22.659898
22.653937
24.418831
23.535490
24.308562
23.422837
22.906661
21.814704
21.876693
21.218657
20.721555
20.457506
19.628406
19.576550
18.547773
17.574430
17.404556
16.621947
17.631650
17.186999
16.386509
16.942620
16.371608
15.772581
16.570687
15.854836
14.519691
15.152693
14.215708
13.955832
13.636947
12.707710
11.744499
11.479855
11.290908
10.279417
10.230541
10.474920
10.011792
9.578466
9.776950
10.026693
9.564757
8.700490
9.270906
8.566976
8.330941
##ZVALUE=270
1.603961
1.668930
1.327991
1.488924
1.573563
1.285672
1.436472
1.348853
1.715422
1.465678
1.615882
1.697540
1.841784
1.972914
2.040863
2.075434
2.422929
8.150935
26.656985
84.782839
165.373683
282.165408
511.230826
691.186786
882.305503
949.418545
926.772952
832.773447
641.607642
484.609604
292.909741
182.236433
107.778907
59.135556
57.127476
79.065561
97.800493
125.509501
141.114593
151.318908
148.811936
133.494735
114.430785
87.973475
67.486763
47.701597
36.130548
25.855899
22.719502
21.062493
20.479560
19.970536
20.765662
20.221472
19.827485
19.536614
19.549727
18.110871
18.894672
17.832518
17.680526
17.022491
16.619563
16.435981
15.842915
15.429854
15.217662
15.024543
14.805794
14.977455
15.187860
14.704466
14.529824
14.842749
14.661551
15.026927
14.140606
13.325810
13.428926
12.616515
11.685491
10.878444
11.269450
10.897517
9.849668
10.513663
9.773970
9.949803
9.211898
9.483695
8.991957
8.883476
9.140968
8.660555
8.413792
8.118749
##ZVALUE=275
1.398921
1.319647
1.342893
1.432896
1.276731
1.318455
1.405478
1.560450
1.550913
1.556873
1.436472
1.354814
1.627803
1.418591
1.660585
1.733899
1.797676
2.263784
2.153516
4.271865
15.152693
44.773817
132.043958
246.993899
465.423465
638.221502
827.664733
942.600965
976.414680
919.466019
822.896957
595.264435
424.948931
226.043463
131.728649
65.352917
47.870874
55.646896
73.916912
100.861788
121.299624
142.028928
150.197744
145.692825
133.530498
109.168887
90.720654
66.152811
50.571561
35.510659
27.889609
21.569729
20.141602
18.962622
18.475652
17.936826
17.553568
16.979575
17.694831
16.684532
16.436577
16.294718
16.204715
15.400648
15.508533
15.102625
14.904737
14.836788
14.242530
14.706850
15.085936
14.372468
14.341474
14.033914
14.769435
14.420748
13.515949
13.398528
12.745857
12.057424
11.728406
10.888577
10.695457
10.951757
10.214448
10.268688
10.019541
9.921789
9.390712
9.554625
9.181499
8.302927
8.835793
8.098483
8.614659
8.576512
##ZVALUE=280
1.357794
1.457930
1.262426
1.441836
1.276731
1.275539
1.400709
1.285672
1.374483
1.194477
1.147985
1.463890
1.602769
1.692772
1.400709
1.468658
1.501441
1.698732
1.925826
1.850724
2.055764
2.724528
11.085868
34.077764
108.312964
202.406645
375.526547
552.985668
774.945617
912.348628
988.978744
969.584584
857.106447
646.710992
469.325781
267.473459
159.888864
75.528622
45.744777
40.840507
53.161979
76.005459
99.193454
123.334527
137.586594
146.835446
140.899420
130.146742
110.614896
85.689425
67.772865
46.941638
34.785867
24.720430
20.031929
17.160773
15.927553
15.400648
15.960932
15.065670
14.799833
14.763474
15.288591
14.060736
14.557838
14.208555
14.236569
13.563633
13.634562
14.015436
13.595819
13.037920
14.019608
14.291406
13.689995
12.990832
13.667941
12.630820
12.617707
11.776686
12.306571
11.251569
11.078715
10.257959
10.297894
10.430813
10.225773
10.013580
9.887815
9.449720
9.122491
8.664727
8.793473
8.550882
9.168983
8.107424
##ZVALUE=285
1.181960
1.248717
1.215935
1.207590
1.296997
1.085997
1.304746
1.319647
1.299977
1.270771
1.316667
1.500845
1.420975
1.375675
1.341701
1.573563
1.559854
1.521707
1.509786
1.760721
1.654625
1.902580
2.168417
2.242923
5.921721
18.787980
62.032938
132.206678
290.185809
447.759628
612.616539
848.335624
979.989767
1015.788913
957.551599
765.441656
592.530966
368.504524
231.979489
110.317469
60.155988
33.566952
35.250783
51.676631
69.688559
96.371770
114.279985
132.875443
142.023563
138.790607
129.924417
107.562542
88.314414
63.115954
48.410892
30.929446
23.002625
17.167926
14.749765
13.649464
13.222694
13.149977
12.562871
13.006926
12.301803
13.158917
12.451410
12.149811
12.521744
12.810826
13.015866
12.619495
12.744665
12.560487
12.454987
12.446642
12.213588
12.019873
12.240410
11.953712
11.472702
10.667443
10.826588
10.905862
10.255575
10.015965
9.822845
9.705424
9.351969
9.482503
9.262562
9.362698
8.986592
8.774996
8.509755
8.063912
##ZVALUE=290
1.346469
1.205802
1.260638
1.256466
1.249909
1.307726
1.186728
1.282692
1.229644
1.290441
1.217723
1.307726
1.407862
1.341701
1.116991
1.386404
1.395941
1.468658
1.584888
1.525879
1.586676
1.639724
2.098680
1.836419
2.081990
2.273917
2.791882
8.513927
38.640499
88.484883
209.562778
354.249477
603.271723
797.592998
998.239517
1015.834808
1008.021832
889.425874
660.942793
486.320853
282.257795
169.637799
75.562596
38.986802
25.638938
31.107664
46.743751
62.597990
87.252855
106.396675
125.761628
134.228468
131.935477
122.972727
103.600621
84.686875
58.257580
43.797493
29.177666
21.641850
14.890432
12.682676
11.131763
10.751486
10.761619
10.304451
10.593534
11.405945
11.001825
10.630488
11.043549
10.896921
11.100769
11.319518
11.390448
11.608601
11.257529
10.830760
10.806918
11.046529
10.392666
10.233521
10.155439
10.529757
10.358691
9.567738
9.590983
9.542704
9.614825
9.191632
9.226799
9.073615
8.957982
8.799434
8.404851
8.559823
##ZVALUE=295
1.167655
0.938773
1.276731
1.055598
1.106858
1.142621
1.094937
1.326799
1.189709
1.209974
1.125932
1.413822
1.345873
1.170635
1.303554
1.291633
1.256466
1.148582
1.344681
1.215935
1.302958
1.561642
1.561642
1.697540
1.979470
1.972914
1.808405
2.075434
2.161860
3.835559
20.376444
60.988665
141.561627
332.457423
524.423718
802.370906
974.006653
1015.788913
1015.788913
973.779559
811.015964
568.025708
384.534597
195.753574
108.902454
44.385791
24.065971
20.560622
27.043819
42.461753
57.651997
80.614686
98.049641
116.894841
124.337673
122.585893
113.404989
93.879700
76.212883
55.516958
40.773749
25.422573
17.778873
12.535453
10.208488
8.834600
8.603930
8.563995
8.533597
8.719563
8.863807
8.913875
9.088516
9.698868
9.988546
9.566545
9.877682
9.634495
9.859800
9.560585
9.248853
9.247661
9.151697
9.229779
8.935928
8.897781
9.167790
8.453727
8.851886
8.935928
8.585453
8.915663
8.423924
8.422732
8.428693
8.052588
##ZVALUE=300
1.044869
1.185536
1.270771
1.014471
1.046658
0.986457
1.207590
1.055598
1.100898
1.320839
1.182556
1.200438
1.371503
1.271963
1.073480
1.254678
1.143813
1.086593
1.097918
1.283884
1.379848
1.410842
1.311898
1.417994
1.607537
1.561642
1.732707
1.637936
1.787543
2.074838
2.206564
2.517700
6.701946
40.834546
103.344917
259.779692
428.258777
694.352984
891.082883
1015.788913
1015.788913
1015.788913
909.508467
665.564537
482.211709
270.100832
158.429742
68.927407
34.810901
16.020536
16.596913
23.831725
33.690929
54.017901
70.060492
93.714595
105.474591
115.696788
115.647912
104.773641
92.818737
72.664618
55.720806
36.904812
25.412440
15.791655
11.241436
8.325577
7.828474
7.586479
7.642508
8.007884
7.838607
8.255839
8.627772
8.195639
8.574724
8.754730
9.140968
8.883476
8.420944
8.756518
8.763671
8.645654
8.914471
8.566976
8.353591
8.351803
8.306503
8.213520
8.198619
8.315444
8.188486
8.022785
7.909536
7.705688
##ZVALUE=305
0.989437
0.991821
1.137853
1.145601
0.879765
1.099706
1.065731
1.168847
1.207590
1.056790
1.023412
1.003742
1.155734
1.275539
1.030564
1.236796
1.248717
1.277924
1.113415
1.340508
1.446605
1.362562
1.374483
1.444817
1.366735
1.558661
1.712441
1.501441
1.558661
1.774430
1.759529
1.828671
2.022982
2.398491
4.055500
23.389459
67.403913
192.627907
341.435671
600.944757
805.684924
1013.993621
1015.788913
1015.788913
996.274948
765.359998
583.030581
365.490913
225.687623
100.318789
49.539804
18.368959
12.527704
15.477538
20.926595
34.892559
47.926903
68.799853
84.549785
101.902485
107.653737
108.342767
102.907419
86.100698
72.014928
50.677657
37.368536
23.559928
16.147494
10.723472
8.780956
7.896423
7.458925
7.475615
7.580519
8.060932
8.227825
8.163452
8.118749
8.036494
8.423924
8.142591
8.353591
8.644462
8.520484
8.611679
8.522868
8.312464
8.386970
8.603930
8.124709
8.154511
7.852912
7.903576
7.823706
7.920861
##ZVALUE=310
1.139641
1.098514
1.052618
0.954866
1.038909
1.019835
0.986457
0.949502
1.064539
1.028776
1.108646
0.996590
1.142621
1.105666
1.124740
1.104474
1.242757
1.244545
1.204610
1.221895
1.283884
1.199841
1.272559
1.491904
1.327991
1.244545
1.428723
1.472831
1.547933
1.575947
1.493692
1.644492
1.784563
1.817942
1.967549
2.283454
2.600551
10.117888
34.000874
115.233660
226.849914
455.449820
662.454963
932.005644
1015.788913
1015.788913
1015.788913
899.672508
720.561743
471.608639
309.074521
153.326988
82.251430
30.161738
14.046431
10.732412
12.984872
19.409657
28.419495
44.029951
58.473945
78.040957
91.033578
101.612806
103.525519
96.042752
85.251927
68.001747
52.912831
35.152435
25.256872
16.752481
12.369752
9.192824
8.483529
8.089542
7.900000
7.608533
8.161664
8.243918
7.680655
8.047819
8.212924
8.046627
8.217692
8.419752
8.498430
8.219481
8.241534
8.370876
8.370876
8.213520
8.463860
8.016825
7.926822
7.761717
##ZVALUE=315
0.827909
0.958443
0.948906
0.936985
0.847578
0.988841
0.989437
1.201630
1.138449
1.082420
0.992417
1.082420
1.095533
0.973940
1.038909
0.988841
1.065731
0.988841
1.067519
1.032948
1.116991
0.922680
1.129508
1.136661
1.269579
1.355410
1.369715
1.276731
1.337528
1.339912
1.487732
1.454949
1.544952
1.491904
1.779795
1.771450
1.797676
2.097487
1.909733
5.325675
18.165708
72.051883
155.585408
344.641805
540.129542
825.488567
988.449454
1015.788913
1015.788913
977.512002
814.629793
569.748878
393.405557
204.364657
111.033916
40.572882
18.056631
9.150505
9.135604
12.364984
17.035604
27.777553
38.782954
55.976510
70.561767
86.498857
94.542503
96.973777
92.685819
78.690648
65.126419
49.056411
36.749840
24.204850
17.060637
11.780858
9.190440
8.301735
7.811785
8.059740
7.906556
8.131862
8.242726
8.015633
8.102655
8.407831
7.953644
8.403659
8.279681
8.254647
8.446574
8.362532
8.262992
8.022785
7.960796
7.941723
##ZVALUE=320
0.968575
0.856519
0.911951
0.889897
0.846982
0.864863
0.935793
1.157522
0.967979
0.869632
1.011491
0.949502
1.012683
1.118779
0.906587
1.084805
1.057982
0.990629
0.923872
0.991821
1.104474
0.986457
1.164675
1.053810
1.138449
1.323819
1.205802
1.083612
1.161695
1.129508
1.268983
1.355410
1.617670
1.320839
1.708865
1.552701
1.514554
1.715422
1.955628
1.822710
1.810789
2.775788
8.888841
43.565631
100.343823
242.806673
396.966934
642.234683
821.560621
1006.537676
1015.788913
1015.636921
905.467868
677.514672
482.508540
263.167620
145.527720
58.848858
27.453899
10.864735
8.379817
8.911490
10.704994
15.741587
23.474693
37.614703
49.231648
66.644549
79.214573
89.509487
92.546940
87.123513
77.682734
61.752796
48.611760
33.431649
24.895668
16.219616
12.093782
9.480715
9.019971
8.100867
7.991791
8.442998
8.103848
8.326769
8.456707
8.070469
8.208752
8.365512
7.983446
8.163452
8.155704
8.010864
7.888675
7.969737
##ZVALUE=325
0.949502
0.917912
0.929832
0.880957
0.892878
0.999570
0.969768
1.117587
0.927448
0.928640
0.958443
0.976920
0.988841
0.896454
1.082420
1.036525
0.982881
1.069903
0.885725
1.028776
1.072884
0.984669
0.933409
1.053810
1.010895
1.119971
1.018643
1.065731
1.018643
1.127720
1.271963
1.247525
1.272559
1.205802
1.241565
1.268983
1.441836
1.488924
1.514554
1.615882
1.616478
1.747608
1.885891
2.304912
4.696846
27.871728
68.173409
161.310434
279.874802
499.093533
673.208833
881.905556
981.778502
1002.375484
920.015574
718.106627
539.556742
327.333808
195.898414
84.508657
40.041804
14.195442
8.522868
7.654428
8.394718
10.843873
14.530420
23.869872
33.703446
50.006509
62.536001
76.779723
83.349943
84.720850
81.511736
69.522858
58.413744
43.570995
33.468604
21.638870
16.067624
11.631846
9.858608
8.599758
8.466840
7.924438
7.953644
8.023977
7.999539
7.924438
7.741451
7.976890
7.939935
7.743835
7.745624
7.877946
##ZVALUE=330
0.800490
0.803471
0.919700
0.916719
0.834465
0.791550
0.892878
0.894666
0.854731
1.023412
0.966787
0.740886
0.952482
0.966787
0.889897
0.885725
0.921488
0.892878
0.965595
0.966787
0.928640
1.006722
1.029968
1.066923
1.045465
1.009703
1.000762
1.222491
1.127720
1.172423
1.251698
1.107454
1.177788
1.132488
1.037717
1.342893
1.186728
1.135468
1.197457
1.517534
1.501441
1.582503
1.561642
1.636744
1.904964
1.987815
2.746582
12.486577
37.791729
112.026930
203.047991
385.891795
546.298623
771.217942
904.371738
976.948738
939.160585
780.574679
616.379976
390.788913
250.044465
117.052794
58.738589
21.489859
10.289550
7.294416
7.311702
8.292794
9.897947
15.536547
21.336675
33.170581
44.033527
59.947968
70.628524
79.110861
79.111457
74.808002
67.193508
52.981973
41.385889
28.890967
21.991730
15.613437
12.239814
9.334683
8.403659
7.941723
7.592440
8.096695
7.545948
7.616878
7.554889
7.619858
7.360578
7.449985
##ZVALUE=335
0.920892
0.988841
0.909567
0.891685
0.888705
0.988841
0.969768
0.847578
0.970960
0.747442
0.745654
1.011491
1.004934
0.906587
0.828505
0.938773
0.893474
1.101494
1.149774
1.011491
0.849962
0.878572
1.017451
1.102686
0.948906
1.091957
1.073480
1.172423
1.184940
1.082420
0.989437
1.275539
1.136661
1.032948
1.136661
1.075864
1.248717
1.090765
1.449585
1.389980
1.268983
1.412630
1.343489
1.419783
1.430511
1.615882
1.614690
1.849532
1.934767
6.176829
20.616651
72.168708
141.937733
295.889974
452.552438
681.667924
826.995969
933.851004
937.304497
827.831626
685.963631
464.795828
313.256979
162.091851
85.392594
29.523969
13.342500
7.725954
7.054806
7.290840
8.000731
10.473728
13.566613
22.240877
31.041503
44.225454
54.563880
66.178441
72.758794
74.509978
70.455670
60.624480
51.800609
39.946437
30.938983
21.156669
15.894771
11.637807
9.405613
8.090734
7.794499
7.370710
7.261634
7.181764
6.956458
7.384419
##ZVALUE=340
0.837445
0.891685
0.826716
0.813603
0.869632
0.949502
0.910759
0.863671
0.834465
0.883937
0.899434
0.828505
0.959635
0.834465
0.728965
1.013875
1.013875
0.943542
1.057982
0.900626
0.810623
0.951886
0.919700
1.059771
0.779629
0.983477
0.906587
0.991821
1.018643
1.133680
0.896454
1.020432
1.080632
0.993609
0.971556
1.092553
1.092553
1.079440
1.023412
1.131892
1.164675
1.224875
1.203418
1.086593
1.357794
1.302958
1.349449
1.629591
1.570582
1.772642
2.091527
3.184676
10.778904
46.766996
103.691816
235.511661
378.623009
585.841537
738.336444
886.431932
927.589536
858.913660
741.081834
547.259450
385.779738
204.774737
112.581849
41.761994
17.520785
8.118749
6.951690
6.670952
6.781816
7.855892
9.620786
13.849735
19.890666
29.645562
39.007664
52.756667
60.313940
68.001747
68.875551
65.375566
58.937669
48.038960
39.170980
28.004646
21.451712
15.563965
11.058450
9.138584
7.798672
7.078648
7.021427
6.968975
##ZVALUE=345
0.745654
0.841618
0.896454
0.886917
0.923872
0.897646
0.866652
0.845790
0.806451
0.899434
0.803471
0.810623
0.778437
0.772476
0.859499
0.841618
0.982881
0.902414
1.022816
1.016855
0.861883
1.014471
0.821948
0.975728
1.020432
0.951886
0.947714
0.867844
0.983477
0.968575
1.042485
1.041889
0.957847
0.938773
0.885725
1.101494
1.159906
1.098514
1.015663
1.231432
1.009703
1.143813
1.073480
1.158714
1.303554
1.212955
1.195669
1.255870
1.089573
1.486540
1.499653
1.352429
1.637936
1.979470
4.965663
27.283430
68.014860
163.544416
278.340578
474.730730
630.055666
808.408856
886.296630
885.718465
801.661015
611.453652
451.021791
263.215899
149.737597
58.984756
26.427507
10.207891
6.976724
6.471872
6.584525
6.294847
6.826520
8.565784
11.435747
18.715858
25.538802
37.278533
46.096444
55.267811
61.503649
63.466430
61.885715
55.219531
47.326684
37.128925
29.081702
19.930601
14.696717
10.393858
8.550882
7.146597
##ZVALUE=350
0.743866
0.827909
0.696778
0.868440
0.878572
0.825524
0.958443
0.835657
0.844598
0.807643
0.676513
0.962615
0.794530
0.973940
0.939965
0.880957
0.819564
0.866652
0.888705
0.928640
0.687838
0.791550
0.992417
0.845790
0.903606
0.825524
0.904799
0.954866
1.006722
1.075864
1.014471
0.891685
0.971556
0.882745
0.985861
1.049638
1.123548
1.063943
0.990629
1.154542
1.141429
1.067519
1.187921
1.159906
1.084805
1.212955
1.204610
1.180768
1.390576
1.181960
1.327991
1.467466
1.530647
1.698732
1.644492
1.972914
2.884865
14.113784
40.931702
114.419460
206.943750
379.326940
531.896949
716.584921
824.471712
874.703526
825.171471
676.604509
521.210432
310.061574
188.159943
84.600449
40.207505
12.153983
7.110834
6.335974
5.877614
5.619526
5.790591
6.142855
7.723570
11.445880
15.956759
23.657680
30.710697
40.990710
48.756599
55.527687
57.715774
56.658983
51.713586
43.124557
36.060810
27.148724
20.820498
14.064908
##ZVALUE=355
0.804663
0.828505
0.861883
0.804663
0.795722
0.899434
0.911951
0.876784
0.775456
0.899434
0.945926
0.920892
0.864863
0.879765
0.896454
0.951886
0.809431
0.890493
0.874996
0.963807
0.887513
0.875592
0.922680
0.807643
0.953674
1.009703
1.120567
0.927448
0.878572
0.964999
0.770688
1.074672
1.015663
1.025796
1.144409
0.897646
0.911951
0.983477
1.044869
1.087785
0.980496
1.051426
1.103878
1.245737
1.189709
1.115799
1.094937
1.055598
1.212955
1.311898
1.184940
1.295805
1.405478
1.368523
1.447797
1.625419
1.595616
1.745820
2.007484
6.809831
23.614764
78.999996
149.100423
289.386511
432.728529
631.615520
757.733583
850.559473
832.929015
707.197785
567.799807
369.949937
231.296420
100.451708
47.925711
15.243888
7.596612
5.495548
5.550981
5.236864
5.086660
5.389452
5.591512
7.254481
9.346604
14.343858
19.194484
26.756525
34.494996
43.728948
49.171448
52.805543
51.729679
48.069954
41.970611
33.798814
##ZVALUE=360
0.846982
0.885725
0.863671
0.916719
0.841618
0.940561
0.858903
0.876784
0.873804
0.807643
0.798702
0.819564
0.860691
0.914931
0.687838
0.894666
0.945926
0.840425
0.720620
0.862479
0.798702
1.020432
0.842810
0.884533
0.846982
0.889897
0.993609
0.827909
0.860691
0.965595
0.899434
0.840425
0.877976
0.974536
0.818968
1.021624
1.131892
1.096725
1.125932
1.000762
1.080632
1.104474
1.008511
0.993609
0.988841
1.096725
0.984669
1.102686
1.162887
1.240969
1.227856
1.050830
1.333952
1.238585
1.392961
1.393557
1.457930
1.501441
1.581907
1.734495
1.882911
3.533959
10.835528
42.970777
94.525814
216.709971
342.566967
528.432727
671.861768
797.683001
821.813941
750.777721
631.750822
426.711440
283.878446
138.512850
71.900487
25.733709
10.843873
5.809665
5.362630
4.897714
4.363656
4.667640
4.628897
5.165935
6.062984
8.116961
10.597706
16.222596
21.635890
30.846596
37.050843
42.897463
46.204925
46.622753
##ZVALUE=365
0.737906
0.885725
0.778437
0.927448
0.866652
0.848770
0.948906
0.759959
0.695586
0.880957
0.821948
0.692606
0.845790
0.928640
0.859499
0.809431
0.840425
0.754595
0.793934
0.835657
0.741482
0.779629
0.948906
0.791550
0.743866
0.744462
0.832677
0.900626
0.900626
0.993609
0.892878
0.938773
0.806451
0.988841
0.963807
0.934601
0.920892
1.055598
0.982881
0.910759
1.178980
0.970960
0.925660
1.087785
1.010895
1.054406
0.898838
1.183748
0.903606
1.216531
1.270771
1.049638
1.217723
1.233816
1.189709
1.135468
1.279712
1.276731
1.368523
1.555681
1.587868
1.685619
1.674891
2.176762
4.530549
23.775697
60.621500
153.481960
262.685418
439.268947
586.313009
733.632445
794.221759
766.948462
670.561790
487.434864
344.291925
188.946724
103.246570
37.852526
15.582442
6.216764
5.354881
4.583597
4.460812
4.557967
4.237890
4.252791
4.414916
5.112886
6.408691
9.544492
12.834668
19.148588
25.032759
32.183528
##ZVALUE=370
0.849962
0.914931
0.981688
0.957847
0.936985
0.979900
0.819564
0.819564
0.760555
0.841618
0.838637
0.803471
0.753999
0.853539
0.914931
0.874996
0.846982
0.703931
0.802875
0.783801
0.896454
0.863671
0.944734
0.785589
0.833869
0.929832
0.928640
0.906587
1.036525
0.846982
0.971556
0.958443
0.997782
1.052618
1.065731
0.978708
1.037717
0.898838
0.890493
0.820756
0.872612
0.917912
0.884533
1.037717
1.085997
0.926852
1.128912
0.971556
0.971556
1.129508
1.099706
1.301765
0.994802
1.089573
1.160502
1.131892
1.173615
1.129508
1.295805
1.313686
1.359582
1.425743
1.391768
1.553893
1.675487
1.765490
2.685785
13.088584
39.535761
112.258792
199.924707
361.046791
504.898429
684.945583
766.307712
780.413747
708.657503
551.373959
404.995680
223.077536
124.430656
49.250722
22.479892
8.247495
5.050898
4.679561
4.488826
4.109740
4.213452
3.988743
3.962517
4.032850
4.440546
5.874634
7.779598
11.683702
##ZVALUE=375
0.622869
0.770688
0.852942
0.805855
0.687838
0.825524
0.657439
0.799894
0.921488
0.803471
0.886917
0.816584
0.729561
0.823736
0.850558
0.690818
0.687838
0.862479
0.806451
0.820756
0.772476
0.780821
0.746846
0.944734
0.933409
0.860691
0.937581
0.929832
0.888705
0.853539
1.072884
0.970960
0.906587
0.951886
0.922680
0.907779
0.869632
1.057982
1.040697
1.017451
1.028776
0.993609
0.952482
0.905991
0.905991
0.930429
0.950694
1.013875
0.994802
0.965595
0.999570
1.013875
0.889897
1.012683
1.071692
1.203418
1.162887
1.065731
1.065731
1.104474
1.164675
1.064539
1.212955
1.295805
1.274943
1.355410
1.490712
1.645684
1.953840
6.985664
22.350550
71.187615
140.578747
292.765498
433.251858
623.403788
728.369951
789.551735
762.035847
623.520017
477.662683
289.785862
182.134509
88.766813
43.688416
14.216900
6.475449
4.526973
4.256964
3.907681
3.908873
3.805757
3.950596
3.502965
3.862977
4.340410
##ZVALUE=380
0.764728
0.739694
0.797510
1.018643
0.775456
0.816584
0.680685
0.744462
0.812411
0.544786
0.840425
0.666976
0.646710
0.806451
0.787973
0.798702
0.766516
0.945926
0.857711
0.901818
0.807643
0.772476
0.799894
0.865459
0.775456
0.854731
0.764728
0.858903
0.843406
0.998974
1.043677
0.979900
1.033545
0.819564
0.959635
1.047850
0.956655
0.978708
0.871420
0.962615
1.034737
0.895858
0.886917
0.882745
1.012683
0.840425
0.843406
1.049638
0.936985
0.987649
1.169443
1.026988
0.996590
0.952482
0.941753
1.149774
1.027584
0.932813
1.062751
1.183748
1.061559
0.960827
1.180768
1.209974
1.263618
1.341701
1.292825
1.510978
1.648664
1.815557
1.946688
3.619790
12.997985
52.156448
110.721588
239.901543
370.238423
549.629927
677.974820
776.475668
769.665837
658.628941
538.671613
371.154547
246.350765
120.185614
61.540604
21.638870
9.161830
4.637837
4.002452
3.709793
3.944635
3.770590
3.587604
3.618598
##ZVALUE=385
0.736713
0.825524
0.854731
0.760555
0.849962
0.731945
0.828505
0.870824
0.702739
0.814795
0.757575
0.703931
0.746846
0.703931
0.742674
0.867844
0.742674
0.785589
0.842810
0.841618
0.684857
0.745654
0.714660
0.875592
0.865459
0.910759
0.861883
1.077652
0.918508
0.989437
1.035929
1.088977
1.138449
0.991821
1.059771
0.986457
1.026988
1.133680
1.127720
1.032948
1.069903
0.973940
1.123548
0.997782
1.050830
1.048446
1.108646
1.099706
1.169443
1.001954
0.963807
0.972748
0.984669
1.062751
1.174808
1.132488
0.998974
1.024604
1.123548
1.141429
1.037717
1.311898
0.960827
1.142621
1.041889
1.179576
1.327991
1.378655
1.262426
1.496673
1.654625
1.728535
1.868606
2.177954
7.495880
23.684502
77.276826
158.203840
334.628820
500.544906
703.163743
814.215541
845.968723
801.563859
647.580028
501.177907
305.755734
193.104744
86.434484
42.039752
14.253855
6.054640
3.906488
3.762841
3.611445
3.639460
##ZVALUE=390
0.717640
0.668764
0.792742
0.824928
0.898838
0.736713
0.741482
0.602603
0.743866
0.872612
0.753999
0.737906
0.688434
0.740886
0.848770
0.743866
0.785589
0.753999
0.687838
0.777841
0.814795
0.701547
0.879765
0.756979
0.837445
0.866652
0.968575
0.967979
1.014471
1.038909
1.025796
0.968575
1.257658
1.131892
1.109838
1.275539
1.272559
1.206994
1.218915
1.176596
1.149774
1.176596
1.202822
1.027584
1.104474
1.186728
1.223683
1.123548
1.110435
0.971556
1.194477
1.321435
1.193881
1.044869
1.157522
1.047850
1.223683
0.835657
1.147985
1.191497
1.019835
1.086593
1.139641
1.116991
1.077652
1.185536
1.051426
1.225471
1.454949
1.354814
1.608729
1.506805
1.603961
1.629591
1.645684
1.801848
3.411770
16.984940
47.216415
132.392645
243.787766
450.757742
612.882972
780.875683
843.702555
822.141767
761.369467
576.056838
430.958867
256.687403
148.651600
59.266686
26.179552
7.903576
4.583597
3.851652
##ZVALUE=395
0.558496
0.715852
0.588894
0.489950
0.634789
0.604987
0.636578
0.581741
0.526905
0.518560
0.450611
0.656843
0.501871
0.559688
0.433922
0.384450
0.577569
0.639558
0.469685
0.645518
0.657439
0.587702
0.592470
0.490546
0.685453
0.687838
0.669956
0.716448
0.864863
0.710487
0.831485
0.914931
0.854731
0.972748
1.061559
0.953674
0.911951
0.985861
0.961423
1.024604
1.019835
1.059771
0.957847
0.877976
0.968575
0.826716
0.986457
0.964999
0.956655
0.856519
0.759959
0.812411
0.919700
0.866652
0.942945
0.827909
0.873804
0.913739
0.893474
0.956655
0.850558
0.901818
0.882745
0.864863
1.032948
1.096725
1.165867
0.954866
1.046658
1.153946
1.167655
1.226664
1.280904
1.028776
1.166463
1.361966
1.324415
1.450777
1.795888
9.405613
30.988455
94.490647
174.798965
332.564712
469.907522
646.257997
748.446584
803.840756
772.184730
642.373562
498.654842
305.278897
191.587806
90.095997
42.933822
13.982654
##ZVALUE=400
0.988841
0.772476
0.879765
0.749826
0.755787
0.614524
0.776649
0.650883
0.795722
0.780821
0.746846
0.720620
0.790954
0.850558
0.842810
0.748634
0.885725
0.881553
0.678897
0.656843
0.850558
0.742674
0.734925
0.670552
0.949502
0.864863
0.875592
1.003742
1.066923
0.983477
1.076460
1.019835
1.087785
1.131892
1.191497
1.275539
1.181960
1.041889
1.097918
1.015663
1.156926
1.139641
1.186728
0.962615
1.225471
1.176000
1.154542
1.256466
1.110435
1.064539
1.140833
1.153946
1.089573
1.061559
1.210570
1.091957
1.141429
1.121759
1.199841
1.246929
1.149774
1.171827
1.203418
1.131892
1.408458
1.145601
1.294613
1.258850
1.258850
1.405478
1.411438
1.325607
1.378655
1.497865
1.308918
1.290441
1.366735
1.609921
1.562834
1.631975
1.803637
5.538464
18.698573
63.380599
124.051571
253.545642
378.328562
540.733933
662.076473
761.913657
761.488676
663.774610
547.308922
377.886891
250.471830
126.687884
##END
