##TITLE=FDDW1
##FORMAT=SPECTACLE-ASCII V-1.2
##DATA TYPE=ULTRAVIOLET SPECTRUM
##SECOND TYPE=ULTRAVIOLET SPECTRUM
##DATE=11/28/17
##TIME=13:05:38
##SPECTROMETER/DATA SYSTEM=SPECTACLE
##XUNITS=NM EM
##YUNITS=ENERGY
##YFACTOR=1
##FIRSTX=220
##LASTX=410
##NPOINTS=96
##3DDATA=Equidistant
##ZUNITS=NM EX
##FIRSTZ=210
##LASTZ=400
##ZPOINTS=39
##XYDATA=(Y..Y)
##ZVALUE=210
13.750792
13.559461
10.744929
11.159778
9.913445
9.733438
8.972883
8.827448
7.492900
5.675554
4.408956
3.870726
3.224611
3.006458
2.930760
3.014803
3.219843
3.117919
3.490448
3.551841
3.484488
3.821850
3.753901
4.036427
4.460812
5.080700
6.248951
5.867481
6.298423
6.312728
7.397532
8.375645
8.621812
9.131432
9.594560
9.185672
9.640455
8.919835
9.043813
8.889437
9.246469
8.963943
9.962916
9.410977
9.139776
9.482503
8.792877
9.606481
9.900928
10.033846
9.022951
9.516478
9.620786
9.969473
9.215474
8.371472
8.985996
9.374619
8.942485
9.733438
8.708835
9.440780
8.741617
8.878708
8.982420
8.211732
9.070635
10.119677
10.619760
10.664463
11.799932
13.350844
13.034940
15.802979
15.646815
17.072558
17.058849
17.905831
15.471578
15.417933
14.511943
13.307929
12.734532
10.498762
9.689927
7.772446
8.174777
7.264614
7.127523
7.669926
10.400414
12.538433
15.838742
18.024445
21.664500
26.376843
##ZVALUE=215
33.002496
34.840703
27.824640
22.162795
19.585490
16.095638
14.993548
14.028549
15.260577
12.220740
11.043549
9.642839
7.437468
4.782677
4.557967
3.927946
2.988577
3.666878
3.709793
3.887415
3.750920
3.371835
3.789663
4.357696
5.022883
5.645752
6.423593
6.619692
7.854700
8.374453
8.413792
10.853410
10.412931
10.214448
11.472702
10.784864
11.578798
12.362599
10.134578
10.851622
11.660457
10.875463
11.263490
10.948777
9.720922
11.342764
10.060668
10.162592
10.420680
10.194778
10.328889
11.566877
10.733604
10.173917
10.519624
10.243654
10.144711
9.779930
10.843873
10.057688
10.594726
9.843707
9.259582
8.952618
9.592772
10.279417
9.565949
10.141730
11.025667
12.587905
12.009740
12.526512
13.268590
13.610721
14.595985
14.579892
16.411543
14.775991
14.584661
14.214516
14.161468
13.001561
11.596680
10.795593
8.645654
9.625554
8.880496
6.547570
6.873608
7.363558
7.100701
6.779432
7.365942
7.046461
8.962750
11.277795
##ZVALUE=220
70.433617
70.255995
68.712831
63.399673
56.216717
42.091608
33.923984
27.496815
23.424625
22.848845
24.889708
25.402904
20.486712
17.264485
13.780594
10.147691
7.103682
6.165504
4.668832
4.145503
4.077554
4.595518
5.076528
5.086660
5.210638
5.657673
6.529689
7.680655
7.642508
9.132624
9.848475
11.891723
10.925531
11.863708
12.436509
13.025999
13.603568
11.882782
13.372898
11.956692
12.301803
11.935830
12.465715
11.569858
12.538433
11.505485
11.855960
11.213422
12.453794
10.936856
11.664629
10.971427
10.931492
11.622906
11.823773
10.570884
11.037588
11.329651
11.419654
11.164546
11.392832
10.541677
11.347532
10.233521
10.583997
10.902882
10.916591
10.495782
11.124611
12.365580
11.639595
13.951659
14.369488
16.852617
15.739799
15.759468
15.466809
16.231537
16.102791
15.318990
13.646483
12.428761
11.970997
10.739565
10.609627
9.726882
9.451509
9.258986
7.916689
9.647608
7.876754
8.574724
6.809831
8.274913
8.111000
7.108450
##ZVALUE=225
78.731775
82.238913
102.641582
116.217732
122.044683
113.094449
97.645521
72.110891
53.059459
44.590831
37.586689
33.042431
36.608577
37.865639
33.899546
31.753778
26.350617
21.615624
13.803840
10.186434
7.680655
6.168485
5.409718
5.058646
4.871488
5.740523
6.564856
7.575750
8.100867
9.713769
9.508729
10.335445
10.522604
10.460615
11.445880
12.118816
12.155771
12.048483
13.424754
13.217926
13.488531
13.609529
12.978911
13.413429
14.241934
14.339685
12.369752
13.498664
13.300776
14.547706
12.532473
14.417768
13.965964
14.043450
13.543963
13.529658
14.119744
13.708472
14.592409
13.420582
14.382601
13.924837
13.789535
12.902617
11.862516
13.385415
13.167858
13.914704
12.852550
15.029907
15.542507
15.012622
16.657710
18.404722
17.136931
17.583966
18.636584
17.530918
16.759634
15.313625
15.404820
14.010668
13.440847
12.559891
11.431575
10.194778
10.630488
9.288788
10.838509
9.644628
8.816719
9.486675
10.141730
7.941723
10.315776
7.888675
##ZVALUE=230
49.900413
55.406690
83.606839
132.788420
165.650845
195.636749
211.291909
194.794536
172.760487
141.763687
100.128651
67.466497
51.736832
49.272776
53.054690
56.469440
54.241419
53.043962
48.366785
39.191842
29.459000
20.832419
13.049841
8.407831
7.274747
5.310774
6.241798
6.682873
7.083416
7.525682
8.442998
8.042455
8.025765
8.945465
8.964539
10.057688
10.304451
11.615753
12.756586
12.882948
12.148619
13.475418
13.786554
14.934540
14.374852
16.038418
15.577674
16.522408
16.330481
18.714666
17.464757
18.242598
18.033981
17.563701
18.294454
18.005967
18.603802
18.984675
17.558932
18.303990
17.872453
18.053651
17.357469
18.442869
19.197464
18.606782
18.434525
18.260479
18.999577
21.525621
20.924807
20.436645
21.788478
21.717548
21.748543
23.271441
20.627975
21.692514
21.781921
19.711852
19.794703
18.913746
17.384887
15.518665
14.229417
13.650656
14.640689
13.749599
13.432503
13.202429
13.138652
12.539625
12.288690
11.275411
11.335611
11.261702
##ZVALUE=235
12.785792
14.556646
40.477514
70.784688
124.642849
180.365443
260.758996
306.857824
343.349576
331.290960
282.047987
227.845907
175.836682
115.886927
88.728666
70.889592
72.840452
77.463984
85.095763
80.372691
75.985789
68.676472
50.304532
38.899779
24.356842
16.820431
10.718703
8.262992
7.672906
7.374883
6.651878
7.487535
7.512569
8.140802
8.656979
9.377599
9.245872
10.457635
11.242628
12.506843
14.586449
15.600920
16.347766
17.242432
17.650723
18.943548
21.294951
21.956563
21.943450
24.658442
24.224520
25.253892
25.275946
27.067661
27.032495
26.788712
26.580691
26.372671
27.367473
26.650429
25.820732
24.528503
26.849508
26.629567
25.914907
23.926497
26.706457
26.791692
26.608706
26.143789
27.426481
27.175546
28.754473
27.889609
29.259920
28.259754
26.412606
26.310682
26.395917
27.234554
21.639466
23.117661
19.914508
21.050572
19.988418
18.493533
18.309951
16.479492
16.771555
16.726851
15.334487
17.514825
15.104413
14.130473
14.084578
13.780594
##ZVALUE=240
2.703667
2.524853
6.080866
16.892552
34.474730
83.635449
139.190555
249.375701
342.952013
420.738459
499.479771
496.037006
440.242887
366.397500
261.333585
189.754963
113.306642
93.627572
87.555647
91.381669
106.661916
110.890865
107.042789
95.326900
81.166625
59.793591
45.946836
30.938983
20.923615
13.038516
9.692907
8.479953
8.217692
9.009838
8.879900
8.980632
10.682940
11.125803
11.405945
14.137626
16.391873
16.985536
19.783974
22.938848
24.164915
27.502775
29.175878
29.512644
31.938553
33.634901
33.758879
35.242438
35.420656
37.147999
36.107898
36.289692
36.143661
37.672520
35.776496
33.645630
34.394860
37.002563
33.850670
34.985542
34.008622
33.596754
33.881664
31.718612
34.208894
32.727718
32.731891
33.752918
33.026934
33.950806
32.502413
34.362674
34.498572
32.160878
31.055808
28.070807
26.826859
27.270913
24.296641
23.449659
23.613572
21.211505
21.429658
22.083521
20.235777
18.614531
18.532872
17.610788
18.099546
17.347932
16.608834
15.732646
##ZVALUE=245
2.511740
2.600551
2.306700
2.327561
4.502535
10.074973
30.141473
64.497590
148.782730
236.904621
376.835465
480.214953
546.081662
581.252575
551.708937
453.909636
364.553928
251.563787
170.632005
108.274817
92.005730
88.180900
101.660490
117.346644
120.792985
118.894577
107.280612
88.467598
66.610575
52.802563
35.372972
22.818446
14.866590
10.902882
10.101795
9.556413
11.384487
11.399984
13.142824
15.977621
17.746687
19.576550
21.018982
24.340749
26.649833
30.102730
30.970573
33.041835
36.134720
37.556887
38.722754
41.294694
41.550994
41.055679
39.402843
42.133927
40.417910
40.351748
39.715767
38.000941
37.456751
37.754774
37.105680
35.802722
37.265420
34.628510
34.510493
33.851862
33.629537
31.767488
31.446815
33.321977
32.905936
30.140877
31.071901
30.151606
29.074550
29.760599
27.973652
26.689768
25.630593
23.372769
22.315979
23.930669
19.952655
20.758510
20.118952
18.650889
19.610524
18.166900
15.782714
15.001893
16.180873
14.858842
15.768409
14.704466
##ZVALUE=250
1.962781
1.962781
2.396703
2.577901
2.493858
1.959801
2.705455
5.836487
23.864508
52.985549
132.083893
224.561691
330.876708
484.804511
582.699776
652.094483
633.997917
570.830703
482.950807
331.726670
226.354003
147.101879
92.089772
81.955791
94.602704
108.112693
123.466849
127.860904
122.720003
113.132596
98.247528
73.281527
56.620836
36.621690
24.872422
17.107725
12.741685
11.834502
13.050437
15.875697
17.641783
20.259619
21.556616
24.636984
27.085543
30.102730
32.656789
33.600926
34.802556
37.779808
38.431883
40.140748
40.222406
41.333437
41.041970
40.509701
40.699840
39.380789
40.208697
39.464831
36.746860
35.062432
35.935640
35.252571
34.129620
31.843781
31.367540
30.252934
31.168461
30.739903
29.626489
27.213693
28.514862
27.155876
25.352836
25.945902
23.925900
24.054646
22.996664
21.278858
19.932985
20.971894
18.688440
18.610954
17.182827
16.044974
16.293526
15.326738
14.594793
14.408827
14.204979
13.683438
13.788939
14.002919
13.428926
12.424588
##ZVALUE=255
1.762509
1.839995
1.688600
1.790524
2.013445
2.137423
2.107620
2.206564
2.120733
3.752708
14.769435
40.200949
105.404854
185.216665
318.128467
447.564721
612.714887
693.247914
727.027655
687.132478
589.345694
424.473882
297.370553
176.141858
112.112761
75.570941
77.423453
91.296434
111.351609
125.821829
135.724545
131.625533
121.329427
98.225474
79.854727
55.782795
40.790439
26.346445
20.759702
17.486811
16.348958
18.790960
19.983649
22.350550
25.057793
26.648641
28.608441
29.699802
32.113791
33.917427
34.029484
35.415888
35.812855
35.849810
36.460757
36.995411
35.833716
35.054684
33.360720
34.245849
32.807589
30.562878
30.469894
27.871728
27.834773
27.949810
25.026798
26.111603
25.334954
25.017858
23.507476
24.231672
23.497939
21.804571
21.899939
20.545721
20.082593
19.460917
18.881559
17.592907
17.164946
16.236901
14.792681
14.981627
14.483929
13.731718
13.252497
13.403893
12.543797
12.540817
11.100769
12.847781
11.946559
11.382699
10.827780
10.917783
##ZVALUE=260
1.842976
1.861453
1.585484
1.785755
1.711845
1.771450
1.739860
2.099872
1.984835
1.966953
2.121925
2.734661
7.312894
28.033853
65.223575
161.692500
266.421437
430.516601
569.182634
724.788904
790.999532
794.162750
683.532953
551.423430
367.639661
250.162482
143.677592
94.558597
71.411729
74.241757
90.970993
115.582943
134.297609
142.067671
143.512487
125.036836
109.041929
82.711577
64.640641
42.247772
32.935739
23.893714
21.023750
20.719767
21.406412
22.824407
24.346709
26.545525
27.065873
27.812719
27.697682
29.691458
29.016733
30.165911
29.777884
27.840734
28.170943
27.180910
26.827455
25.919676
25.952458
24.778843
24.495721
23.824573
22.923946
22.472739
21.770000
20.880699
20.270944
19.149780
19.479990
18.965602
19.478798
18.079877
18.488765
17.440915
16.883612
16.860962
16.059875
14.920831
14.357567
13.035536
13.104677
12.268424
12.788773
12.179613
11.871457
10.954738
10.888577
10.695457
9.713769
10.457635
9.518862
10.241866
9.796619
9.765625
##ZVALUE=265
1.415610
1.709461
1.466870
1.383424
1.874566
1.574755
1.485944
1.967549
1.811981
1.864433
2.107620
1.963973
2.049804
2.503991
4.778504
17.128587
60.385466
120.405555
248.079896
396.098495
557.785630
757.495761
850.702524
872.591734
796.922445
633.915663
497.630835
314.874649
205.239654
112.529993
75.907707
62.949657
74.810982
102.333426
121.179819
141.109824
147.175789
142.644644
131.520629
108.750463
87.854862
63.853860
47.945976
33.539534
26.145577
21.809936
21.467805
21.360517
21.443963
22.564530
23.529530
23.355484
23.115873
22.963881
22.903681
22.434592
22.026896
22.685528
21.365881
21.152496
20.017624
19.859672
18.732548
18.540621
18.065572
17.709732
16.273856
16.451478
16.263723
16.000867
16.141534
15.867949
15.802979
15.623569
14.972687
14.074445
14.662743
13.131499
13.483763
12.328625
11.909604
12.607574
11.837482
11.453629
10.908842
10.548830
10.274649
10.310411
10.239482
9.151697
9.359717
8.703470
8.808970
9.035468
8.689761
7.873774
##ZVALUE=270
1.370907
1.325607
1.370907
1.352429
1.472831
1.546741
1.391768
1.294613
1.419783
1.531839
1.563430
1.509786
1.685619
1.937747
1.957417
2.062917
2.554655
10.296702
31.956434
102.887750
193.158984
317.784548
541.606545
713.706017
881.524682
932.393670
898.214579
796.724558
609.591603
455.314517
277.453661
170.085430
98.725557
56.971908
56.225657
77.966452
99.820495
127.459764
141.966939
149.337649
148.426890
134.168863
113.539696
86.946487
69.594979
47.395825
35.560727
27.667880
22.761822
20.596981
20.148754
20.486712
21.079779
20.079613
20.558834
19.235611
19.114614
18.603802
17.589927
18.106699
17.242432
17.130971
16.002655
15.794635
16.007423
15.649796
15.240908
15.488863
14.817715
14.000535
14.476776
14.724731
14.154911
14.007688
14.038682
14.221668
13.281703
13.305545
13.261437
11.913776
11.906624
11.023879
10.267496
10.009408
9.902716
10.086894
9.313822
9.125471
9.122491
8.831620
9.101629
8.762479
8.294582
8.025765
8.024573
7.742643
##ZVALUE=275
1.471639
1.407862
1.171827
1.446605
1.282692
1.425743
1.495481
1.375675
1.540780
1.571774
1.615882
1.550913
1.309514
1.637936
1.497865
1.690984
1.835823
2.086759
1.990795
5.416870
20.020604
57.162642
160.868764
291.831493
510.988832
669.544935
848.050714
940.948725
967.503786
904.514790
788.020492
571.816564
400.411487
212.627649
121.577978
60.478449
46.397448
54.645538
73.184967
101.998448
120.935440
141.972899
149.540901
145.848989
134.594440
110.991597
91.581941
67.241788
51.273704
35.156608
27.900934
21.713972
20.176768
19.245744
17.741919
18.323660
17.125607
17.624497
17.548800
17.313957
16.417503
15.458465
15.906692
15.229583
15.521646
14.394522
14.552474
14.875531
14.254451
14.421940
14.137626
14.209747
14.064908
14.182925
14.459491
13.590455
13.563633
12.890697
12.199879
12.673736
11.699796
11.581779
11.322498
10.838509
10.781884
10.415912
10.591745
10.573864
9.781718
9.414554
8.338690
9.079576
8.992553
8.877516
8.621812
8.221865
##ZVALUE=280
1.258850
1.540780
1.325607
1.157522
1.329780
1.162887
1.443624
1.212955
1.304746
1.474619
1.336932
1.352429
1.520514
1.509786
1.538992
1.613498
1.739860
1.856685
1.700521
1.800656
2.173781
2.769828
13.501644
44.919848
135.882497
240.437984
425.789952
597.868562
822.921991
951.861739
1014.124751
991.326571
873.683691
653.826594
473.032594
270.188451
158.811808
75.305700
45.636892
40.890574
51.713586
77.201724
97.013712
120.722651
137.330890
145.834684
140.896440
127.989650
113.946795
86.756945
67.596436
46.354532
35.533905
24.781823
20.310879
17.294884
16.026497
15.845895
15.286803
15.115738
15.019774
14.568567
14.654994
14.755726
14.548898
13.708472
13.433695
14.190674
13.641715
13.835430
14.147758
13.524890
14.020801
13.919473
13.457537
13.024807
13.119578
12.784600
12.680888
11.852980
11.672974
11.381507
10.652542
10.818839
10.803938
10.578632
10.214448
9.889603
9.552836
9.677410
9.073615
9.285808
8.469820
8.551478
8.077621
8.342862
##ZVALUE=285
1.217723
1.161695
1.032948
1.141429
1.264811
1.129508
1.410842
1.414418
1.323819
1.418591
1.406670
1.314878
1.455545
1.339912
1.449585
1.442432
1.466870
1.568794
1.478791
1.647472
1.653433
2.001524
2.022982
2.190471
6.644726
23.505688
80.647469
165.564418
334.117413
498.720407
724.776983
876.608491
1011.486650
1015.788913
936.431885
803.833604
569.006801
393.694639
209.006667
119.490623
54.672956
34.429431
36.170483
48.544407
70.872903
92.317462
116.413832
130.370855
140.283704
139.813423
126.916766
111.041665
87.075830
67.157745
46.196580
34.337640
22.256970
17.745495
14.649630
13.507605
12.697577
12.970567
12.592673
13.188720
12.797713
13.021827
12.371540
12.835860
13.006926
13.051629
12.971759
13.036728
12.916923
12.781620
12.577772
12.853742
12.247562
12.328625
11.988878
11.564493
11.336803
11.258721
10.697842
10.792613
9.996891
10.629892
10.068417
9.943843
9.904504
9.683967
9.028912
8.839965
9.195805
8.970499
8.598566
8.931756
##ZVALUE=290
1.213551
1.143813
1.132488
1.149774
1.272559
1.134872
1.221895
1.199841
1.270771
1.068711
1.268983
1.205802
1.332760
1.248717
1.292825
1.274943
1.401901
1.451969
1.441836
1.516938
1.605749
1.660585
1.768470
1.879930
1.882911
2.199411
3.055930
9.770989
48.591495
111.207962
209.565759
408.743620
594.560504
842.008591
980.886817
1015.791893
1015.791893
876.404643
702.677965
469.453931
308.328867
151.173472
82.042813
34.943819
25.348663
32.949448
45.503974
66.074729
84.448457
109.007955
123.313665
133.646727
131.690502
121.950507
105.147958
79.361796
61.357617
42.773485
30.158758
19.349456
15.215874
11.932850
11.111498
10.434985
10.536909
10.775924
10.899901
10.502934
10.837913
10.999441
11.021495
10.708570
11.262894
11.440516
11.587739
11.466742
11.364818
11.084676
10.561943
10.992885
10.678768
10.722876
10.213852
10.218620
10.243654
10.247827
10.047555
9.939671
9.677410
9.615421
9.598732
8.974671
9.208918
8.878708
8.523464
8.730888
##ZVALUE=295
1.155734
1.006722
1.315475
1.114607
1.019835
1.303554
1.111627
1.166463
1.033545
1.262426
1.099706
1.037717
1.389980
1.294613
1.217723
1.375675
1.406670
1.351833
1.392961
1.411438
1.452565
1.565814
1.613498
1.652837
1.757741
1.850724
2.008677
1.952648
2.193451
4.462600
25.331974
68.401694
182.119012
318.268538
550.453663
729.452968
937.071443
1015.788913
1015.788913
967.012644
773.060918
600.068569
367.195010
226.192474
104.303956
50.366521
23.558736
20.563602
28.318763
39.337873
61.261654
77.458620
101.250410
114.365816
123.176575
124.473572
110.900998
98.596811
75.547695
58.774948
39.030910
28.100610
17.151833
13.121963
9.781718
9.072423
8.247495
8.496642
8.862615
9.042621
9.214878
9.220839
10.100603
9.794831
10.087490
9.998679
10.380745
10.194778
9.884834
10.014772
10.023713
9.883642
9.182692
9.649992
9.277463
9.625554
9.460449
9.617805
9.481907
9.197593
8.759499
8.894801
8.906722
8.406639
8.522868
8.523464
##ZVALUE=300
1.168847
1.138449
1.080632
0.871420
1.054406
1.166463
1.032948
1.028776
1.166463
1.205802
1.172423
1.197457
1.157522
1.139641
1.126528
1.298785
1.220703
1.330972
1.263618
1.206994
1.461506
1.462698
1.489520
1.638532
1.512766
1.566410
1.597404
1.960993
1.802444
2.011657
2.205968
2.749562
11.589527
41.053891
129.616857
237.208605
446.446538
631.165504
862.104893
989.847779
1015.788913
1010.358930
869.147778
703.470707
459.800959
298.580527
148.707628
80.377460
31.086802
17.084479
17.087460
22.902489
36.481619
50.389767
72.232485
88.598728
108.637810
116.634965
116.777420
110.327601
91.398954
75.290799
54.448843
40.147901
24.258494
16.938448
11.567473
9.134412
7.832646
7.598996
8.007884
8.006692
8.204579
7.898808
8.314848
8.389950
8.834600
8.636713
9.079576
8.946657
9.072423
9.338856
9.235740
9.208918
8.986592
8.937716
9.327531
8.970499
8.751750
8.811951
8.908510
8.512735
8.423924
8.274913
8.011460
8.208752
##ZVALUE=305
1.068711
1.068711
0.986457
1.001954
1.079440
1.030564
1.158714
1.058578
1.076460
1.049638
0.981688
1.072884
1.204610
1.104474
1.177788
1.136661
1.013875
1.279712
1.206994
1.240969
1.366735
1.262426
1.298785
1.483560
1.552701
1.386404
1.405478
1.480579
1.560450
1.737475
1.687407
1.742840
2.167821
2.328753
4.650950
29.092431
78.009963
201.300979
340.139866
572.646856
745.744705
943.507552
1015.788913
1015.788913
951.609612
738.489628
571.698546
358.373523
222.824812
99.779963
49.014688
18.825531
12.698770
15.140772
21.325946
35.099983
47.972798
68.910718
83.792806
100.777745
107.993484
109.492540
102.202892
87.011456
71.388483
51.051974
37.141442
23.187995
15.948415
10.830760
8.906722
7.566810
7.594824
7.921457
8.407831
8.124709
8.469820
8.352995
8.723736
8.781552
8.668900
8.431673
9.007454
9.150505
8.997917
9.072423
9.451509
8.797646
8.868575
8.770823
8.740425
8.247495
8.423924
8.731484
8.026958
8.151531
##ZVALUE=310
1.065731
1.061559
1.071692
0.883937
1.068711
1.178980
1.264811
1.059771
1.014471
1.163483
0.904799
1.027584
1.060963
1.077652
0.912547
1.182556
1.170635
1.010895
1.220703
1.131892
1.075864
1.163483
1.293421
1.282692
1.312494
1.375675
1.332760
1.448989
1.515746
1.588464
1.630783
1.475811
1.692772
1.873970
1.841784
2.275705
2.475977
12.515783
42.595863
130.198598
240.042806
447.907448
631.473660
855.321884
977.208018
1015.788913
1007.000804
869.085789
708.339810
464.086533
306.763649
151.877999
81.743002
29.131770
13.438463
10.395646
13.154745
19.519925
27.544498
44.178963
57.846904
77.863932
91.521740
100.988746
102.322698
95.923543
85.897446
67.760944
52.685738
35.049915
26.009679
16.454458
12.236834
9.324551
8.667707
8.608699
8.149743
8.251667
8.500814
8.636713
8.426905
8.628964
8.697510
8.800626
8.793473
9.023547
8.967519
8.841753
8.745790
8.633733
8.563995
8.906722
8.690953
8.105636
8.464456
7.994771
##ZVALUE=315
0.908971
0.859499
0.919700
0.981688
0.942945
0.942945
1.006722
1.004934
1.037717
1.041889
0.989437
0.932813
1.064539
0.996590
1.127720
1.096725
1.057982
1.228452
1.132488
1.169443
1.172423
1.099706
1.120567
1.281500
1.283884
1.418591
1.186728
1.293421
1.337528
1.204610
1.346469
1.425743
1.593828
1.547933
1.723766
1.796484
1.950860
2.030730
2.196431
6.200671
22.718906
87.900758
177.827477
359.278917
540.780425
786.160827
921.710730
1015.795469
1015.795469
935.799479
791.389942
560.386777
388.084650
203.997493
110.602975
40.470958
17.886758
9.063482
9.060502
12.735724
16.832948
27.304888
38.932562
56.189895
69.925785
86.383820
94.176531
96.868873
92.969537
79.852939
67.630410
49.827695
37.592649
23.186803
17.238855
11.965632
9.559989
8.855462
8.482933
8.377433
8.562803
8.520484
8.579493
8.596778
8.829832
8.749962
8.735657
8.812547
8.853674
8.839965
8.617640
8.711815
8.488894
8.380413
8.364916
8.306503
##ZVALUE=320
1.018643
1.009703
1.102686
1.018643
0.877976
0.900626
1.030564
0.992417
0.981688
0.863671
0.837445
0.945926
1.006722
1.113415
1.062751
0.963807
1.066923
1.045465
1.073480
1.062751
1.026988
1.068711
1.215935
1.158714
1.084805
1.210570
0.982881
1.150966
1.186728
1.292825
1.377463
1.214743
1.442432
1.500845
1.417994
1.517534
1.692772
1.473427
1.761913
1.931787
1.887679
2.811551
10.816455
52.439570
123.671889
284.299850
435.678959
652.762651
822.937489
990.260839
1015.788913
994.517803
880.525708
660.128593
475.765467
259.640813
147.189498
62.872767
29.078722
10.691881
8.451939
9.192824
11.171699
16.253591
23.113489
37.240982
48.717856
66.956878
78.799725
89.827776
92.108846
87.403655
78.650713
61.967969
48.767924
33.904910
24.616718
16.376972
12.669563
9.924769
8.960962
8.956790
8.872747
8.576512
8.726716
8.495450
8.630753
8.902550
8.825660
8.391738
8.330941
8.774996
8.542538
8.648634
8.328557
8.118749
##ZVALUE=325
1.004934
0.928640
0.990629
0.940561
0.976920
0.946522
0.926852
0.975728
1.023412
1.044869
1.055598
0.944734
1.025796
1.012683
0.866652
0.900626
0.955462
1.110435
0.993609
1.073480
1.148582
1.223683
1.043677
1.162887
1.238585
1.207590
1.142621
1.199841
1.166463
1.119971
1.226664
1.203418
1.263618
1.376867
1.359582
1.542568
1.461506
1.468658
1.577735
1.576543
1.630783
1.886487
2.038479
2.253652
5.757809
36.471486
87.078810
202.442408
337.424874
566.223860
733.488798
917.188525
998.845696
1000.839472
912.925601
708.231926
529.094934
322.634578
192.554593
83.086491
39.834976
14.369488
8.602738
7.717609
8.384585
11.029840
14.850497
24.296641
34.033656
50.367713
62.966943
76.256990
84.658861
86.706877
81.578493
70.728660
59.234500
43.841600
33.256412
22.288561
16.533732
11.944771
10.488629
9.076595
8.660555
8.550882
8.530617
8.602738
8.620620
8.504987
8.424520
8.460879
8.386970
8.247495
8.322597
8.190870
##ZVALUE=330
0.818968
0.910759
0.807643
0.834465
0.824928
0.845790
0.906587
0.838637
1.031756
0.910759
0.961423
0.865459
0.920892
0.909567
0.774860
0.936985
0.972748
0.986457
1.105666
0.931621
0.987649
1.009703
0.928640
1.116991
0.944734
1.177788
1.133680
1.200438
1.143813
1.102686
1.279712
1.168847
1.111627
1.234412
1.311898
1.367927
1.257658
1.474619
1.425743
1.457930
1.503825
1.564622
1.623631
1.709461
1.767874
2.060533
2.845526
16.206503
50.361753
146.786571
259.518027
461.071730
624.735951
831.317902
943.167806
991.013646
941.324830
786.616802
622.338653
395.757556
249.846578
117.553473
58.779716
22.167563
10.608435
7.392764
7.429719
8.707643
10.585785
15.762448
21.971464
32.916665
44.239759
60.585737
70.857406
79.337955
80.126524
75.903535
67.836642
53.443909
42.605996
29.318929
22.137761
15.901923
12.806654
9.911656
9.110570
8.572936
8.550882
8.088946
8.411407
8.240938
7.882714
8.047819
7.545948
7.834435
##ZVALUE=335
0.862479
0.828505
0.872612
0.780821
0.854731
0.821948
0.939965
0.862479
0.778437
0.806451
0.918508
0.828505
0.853539
0.772476
0.902414
0.899434
0.912547
0.851750
0.817776
0.866652
0.874996
0.904799
0.742674
0.964999
1.008511
1.045465
1.007915
1.019835
1.103878
1.090765
1.267791
1.063943
1.007915
1.059771
1.114607
1.212955
1.058578
1.236796
1.206994
1.201630
1.284480
1.370907
1.414418
1.536608
1.583695
1.580715
1.835823
1.843572
2.131462
7.754564
27.918816
96.104741
184.382796
363.082886
536.687970
760.231614
889.183879
969.527960
954.113603
835.109949
687.008500
464.648008
312.850475
162.280798
85.801482
29.754639
13.462901
8.015633
7.322431
7.176995
8.261800
10.430813
14.015436
22.147894
30.354857
44.756532
54.786801
67.190528
72.792768
74.654818
72.013736
61.700940
52.443743
40.600896
31.872988
21.843910
16.540885
12.204647
9.959936
8.512735
7.931590
7.609725
7.683635
7.597804
7.569790
7.547736
##ZVALUE=340
0.989437
1.001954
0.834465
0.849962
0.791550
0.793934
1.013875
0.909567
1.032948
0.839829
0.829697
0.999570
0.965595
1.029968
1.068711
0.807643
0.914931
0.874996
0.855923
0.912547
0.873804
0.975728
1.054406
1.100898
1.074672
0.983477
0.987649
0.914931
1.024604
0.940561
0.861883
1.015663
1.141429
1.111627
1.071692
1.071692
1.084805
1.204610
1.253486
1.144409
1.247525
1.307726
1.199841
1.421571
1.373887
1.485944
1.590848
1.675487
1.593828
1.755953
2.036691
3.858805
13.629794
60.608983
133.091807
290.074944
445.977449
653.655529
794.757009
920.161009
940.802693
862.070918
741.606951
542.078614
382.583737
202.981830
111.224651
40.973425
17.920732
8.451939
7.165670
6.894469
6.982684
8.257627
10.005832
14.180541
20.034909
29.869676
38.863420
52.596927
61.555505
68.726540
69.771409
65.870881
59.426427
48.986673
39.558411
28.576851
22.175908
15.551448
11.990666
9.221435
7.930994
7.564425
7.145405
7.164478
##ZVALUE=345
0.846982
0.968575
0.865459
0.780821
0.768900
0.802875
0.786781
0.650883
0.825524
0.848770
0.845790
0.821948
0.815988
0.828505
0.917912
1.032948
0.947714
0.973940
0.864863
0.850558
0.991821
1.020432
0.975728
0.963807
0.958443
0.926852
0.820756
0.963807
0.996590
1.033545
1.009703
0.909567
0.993609
0.889897
0.974536
1.112819
0.999570
1.139641
1.075864
1.032948
1.110435
1.017451
1.220703
1.269579
1.122952
1.310706
1.430511
1.373887
1.469851
1.507998
1.513958
1.748800
1.674891
2.140999
6.181598
36.463737
90.145469
204.102993
334.743857
541.887879
693.653822
852.386951
917.415619
892.635584
802.278519
604.285598
443.650484
261.552930
148.837566
59.574842
27.450919
10.302663
7.385612
6.897449
6.671548
6.756783
6.983876
8.885860
12.328625
19.124746
26.158690
38.251877
46.758652
56.155920
61.559677
64.203739
61.781406
55.545568
48.535466
38.241744
29.468536
20.115972
15.063882
10.168552
8.764863
7.483959
##ZVALUE=350
0.932813
0.817776
0.908971
1.010895
0.893474
0.802875
0.910759
0.775456
0.952482
0.743866
0.809431
0.822544
0.995994
1.074672
0.893474
0.910759
0.807643
0.926852
0.864863
0.781417
1.010895
0.765920
0.980496
0.905991
0.925660
0.944734
1.011491
0.995994
1.038909
1.005530
0.994802
1.025796
1.019835
1.029968
0.971556
1.003742
1.160502
1.153946
1.136661
1.224875
1.110435
1.074672
1.196861
1.146793
1.105666
1.160502
1.276731
1.158714
1.263618
1.380444
1.224875
1.540780
1.707673
1.768470
1.867414
1.944900
3.418922
18.545985
53.341985
145.418644
253.646970
444.204807
597.417951
774.840713
871.026516
894.544721
830.949545
676.010847
515.841842
303.911567
185.033679
84.324479
39.703846
12.575984
7.375479
6.132722
5.961657
5.632639
5.860925
6.585717
7.826686
11.966825
16.299486
23.151636
30.587912
41.447878
49.431920
55.772662
58.658719
57.032704
52.354932
43.835640
36.446452
26.284456
20.426512
14.192462
##ZVALUE=355
0.965595
0.873804
0.961423
0.880957
0.887513
0.967979
0.851750
0.759959
0.886917
0.953674
0.890493
0.941753
0.769496
0.963807
1.020432
0.974536
1.102686
0.868440
0.806451
0.846982
0.894666
1.137853
0.969768
1.027584
1.102686
0.897646
0.989437
1.057982
0.995994
1.042485
1.097918
0.979900
0.953674
1.016855
1.088977
0.917912
1.115799
1.159906
1.016855
1.081824
1.179576
1.092553
1.042485
1.379848
1.214743
1.141429
1.305938
1.217723
1.212955
1.133680
1.264811
1.470447
1.500845
1.595616
1.453757
1.649857
1.702905
1.853704
2.177954
9.131432
31.026602
99.440813
184.641480
343.961716
495.862961
695.955753
809.858441
874.196887
849.515796
714.323521
572.030544
374.642611
236.250758
105.164647
50.188899
16.316772
7.792711
5.720854
5.610585
5.411506
5.293489
5.484819
5.754828
7.346869
9.498596
14.186502
19.637942
28.066635
35.255551
43.401718
49.136877
52.746534
51.503778
46.927929
42.032599
33.675432
##ZVALUE=360
0.805855
0.848770
0.902414
0.812411
0.961423
0.896454
0.845790
0.908971
0.880957
0.801682
0.985861
0.877976
0.994802
0.970960
0.816584
0.819564
0.850558
1.029968
0.892878
1.032948
1.007915
0.896454
0.844598
0.885725
0.888705
0.977516
0.866652
0.974536
0.886917
1.090765
0.961423
0.977516
0.984669
0.908971
0.995994
0.977516
1.106858
0.964999
1.111627
1.017451
0.982881
0.984669
1.063943
1.218915
1.262426
1.181960
1.213551
1.360774
1.176000
1.135468
1.281500
1.178980
1.135468
1.459718
1.422763
1.307726
1.509786
1.569986
1.558661
1.759529
2.090931
3.907681
14.000535
56.386590
120.074749
261.227489
395.946503
583.371520
720.561743
836.778879
847.823024
768.510699
645.633936
433.238745
286.723971
138.121843
71.506500
26.137829
11.126995
5.843639
5.357862
5.174875
4.996657
4.927516
4.919767
5.051494
6.222725
8.208752
11.171699
16.524792
22.243857
30.926466
36.543608
42.715669
46.720505
47.733784
##ZVALUE=365
0.786781
0.960827
0.859499
0.788569
0.813603
0.889897
0.856519
0.799894
0.757575
0.803471
0.880957
0.817776
0.880957
0.735521
0.805855
0.849962
0.916719
1.007915
1.011491
0.877976
0.989437
0.929832
1.043677
0.900626
1.053810
0.852942
1.067519
1.137853
0.860691
0.881553
0.982881
1.002550
0.992417
0.963807
1.109838
1.099706
1.109838
1.018643
1.014471
1.152754
1.059771
0.993609
1.204610
1.242757
1.229644
1.191497
0.981688
1.077652
1.188517
1.104474
1.125932
1.201630
1.176596
1.118779
1.276731
1.388788
1.379848
1.430511
1.614690
1.623631
1.724958
1.773834
1.891851
2.403855
5.864501
31.234622
76.715946
185.698867
306.302905
491.600633
633.911490
780.972838
836.299658
796.723962
692.377687
499.067903
350.307822
190.094709
103.036761
38.150549
15.641451
6.116629
5.104542
4.807711
4.480481
4.491806
4.352927
4.398823
4.511476
5.211830
6.697774
9.879470
13.119578
19.172430
24.492741
32.203794
##ZVALUE=370
0.903606
0.901818
0.850558
0.987649
0.860691
0.859499
0.904799
0.847578
0.847578
0.768900
0.839829
0.827909
0.824928
0.947714
0.833869
0.805855
0.996590
0.910759
0.832677
0.880957
0.949502
0.875592
0.718832
0.830889
0.821948
0.898838
0.869632
0.998974
0.899434
0.950694
0.847578
0.898838
0.909567
0.979900
0.974536
1.005530
0.977516
1.071692
0.839829
0.864863
0.893474
0.980496
1.056790
1.025796
0.992417
1.015663
1.037717
1.059771
1.002550
1.122952
1.203418
1.052618
1.195669
1.142621
1.063943
1.204610
1.203418
1.143813
1.189709
1.284480
1.292825
1.560450
1.381636
1.580715
1.727939
1.832843
3.200769
17.082691
50.548911
137.685537
238.285661
408.443809
554.666519
726.350546
804.592967
808.456540
735.680461
574.074984
421.944857
231.447816
129.510760
50.632954
22.895932
8.862615
5.359650
4.523993
4.327893
4.157424
3.937483
4.269481
4.120469
4.133582
4.577637
6.031990
8.042455
11.863708
##ZVALUE=375
0.878572
0.806451
0.804663
0.800490
0.785589
0.848770
0.687838
0.749826
0.939965
1.014471
0.895858
0.846982
0.881553
0.891685
0.820756
0.895858
0.748634
0.884533
0.777841
0.732541
0.770688
0.877976
0.912547
0.910759
0.933409
0.959635
0.834465
0.992417
1.005530
0.810623
0.721812
0.988841
1.016855
0.942945
0.865459
0.837445
0.995994
1.102686
0.967979
0.921488
1.002550
1.032948
0.987649
1.138449
0.984669
0.956655
1.091957
0.904799
1.173615
0.926852
1.048446
1.057982
1.061559
1.028776
1.054406
1.035929
1.110435
1.061559
1.014471
1.121759
1.441836
1.258850
1.284480
1.293421
1.344681
1.531839
1.653433
1.792908
1.973510
8.695722
28.549433
88.656545
171.587467
337.961912
480.063558
659.594536
759.221911
806.236863
770.958662
635.937452
493.892431
302.739739
186.164975
84.718466
42.164922
13.896823
6.574988
4.484653
4.187822
4.243851
3.941655
3.959537
3.759861
3.810525
3.871918
4.180670
##ZVALUE=380
0.914931
0.766516
0.784993
0.907779
0.784993
0.743866
0.773668
0.751615
0.801682
0.747442
0.691414
0.848770
1.002550
0.798702
0.889897
0.726581
0.646710
0.798702
0.757575
0.777841
0.759959
0.708699
0.856519
0.805855
0.740886
0.925660
0.992417
0.793934
0.890493
0.834465
1.026988
1.031756
1.020432
0.919700
0.971556
1.034737
1.100898
0.968575
1.079440
0.960827
1.016855
0.987649
0.887513
0.951886
1.002550
1.134872
0.987649
0.984669
1.129508
1.024604
1.029968
1.000762
0.995994
0.986457
0.874996
1.100898
1.098514
1.109838
1.117587
1.287460
1.221895
1.255870
1.233816
1.235604
1.213551
1.297593
1.458526
1.671910
1.604557
1.918674
1.978874
4.195571
16.773939
65.733790
134.146810
278.027654
411.091447
585.250854
702.528954
788.417459
778.466463
668.220520
545.771718
377.947688
252.079964
123.364925
63.472986
21.718740
9.462833
4.823804
3.960729
4.078746
3.724694
3.655553
3.779531
3.615618
##ZVALUE=385
0.647902
0.759959
0.790954
0.776649
0.780821
0.724792
0.802875
0.752807
0.749826
0.817776
0.759959
0.818968
0.584722
0.732541
0.695586
0.633597
0.735521
0.779629
0.746846
0.814795
0.754595
0.899434
0.722408
0.769496
0.864863
0.827909
0.846982
0.836849
0.989437
1.036525
1.002550
1.119971
1.138449
1.141429
1.089573
1.138449
1.202822
1.246929
1.134872
1.040697
1.121759
1.017451
1.153946
0.953674
1.001954
1.135468
1.126528
1.106858
1.025796
1.043677
0.938773
1.128912
1.006722
1.173615
1.022816
1.166463
1.092553
1.225471
1.121759
1.176000
1.217723
1.148582
1.122952
1.205802
1.254678
1.122952
1.300573
1.298785
1.506805
1.506805
1.663566
1.769662
1.875758
2.572536
8.300543
40.244460
92.103481
202.081800
323.556662
508.073568
639.137030
758.424997
787.642598
731.194615
636.307001
463.089943
326.333642
176.844597
100.737810
40.932894
16.639829
5.539656
4.355907
3.787875
4.038811
3.796816
##ZVALUE=390
0.759959
0.792742
0.716448
0.759959
0.884533
0.890493
0.915527
0.819564
0.635982
0.942945
0.828505
0.828505
0.663996
0.872612
0.855923
0.644922
0.788569
0.921488
0.797510
0.761747
0.880957
0.780821
0.836849
0.776649
0.873804
0.909567
0.892878
1.043677
1.021624
0.992417
1.025796
1.140833
1.240969
1.132488
1.184940
1.233816
1.347661
1.436472
1.277924
1.174808
1.129508
1.156926
1.232624
1.264811
1.241565
1.108646
1.000762
1.263618
1.197457
1.006722
1.141429
1.230836
1.055598
1.068711
1.147985
1.063943
0.967979
1.134872
1.041889
1.144409
1.152754
1.176000
1.132488
1.226664
1.162887
1.170635
1.245737
1.400709
1.454949
1.602769
1.488924
1.581907
1.669526
1.693964
1.840591
1.927614
4.181862
23.233891
61.016679
154.857635
264.549851
444.012880
573.679805
715.622902
775.906444
768.868923
703.254938
563.912988
426.476002
247.819424
143.198967
58.803558
27.751923
9.128451
4.776716
3.767610
##ZVALUE=395
0.773668
0.933409
0.744462
0.800490
0.610948
0.874996
0.736713
0.794530
0.744462
0.584722
0.665784
0.753999
0.767708
0.731945
0.787973
0.783801
0.859499
0.841618
0.758767
0.837445
0.793934
0.790954
0.787973
0.941753
0.806451
0.946522
0.943542
1.119971
1.003742
1.140833
1.063943
0.988841
1.142621
1.159906
1.232624
1.105666
1.379848
1.114607
1.100898
1.183748
1.196861
1.155734
1.252890
1.210570
1.115799
1.275539
1.155734
1.212955
1.375675
1.130700
1.199841
1.227856
1.247525
1.082420
1.059771
1.131892
1.149774
1.070499
1.151562
0.997782
1.200438
1.162887
1.249909
1.117587
1.249909
1.260638
1.344681
1.383424
1.438856
1.467466
1.625419
1.645684
1.473427
1.539588
1.674891
1.556873
1.493692
1.867414
2.301931
13.492703
43.373704
121.827722
209.349990
355.078578
488.893986
659.225583
751.700997
800.441504
764.110684
641.701818
500.254631
308.697820
195.661783
92.278719
43.507814
14.449954
##ZVALUE=400
1.014471
0.943542
0.812411
0.797510
0.725985
0.741482
0.696778
0.715852
0.793934
1.003742
0.798702
0.998974
0.861883
0.688434
0.822544
0.800490
0.762939
0.659823
0.744462
0.685453
0.686646
0.827909
0.709891
0.756979
0.743866
0.912547
0.985861
1.037717
0.970960
1.296997
1.139641
1.145601
1.195669
1.114607
1.053810
1.160502
1.169443
1.232624
1.223683
1.085997
1.287460
1.271963
1.133680
1.127720
1.163483
1.192689
1.203418
1.112819
1.109838
1.356602
1.323819
1.219511
1.152754
1.092553
1.159906
1.099706
1.195669
1.255870
1.260638
1.344681
1.272559
1.199841
1.266599
1.084805
1.362562
1.386404
1.357794
1.269579
1.333952
1.428723
1.599789
1.439452
1.512766
1.525879
1.476407
1.558661
1.572967
1.591444
1.662970
1.763701
1.951456
7.145405
24.745464
78.936815
149.741769
290.982723
416.567922
575.156808
688.034892
775.759816
766.260624
663.366914
546.972752
375.301838
247.671604
124.788880
##END
