##TITLE=FKDZ0101
##FORMAT=SPECTACLE-ASCII V-1.2
##DATA TYPE=ULTRAVIOLET SPECTRUM
##SECOND TYPE=ULTRAVIOLET SPECTRUM
##DATE=11/28/17
##TIME=15:45:16
##SPECTROMETER/DATA SYSTEM=SPECTACLE
##XUNITS=NM EM
##YUNITS=ENERGY
##YFACTOR=1
##FIRSTX=220
##LASTX=410
##NPOINTS=96
##3DDATA=Equidistant
##ZUNITS=NM EX
##FIRSTZ=210
##LASTZ=400
##ZPOINTS=39
##XYDATA=(Y..Y)
##ZVALUE=210
4.309416
5.775690
4.631877
4.324913
4.963875
5.228519
4.991889
4.848838
4.750490
4.933476
3.810525
3.071427
3.795624
3.593564
3.341436
3.600717
3.389716
3.464818
4.330873
4.054904
4.678965
5.058646
5.309582
5.359650
5.384684
5.197525
6.048679
5.132556
5.673766
6.444454
5.881786
7.552505
6.607771
7.575750
7.213950
7.641912
8.104444
6.945729
6.806850
7.693768
7.357597
8.119941
7.847548
7.509589
7.936954
8.414984
8.493662
8.384585
8.519888
8.688569
7.870793
8.664727
7.805824
8.604527
8.062720
9.111762
8.287430
8.503795
8.087754
9.163618
8.013844
9.405613
9.593964
7.833838
8.238554
8.463860
9.262562
10.262728
11.722445
13.249516
14.569759
16.075969
17.524958
20.534992
22.234917
24.791956
23.839474
25.315881
23.217797
24.468899
20.248890
18.477440
17.629862
15.523434
12.937784
12.038946
10.060668
9.542704
8.171797
8.097887
7.097721
7.139444
7.951856
9.282827
8.570552
8.771420
##ZVALUE=215
13.046861
13.113618
12.288690
10.850430
8.842945
8.793473
8.734465
7.707477
8.428693
9.180903
6.898642
6.269813
5.689859
4.864931
5.265474
3.702641
3.883839
3.710985
3.951788
4.104972
3.924966
4.295707
4.580617
4.619956
5.721450
5.600452
5.867481
6.920695
6.720424
7.348657
7.577538
8.215904
8.460879
7.686615
8.083582
8.648634
8.253455
8.788705
9.125471
8.067489
7.824898
8.947849
8.326769
8.228421
10.231733
8.273721
8.518696
9.142756
7.910728
8.518696
9.884834
9.916425
8.504987
8.906722
9.267926
8.838773
9.414554
8.514524
10.547638
9.242892
9.899735
9.474754
10.002851
8.799434
9.622574
10.073781
9.526610
10.113716
11.589527
13.680458
14.295578
16.496778
20.010471
20.620823
21.777749
24.064779
24.071932
23.261905
22.785664
20.579696
21.123886
18.093586
16.832948
15.140772
13.139844
11.899471
10.275841
9.716749
9.125471
8.888841
9.492636
7.489920
8.905530
8.165836
8.137822
8.972883
##ZVALUE=220
32.045841
32.355785
33.361912
34.873486
33.931732
27.202964
21.959543
18.617511
15.414953
16.108751
17.129779
17.848611
15.389919
14.040470
12.512803
9.108782
7.352829
5.864501
5.010962
4.418492
4.144907
5.192757
4.535913
4.683733
5.391836
6.101727
6.359816
6.483793
8.336902
7.497668
8.319616
10.314584
9.381771
10.534525
9.746552
9.970665
11.762977
9.725690
10.453463
9.960532
10.920763
10.371804
9.851456
10.980964
10.236502
10.595918
9.573698
10.275841
10.455847
10.853410
11.486411
10.477901
10.817647
10.027885
10.519624
10.026693
10.525584
10.241866
10.283589
10.597706
10.203719
10.551810
9.983778
10.945797
11.186600
11.341572
11.118650
10.672808
13.152957
14.394522
15.289783
17.736554
18.861890
20.700693
23.779869
22.845864
23.661852
22.875667
22.434592
21.004677
22.098422
18.189549
17.365813
16.218424
12.778640
12.915730
10.369420
9.855628
10.296702
9.785891
9.349585
8.942485
9.652972
9.015799
9.510517
9.429455
##ZVALUE=225
48.613548
48.828721
65.648556
79.903603
87.403655
88.542700
81.740618
63.750744
49.662590
40.692687
30.422807
27.142763
28.570890
29.441714
29.902458
27.748942
24.125576
18.704534
14.194846
10.241866
7.105470
5.470514
5.733967
5.160570
5.929470
6.448627
6.863475
6.444454
7.413626
8.070469
8.530617
10.317564
10.599494
9.817481
10.522604
11.183619
9.593964
10.893941
11.090636
11.156797
11.621714
11.490583
11.060834
12.366772
12.810826
11.802912
12.165904
11.477470
12.228489
11.433959
11.664629
12.034774
12.236834
12.889504
12.467504
12.627840
12.425780
12.616515
13.171434
12.208819
12.024641
13.599992
13.633966
12.620687
12.555718
13.472438
13.351440
14.465451
13.974905
15.673637
19.081831
18.417835
19.343495
19.484758
21.720529
22.134781
22.866726
20.274520
20.239949
19.128919
16.986728
15.950799
15.141964
14.976859
13.268590
11.877418
11.578798
11.411905
9.857416
10.531545
10.283589
10.037422
9.503961
9.968877
8.992553
9.812713
##ZVALUE=230
37.844777
40.167570
64.553618
109.420419
139.505863
175.960660
193.735957
191.919804
178.909898
150.874853
104.386806
73.279738
50.166845
48.867464
46.608448
52.347779
52.187443
52.710772
44.794679
37.660599
28.442740
20.292997
13.693571
9.084940
8.323789
7.040501
6.251931
6.387830
7.860661
7.369518
7.467866
7.850528
8.966923
8.449554
10.045767
10.305643
10.461807
10.136962
10.231733
10.860562
11.047721
12.473464
12.052655
13.996959
13.116598
13.703704
13.189912
14.204979
14.904737
14.309883
15.087724
14.344454
16.040802
14.798641
15.955567
15.303493
16.883612
16.460419
15.619993
16.579628
15.449524
17.074943
16.941428
16.240478
16.229749
16.997457
16.763806
17.627478
17.087460
20.601749
20.584464
22.806525
24.072528
24.265647
26.752949
25.671721
25.675893
25.372505
23.368001
21.917820
20.296574
21.645427
18.325448
17.227530
15.378594
18.074512
15.525818
15.213490
13.874769
14.028549
14.132857
12.801886
12.959838
13.223886
12.055635
12.115836
##ZVALUE=235
10.962486
13.120770
34.161806
63.935518
122.822523
178.640485
262.324810
315.399766
351.316929
359.516740
311.777592
256.047845
196.793675
125.012994
94.823837
72.577000
70.003867
74.679852
79.590678
84.802508
76.798797
68.820715
49.710870
38.968921
23.715496
17.665625
11.576414
9.038448
7.473826
7.459521
7.621646
8.517504
8.473992
7.449985
8.427501
10.098815
10.916591
11.095405
12.313724
12.698770
13.650656
12.391806
15.393496
15.304685
14.893413
17.248988
17.371774
18.409491
19.093752
20.872951
19.886494
22.084713
22.664666
23.241639
23.226738
22.427440
23.101568
23.806691
22.723675
22.069812
24.952888
20.698905
21.933913
22.006631
22.367835
22.295713
23.540854
23.130774
23.537874
27.143955
26.118755
29.170513
29.442906
31.238794
30.695796
31.754971
28.565526
30.869842
29.563904
27.948618
27.747750
24.046898
23.288727
23.249984
21.084547
21.833777
19.897819
18.324852
17.244816
17.880797
16.653538
17.582774
15.612841
15.936494
14.338493
16.697645
##ZVALUE=240
2.883673
2.938509
4.338622
14.878511
36.950707
81.821680
144.946575
257.682800
353.527665
480.588675
532.136559
542.101860
488.820672
414.909720
312.721729
221.284628
135.100484
102.421641
90.664625
91.563463
105.865598
111.369491
106.198788
95.210671
78.096986
62.932968
48.401952
30.602813
20.883679
13.081431
10.512471
9.581447
8.042455
9.530783
9.469986
10.598898
10.588765
11.364818
12.946725
13.066530
14.637709
17.199516
18.232465
19.662976
19.710660
22.722483
23.686886
25.304556
23.588538
25.322437
28.570890
28.696656
29.162765
28.831959
28.480887
29.422641
29.510856
29.718876
28.039813
29.736757
29.237866
27.737617
28.862953
28.186440
27.661920
28.224587
30.898452
28.461814
28.944612
31.357408
31.367540
32.077432
33.115745
34.012794
35.766959
34.812689
34.755468
32.163858
31.019449
30.685663
30.377507
27.286410
26.262999
22.224784
23.868680
23.643970
24.707913
21.168590
22.396445
20.837784
20.811558
20.892620
18.529892
17.507672
17.913580
18.419623
##ZVALUE=245
2.247691
2.038479
2.268553
2.757907
4.839897
10.182858
30.182600
67.966580
159.348845
257.234573
411.278605
522.369742
603.118539
661.948919
625.484586
529.653430
431.738496
299.216509
212.426782
126.470923
100.609660
95.678568
105.617642
115.578771
120.648742
118.559599
109.178424
90.558529
69.010854
52.108765
35.827756
23.442507
16.596913
11.896491
10.060668
10.076761
10.797977
11.115670
12.048483
13.662577
16.148686
16.861558
19.330978
19.472837
22.155643
23.700595
25.158525
26.005507
26.665926
29.571652
29.760599
30.886531
30.328631
31.626821
29.490590
29.920936
31.226873
30.557513
31.479597
30.490756
30.028820
28.657913
29.258728
28.428435
29.570460
27.118921
28.966665
27.021766
30.483603
28.388500
27.896762
29.727817
32.882690
31.268001
33.721924
31.219721
29.472709
29.775500
30.001998
27.195811
25.289655
25.492907
24.354458
21.893978
21.812916
20.965934
22.037625
21.606684
20.629764
19.455552
19.344687
19.090772
19.754767
17.444491
17.737746
17.292500
##ZVALUE=250
1.827478
2.218485
2.158880
2.224445
2.332926
2.186894
2.858639
8.305907
22.494793
63.833594
124.205947
260.012746
382.741690
562.408566
669.838786
755.423903
763.162971
713.872910
560.272932
434.485674
270.698667
175.395608
105.248690
87.335706
98.862648
109.440684
122.626424
128.999949
124.961734
115.141869
97.922683
74.818730
56.874752
36.898851
25.425553
16.365647
13.229847
11.655688
12.777448
14.118552
15.345812
17.354488
18.210411
21.266937
22.067428
23.733974
26.225448
26.696920
26.761889
28.928518
28.560758
30.483603
30.268431
31.396747
30.037761
30.323863
32.014847
31.352639
29.956698
28.435588
28.960705
28.044581
28.045774
26.388764
25.881529
26.043653
25.901794
23.743510
25.773644
24.902821
25.973916
27.840734
26.589632
27.214885
26.947856
25.924444
26.461482
27.293563
25.274754
22.021532
22.761822
22.723675
19.984841
20.027757
20.039678
18.603802
18.861890
17.713904
17.212629
17.028451
16.723871
17.162561
16.429424
16.725659
16.437769
15.715957
##ZVALUE=255
1.707673
1.816750
1.650453
1.846552
1.965761
2.019405
1.980662
2.358556
2.524853
4.276633
17.770529
43.126941
95.828772
210.511684
337.607861
535.134673
675.038695
804.141760
863.350630
811.066031
719.298720
583.615899
372.899771
242.295861
129.786730
95.094442
83.424449
93.241930
117.412806
130.772591
136.161447
132.681727
127.282739
99.564791
80.678463
56.414604
41.822791
25.186539
18.917918
15.516877
15.235543
16.433001
16.336441
19.150972
20.059943
21.299720
23.273826
23.009777
25.497675
25.557876
25.280714
26.726723
26.081800
27.623773
27.180910
25.981665
26.633739
26.547909
26.489496
24.480820
24.309754
23.257732
24.133921
22.968650
22.820830
23.380518
21.623969
21.895766
21.296740
21.666884
22.030473
22.469759
22.459626
21.945834
22.149682
22.361875
21.681786
22.786856
21.332502
19.957423
19.111633
19.449592
17.551780
16.753674
16.995668
16.598701
15.916824
16.392469
14.768839
15.385747
14.656782
14.888644
14.645457
14.587641
14.673471
14.250875
##ZVALUE=260
1.535416
1.525879
1.588464
1.973510
1.763701
1.676679
1.628995
1.849532
2.027750
1.976490
2.145767
2.689958
7.697940
29.790998
69.620609
172.121525
289.828777
488.868952
662.256479
872.761607
981.636643
989.937782
881.734490
732.573867
490.720868
337.947011
195.680857
119.871497
77.628493
78.044534
98.911524
117.272735
129.886866
145.757794
144.189000
125.734806
109.221935
83.215833
63.562989
41.092634
30.709505
21.690726
18.700957
17.396808
17.689466
18.966794
18.785000
20.953417
21.388531
21.467805
20.662546
21.953583
22.633672
21.700859
21.367669
21.312833
21.430850
20.802617
21.725893
20.039678
19.136667
20.509958
19.318461
18.785000
18.240809
18.187761
18.752813
17.674565
18.073916
17.866492
17.825961
19.279718
20.253658
19.060969
19.945502
18.452406
17.999411
19.148588
18.334985
17.310977
17.023683
16.031861
16.094446
14.909506
14.621615
14.531612
14.565587
13.637543
13.980865
13.035536
13.217926
13.746619
12.516975
13.465881
13.139844
12.167692
##ZVALUE=265
1.756549
1.643896
1.353621
1.512766
1.523495
1.888871
1.673698
1.516938
1.931787
1.761913
1.787543
2.287626
2.432466
2.358556
4.905462
22.299886
54.772496
142.151713
258.948803
488.366485
682.489872
858.150721
1015.789509
1015.789509
1004.585624
872.567892
654.601455
465.796590
257.231593
156.914592
86.132884
66.647530
75.725913
102.342963
123.259425
142.798424
148.910880
144.183636
132.728815
108.211637
88.127851
62.002540
44.318438
30.058622
22.056699
18.522739
16.833544
18.053651
17.887950
18.257499
18.854737
18.490553
19.039512
19.213557
18.704534
18.437505
17.836690
17.798543
16.876459
16.884804
17.717481
16.575456
15.614629
15.138984
15.500784
14.699697
15.324950
15.235543
15.881658
15.525818
16.348958
15.967488
16.438961
16.780496
17.600656
16.401410
16.230941
16.527772
15.585423
15.410781
14.186502
13.732910
13.543963
14.001727
13.201833
12.228489
12.334585
12.715459
11.804700
12.604594
12.097955
12.606978
12.622476
11.961460
11.868477
11.403561
##ZVALUE=270
1.470447
1.480579
1.452565
1.489520
1.445413
1.699924
1.649857
1.481771
1.617670
1.748800
1.727939
1.952648
1.974702
1.971722
2.020597
2.347827
2.768636
9.695888
29.910803
95.380545
196.356773
357.677937
634.958744
867.211819
1015.787721
1015.787721
1015.787721
1015.787721
822.280645
619.170666
425.406694
224.934816
126.226544
65.094829
59.929490
80.725551
101.049542
128.473639
142.234564
152.304769
149.195790
131.718516
113.786459
85.246563
65.084696
42.694807
32.912493
23.650527
19.455552
17.061830
17.404556
16.609430
17.533898
16.470551
16.870499
15.803576
15.701652
15.401840
15.465617
15.002489
13.974905
14.718771
14.167428
14.014840
13.733506
13.489723
13.812780
14.260411
14.071465
14.824867
15.234947
15.075803
15.113950
15.519857
15.552640
15.774965
16.063452
14.756918
14.750957
14.067888
14.634728
13.367534
13.411641
12.276769
12.293458
12.122989
12.110472
11.872649
11.800528
12.179613
12.020469
12.020469
11.003613
10.708570
11.098981
10.908842
##ZVALUE=275
1.270771
1.301765
1.618862
1.463890
1.458526
1.445413
1.599789
1.658797
1.581907
1.679659
1.640916
1.659989
1.676679
1.610518
1.710653
1.935959
2.124906
1.986623
2.097487
5.036592
18.946528
55.608749
163.115859
307.138562
584.574938
804.059505
1015.788913
1015.788913
1015.788913
1015.788913
1015.609503
797.065496
566.811562
294.362903
170.417428
76.802969
51.312447
57.291985
74.854493
101.953745
123.067498
141.812563
148.575902
146.787763
132.422447
111.107826
89.832544
64.593554
49.101710
33.083558
24.608970
18.098950
15.882850
15.437603
15.206933
14.638901
14.191866
14.491677
14.571548
14.528632
14.021993
14.540553
13.789535
13.828874
14.136434
13.296604
13.267994
13.272762
14.134645
13.846755
14.199615
14.638901
15.605688
16.052723
15.558600
15.584826
15.087724
14.478564
14.944673
13.632774
13.062954
13.149977
13.007522
12.313724
12.288690
11.872649
11.995435
11.714697
11.504889
10.948777
10.768771
10.851622
10.821819
11.242628
10.962486
10.967851
##ZVALUE=280
1.258850
1.256466
1.285672
1.345873
1.383424
1.299977
1.432896
1.421571
1.416802
1.468658
1.438856
1.244545
1.496673
1.326799
1.627803
1.831651
1.663566
1.780987
2.032518
2.215505
2.392530
3.474951
11.143684
39.734840
129.284859
242.566466
460.404754
688.366890
990.179777
1015.788913
1015.788913
1015.788913
1015.788913
973.214507
641.364455
428.232551
213.826895
110.712647
50.723553
41.502714
55.584908
75.165629
100.899935
120.720863
140.700936
145.882964
141.822696
130.338669
106.502771
86.272955
63.110590
45.522451
30.623674
22.427440
17.430782
15.031695
13.696551
14.010668
13.316870
13.200641
13.069510
13.513565
13.145804
12.596846
12.673736
13.336539
12.910962
12.983680
13.718605
13.267994
14.125705
14.282465
14.933944
14.369488
15.040636
14.596581
14.152527
13.714433
13.678670
12.813807
12.817979
12.468696
12.111664
11.493564
11.431575
11.350513
11.260509
10.871887
11.037588
11.217594
10.402799
10.977983
10.495782
10.228753
10.018945
10.221601
##ZVALUE=285
1.261830
1.279712
1.392961
1.332760
1.256466
1.401901
1.322627
1.373887
1.584888
1.412630
1.454949
1.340508
1.639724
1.453757
1.580715
1.644492
1.597404
1.786947
1.721978
1.804829
2.089739
2.232790
2.169609
2.271533
6.758571
21.600723
74.755549
160.358548
350.614786
553.724766
779.454708
1015.802026
1015.802026
1015.802026
1015.802026
1015.802026
874.221921
550.118685
341.198444
159.472823
79.906583
38.061738
35.883784
52.911639
70.779920
96.182823
116.368532
134.598613
140.266418
138.824582
128.375888
109.151602
90.885758
63.677430
46.920776
29.856563
22.012591
16.346574
13.501644
12.864470
12.052655
11.868477
11.968613
12.089610
11.832714
12.253523
12.309551
12.248755
12.377501
12.227893
13.701916
13.426542
13.686419
13.685822
13.534427
13.263822
13.575554
12.731552
13.303757
12.521744
12.052655
12.332797
11.488795
11.543632
11.382699
11.626482
11.142492
10.637641
11.197925
10.749698
11.178851
10.422468
10.065436
10.387897
10.254979
10.146499
##ZVALUE=290
1.170635
1.242757
1.396537
1.227856
1.277924
1.150966
1.279712
1.188517
1.385808
1.243949
1.333952
1.343489
1.366735
1.370907
1.390576
1.652837
1.400709
1.679659
1.769662
1.543760
1.636744
1.794696
1.786947
1.970530
2.112985
2.363920
2.989769
12.162924
38.171411
117.687583
225.997567
469.629765
701.505542
1003.590822
1015.788913
1015.788913
1015.788913
1015.788913
997.668505
686.403513
453.306437
225.164890
116.884708
44.786930
27.314425
33.085942
46.472549
68.066716
86.079836
110.409856
124.486685
134.965777
135.249496
122.478604
106.351972
79.421997
61.168671
41.101575
30.269623
19.493699
15.143752
11.773705
11.368990
11.544824
11.171699
11.082888
11.447668
11.281967
11.761785
11.895895
12.098551
12.574792
12.825727
13.054609
13.231635
12.811422
12.771487
12.440681
12.056828
12.472868
11.704564
11.160970
10.931492
11.019707
11.004806
11.151433
10.441542
10.987520
10.607839
10.356903
11.082888
10.043979
9.828806
9.940863
9.714961
9.449720
##ZVALUE=295
1.241565
1.230836
1.069903
1.274943
1.227856
1.149774
1.125932
1.187921
1.314878
1.140833
1.226664
1.418591
1.427531
1.216531
1.402497
1.243949
1.276731
1.487732
1.323819
1.554489
1.577735
1.580715
1.690984
1.788735
1.908541
1.905560
2.007484
2.208948
2.446771
4.456639
22.935867
66.444874
151.441693
358.088017
575.859547
921.045542
1015.788913
1015.788913
1015.788913
1015.788913
1015.788913
836.420655
584.775805
303.313732
167.723894
63.426495
30.659437
21.489859
28.626919
43.582916
60.146451
84.077716
100.988746
118.948817
127.472878
125.473738
117.013454
98.663568
80.102682
57.116747
43.085814
25.998950
20.201802
14.021993
11.293888
10.837913
10.194778
10.342598
10.591745
10.752678
10.981560
11.642575
11.543632
11.475682
11.697412
11.740923
11.731982
11.908412
11.338592
11.059642
11.331439
11.045933
10.859966
11.020899
10.945797
10.035634
10.799766
10.470748
10.452867
10.298491
10.217428
10.398626
9.668469
9.572506
9.587407
9.747744
##ZVALUE=300
1.064539
1.220703
1.080632
1.023412
0.989437
1.118779
0.960827
1.167655
1.167655
1.207590
1.181960
1.208782
1.264811
1.177788
1.258850
1.275539
1.280904
1.257658
1.429915
1.336932
1.403689
1.506805
1.373887
1.462698
1.521707
1.709461
1.847744
2.014637
2.030730
2.122521
2.387762
2.900958
7.365942
42.027831
104.141831
263.379812
450.500846
775.019526
1001.643538
1015.788913
1015.788913
1015.788913
1015.788913
992.804766
749.985576
419.507623
249.288678
110.971928
52.262545
20.266771
17.819405
26.463866
36.433935
56.244731
73.698759
95.939636
110.243559
119.611621
120.709538
109.856725
96.717477
74.589849
58.203936
40.250421
28.084517
17.713904
13.780594
11.093616
10.139942
9.998679
9.781718
10.254979
10.834932
10.583997
10.895729
10.861754
10.703802
10.858774
10.776520
11.016726
10.575652
11.209846
10.733604
10.599494
10.680556
10.244846
10.158420
10.376573
10.422468
10.155439
10.154843
9.779930
9.716749
9.701848
9.493828
9.768605
##ZVALUE=305
0.988841
1.129508
1.112819
1.087785
0.970960
1.138449
1.235604
1.206994
1.104474
1.161695
1.144409
1.218915
1.219511
1.148582
1.234412
1.169443
1.256466
1.187921
1.340508
1.485944
1.167655
1.531839
1.365542
1.365542
1.282692
1.498461
1.577735
1.665950
1.859665
1.817942
1.917481
2.047420
2.360940
2.821684
4.753470
27.235746
75.275898
204.101801
363.937616
666.472912
925.554633
1015.788913
1015.788913
1015.788913
1015.788913
1015.788913
882.529020
565.394759
357.948542
164.409876
80.590844
27.427673
15.322566
17.306805
23.131967
37.573576
51.010847
72.319508
89.618564
107.146502
112.750530
113.312602
105.781555
90.199709
75.305700
53.057671
38.874745
26.180744
18.842816
13.214946
11.611581
11.104941
10.747910
11.043549
10.929704
10.542870
10.579824
10.574460
10.475516
10.890961
10.973811
10.809898
10.847449
10.689497
10.698438
10.744929
10.439754
10.741949
10.549426
10.510683
10.443926
9.948611
10.145903
10.089874
9.696484
9.869933
##ZVALUE=310
0.836849
1.124740
1.138449
1.085997
1.120567
1.263618
1.122952
1.125932
1.151562
1.117587
1.344681
1.182556
1.316667
1.207590
1.156926
0.867844
1.080632
1.137853
1.111627
1.207590
1.420975
1.258850
1.395941
1.363754
1.355410
1.475811
1.377463
1.764894
1.443624
1.585484
1.592636
1.916885
1.897812
2.223849
2.172589
2.509952
2.828836
11.891723
39.157867
127.736926
248.255730
511.026978
770.611763
1015.788913
1015.788913
1015.788913
1015.788913
1015.788913
1015.788913
733.867884
487.145782
244.303942
129.700899
44.328570
18.473864
12.129545
15.149713
21.629930
30.545592
47.427416
61.838627
82.329512
94.839931
105.075836
107.636452
101.131797
89.975595
71.668625
55.650473
38.229823
28.077960
18.431544
15.242696
11.914968
11.202693
10.715723
10.879636
10.333657
10.381937
11.064410
10.588765
10.225773
10.392666
10.496974
10.761619
10.819435
10.850430
10.522604
10.634661
10.727644
10.923743
10.432601
10.382533
9.987950
10.068417
9.732842
##ZVALUE=315
1.060963
0.983477
1.092553
0.957847
0.972748
1.061559
1.040697
0.984669
1.082420
1.139641
1.163483
1.137853
1.119971
1.073480
1.124740
1.087785
1.127720
1.166463
1.040697
1.210570
1.303554
1.194477
1.265407
1.301765
1.472831
1.349449
1.387596
1.510978
1.439452
1.517534
1.528859
1.434684
1.484752
1.690984
1.827478
1.992583
2.140999
2.336502
2.521873
5.987883
21.381974
86.497664
182.176828
402.822495
636.456609
990.594625
1015.788913
1015.788913
1015.788913
1015.788913
1015.788913
883.300900
627.608895
330.969691
178.291798
64.621568
26.136637
11.254549
11.147857
14.432669
19.729733
29.856563
41.383505
59.756637
73.721409
90.350509
99.150538
101.342797
96.531510
83.893538
70.397854
52.498579
40.346980
26.354790
19.642711
14.388561
11.894703
10.749698
10.463595
10.348558
10.589957
10.442734
10.669827
10.766983
10.702610
10.708570
11.161566
10.692477
10.976791
11.050701
10.917783
10.582805
10.541677
10.323524
10.495782
10.032654
##ZVALUE=320
1.041889
0.980496
1.010895
0.909567
1.070499
1.154542
1.008511
1.072884
0.991821
1.018643
0.939965
0.940561
1.174808
1.122952
1.031756
1.037717
1.039505
1.099706
1.176000
1.063943
1.212955
1.151562
1.281500
1.185536
1.303554
1.115799
1.296997
1.240969
1.432896
1.328588
1.275539
1.564622
1.399517
1.616478
1.590848
1.794696
1.727939
2.068877
2.130866
2.279878
2.389550
3.143549
9.723902
51.349998
125.994682
312.228799
510.958433
831.329823
1015.788913
1015.788913
1015.788913
1015.788913
1015.788913
1015.788913
721.715689
476.594567
240.953565
122.451782
41.259527
17.246604
9.819865
9.956956
12.864470
17.137527
26.587844
37.147999
54.163933
68.771839
85.683465
93.504786
95.396638
92.402697
79.290867
67.998767
51.201582
39.786696
27.060509
19.527674
14.433861
12.232661
11.486411
10.944605
10.607839
10.949969
10.549426
11.255741
10.988712
10.971427
10.654926
10.862947
10.463595
10.752678
10.536909
10.355711
10.188818
10.023713
##ZVALUE=325
0.915527
0.955462
0.953674
0.914931
1.014471
1.057982
1.056790
1.064539
0.899434
1.110435
0.959635
0.887513
1.029968
0.948906
0.891685
1.035929
1.017451
1.154542
1.166463
0.941753
1.070499
1.229644
1.091957
1.214743
1.199841
1.126528
1.247525
1.295805
1.295805
1.275539
1.297593
1.227856
1.518726
1.534820
1.500845
1.650453
1.653433
1.624823
1.590848
1.924634
1.995564
2.060533
2.365708
2.737641
5.891919
37.158728
94.029903
228.397846
400.996804
719.429851
979.382992
1015.788913
1015.788913
1015.788913
1015.788913
1015.788913
831.730962
520.051718
319.827795
144.100785
70.532560
23.026466
10.624528
9.386539
9.480715
12.468696
16.332865
26.118755
36.867857
53.487420
66.360831
80.341697
87.921619
89.776516
85.302591
73.742867
62.517524
46.780705
36.044717
24.651885
19.114614
14.459491
12.341738
11.334419
11.110902
11.021495
10.732412
10.485649
10.672808
10.781884
10.639429
10.446906
10.634661
10.331869
10.256767
10.350943
##ZVALUE=330
0.877976
0.821948
1.050830
1.010895
0.820756
0.730753
0.882745
0.832677
0.924468
1.002550
0.861883
0.970960
0.866652
0.941753
1.084805
1.044869
1.068711
1.098514
1.228452
0.932813
0.996590
1.022816
1.035929
0.970960
0.952482
1.109838
1.138449
1.332760
1.227856
0.951886
1.310706
1.329780
1.395941
1.231432
1.414418
1.360774
1.339912
1.522899
1.597404
1.630783
1.576543
1.763701
1.866817
1.948476
2.172589
2.419949
3.417730
17.200708
54.639578
172.815919
317.456722
605.590940
861.038566
1015.764475
1015.764475
1015.764475
1015.764475
1015.764475
984.850526
635.880828
405.992866
188.834667
94.228983
32.729506
14.409423
8.773804
8.766651
9.733438
12.091994
17.589927
24.195910
36.463737
47.330856
63.565969
75.205564
82.939863
84.733963
80.139637
71.111917
56.787729
45.011640
32.207966
24.784803
18.530488
15.033484
12.506843
11.326671
10.996461
10.831952
10.803938
10.461807
10.177493
10.389686
9.882450
9.917617
9.781718
##ZVALUE=335
0.927448
0.846982
0.932813
0.842810
0.788569
0.916719
0.858903
0.977516
1.045465
0.928640
0.906587
0.869632
1.029968
0.846982
0.887513
1.076460
0.935793
1.008511
1.009703
0.975728
1.010895
0.954866
1.259446
1.112819
1.140833
1.024604
1.231432
1.092553
1.313686
1.134872
1.277924
1.179576
1.229644
1.297593
1.307726
1.267791
1.342893
1.445413
1.385808
1.517534
1.551509
1.601577
1.638532
1.598597
1.857877
2.220869
1.882911
2.208948
2.710819
8.727908
30.740499
111.102462
219.595432
458.048582
708.590746
1015.788913
1015.788913
1015.788913
1015.788913
1015.788913
1015.788913
773.743987
521.738529
267.829895
139.829516
46.306849
19.199848
9.411573
8.759499
9.007454
9.794831
12.311935
15.705824
24.499893
33.431649
47.867894
58.562756
70.442557
77.671409
78.682899
75.117946
64.323545
55.330992
43.181777
34.451485
24.854541
18.813610
14.321804
12.099743
10.907650
10.863543
9.957552
9.887815
9.710789
9.690523
9.774566
##ZVALUE=340
0.852942
0.836849
0.894666
1.023412
0.929832
0.974536
1.056790
0.997782
0.974536
0.877976
0.960827
0.891685
0.899434
1.048446
0.963807
0.896454
0.947714
0.863671
1.015663
1.045465
1.042485
1.041889
1.110435
1.008511
0.964999
1.078844
1.055598
0.981688
1.214743
1.011491
1.192689
1.067519
1.154542
1.120567
1.127720
1.109838
1.283884
1.482964
1.198649
1.456738
1.405478
1.421571
1.441836
1.456738
1.446605
1.621842
1.889467
1.927614
1.884699
2.160668
2.378821
3.628731
13.744831
64.519644
153.207779
365.283489
587.408543
920.316577
1015.788913
1015.788913
1015.788913
1015.788913
1015.788913
892.988443
635.059476
328.190923
181.720853
73.252916
29.392838
10.651946
8.751750
8.672476
8.948445
10.238886
11.795759
16.612411
22.147894
33.036470
43.101907
56.978464
66.261888
73.590875
74.177980
70.129633
64.885616
52.840710
43.006539
31.988621
25.179982
18.174648
14.293790
11.520982
10.211468
9.726882
9.676814
9.680986
##ZVALUE=345
0.767708
0.987649
0.828505
0.859499
0.869632
0.745654
0.833869
1.015663
0.880957
0.925660
0.942945
1.004934
1.004934
0.903606
0.942945
0.875592
0.955462
0.897646
0.982881
1.013875
1.013875
0.917912
1.017451
1.002550
1.004934
1.113415
1.075864
0.959635
1.027584
0.952482
1.166463
1.003742
1.118779
1.107454
1.180768
0.948906
1.245737
1.067519
1.182556
1.203418
1.280904
1.427531
1.362562
1.419783
1.376867
1.691580
1.625419
1.611710
1.720786
1.775622
1.868606
2.032518
2.217889
2.733469
6.039739
38.802624
108.176470
277.430415
471.143723
793.525577
1015.788913
1015.788913
1015.788913
1015.788913
1015.788913
1000.299454
760.048628
440.894961
246.474743
97.020864
42.798519
14.207959
9.498000
8.423924
8.453727
8.407831
8.803606
11.204481
13.955832
21.234751
28.707981
40.821433
49.719810
59.400797
65.075755
67.682862
65.646768
58.644414
52.505732
40.867925
32.522678
22.854805
17.926693
13.140440
10.663867
9.706616
##ZVALUE=350
0.895858
0.887513
0.909567
0.857711
0.962615
0.819564
1.017451
0.899434
1.052618
1.018643
0.816584
0.733733
1.007915
0.770688
0.946522
0.789762
0.906587
0.987649
1.014471
0.871420
0.917912
1.058578
1.284480
1.069903
1.038909
1.052618
1.156926
1.052618
1.118779
0.991821
1.129508
0.923872
1.021624
1.068711
1.138449
1.106858
1.106858
1.121759
1.107454
1.207590
1.402497
1.267791
1.291633
1.308918
1.322627
1.400709
1.404881
1.421571
1.575947
1.732707
1.722574
1.569986
1.819730
1.908541
2.177954
2.429485
3.425479
16.963482
52.484870
164.200664
308.291912
597.029924
856.070518
1015.787721
1015.787721
1015.787721
1015.787721
1015.787721
882.346034
535.977483
316.099524
140.160918
64.253807
18.480420
9.683967
7.895827
7.649660
7.605553
7.739663
8.325577
9.881854
13.921857
18.625855
26.726723
34.436584
45.328736
53.392649
60.707927
62.021613
61.178803
56.517720
46.847463
39.636493
30.148625
23.444891
16.921759
##ZVALUE=355
0.968575
0.827909
0.893474
0.963807
1.030564
0.891685
0.888705
1.014471
0.910759
0.975728
0.943542
0.900626
0.841618
1.024604
0.936985
0.881553
1.008511
0.966787
0.913739
0.976920
1.029968
1.018643
1.001954
1.098514
1.029968
1.123548
1.052618
0.985861
1.061559
1.090765
1.098514
1.153946
1.247525
1.000762
1.154542
1.119971
1.250505
0.994802
1.292825
1.058578
1.122952
1.211762
1.307726
1.250505
1.317859
1.203418
1.356602
1.330972
1.605749
1.526475
1.537800
1.654625
1.729727
1.892447
1.864433
1.962781
2.115965
2.449751
2.700686
8.876920
30.493736
112.702847
229.209661
479.079485
735.670924
1015.788913
1015.788913
1015.788913
1015.788913
1015.788913
1005.495787
688.839555
435.237885
191.732645
91.495514
26.888847
11.491776
7.983446
7.382631
7.206798
7.335544
7.281899
7.707477
9.321570
11.722445
16.846657
21.930933
31.194687
38.198829
47.117472
52.928925
55.687428
55.576563
51.741600
46.259761
37.336946
##ZVALUE=360
0.964999
1.035929
0.953674
0.878572
0.811815
1.091957
1.011491
0.691414
0.830889
1.031756
0.923872
0.985861
1.099706
0.985861
0.997782
0.925660
0.980496
0.984669
0.988841
1.106858
0.935793
1.132488
0.859499
1.114607
1.077652
1.078844
1.095533
1.029968
1.057982
0.959635
1.106858
1.105666
1.060963
1.275539
1.053810
1.152754
1.323819
1.241565
1.156926
1.195669
1.057982
1.216531
1.259446
1.327991
1.364946
1.349449
1.330972
1.298785
1.433492
1.477599
1.441836
1.462698
1.532435
1.548529
1.823902
1.797676
1.911521
2.044439
2.228618
2.209544
2.719760
4.059672
13.154745
56.598783
135.888457
344.842672
573.904514
931.956768
1015.789509
1015.789509
1015.789509
1015.789509
1015.789509
797.680616
523.052812
255.413651
131.374598
46.848655
17.770529
7.797480
7.150769
6.802678
6.633997
6.477833
6.725788
7.053614
7.936954
9.778738
12.685657
18.221736
24.046898
33.443570
39.545894
46.527982
49.900413
51.110983
##ZVALUE=365
1.007915
1.025796
0.953674
0.830889
0.866652
0.830889
0.960827
0.942945
0.946522
0.899434
1.059771
0.929832
0.979900
1.061559
0.848770
1.075864
0.963807
1.050830
0.904799
1.011491
1.055598
0.990629
1.104474
0.940561
0.978708
1.090765
1.058578
1.088977
1.052618
0.977516
0.988841
1.127720
0.885725
1.176000
1.186728
1.090765
1.110435
1.074672
1.117587
1.158714
1.090765
1.067519
1.361966
1.267791
1.276731
1.223683
1.121759
1.264811
1.369715
1.339912
1.535416
1.409650
1.537800
1.592636
1.437664
1.666546
1.578927
1.767874
1.827478
1.911521
2.058744
2.144575
2.438426
2.933741
5.775690
30.586720
83.743930
231.032968
421.370864
750.174522
1000.105739
1015.788913
1015.788913
1015.788913
1015.788913
888.419747
619.216561
334.620476
182.416439
66.067576
26.411414
8.667707
6.922483
6.645918
6.269813
6.108880
6.218553
6.088614
6.143451
7.008910
8.262992
11.530519
14.956594
21.143556
26.668906
34.298897
##ZVALUE=370
0.925660
0.906587
0.958443
0.931621
0.880957
0.807643
0.865459
0.911951
0.845790
0.805855
0.991821
0.970960
0.919700
0.924468
0.812411
0.940561
0.973940
0.818968
1.002550
0.839829
0.975728
0.997782
0.900626
0.861883
0.851750
0.940561
0.946522
1.136661
1.007915
1.101494
0.885725
0.986457
1.027584
1.067519
1.194477
1.013875
1.108646
1.059771
1.063943
1.101494
1.078844
1.034737
1.076460
1.199841
1.128912
1.189709
1.188517
1.191497
1.179576
1.233816
1.364946
1.288652
1.304746
1.464486
1.410842
1.351833
1.419783
1.546741
1.541972
1.604557
1.749992
1.923442
1.938939
2.028942
2.199411
2.497435
3.639460
17.305613
53.435564
164.577961
308.174491
590.842962
860.150456
1015.788913
1015.788913
1015.788913
1015.788913
992.679596
739.886761
404.084921
225.775838
86.621642
38.512945
13.198853
7.100701
6.061792
5.956888
5.745888
5.517602
5.644560
5.652905
5.534887
5.895495
7.404685
9.577870
13.506413
##ZVALUE=375
0.851750
0.916719
0.857711
0.925660
0.958443
0.801682
0.862479
0.866652
0.863671
0.865459
0.915527
0.901818
0.940561
0.800490
0.841618
0.950694
0.934601
0.810623
0.926852
0.873804
0.901818
0.914931
0.943542
0.961423
0.849962
1.084805
0.926852
0.791550
1.038909
0.948906
0.977516
0.915527
0.770688
1.016855
1.023412
0.975728
1.122952
0.936985
1.030564
1.025796
1.013875
1.079440
1.037717
1.133680
1.049638
1.081824
1.112819
1.135468
1.066923
1.158714
1.100898
1.082420
1.152754
1.352429
1.424551
1.254678
1.371503
1.355410
1.398921
1.331568
1.486540
1.348853
1.287460
1.638532
1.736879
1.867414
1.944900
2.500415
2.541542
8.571744
29.897690
101.891756
217.039585
485.263467
753.340721
1015.781760
1015.781760
1015.781760
1015.781760
1015.781760
906.430483
543.957949
333.491564
148.850679
71.560740
22.335649
9.462833
5.998611
5.534887
5.544424
5.365610
5.076528
5.002618
4.969835
5.017519
5.191565
##ZVALUE=380
0.872612
0.789762
0.791550
0.883937
0.790954
0.826716
0.877976
0.813603
0.836849
0.915527
0.763535
0.869632
0.943542
0.891685
0.839829
0.814795
0.780821
0.889897
0.796914
0.884533
0.867844
0.813603
1.087785
0.875592
0.960827
0.891685
0.911951
0.876784
0.803471
0.846982
0.874996
0.886917
0.983477
1.029968
1.140833
0.936985
1.129508
1.070499
1.006722
1.119971
0.991821
0.972748
0.960827
1.069903
1.037717
1.043677
1.114607
0.966787
1.064539
1.092553
1.088977
1.099706
1.135468
1.192689
1.235604
1.157522
1.106858
1.304746
1.272559
1.238585
1.332760
1.331568
1.535416
1.489520
1.545548
1.687407
1.876950
2.031922
2.373457
2.364516
2.667904
4.944801
17.054677
76.416731
174.811482
410.831571
667.915940
1008.065939
1015.782952
1015.782952
1015.782952
1015.782952
1015.782952
727.045536
476.669669
227.292776
112.082958
36.935806
14.393926
6.300807
5.575418
5.325675
5.039573
4.802942
4.690886
4.663467
##ZVALUE=385
0.725985
0.845790
0.806451
0.749826
0.742674
0.658631
0.684857
0.683665
0.815988
0.694990
0.711679
0.779629
0.687838
0.756979
0.671744
0.867844
0.778437
0.654459
0.689626
0.668764
0.839829
0.750422
0.804663
0.840425
0.760555
0.813603
0.854731
0.922680
0.791550
0.817776
0.967979
0.834465
0.953674
0.912547
0.879765
0.867844
1.066923
0.978708
0.942945
0.877976
0.844598
0.991821
0.972748
0.947714
1.007915
0.949502
0.984669
1.064539
0.936985
0.940561
0.945926
1.019835
0.924468
0.994802
1.014471
1.176596
1.139641
1.054406
1.253486
1.015663
1.232624
1.280904
1.186728
1.258850
1.365542
1.544952
1.481771
1.609921
1.818538
1.991987
2.149940
2.264977
2.437830
2.935529
8.388758
43.634772
110.186934
278.822780
490.558743
878.509879
1015.700698
1015.700698
1015.700698
1015.700698
1015.700698
973.680615
688.384771
368.680954
204.903483
79.868436
29.236674
7.714629
5.342960
4.674792
4.396439
4.560947
##ZVALUE=390
0.805855
0.869632
0.790954
0.727773
0.688434
0.766516
0.903606
0.779629
0.746846
0.864863
0.823736
0.784993
0.794530
0.861883
0.731945
0.698566
0.939965
0.807643
0.888705
0.799894
0.813603
0.838637
0.923872
1.018643
0.766516
0.790954
0.939965
0.951886
0.863671
0.893474
1.021624
0.988841
0.967979
0.946522
1.021624
1.071692
1.011491
0.883937
1.036525
1.021624
0.952482
0.935793
0.921488
1.029968
1.057982
0.986457
1.097918
1.084805
1.011491
1.051426
0.939965
1.073480
1.156926
1.033545
1.087785
1.167655
1.099706
1.159906
1.248717
1.124740
1.123548
1.165867
1.258850
1.336932
1.333952
1.405478
1.304746
1.634955
1.673698
1.870990
2.068877
2.019405
2.192855
2.250671
2.248883
2.498627
4.340410
23.028851
66.501498
196.871758
369.427800
686.791539
947.005749
1015.788913
1015.788913
1015.788913
1015.788913
1015.788913
806.712508
488.313437
280.457735
110.557675
48.769712
13.703704
5.928874
4.604459
##ZVALUE=395
0.721812
0.715852
0.834465
0.610948
0.763535
0.772476
0.767708
0.733733
0.817776
0.863671
0.737906
0.806451
0.876784
0.774860
0.810623
0.878572
0.919700
0.922680
0.744462
0.858903
0.924468
0.756979
0.737906
0.894666
0.877976
1.021624
0.810623
0.880957
0.841618
0.928640
1.000762
0.960827
0.898838
0.977516
1.045465
1.003742
1.083612
0.961423
1.051426
0.852942
1.001954
1.014471
0.958443
1.031756
1.117587
1.011491
1.151562
1.130700
1.073480
1.046658
1.240969
1.156926
0.962615
1.154542
1.029968
1.077652
1.032948
1.256466
1.159906
1.221895
1.182556
1.111627
1.307726
1.210570
1.250505
1.347661
1.391768
1.704693
1.689792
1.691580
1.797676
1.753569
1.768470
1.868606
1.821518
1.975894
1.992583
2.264977
3.030896
14.324784
49.169660
160.528421
300.389528
561.074615
818.879604
1015.788913
1015.788913
1015.788913
1015.788913
1015.788913
950.261950
582.342744
369.513631
173.501968
82.171559
24.955869
##ZVALUE=400
0.957847
0.864863
0.799894
0.623465
0.724792
0.814795
0.886917
0.759959
0.734925
0.745654
0.766516
0.785589
0.844598
0.772476
0.891685
0.888705
0.866652
0.871420
0.873804
0.816584
0.934601
0.875592
0.814795
0.874996
0.858903
0.787973
1.058578
0.863671
0.986457
0.984669
0.917912
0.800490
0.871420
1.191497
0.987649
1.057982
1.124740
0.918508
1.012683
0.981688
0.944734
0.859499
1.017451
1.112819
0.989437
1.076460
0.996590
1.024604
1.069903
1.141429
1.103878
1.066923
1.070499
1.059771
1.074672
1.161695
1.160502
1.152754
1.050830
1.056790
1.285672
1.121759
1.237988
1.267791
1.254678
1.251698
1.373887
1.551509
1.578927
1.558661
1.724958
1.993775
1.899600
1.704693
1.788735
1.931787
1.877546
1.916885
2.228618
2.097487
2.651811
7.677674
27.974844
101.483464
212.322474
459.304452
708.217025
1014.520526
1015.788913
1015.788913
1015.788913
1015.788913
1015.788913
752.136707
486.837626
239.194632
##END
