##TITLE=FKDZ0151
##FORMAT=SPECTACLE-ASCII V-1.2
##DATA TYPE=ULTRAVIOLET SPECTRUM
##SECOND TYPE=ULTRAVIOLET SPECTRUM
##DATE=11/28/17
##TIME=16:06:59
##SPECTROMETER/DATA SYSTEM=SPECTACLE
##XUNITS=NM EM
##YUNITS=ENERGY
##YFACTOR=1
##FIRSTX=220
##LASTX=410
##NPOINTS=96
##3DDATA=Equidistant
##ZUNITS=NM EX
##FIRSTZ=210
##LASTZ=400
##ZPOINTS=39
##XYDATA=(Y..Y)
##ZVALUE=210
14.137626
12.783408
11.321902
8.136630
7.265806
7.299781
6.976724
8.040667
8.115768
9.378791
8.445978
8.427501
8.451939
9.120703
9.348989
10.525584
11.325479
11.384487
11.951923
14.072657
15.597939
17.168522
18.879771
18.408895
20.120740
20.434856
21.134615
23.434758
23.822784
26.493669
24.365783
25.968552
27.387738
28.763413
27.060509
29.755831
30.065775
31.111836
32.243729
32.580495
31.580925
33.596754
33.816695
36.796927
36.108494
34.992695
37.473440
36.884546
37.985444
39.056540
40.125847
40.382743
40.533543
41.134953
40.784478
41.994452
42.571425
41.512847
43.747425
43.341517
44.279695
42.727590
46.424866
46.929717
46.472549
47.679543
51.362514
57.330728
65.016747
77.743530
89.990497
110.896826
131.510496
156.685710
174.195766
201.108456
217.343569
228.619576
225.640535
229.370594
219.036937
199.403763
175.293684
143.004656
112.729669
82.541704
67.404509
55.047870
47.385693
43.855906
43.871999
44.160485
44.415593
48.166513
47.290921
51.750541
##ZVALUE=215
53.776503
48.138499
45.873523
31.366944
25.349855
17.072558
12.943745
11.581779
11.810660
12.406707
11.614561
11.632442
10.940433
10.332465
9.011626
9.252429
9.914637
11.147857
11.372566
11.351705
13.050437
13.410449
14.679432
15.481710
16.065836
18.212795
19.407868
20.484924
22.127628
23.459792
21.406412
25.312901
24.938583
28.649569
26.440620
28.228760
28.344989
27.073622
29.030442
29.109716
28.917789
27.705431
30.677915
30.865669
30.060410
32.145977
31.160712
30.314922
32.882690
32.716990
32.315850
30.878782
33.483505
32.583475
35.420656
34.572482
34.482479
35.677552
34.283996
35.340786
37.040710
35.966635
38.460493
36.594868
35.888553
36.562681
39.608479
46.519637
49.073696
58.804750
69.897771
82.447529
94.529986
112.347603
120.714903
136.590004
143.929720
147.408843
145.689845
146.002769
137.144923
124.840736
107.773542
85.350871
71.928501
60.433745
46.869516
36.821961
35.499930
33.667684
33.544898
30.894876
30.366778
29.847622
28.644800
31.758547
##ZVALUE=220
123.971701
122.942924
137.261748
132.579803
116.757751
93.582869
69.885850
43.930411
27.535558
20.230412
20.900965
21.023750
20.016432
17.209649
15.357733
14.460683
12.309551
10.502934
10.558963
9.820461
11.567473
12.257695
11.780858
13.884902
16.119480
15.502572
17.622709
18.523932
19.881725
20.095706
21.777749
20.073652
23.690462
23.960471
25.283694
25.344491
24.930835
25.389791
24.715662
25.125742
24.755597
26.554465
23.561716
24.981499
26.829839
26.333928
26.621819
26.738644
25.178790
24.987459
27.108788
26.792884
28.494000
29.249787
29.476881
27.932525
29.469728
28.561950
27.918816
28.224587
27.177930
31.193495
28.939843
28.170943
27.996898
29.564500
32.332540
32.521486
37.911534
42.403936
47.465563
56.122541
64.792633
73.134899
84.983706
84.928870
89.592934
91.354847
96.146464
95.155835
86.787939
82.451701
71.576834
63.332915
47.033429
43.085814
32.620430
30.370951
26.959777
23.596883
24.421811
22.817850
22.570491
20.802617
22.411942
22.892952
##ZVALUE=225
144.217610
149.038434
195.848942
251.517892
264.769793
260.164738
231.828690
179.641843
130.181909
88.478923
47.732592
38.894415
35.193563
34.028888
33.725500
31.465888
28.178692
24.338961
18.868446
14.459491
12.603998
11.502504
12.469888
11.660457
11.944771
12.332797
14.788508
15.434623
16.120672
17.812848
17.554760
19.495487
19.950867
21.453500
22.494793
20.595789
19.378662
21.637678
21.856427
23.203492
20.548701
20.368695
20.001531
21.582842
23.019910
24.632812
22.061467
22.872686
24.445653
23.443699
25.173426
22.593737
23.773909
23.323894
24.497509
24.774671
24.934411
25.369525
25.219917
26.387572
25.680661
24.782419
26.775599
27.343631
26.559830
26.230812
28.879642
28.507710
32.436848
36.982894
38.116574
45.338869
47.664642
55.016875
58.064461
61.891675
64.488649
62.306523
65.635443
61.358809
57.341456
51.171780
46.629906
39.326549
35.278797
30.011535
29.498935
24.382472
22.953749
22.066832
20.572543
18.392801
20.581484
20.004511
18.555522
20.123720
##ZVALUE=230
91.334581
98.632574
162.541866
275.617838
359.195471
445.868969
477.801561
464.859605
413.685441
333.653688
218.884945
140.220523
82.318783
60.962439
51.582456
52.066445
55.722594
53.519607
50.876737
40.505528
32.196641
23.668408
17.069578
14.532804
11.650920
11.889935
12.145638
12.420416
13.282895
15.601516
15.396476
15.228987
16.981959
18.126965
17.880797
18.345714
19.528866
17.844439
18.890500
19.823909
20.868778
21.654963
21.351576
21.759868
23.209453
22.802949
26.407838
23.068786
26.143789
25.264621
24.898648
27.724504
29.373765
27.503967
29.699802
29.530525
28.032660
30.476451
28.836727
29.853582
32.508969
30.642748
31.313896
29.546618
31.863451
31.201839
29.906631
33.585429
37.162900
39.161444
41.492581
46.833754
48.833489
53.200722
57.812929
58.634877
57.542920
58.323741
58.573484
55.642724
53.219795
44.365525
46.963692
39.978623
36.124587
34.841895
30.297637
27.493834
27.007461
25.119781
23.361444
23.580790
22.378564
22.687912
21.515489
21.357536
##ZVALUE=235
25.358796
30.140877
62.514544
154.335499
257.230997
427.058935
557.518005
727.675557
793.824792
790.332556
679.440498
547.807813
367.186666
244.666934
151.242614
102.425814
77.673793
78.449845
87.564588
87.659955
80.698729
68.723559
58.326721
41.810870
29.753447
21.213889
17.012954
12.722611
12.507439
13.328791
12.778640
14.327765
13.937950
15.226603
17.330647
14.968514
15.510917
16.464591
17.222762
19.674897
20.088553
19.819736
20.411611
23.058653
23.422837
25.460720
27.814507
28.134584
30.501485
31.633973
30.245781
33.882856
35.550594
37.093759
37.027597
37.509799
37.097931
36.962628
38.380623
38.855672
38.329959
39.876699
38.077831
36.903620
37.115812
37.909746
40.608644
40.717721
43.281913
42.135715
45.597553
48.210621
52.468777
55.328608
55.312514
59.890747
57.436824
56.121945
54.788589
51.039457
48.718452
46.438575
38.013458
35.949945
34.616590
31.673908
29.813647
30.468702
30.092597
25.991797
27.417541
25.094748
25.218725
25.072694
24.990439
23.972988
##ZVALUE=240
3.820658
2.986789
10.280609
30.370951
86.227655
172.074437
336.924791
502.503514
760.834813
918.638706
1015.788913
1014.069915
925.020576
722.380877
558.318496
337.577462
224.132538
135.798454
107.257962
102.000833
106.529593
110.689998
112.285614
105.493665
82.399845
66.540837
47.197938
37.106872
23.903847
17.553568
15.584826
13.921857
15.479922
14.616847
14.007688
14.480948
15.689731
16.331673
16.459823
18.565655
21.331906
22.755861
25.699735
27.171969
30.634999
33.215880
33.595562
36.908984
42.255521
41.047931
41.374564
45.727491
42.764544
48.693419
48.155785
47.869682
48.632622
48.590899
46.740770
47.634840
47.367811
47.714710
48.916936
49.748421
49.090981
47.716498
48.232675
47.485828
48.687458
50.116777
52.893758
56.125522
57.212710
59.341788
57.919621
60.853958
57.444572
56.054592
51.274896
51.729679
48.312545
45.358539
40.728450
40.118694
40.246844
35.812855
34.929514
33.080578
34.125447
31.190515
29.101968
26.440620
27.616620
26.833415
27.288795
25.753975
##ZVALUE=245
3.210902
2.368689
3.305674
3.017783
7.061958
19.826889
69.799423
139.530897
320.159793
496.962667
767.769814
954.087973
1015.788913
1015.788913
1015.788913
892.772675
703.805685
465.287566
307.940841
168.306828
118.991733
97.751617
106.974840
118.960738
124.187469
121.426582
110.005736
97.279549
73.014498
58.149695
43.249726
27.225614
20.002723
15.363693
14.743805
15.304685
14.715791
15.409589
16.694665
18.068552
20.150542
21.953583
24.096966
27.328730
30.846000
34.352541
38.418770
39.418936
43.438673
44.973493
48.642755
49.488544
50.847530
52.111745
52.704811
52.972436
50.709844
52.171946
50.692558
51.713586
50.567985
49.966574
47.555566
49.284697
49.281716
47.798753
46.346784
46.605468
46.360493
48.721433
50.337911
50.359964
50.333738
53.222775
49.793720
49.776435
50.791502
46.879649
46.972632
43.962598
41.663647
37.634969
36.506653
34.462810
34.054518
31.680465
32.003522
28.948784
29.555559
28.556585
27.522445
25.984645
26.805997
25.390983
21.967888
23.085475
##ZVALUE=250
2.366900
2.280474
2.362728
2.476573
2.850890
2.750754
4.368424
11.673570
50.660968
112.296939
269.110799
437.457561
643.023849
925.055742
1015.785933
1015.785933
1015.785933
1015.785933
912.771821
617.233515
415.636897
263.032913
143.015981
106.549859
100.648999
115.820765
126.159787
136.588812
128.480792
120.305419
107.085705
81.546903
60.866475
39.656758
28.717518
19.851923
15.670657
15.373826
16.170740
18.388629
19.047856
23.406744
24.817586
28.620958
32.461882
35.379529
37.836432
41.069984
43.916702
45.389533
48.333406
50.356984
50.763488
48.754811
52.150488
51.329732
51.281452
50.211549
51.769614
48.263669
48.771501
48.571825
49.972534
46.877861
43.198466
43.197870
42.605996
43.730736
40.746927
41.105747
42.660832
40.089488
42.695999
41.841865
41.688681
39.056540
39.040446
40.683746
36.730766
34.433603
35.128593
31.261444
31.617880
28.982759
27.782917
26.498437
25.589466
24.501681
25.776625
23.652911
22.652745
20.839572
21.704435
21.925569
21.010637
20.416975
##ZVALUE=255
2.105832
2.313852
2.075434
1.967549
2.634525
2.225637
2.461672
2.825856
2.777576
6.906986
33.703446
83.702803
173.735023
370.271802
573.253632
896.787643
1015.788913
1015.788913
1015.788913
1015.788913
1015.788913
877.437592
546.903610
346.938968
178.661942
115.357637
91.514587
97.224712
120.781660
134.444833
142.811537
141.852498
127.373934
105.763674
85.010529
58.050752
43.210983
28.774738
23.074746
20.149946
20.515919
21.943450
24.052858
26.634932
29.025674
34.101605
34.173727
37.301779
39.178729
41.733980
43.669939
43.720603
44.515729
45.862794
45.847893
44.671893
45.768619
46.684742
44.479966
44.125915
41.576624
40.840507
41.031837
39.399862
39.359927
37.221909
36.109686
34.285784
34.173727
34.065843
35.020709
34.295917
34.733415
33.379793
32.905936
34.239888
32.387972
31.617880
29.127598
28.754473
26.079416
26.011467
25.720000
23.946762
21.986961
22.371411
22.158623
21.002889
20.863414
19.125938
18.721819
19.208789
19.755960
18.284917
18.709898
18.503666
##ZVALUE=260
1.860857
1.935959
2.124906
1.975894
1.903772
1.895428
2.263784
2.427697
2.445579
2.669692
3.178716
3.828406
13.235807
54.575801
125.660896
307.159424
497.807860
809.466839
1015.788913
1015.788913
1015.788913
1015.788913
1015.788913
1015.788913
702.719688
471.185446
266.264677
160.135627
93.171597
82.608461
95.255971
121.264458
137.555599
147.709846
146.779418
130.485892
113.202929
86.550713
67.703724
46.047568
36.353469
26.819706
25.202632
26.143789
25.495887
29.139519
29.402971
31.573772
32.517910
34.229755
34.374595
35.386682
37.023425
36.010742
36.225915
35.862923
36.105514
34.821630
34.111738
34.681559
34.948587
33.166409
31.694770
30.455589
30.539632
30.358434
28.630495
28.389692
29.363632
28.727651
28.208494
29.387474
28.386712
28.474927
27.594566
27.547479
25.944710
27.191639
24.462938
23.439527
24.388433
21.395683
21.433830
20.065904
20.081997
18.099546
18.280745
18.645525
18.520951
17.141700
16.571879
16.904473
16.568899
16.082525
15.371442
15.371442
##ZVALUE=265
1.960993
1.806617
1.764894
1.868606
1.941919
1.918674
1.897812
2.198815
2.082586
1.907945
2.485514
2.415776
2.601743
3.105998
7.653832
27.556419
97.949505
210.493803
458.310843
709.630847
1015.788913
1015.788913
1015.788913
1015.788913
1015.788913
1015.788913
976.520777
610.012412
390.755534
197.570920
116.902590
76.210499
80.177784
105.969906
125.265718
144.961476
150.620937
147.608519
135.485530
112.568736
91.373920
66.972971
50.517917
36.855936
30.140877
26.355982
25.751591
27.448535
26.789904
28.795600
29.054880
29.867887
29.253960
30.310750
29.089451
28.992891
29.589534
27.664900
28.488636
27.663708
26.856661
26.183724
25.652647
24.946928
24.276972
23.822784
23.495555
24.124980
23.850799
24.349689
24.329424
23.792982
24.400949
24.045706
24.147630
23.646951
23.048520
22.970438
21.694899
21.003485
20.682812
19.088984
18.459558
17.353892
16.824603
17.091632
15.654564
15.963912
15.762448
15.601516
14.987588
14.876723
14.519691
13.938546
13.671517
13.021827
##ZVALUE=270
1.589656
1.890659
1.718998
1.608729
1.608729
1.694560
1.695752
1.955628
2.113581
1.939535
2.233982
2.121925
2.299547
2.453923
2.196431
3.164411
3.697872
16.938448
52.137971
175.733566
353.184938
599.725842
993.631482
1015.788913
1015.788913
1015.788913
1015.788913
1015.788913
1015.788913
898.220539
607.469678
317.559838
171.887875
79.191923
63.330531
82.257986
102.016926
129.138827
148.674846
155.212879
147.829652
136.937499
117.512941
91.823936
71.561933
49.555898
39.356947
30.801892
28.247833
25.065541
25.007725
24.467707
25.557876
24.601817
24.694800
25.092959
23.999810
23.980737
23.696423
24.036765
23.276806
22.583604
22.659898
21.914840
22.173524
21.821856
20.796657
21.222830
21.430850
21.466613
22.222996
22.086501
21.748543
22.270679
22.190809
22.339821
20.847917
20.633936
19.419789
18.184781
18.478632
17.223954
16.847849
16.448498
15.627742
15.926957
14.576912
15.151501
14.227629
13.091564
13.766885
12.863874
13.581514
12.224913
12.201667
12.765527
##ZVALUE=275
1.428723
1.675487
1.432896
1.689792
1.536608
1.788735
1.505613
1.817942
1.743436
1.694560
1.870990
2.287626
2.320409
2.297759
2.235770
2.263784
2.583861
2.725720
2.868772
7.302761
32.200813
98.435879
283.292532
521.605015
946.166515
1015.788913
1015.788913
1015.788913
1015.788913
1015.788913
1015.788913
1015.788913
778.451562
402.429700
226.960778
97.500682
59.745908
58.691502
76.473951
104.656816
124.925971
146.756768
152.647495
149.515867
138.535500
113.684535
94.596744
69.798827
54.285526
38.462877
31.291842
26.184916
24.285913
22.904873
22.448897
23.074746
22.622943
22.586584
22.679567
21.628737
21.682978
21.264553
21.371841
21.138787
21.057725
21.044612
20.556450
20.564795
20.964742
20.808578
21.592975
21.542907
21.719933
21.160841
21.061897
21.414757
20.883679
20.009875
19.008517
18.235445
17.995834
16.849637
16.377568
16.253591
15.050769
14.626980
14.599562
13.785958
13.358593
13.961792
13.281703
13.094544
12.296438
11.994839
11.782646
12.170672
##ZVALUE=280
1.470447
1.520514
1.560450
1.412630
1.772642
1.502633
1.510978
1.486540
1.529455
1.769662
1.768470
1.666546
2.009869
2.024770
2.249479
2.265573
2.056956
2.151728
2.358556
2.796650
3.243685
4.468560
17.989874
88.047981
210.408568
482.258797
764.114857
1015.788913
1015.788913
1015.788913
1015.788913
1015.788913
1015.788913
1015.788913
920.410752
527.310967
312.255621
130.848885
69.246888
45.404434
55.007935
81.523657
102.805495
129.853487
142.207742
150.659680
146.820545
130.837560
113.620758
91.130733
71.643591
52.899718
39.584637
29.072762
25.386810
21.493435
21.265745
20.799637
20.760894
21.343827
20.954609
20.397902
20.621419
20.433664
19.921660
20.397902
20.160675
18.933415
20.695925
20.546913
20.383000
20.569563
21.337867
20.780563
20.741820
20.500422
19.452572
18.876791
18.470883
17.587543
17.378926
16.039610
15.027523
15.553832
14.806986
14.353991
14.478564
13.498664
13.386607
12.877584
12.830496
12.851954
12.429953
12.204647
12.101531
11.010766
##ZVALUE=285
1.630783
1.527667
1.718998
1.542568
1.504421
1.537800
1.548529
1.450777
1.519918
1.614690
1.620650
1.670718
1.718998
2.029538
1.899600
1.882911
2.008677
2.307892
2.210736
2.441406
2.571940
2.797842
2.822876
3.583431
10.647774
38.982630
134.911537
284.138918
594.897866
920.365453
1015.887856
1015.887856
1015.887856
1015.887856
1015.887856
1015.887856
1015.887856
698.256493
426.402688
193.395615
99.982619
44.134855
39.481521
54.916739
73.623657
102.053881
120.395422
139.782429
144.857764
143.341422
133.965611
113.594532
93.987584
69.093704
52.339435
36.912560
28.433800
23.076534
20.307899
19.929409
20.088553
19.435883
19.658804
18.747449
19.349456
19.487739
19.326806
19.446611
20.621419
20.144582
19.711852
19.299984
19.803643
19.574761
19.367933
19.020438
19.238591
18.337965
18.003583
17.640591
16.926527
16.015768
15.543699
14.789701
14.010668
13.663769
13.284683
13.885498
13.369918
13.587475
12.230873
12.066960
11.786819
11.967421
11.601448
10.756850
##ZVALUE=290
1.193881
1.318455
1.405478
1.551509
1.371503
1.411438
1.590848
1.443624
1.555681
1.597404
1.496673
1.528859
1.678467
1.676679
1.505613
1.783967
1.911521
1.692772
1.942515
2.036691
1.975894
2.425909
2.274513
2.538562
2.694726
3.343821
4.200935
21.401644
66.801906
208.635926
398.624539
803.552866
1015.788913
1015.788913
1015.788913
1015.788913
1015.788913
1015.788913
1015.788913
889.969468
575.898886
282.776952
145.299435
55.382848
32.426715
36.517978
48.706532
71.817636
91.331601
114.999413
130.908489
141.604543
139.395595
128.925443
111.217499
86.274743
67.924857
48.475862
36.442876
25.913715
22.135973
19.290447
17.870665
17.386675
16.916990
17.360449
17.891526
17.038584
17.500520
18.495917
18.318892
18.822551
18.833876
17.950535
18.275976
17.636418
17.114878
16.662478
16.431808
16.001463
15.640855
15.001893
14.282465
14.299750
13.762712
13.367534
13.522506
12.570620
12.544990
12.722611
11.912584
11.657476
11.493564
10.931492
11.223555
11.153817
##ZVALUE=295
1.189709
1.251698
1.340508
1.161695
1.245737
1.228452
1.425743
1.255870
1.463890
1.348853
1.376867
1.527667
1.400709
1.452565
1.641512
1.436472
1.578927
1.367927
1.863837
1.784563
2.043843
1.861453
2.059937
2.269745
2.522469
2.546906
2.915859
3.192425
3.393888
6.760955
26.698709
118.359923
269.666910
617.847443
966.180563
1015.788913
1015.788913
1015.788913
1015.788913
1015.788913
1015.788913
1015.788913
761.815906
398.697853
215.838552
77.113509
36.892891
25.227666
31.296611
47.027469
63.256621
87.951422
106.012821
125.031471
133.707523
133.481622
121.885538
104.353428
86.510777
63.415766
48.045516
33.487678
26.267767
20.486712
17.864704
15.806556
16.154647
15.728474
15.812516
16.109943
16.363859
16.117692
16.888976
16.523600
16.562939
16.039610
15.843511
15.390515
14.917850
14.755726
14.281869
13.836622
13.751984
13.156533
12.965798
12.967587
13.070703
12.411475
12.495518
11.863708
11.883974
12.102723
11.293888
11.096597
10.790825
10.945797
##ZVALUE=300
1.183748
1.326799
1.232624
1.237988
1.031756
1.382828
1.366735
1.244545
1.438856
1.380444
1.313686
1.378655
1.466870
1.371503
1.560450
1.636744
1.439452
1.669526
1.515746
1.726747
1.631975
1.901984
1.761913
1.872778
2.198815
2.457500
2.272725
2.552867
2.463460
3.087521
3.192425
4.040599
14.018416
77.191591
186.680555
467.428565
772.449970
1015.788913
1015.788913
1015.788913
1015.788913
1015.788913
1015.788913
1015.788913
953.241587
510.134697
297.408700
132.597685
60.637593
24.111867
21.281838
30.007958
40.365458
60.447454
77.528954
101.213455
115.295649
124.485493
124.122500
115.914941
101.645589
80.957413
64.854622
44.784546
33.957958
23.866892
18.484592
16.128421
15.401840
14.910698
15.057921
15.188456
14.978647
15.121698
14.991760
14.679432
14.347434
14.153719
13.694763
13.578534
13.321638
13.416409
12.836456
12.758970
13.017654
12.680888
12.475848
12.034774
11.877418
11.695623
11.597872
11.507869
11.070967
11.269450
10.838509
10.364652
##ZVALUE=305
1.135468
0.971556
1.323819
1.229644
1.235604
1.224875
1.330972
1.281500
1.330972
1.495481
1.248717
1.254678
1.311898
1.280904
1.401901
1.419783
1.505613
1.569986
1.567602
1.597404
1.542568
1.745820
1.767874
1.903772
1.816750
1.927614
2.236962
2.162457
2.451539
2.370477
2.531409
2.750754
2.962947
3.875494
6.783605
45.918822
129.585862
357.602835
628.630519
1015.788913
1015.788913
1015.788913
1015.788913
1015.788913
1015.788913
1015.788913
1015.788913
728.811622
449.645519
194.754601
95.161796
32.878518
19.320846
20.472407
27.196407
40.760636
56.232810
76.816678
92.184544
110.724568
118.698478
117.310882
110.191703
94.553828
80.169439
57.803988
44.863820
30.876994
23.660660
17.977953
16.056895
15.062690
14.569759
14.821887
14.631748
14.474988
14.032722
13.653636
13.787746
13.654828
13.426542
13.400912
13.392568
13.183951
13.016462
12.954473
12.830496
12.885928
12.151599
12.278557
11.746883
12.053847
11.526942
11.302829
11.278987
11.043549
##ZVALUE=310
1.102686
1.106858
1.015663
1.114607
1.131892
1.119971
1.170635
1.274943
1.256466
1.198649
1.182556
1.065731
1.169443
1.315475
1.212955
1.202822
1.377463
1.408458
1.513958
1.338720
1.490712
1.363754
1.643896
1.716614
1.823902
1.626611
1.737475
1.954436
1.980662
2.089739
2.152920
2.289414
2.444983
2.644658
2.953410
3.133416
3.947616
19.032955
67.063570
222.337842
429.520607
854.820013
1015.745997
1015.745997
1015.745997
1015.745997
1015.745997
1015.745997
1015.745997
959.919691
635.391474
311.850905
164.022446
56.749582
23.863912
15.640855
18.698573
25.707483
34.854412
50.733685
66.530704
86.998940
99.196434
110.321641
110.642910
105.105639
94.264746
75.648427
60.134530
41.601658
31.415820
23.137927
18.515587
15.310645
14.244914
13.909936
13.566613
13.842583
13.615489
13.119578
13.603568
13.207793
13.250709
12.529492
13.175607
12.723804
12.673736
12.630820
12.435913
11.727810
12.110472
11.759996
11.762977
11.408925
11.472702
10.878444
##ZVALUE=315
1.078844
1.284480
1.056790
1.099706
1.145601
1.321435
1.301765
1.005530
1.296997
1.096725
1.187921
1.355410
1.216531
1.358986
1.277924
1.213551
1.232624
1.458526
1.452565
1.203418
1.377463
1.322627
1.515746
1.512766
1.613498
1.431704
1.731515
1.712441
1.876950
2.036691
1.945496
2.141595
2.201796
2.208948
2.428889
2.740622
2.844930
3.231764
3.523827
8.978844
35.126805
145.432949
312.624574
681.850910
1011.642814
1015.786529
1015.786529
1015.786529
1015.786529
1015.786529
1015.786529
1015.786529
848.469734
442.151427
237.646699
85.035563
34.073591
15.396476
14.689565
18.077493
22.630692
33.661723
44.639707
62.670708
77.586770
94.431639
102.699995
105.172992
101.042986
87.454915
74.293613
56.414604
43.098927
29.670000
23.299456
17.560720
15.171766
13.923645
13.769865
12.899637
12.857914
12.760758
12.750626
13.183951
12.674928
12.428761
12.860894
13.040900
12.992620
12.332797
12.207627
12.108684
12.405515
12.042522
11.498928
11.193752
##ZVALUE=320
0.670552
0.956655
0.956655
0.765920
1.022816
0.806451
0.905991
0.919700
0.893474
0.961423
0.876784
1.052618
1.090765
1.014471
0.879765
0.959635
1.074672
0.944734
1.010895
1.018643
1.061559
1.275539
1.167655
1.246929
1.272559
1.217723
1.337528
1.373887
1.461506
1.543760
1.290441
1.710653
1.714826
1.799464
2.203584
2.123713
2.272725
2.326965
2.724528
2.688766
3.168583
4.302859
16.248822
89.838505
222.779512
555.276871
897.344947
1015.561819
1015.561819
1015.561819
1015.561819
1015.561819
1015.561819
1015.561819
1013.532877
588.855743
329.936743
138.871670
59.391856
18.766522
12.654662
12.663603
14.735460
20.008683
27.836561
41.919947
55.292845
72.560906
86.180568
96.424818
100.734830
95.716715
85.820556
68.111420
55.068731
39.134622
30.102730
21.155477
17.141700
14.124513
13.161898
12.516975
12.808442
12.861490
12.372732
12.756586
12.678504
12.303591
12.327433
12.096763
11.944771
11.927485
12.005568
11.244416
11.077523
11.585951
##ZVALUE=325
1.118779
1.246929
1.011491
0.938773
1.054406
1.072884
1.070499
1.092553
1.120567
0.972748
1.070499
1.032948
1.121759
1.178980
1.257658
1.045465
1.345873
1.351833
1.350641
1.388788
1.297593
1.270771
1.401901
1.292825
1.396537
1.341701
1.266599
1.480579
1.567602
1.651645
1.707673
1.705885
1.718998
1.820922
1.813769
1.986623
2.245903
2.195835
2.308488
2.386570
2.806783
2.898574
3.211498
3.958941
9.013414
65.332651
166.506767
423.458815
742.534995
1015.788913
1015.788913
1015.788913
1015.788913
1015.788913
1015.788913
1015.788913
1015.788913
725.553632
435.621738
187.196732
86.080432
26.864409
13.609529
11.212826
11.792779
14.117956
18.762946
28.128624
38.994551
55.782795
69.050789
83.538890
90.975761
93.216896
88.225603
76.165795
65.149665
49.517751
38.154721
26.178956
20.103455
15.573502
14.236569
13.449788
12.680888
12.928843
12.538433
12.446642
12.864470
12.560487
11.996627
11.983514
11.650920
11.734962
11.642575
11.263490
##ZVALUE=330
0.948906
0.973940
1.040697
1.109838
1.111627
0.967979
1.013875
1.221895
1.169443
1.140833
1.053810
1.129508
1.223683
1.159906
1.035929
1.104474
1.208782
1.203418
1.240969
1.183748
1.270771
1.196861
1.319647
1.376867
1.255870
1.405478
1.419783
1.404881
1.527667
1.603961
1.539588
1.747608
1.550913
1.621842
1.654625
1.669526
1.922846
1.931787
1.962781
2.122521
2.314448
2.269745
2.521873
2.773404
2.737641
3.259778
4.593730
25.576949
83.441734
266.124606
501.339436
959.338546
1015.788913
1015.788913
1015.788913
1015.788913
1015.788913
1015.788913
1015.788913
898.351669
570.228696
264.803767
132.593513
44.109821
17.909408
10.391474
10.108948
11.431575
13.412833
19.064546
25.848746
38.200617
49.593449
66.954494
76.799989
85.411668
86.679459
80.578923
72.911978
58.643818
46.596527
33.597946
25.986433
20.345449
16.391873
13.758540
13.134480
12.476444
12.302995
11.784434
11.676550
11.899471
11.647940
11.711717
11.150837
11.279583
##ZVALUE=335
1.007915
0.988841
1.111627
0.971556
0.940561
0.982881
0.943542
1.227856
1.039505
1.014471
1.079440
1.158714
1.114607
1.121759
1.126528
1.148582
1.095533
1.185536
1.097918
1.141429
1.164675
1.241565
1.302958
1.196861
1.080632
1.136661
1.246929
1.193881
1.322627
1.462698
1.539588
1.577735
1.493692
1.527667
1.551509
1.638532
1.644492
1.658797
2.001524
1.936555
1.844764
2.045631
2.099872
2.178550
2.339482
2.625585
2.796650
3.025532
3.522635
11.457801
42.983890
167.784691
343.091488
732.264519
1015.792489
1015.792489
1015.792489
1015.792489
1015.792489
1015.792489
1015.792489
1015.792489
731.351972
376.854539
198.816657
65.654516
25.426745
11.487603
10.121465
10.809898
11.605620
13.969541
17.341971
26.559830
35.089850
49.054623
60.199499
71.842670
78.648925
79.383850
76.736808
66.034794
57.060719
44.773817
35.919547
26.189685
20.588636
15.780926
13.736486
12.547970
11.506677
11.330843
11.679530
10.945797
11.278987
10.586977
##ZVALUE=340
1.048446
1.012683
1.003742
1.022816
1.057982
0.989437
0.971556
0.998974
1.085997
0.992417
1.018643
1.030564
1.029968
1.074672
1.129508
1.015663
1.026988
1.064539
1.104474
1.203418
1.275539
1.158714
1.125932
1.123548
1.189709
1.313686
1.188517
1.198649
1.400709
1.319647
1.202822
1.228452
1.448989
1.616478
1.543760
1.578927
1.678467
1.628995
1.644492
1.689792
1.685619
1.932979
2.035499
2.007484
1.805425
2.006888
2.374649
2.584457
2.885461
2.917647
3.390908
5.609989
20.334721
102.799535
243.433714
578.359962
945.400596
1015.788913
1015.788913
1015.788913
1015.788913
1015.788913
1015.788913
1015.788913
888.736844
455.705523
246.952772
96.848607
38.760900
13.217926
10.484457
10.347962
10.406971
11.421442
13.019443
17.870665
23.467541
34.083724
43.504834
57.419538
67.297816
75.062513
75.570941
71.438551
65.337420
53.836703
44.254661
33.367872
25.972724
19.292831
15.284419
12.781620
11.449456
10.678768
10.521412
10.503531
##ZVALUE=345
1.010895
1.100898
0.979900
1.073480
0.992417
1.008511
1.001954
0.847578
1.002550
0.997782
1.130700
1.083612
0.980496
1.100898
1.038909
1.020432
1.107454
1.066923
1.014471
1.126528
1.052618
1.109838
1.303554
1.127720
1.292825
1.204610
1.281500
1.209974
1.422763
1.272559
1.253486
1.255870
1.323819
1.159906
1.452565
1.460910
1.422763
1.567602
1.492500
1.439452
1.530647
1.619458
1.574755
1.677871
1.741648
1.947880
2.005696
1.998544
2.239943
2.432466
2.489686
2.710819
3.082752
3.806949
9.057522
58.844686
159.292817
402.177572
698.460937
1015.788913
1015.788913
1015.788913
1015.788913
1015.788913
1015.788913
1015.788913
1006.906629
611.405969
340.574980
131.710768
56.446791
17.807484
10.977983
9.802580
9.740591
9.541512
10.133982
11.754632
14.956594
21.846890
29.436946
41.581988
51.243901
61.485767
66.717863
69.499612
67.266822
60.450435
52.970648
42.119622
33.643842
23.849607
18.918514
14.348626
11.946559
10.755658
##ZVALUE=350
0.935793
1.059771
0.989437
1.020432
1.068711
1.183748
1.145601
0.936985
0.867844
1.173615
0.945926
0.980496
1.019835
0.983477
1.043677
0.961423
0.984669
1.119971
1.153946
1.176596
1.112819
1.082420
1.265407
1.143813
1.156926
1.184940
1.319647
1.316667
1.317859
1.236796
1.039505
1.228452
1.270771
1.200438
1.328588
1.493692
1.387596
1.528859
1.329780
1.543760
1.534820
1.647472
1.537800
1.768470
1.681447
1.959801
1.926422
1.895428
1.970530
2.266765
2.117753
2.294779
2.284646
2.630949
2.835989
3.447533
5.116463
29.453635
94.150901
284.419656
521.343946
963.035822
1015.788913
1015.788913
1015.788913
1015.788913
1015.788913
1015.788913
1015.788913
742.254853
441.648960
193.777680
88.191628
24.040937
11.522770
9.266734
8.867979
8.730888
8.659959
9.271502
10.811687
14.641881
19.132495
27.141571
35.150647
46.198964
53.774714
60.982704
64.002872
61.219931
57.670474
47.492981
40.709972
30.999780
23.857951
17.793775
##ZVALUE=355
0.981688
1.098514
0.850558
1.063943
1.021624
1.036525
0.899434
0.970960
1.069903
1.288652
1.124740
1.045465
0.976920
1.023412
1.049638
0.988841
1.103878
1.243949
1.081824
1.162887
1.127720
1.102686
1.171827
1.180768
1.316667
1.213551
1.121759
1.203418
1.233816
1.142621
1.264811
1.287460
1.237988
1.393557
1.472831
1.513958
1.423955
1.348853
1.247525
1.384616
1.417994
1.641512
1.663566
1.581907
1.681447
1.743436
1.681447
1.879930
1.901984
1.771450
2.056956
1.941919
2.351999
2.451539
2.442598
2.587438
2.728701
3.106594
3.678799
14.845729
52.944422
191.520452
383.724570
764.500499
1015.785933
1015.785933
1015.785933
1015.785933
1015.785933
1015.785933
1015.785933
916.232467
570.084453
247.012973
114.717484
32.629967
13.384819
9.074807
8.229613
8.326769
7.969737
8.360744
8.570552
10.149479
12.288690
17.352700
23.023486
31.614900
38.950443
47.572851
53.639412
57.469606
56.486726
51.574707
45.642853
36.972761
##ZVALUE=360
1.075864
1.047850
0.949502
1.102686
1.066923
1.085997
1.018643
0.992417
1.007915
0.968575
1.092553
1.019835
1.026988
1.271963
1.128912
1.147985
1.202822
1.194477
0.878572
1.248717
1.165867
1.265407
1.402497
1.241565
1.135468
1.296997
1.048446
1.213551
1.379848
1.268983
1.314878
1.096725
1.297593
1.360774
1.415610
1.377463
1.467466
1.459718
1.414418
1.384616
1.483560
1.590848
1.545548
1.379848
1.621842
1.686811
1.740456
1.660585
1.798868
1.941919
1.999736
1.978874
2.092719
2.271533
2.281666
2.534986
2.552867
2.605915
2.909899
3.139973
3.623962
6.529689
24.237633
101.248026
231.828690
544.541478
887.534618
1015.788913
1015.788913
1015.788913
1015.788913
1015.788913
1015.788913
1015.788913
720.990896
344.241858
174.455643
59.283972
22.610426
9.429455
8.243918
7.741451
7.602572
7.410645
7.504821
7.723570
8.461475
10.590553
13.508797
19.262433
25.579929
34.627914
40.795803
47.727823
50.764680
51.926970
##ZVALUE=365
0.981688
1.063943
0.920892
1.014471
1.157522
0.812411
1.140833
1.229644
1.036525
1.100898
1.005530
0.969768
1.026988
0.922680
1.104474
1.036525
1.022816
1.255870
1.126528
1.208782
1.103878
1.181960
1.043677
1.000762
1.258850
1.150966
1.222491
1.147985
1.344681
1.167655
1.188517
1.301765
1.260638
1.152754
1.273751
1.428723
1.367927
1.315475
1.449585
1.379848
1.344681
1.324415
1.424551
1.432896
1.391768
1.665950
1.526475
1.576543
1.472831
1.594424
1.702905
1.713634
1.722574
1.929998
1.908541
2.144575
2.147555
2.239943
2.419949
2.569556
2.692938
3.018975
3.338456
4.158616
9.826422
58.171749
150.769353
380.101800
677.445531
1015.748978
1015.748978
1015.748978
1015.748978
1015.748978
1015.748978
1015.748978
910.092592
493.284464
261.876583
88.850856
32.632947
9.957552
7.872581
7.512569
7.039905
6.941557
6.655455
6.746650
6.789565
7.531643
8.937716
12.193918
15.627742
22.779703
28.555989
36.394000
##ZVALUE=370
1.034737
1.021624
0.883937
0.963807
1.053810
0.956655
1.122952
1.054406
1.127720
1.061559
0.968575
1.024604
0.974536
1.112819
1.033545
1.104474
1.102686
0.975728
1.164675
1.304746
1.140833
1.138449
1.142621
1.098514
1.195669
1.046658
1.032948
1.165867
1.208782
1.190901
1.263618
1.185536
1.400709
1.187921
1.259446
1.445413
1.228452
1.337528
1.336932
1.409650
1.415610
1.316667
1.372695
1.480579
1.422763
1.561642
1.407862
1.370907
1.511574
1.535416
1.405478
1.541972
1.637936
1.591444
1.793504
1.738667
1.880527
2.075434
1.983643
2.115965
2.286434
2.692938
2.604723
2.723932
3.085732
3.517866
5.144477
29.628873
94.827414
291.642547
529.127717
962.934494
1015.798450
1015.798450
1015.798450
1015.798450
1015.798450
1015.798450
1015.798450
600.215793
331.921577
128.092766
56.140423
17.142892
8.702874
7.021427
6.499887
6.450415
6.286502
6.123781
6.213784
6.095767
6.614923
8.100867
10.115504
14.133453
##ZVALUE=375
0.908971
0.999570
0.898838
0.970960
1.182556
0.946522
1.057982
0.873804
1.029968
0.912547
0.960827
0.999570
1.034737
0.926852
0.892878
0.896454
0.929832
1.055598
1.023412
0.977516
1.150966
1.136661
1.033545
1.102686
1.158714
1.133680
1.148582
0.999570
1.060963
1.115799
1.193881
1.151562
1.201630
1.089573
1.261830
1.155734
1.285672
1.234412
1.234412
1.292825
1.211762
1.252890
1.280904
1.440644
1.225471
1.289845
1.443624
1.452565
1.344681
1.299977
1.365542
1.324415
1.407862
1.468658
1.470447
1.586676
1.659989
1.683831
1.789927
1.871586
2.007484
2.183914
2.032518
2.387762
2.482533
2.655983
2.832413
3.357530
3.878474
14.262795
51.168799
174.196959
363.109708
785.384774
1015.788913
1015.788913
1015.788913
1015.788913
1015.788913
1015.788913
1015.788913
824.396610
504.305959
225.632787
107.777715
31.090975
11.571646
6.920695
6.365776
6.081462
5.960464
5.640984
5.542636
5.543828
5.547404
5.987883
##ZVALUE=380
0.851750
0.925660
0.865459
0.912547
0.915527
0.887513
0.978708
0.970960
1.058578
1.038909
1.031756
0.887513
0.970960
1.072884
0.880957
0.779629
0.885725
0.953674
0.816584
0.945926
1.054406
0.944734
0.910759
0.928640
1.057982
1.125932
0.892878
1.047850
1.145601
1.032948
0.983477
1.146793
1.174808
1.050830
1.033545
1.215935
1.063943
1.081824
1.108646
1.020432
1.281500
1.002550
1.158714
1.268983
1.195669
1.224875
1.335740
1.197457
1.212955
1.386404
1.386404
1.226664
1.346469
1.295805
1.519918
1.427531
1.340508
1.524687
1.687407
1.517534
1.502633
1.777411
1.812577
1.807809
2.074838
2.122521
2.306700
2.748966
3.008842
3.427863
3.630519
7.503629
28.820634
129.319429
286.827683
647.502542
980.696678
1015.798450
1015.798450
1015.798450
1015.798450
1015.798450
1015.798450
973.299742
651.087761
310.189724
155.754685
50.768852
18.591881
7.305741
6.068945
5.715489
5.414486
5.390644
5.302429
5.144477
##ZVALUE=385
0.971556
0.865459
0.812411
0.912547
1.017451
0.950694
0.870824
0.936985
0.875592
0.768900
1.040697
1.005530
1.109838
0.817776
0.933409
1.018643
0.965595
0.906587
1.039505
1.016855
1.025796
1.059771
1.003742
0.974536
1.044869
0.921488
1.013875
1.219511
1.098514
0.943542
0.931621
1.193881
1.094937
1.269579
1.359582
1.156926
1.158714
1.178980
1.244545
1.321435
1.090765
1.102686
1.286864
1.214743
1.210570
1.133680
1.299977
1.329780
1.306534
1.402497
1.315475
1.235604
1.241565
1.190901
1.401901
1.377463
1.378655
1.477599
1.477599
1.525879
1.597404
1.718998
1.718998
1.836419
1.810789
1.815557
2.056956
2.194643
2.439618
2.814531
3.150702
3.253818
3.474951
4.527569
12.721419
68.334937
180.596709
471.974611
795.809031
1015.826464
1015.826464
1015.826464
1015.826464
1015.826464
1015.826464
1015.826464
911.187530
482.422709
267.725587
104.810596
39.473772
9.929538
6.328821
5.460978
5.328655
5.211830
##ZVALUE=390
0.905991
0.823736
0.986457
0.854731
0.932813
0.841618
1.006722
0.972748
0.924468
0.861883
0.798702
0.906587
0.963807
0.850558
0.848770
0.840425
1.039505
0.981688
0.966787
0.870824
0.949502
1.122952
1.057982
1.023412
1.119971
1.120567
1.055598
0.926852
1.099706
1.097918
1.235604
1.093745
1.134872
1.165867
1.136661
1.096725
1.208782
1.321435
1.227856
1.265407
1.153946
1.280904
1.239777
1.106858
1.138449
1.082420
1.255870
1.313686
1.211762
1.299977
1.301765
1.189709
1.294613
1.390576
1.331568
1.262426
1.403689
1.411438
1.563430
1.428723
1.565814
1.609921
1.658797
1.735687
1.719594
1.649857
1.860857
2.200603
2.254844
2.512932
2.713799
2.853870
3.034472
3.063679
3.242493
3.615618
6.582737
39.963722
119.586587
348.157883
634.845495
1015.791893
1015.791893
1015.791893
1015.791893
1015.791893
1015.791893
1015.791893
1015.791893
722.851753
405.089855
154.276490
67.463517
18.518567
7.798672
5.422831
##ZVALUE=395
0.850558
0.797510
0.954866
0.864863
0.822544
0.789762
0.952482
0.773668
0.821948
0.812411
1.019835
1.013875
1.058578
0.883937
0.990629
0.809431
0.989437
1.044869
0.998974
0.845790
0.939965
0.919700
0.925660
0.936985
1.052618
1.008511
0.956655
1.043677
1.008511
0.942945
1.221895
1.248717
1.077652
1.309514
1.160502
1.106858
1.169443
1.195669
1.321435
1.165867
1.183748
1.187921
1.136661
1.392961
1.308918
1.238585
1.240969
1.132488
1.130700
1.435876
1.358986
1.194477
1.299977
1.338720
1.409650
1.500845
1.495481
1.376867
1.328588
1.420975
1.386404
1.463890
1.528859
1.644492
1.661777
1.673698
1.911521
2.057552
2.186894
2.131462
2.556443
2.570748
2.622604
2.738833
2.615452
2.864599
3.093481
3.225803
4.366636
21.353960
74.837804
248.358846
469.130874
901.742578
1015.788913
1015.788913
1015.788913
1015.788913
1015.788913
1015.788913
1015.788913
866.860747
537.050962
243.142843
111.057758
32.652617
##ZVALUE=400
0.928640
1.010895
0.928640
0.795722
0.926852
0.873804
0.882745
0.870824
0.867844
0.760555
0.764728
0.764728
0.864863
0.960827
0.845790
1.001954
0.861883
0.879765
1.011491
1.005530
0.921488
1.010895
0.945926
1.085997
0.886917
0.947714
0.907779
0.994802
1.098514
0.945926
0.994802
1.180768
1.054406
1.256466
1.266599
1.181960
1.286864
1.184940
1.254678
1.124740
1.187921
1.149774
1.161695
1.252890
1.232624
1.279712
1.147985
1.166463
1.082420
1.459718
1.148582
1.382828
1.296997
1.349449
1.320839
1.350641
1.247525
1.453757
1.409650
1.536608
1.431704
1.569986
1.610518
1.535416
1.674891
1.814961
1.844764
1.915693
2.069473
2.267957
2.377629
2.209544
2.172589
2.532601
2.452731
2.290606
2.511740
2.505779
2.711415
3.056526
3.491640
12.149811
42.002797
145.432949
306.113958
664.438009
995.516777
1015.788913
1015.788913
1015.788913
1015.788913
1015.788913
1015.788913
1015.788913
719.330907
350.966454
##END
