##TITLE=FKDZ0152
##FORMAT=SPECTACLE-ASCII V-1.2
##DATA TYPE=ULTRAVIOLET SPECTRUM
##SECOND TYPE=ULTRAVIOLET SPECTRUM
##DATE=11/28/17
##TIME=16:10:46
##SPECTROMETER/DATA SYSTEM=SPECTACLE
##XUNITS=NM EM
##YUNITS=ENERGY
##YFACTOR=1
##FIRSTX=220
##LASTX=410
##NPOINTS=96
##3DDATA=Equidistant
##ZUNITS=NM EX
##FIRSTZ=210
##LASTZ=400
##ZPOINTS=39
##XYDATA=(Y..Y)
##ZVALUE=210
5.896688
5.107522
5.481839
4.349947
4.364848
5.475879
5.127788
5.252957
4.771948
4.963875
3.568530
3.256798
3.039837
3.611445
4.105568
4.039407
4.098415
3.788471
4.466772
4.539490
4.783869
5.135536
5.862713
4.943609
5.937815
6.069541
6.358624
6.433725
6.853938
6.748438
7.180572
8.244514
8.035898
7.706881
8.072853
8.368492
8.115768
9.017587
8.188486
7.907748
8.289814
9.810925
8.714795
8.886456
9.334683
8.063912
9.122491
8.252859
8.750558
8.635521
9.334683
8.594990
9.447932
9.582639
9.822845
9.272695
8.734465
7.891655
8.498430
8.651614
9.326935
9.533763
9.231567
9.697676
9.002686
9.741783
10.043979
11.009574
10.498762
14.433861
17.200708
18.108487
22.057891
21.918416
26.966929
28.875470
27.960539
28.581619
28.942823
27.839541
25.534630
23.938417
20.997524
16.960502
15.033484
13.676882
10.123849
8.700490
7.932782
7.514954
7.945895
8.141994
8.193851
8.489490
9.312630
11.577606
##ZVALUE=215
13.698936
13.726950
12.775660
10.283589
8.772612
8.675456
8.899570
8.340478
7.856488
7.598996
8.556843
6.703734
6.043911
4.757643
4.653931
3.392696
4.504919
3.523827
3.678799
4.020929
4.701614
4.643798
4.868507
4.899502
6.203651
6.390810
6.572604
7.947683
7.775426
8.011460
8.056760
9.180903
9.343624
9.040833
9.317994
8.361936
9.415746
9.007454
8.842945
8.446574
8.666515
9.179711
9.541512
9.407997
8.853674
8.260608
8.796453
8.188486
9.797812
8.936524
8.818507
8.711815
8.296967
8.443594
9.200573
9.621978
9.014606
9.672642
9.566545
8.887649
8.758903
9.456873
9.439588
9.746552
9.723902
8.807778
9.807944
10.262728
10.741949
12.230873
14.520884
17.107725
18.029809
19.102693
21.814704
22.970438
23.794770
22.498965
23.473501
22.712946
19.453764
18.401742
16.091466
14.162660
12.398958
10.032654
10.410547
8.361936
8.525848
7.725954
7.655621
7.965565
6.593466
7.910728
7.773638
7.778406
##ZVALUE=220
38.003922
37.754774
39.558411
38.165450
35.429597
29.345751
23.221970
20.196438
15.826821
15.131831
15.890598
17.210841
15.511513
13.804436
11.172891
8.795857
8.345842
5.815625
4.572868
4.137754
4.756451
5.301833
5.497932
5.017519
6.367564
5.979538
6.829500
7.359982
7.626414
8.733869
8.941889
9.542704
9.547472
9.129643
11.340976
10.724664
10.423660
10.123849
10.612607
9.532571
10.151863
10.764599
10.240674
9.450912
9.454489
10.450482
9.618998
9.419918
10.315776
11.227727
9.835958
10.048747
10.103583
9.429455
10.046959
10.266900
10.428429
10.006428
10.969639
10.197759
10.923743
10.197759
10.347962
9.818673
11.742711
11.023879
12.671947
11.301637
12.472868
13.736486
14.482737
17.648935
19.031763
20.617843
21.115541
24.160743
22.937655
24.384856
21.847486
19.864440
19.979477
18.276572
15.271902
15.041828
13.598800
12.011528
10.267496
9.650588
8.760691
7.936954
7.993579
10.203719
8.543730
8.726716
7.560849
7.728934
##ZVALUE=225
52.086711
57.462454
72.165728
93.497634
97.048879
97.321868
85.950494
68.795681
54.832697
37.615895
31.738877
27.528405
28.472543
32.156706
31.346679
29.390454
23.279786
19.409657
14.244914
10.621548
7.378459
5.872846
5.286932
4.632473
6.009936
6.931424
6.903410
7.420778
8.053780
8.829832
9.105802
10.234714
10.465980
10.720491
11.176467
11.021495
10.921955
11.380911
11.147857
11.125803
9.703636
10.642409
10.195971
11.009574
10.692477
10.811687
10.890961
10.452867
11.083484
10.816455
12.086630
12.403727
11.521578
9.999871
10.863543
12.270808
11.023879
10.781884
12.974739
12.440681
11.754632
12.243986
11.648536
11.457801
12.065768
12.463927
11.288524
12.851954
14.489889
13.762712
15.297532
16.981959
18.806458
19.431710
21.311641
21.424890
19.938946
19.692779
18.868446
19.698739
16.968846
14.633536
13.655424
12.918711
12.375712
12.341738
11.524558
11.985898
10.448694
9.611845
9.741783
9.764433
8.926988
9.670854
8.404851
9.076595
##ZVALUE=230
36.151409
40.224791
69.898963
116.797686
153.910518
194.028616
217.574835
207.188725
193.191767
158.887506
110.864639
79.274774
54.822564
46.767592
46.090484
49.870610
49.003959
49.830675
46.533942
37.919879
27.640462
21.191835
12.891889
8.655787
7.541776
6.577969
6.918907
7.334948
7.663965
8.191466
8.784533
9.305477
10.336637
9.455681
9.412766
10.277629
10.149479
10.931492
10.386705
10.917783
10.328889
10.979772
10.670424
11.259913
11.015534
12.143850
11.898875
12.170672
12.893677
13.160706
13.677478
14.218688
14.209747
14.615655
14.885664
14.461875
14.789701
15.629530
13.962984
15.176535
15.108585
14.547706
15.380979
15.552640
15.985966
15.980601
16.266704
18.159747
16.536713
18.382668
19.440651
20.237565
20.087957
21.640658
24.156570
24.677515
24.591684
23.337603
22.150874
19.365549
19.157529
17.148852
16.245842
14.908910
14.904737
14.069676
14.136434
12.698770
14.851689
12.516975
12.975931
12.139678
12.215972
11.429787
11.625886
10.326505
##ZVALUE=235
12.350678
14.027953
29.835701
71.939826
120.450854
196.234584
266.252756
342.146754
379.487872
375.821590
344.008803
267.722607
201.194882
128.847957
96.951723
79.094768
67.646503
73.622465
79.623461
80.837607
76.818466
67.685843
48.093796
37.953854
25.935769
16.925931
11.682510
10.306835
8.667707
8.190870
9.294748
8.940697
9.302497
9.486675
9.771585
10.356903
9.175539
10.435581
9.751916
12.266636
11.438727
13.497472
12.409687
12.936592
13.921857
11.912584
15.057921
16.145706
15.757680
16.803741
16.649961
16.841888
18.868446
18.716455
17.774701
18.598437
18.943548
19.814968
19.533634
19.367933
20.542741
21.860600
22.556782
20.447969
19.661784
22.440553
21.000504
21.296740
22.132993
22.808909
25.401711
25.764704
26.327968
25.021434
25.734901
27.171969
25.792718
26.084781
25.868416
23.175478
22.424459
22.547841
20.266771
20.433664
18.895864
18.101931
17.916560
16.278625
17.521977
13.972521
14.798641
15.040636
14.941692
14.731884
14.828444
13.503432
##ZVALUE=240
2.499819
2.961755
5.267859
17.410517
41.261911
95.410943
163.221955
291.345716
408.108830
505.461693
589.579940
606.769919
528.429747
449.658632
329.540968
230.273604
140.726566
107.934475
94.836950
96.186996
102.799535
109.342933
111.131668
97.746849
83.798766
60.833693
49.520731
32.506585
22.685528
14.717579
12.076497
9.420514
9.869933
9.925961
11.620522
10.803938
10.745525
10.217428
11.614561
11.031628
13.140440
12.494922
14.194846
15.543699
16.055703
16.517639
16.818643
19.110441
20.044446
21.016598
21.517873
22.274852
24.948716
23.242831
23.405552
23.885965
23.843646
24.339557
22.594929
25.193691
24.002790
25.585890
23.801923
24.884939
24.832487
24.390817
24.272799
26.167631
26.811957
27.165413
27.445555
29.715896
30.427575
31.579733
30.882955
30.179620
28.239489
28.956532
29.278994
27.986765
27.409792
23.858547
22.821426
22.756457
20.224452
21.366477
21.069646
19.805431
18.897653
18.276572
18.469691
16.817451
16.527772
16.479492
16.590953
17.301440
##ZVALUE=245
2.557635
2.386570
2.101660
2.692938
4.584789
11.564493
35.765767
77.828765
185.698867
292.486548
464.843512
587.811470
675.441623
731.912851
692.296028
575.166941
464.632511
318.261981
220.054984
131.836534
104.776621
94.285607
105.155706
115.959644
125.401616
121.606588
108.584762
92.729926
68.299770
55.970550
38.659573
26.571751
18.424988
12.583733
10.109544
10.798573
11.108518
10.753870
11.407733
11.612773
13.168454
13.078451
14.948845
16.059875
17.177463
18.933415
18.999577
20.867586
21.958947
22.829771
25.033951
22.909641
24.850965
25.149584
26.032925
25.827885
24.686456
25.297999
26.704669
25.685430
24.001598
24.972558
25.058985
25.739670
23.894906
25.907755
25.190711
25.005937
24.345517
25.361776
26.150942
26.254654
26.188493
27.289987
29.842854
27.498603
27.399659
25.916696
26.580691
24.628639
22.758842
23.175478
22.316575
20.683408
20.433664
19.939542
17.800927
18.110871
18.854737
18.074512
16.744733
16.174912
15.521646
15.154481
15.317798
15.543699
##ZVALUE=250
2.149940
2.110600
2.175570
2.203584
2.108812
2.265573
3.208518
7.521510
29.704571
68.183541
167.468786
284.445882
423.090458
623.794794
743.851662
830.347538
832.104683
734.688640
625.155568
427.917838
297.285914
189.933777
113.055706
91.401935
98.007917
110.118985
126.858950
130.843520
131.013989
120.306611
103.573799
78.465939
60.052872
37.437677
26.330948
16.376972
12.487769
10.386705
10.950565
12.487769
12.272596
13.942719
15.011430
16.456842
16.518831
19.579530
19.292831
21.365881
21.111965
23.386478
22.891760
25.019646
25.890470
24.956465
25.359988
26.169419
25.292635
25.748610
24.776459
24.244785
24.402738
25.323629
23.788810
23.436546
24.094582
21.808743
22.474527
21.423697
22.643805
22.146702
22.736788
23.144484
22.797585
24.102926
23.068786
23.545623
24.297833
22.705793
22.997856
21.252632
20.477772
18.842816
19.325614
17.023683
19.115806
16.373992
15.748739
15.854836
15.841722
15.664697
15.283823
14.883876
14.617443
14.151931
13.990998
13.310909
##ZVALUE=255
1.613498
1.922846
1.880527
1.868606
1.693964
2.119541
2.422929
1.970530
2.652407
4.722476
21.651983
53.819418
111.486912
250.476599
390.243530
608.629584
760.392547
905.476809
945.853591
891.983509
769.991875
614.456534
384.062529
251.617432
137.174726
96.981525
86.875558
96.983910
118.537545
133.310556
138.141513
135.812759
126.759410
101.818442
82.075000
56.664944
40.581822
26.140809
18.029809
13.896823
13.091564
13.065934
13.410449
14.708638
16.365647
17.183423
17.216802
18.945932
19.743443
21.753907
21.248460
22.580624
21.366477
22.624731
22.104979
22.225976
21.991730
21.080971
21.257997
20.357966
20.768642
20.697713
20.071864
20.655990
19.788742
20.250678
19.090772
18.335581
18.627644
18.421412
19.053817
19.572973
18.990636
20.678639
19.844770
19.560456
20.039678
17.661452
18.668771
17.850995
17.927885
16.015768
15.709996
15.262961
15.129447
14.692545
14.033914
14.290810
12.606978
14.122725
12.936592
12.721419
12.398958
12.397766
12.519956
12.034774
##ZVALUE=260
1.834631
1.880527
1.558661
1.682639
1.794696
1.842976
1.873970
2.117753
2.247691
2.159476
2.298951
3.219843
8.927584
36.534667
84.998608
204.533935
338.402987
559.009910
739.063621
951.079726
1015.788913
1015.788913
933.178663
761.972666
516.944528
346.626639
198.230743
123.784542
80.448985
76.692700
93.743801
119.366646
133.755803
140.905976
144.402981
125.997663
108.196735
81.423521
60.017705
39.455891
28.368831
19.239783
15.123487
14.111996
13.604760
15.094876
15.644431
16.459823
16.487837
17.017722
17.557740
18.071532
18.218756
17.962456
19.057989
18.481612
18.917918
18.710494
17.478466
17.000437
18.042922
17.468929
17.686486
16.602874
16.079545
16.259551
15.857816
16.129613
16.006827
16.045570
15.537739
16.794801
16.246438
17.112494
16.700625
16.847849
16.879439
16.093850
15.859604
14.854670
14.459491
13.489723
13.544559
13.294816
13.062954
13.222694
12.176633
12.451410
11.911988
11.203885
11.854768
11.486411
11.569858
11.322498
11.126995
11.884570
##ZVALUE=265
1.518726
1.755953
1.701713
1.762509
1.675487
1.711845
1.784563
1.911521
1.680851
1.937747
1.934767
2.057552
2.352595
2.549887
5.280972
25.931597
64.747930
162.487626
288.286805
526.593924
746.614933
948.879719
1015.788913
1015.788913
1015.788913
913.085938
675.168633
473.549962
266.266465
160.336494
103.516579
70.400834
75.721741
100.898743
120.339990
139.631629
145.591497
140.751600
127.567649
105.133653
82.880855
57.573915
42.708516
27.283430
19.432902
15.279651
14.038682
14.018416
14.603734
15.144944
14.788508
15.308857
15.804768
15.693903
16.666651
15.679598
15.440583
15.386939
14.839768
15.029907
14.945865
14.300942
14.635921
13.312697
14.018416
13.408661
13.573766
13.698936
13.379455
15.018582
13.760924
14.595985
14.667511
14.909506
14.712811
14.364719
14.177561
13.347864
13.525486
12.661815
12.733936
12.495518
11.394620
11.751652
12.064576
10.833740
10.907650
11.508465
11.014938
10.686517
10.371804
9.991527
10.259748
10.127425
10.544658
10.107756
##ZVALUE=270
1.645684
1.616478
1.462698
1.694560
1.538992
1.772642
1.721978
1.703501
1.618862
2.124906
1.905560
2.112985
2.030730
2.176762
2.248883
2.587438
3.209710
12.990832
38.084984
127.116442
241.995454
402.037501
693.193674
927.248597
1015.916467
1015.916467
1015.916467
1015.916467
852.294564
643.868446
390.193462
235.079527
134.345889
68.685412
60.940981
78.449845
100.017786
124.632716
140.477419
147.913694
146.843791
130.581856
108.986497
83.533525
62.510967
40.256977
29.524565
21.337867
16.508698
14.624596
14.135838
14.184713
14.059544
13.721585
13.916492
14.521480
13.854504
13.926625
14.030933
13.663769
13.718605
13.479590
13.242960
12.712479
13.853908
12.801886
13.004541
12.490749
12.831688
12.738705
12.998581
13.339520
13.703704
13.978481
13.191700
14.141798
13.093948
13.224483
11.955500
11.760592
11.750460
11.140704
11.463761
10.918975
10.745525
10.561943
10.455847
9.965897
9.822845
10.066628
9.605885
9.158850
9.713769
8.729696
8.849502
8.918643
##ZVALUE=275
1.148582
1.167655
1.354814
1.213551
1.323819
1.218915
1.454949
1.456738
1.593828
1.600981
1.378655
1.729727
1.409650
1.937747
1.974702
1.736879
2.114773
2.300739
2.496839
5.517602
23.619533
70.203543
198.097825
364.561677
657.515526
871.255994
1015.676856
1015.676856
1015.676856
1015.676856
1015.676856
809.389949
573.709011
302.728415
176.306963
79.429746
52.603483
55.278540
73.756576
100.367665
119.217634
138.773918
148.139000
142.996907
130.412579
104.163885
85.597634
61.277747
45.711994
28.915405
21.877885
15.881658
14.049411
12.918711
13.081431
13.113618
13.079643
13.006926
13.222694
12.910962
13.004541
13.315678
12.628436
12.702942
12.975931
11.815429
11.993647
12.234449
12.527704
12.338758
12.547970
12.899637
12.859702
14.075637
13.126731
12.701750
12.622476
11.745691
12.317896
11.470914
11.365414
10.402799
10.758638
9.481907
9.605885
10.002851
9.886622
9.185672
9.452701
8.984804
8.923411
9.115934
8.215904
8.134842
8.056760
8.476973
##ZVALUE=280
1.239777
1.293421
1.404881
1.251698
1.219511
1.467466
1.301765
1.418591
1.427531
1.531839
1.605749
1.661777
1.750588
1.802444
1.724958
1.824498
1.590848
1.986623
1.773834
2.183914
2.704859
3.077984
19.543767
59.106946
171.593428
314.484835
501.846671
813.553929
1007.015705
1015.788913
1015.788913
1015.788913
1015.788913
906.111598
673.390031
386.505723
230.698586
101.156831
55.785775
40.802956
50.248504
75.838566
97.070932
122.252703
137.391686
144.178867
138.735771
125.768781
109.550953
81.900954
63.065886
41.879416
29.169917
20.492673
16.087890
13.990998
13.202429
12.479424
12.852550
12.981892
13.257861
12.372732
12.295842
12.655854
12.544990
12.747645
12.365580
12.770891
12.590885
12.523532
12.446642
12.735724
12.448430
13.161898
13.425946
12.290478
12.090802
11.659861
11.500716
11.308789
10.830760
10.373592
10.546446
10.265708
9.847879
9.952784
9.086728
9.090900
8.802414
8.740425
8.544922
8.363724
8.542538
7.743835
8.069873
7.934570
##ZVALUE=285
1.362562
1.153946
1.356602
1.202822
1.206994
1.345873
1.427531
1.284480
1.251698
1.291633
1.478791
1.406670
1.348853
1.551509
1.329780
1.578927
1.731515
1.607537
1.736879
1.787543
1.969934
2.053976
2.287626
2.707839
8.312464
28.912425
98.061562
197.639465
406.554937
633.522868
867.194533
1015.788913
1015.788913
1015.788913
1015.788913
1015.788913
846.800804
529.436469
328.842998
155.157447
80.430508
37.018657
35.519600
50.152540
68.155527
96.161962
114.059448
131.470561
138.392448
137.279630
126.915574
107.183456
87.335706
62.196851
45.208931
29.644966
21.554828
16.624928
14.050603
13.231635
12.784600
12.524724
12.755990
13.252497
12.612939
12.340546
13.131499
12.480617
12.575984
13.030767
12.907982
13.315678
12.586713
12.666583
12.424588
12.535453
12.007952
11.719465
11.104941
11.114478
11.117458
10.386705
10.229945
9.740591
9.997487
9.132624
9.026527
9.302497
8.913875
8.599758
8.906722
8.330941
8.399487
8.154511
8.117557
7.855892
##ZVALUE=290
1.219511
1.214743
1.109838
1.431704
1.224875
1.263618
1.250505
1.211762
1.232624
1.391768
1.377463
1.358986
1.278520
1.167655
1.241565
1.561642
1.790524
1.629591
1.599789
1.716614
2.022982
1.952648
2.145767
2.182722
2.198815
2.650619
3.618598
12.004972
57.286620
133.476853
257.526636
516.517758
759.811997
1015.798450
1015.798450
1015.798450
1015.798450
1015.798450
985.015631
668.984652
447.384715
221.141577
116.769671
44.925809
27.552843
32.737851
44.708848
66.499710
84.815621
110.632777
123.997927
135.475993
134.922862
121.629834
107.403994
81.110597
63.313842
43.962002
31.357408
21.284819
16.473532
13.838410
12.727976
12.585521
12.114644
12.211800
12.328625
12.106895
12.639761
12.707710
12.772679
12.689829
12.575984
13.188720
12.980700
12.003779
11.631846
11.457801
11.401772
10.667443
10.656714
10.783672
9.843707
9.994507
9.085536
9.028912
9.248853
9.053946
8.970499
8.784533
8.737445
8.671880
8.307695
8.112788
7.868409
7.932782
##ZVALUE=295
1.067519
1.106858
1.156926
1.119971
1.016855
1.076460
1.170635
1.120567
1.255870
1.364946
1.316667
1.187921
1.214743
1.158714
1.213551
1.305938
1.392961
1.347661
1.253486
1.497865
1.363754
1.486540
1.822710
1.692772
1.875758
1.934767
2.127886
2.361536
2.544522
5.145669
19.793510
89.699626
194.096565
430.283546
661.029816
986.817479
1015.696526
1015.696526
1015.696526
1015.696526
1015.696526
798.648000
558.566451
297.744870
163.444877
59.222579
29.606819
21.690726
27.265549
44.141412
59.338808
84.182620
102.847815
120.281577
129.453540
128.410459
117.523670
100.002885
81.897974
59.938431
44.228435
29.410720
22.028685
16.118884
13.384819
11.996627
12.126565
12.088418
12.012720
11.864901
11.571646
11.767745
11.948943
11.716485
11.843443
11.052489
11.326671
10.996461
10.797977
10.689497
10.659695
10.316968
10.118484
9.419918
9.198785
9.293556
9.410977
8.704662
8.752942
8.887649
8.736849
8.052588
8.227825
8.135438
7.997751
7.801652
##ZVALUE=300
0.971556
1.028776
1.148582
1.032948
1.262426
1.230836
1.009703
1.286864
1.168847
1.136661
1.243949
1.186728
1.454949
1.100898
1.360774
1.329780
1.134872
1.253486
1.234412
1.552701
1.605749
1.517534
1.675487
1.559854
1.799464
1.758933
1.909733
2.053976
2.118945
2.157688
2.589822
2.904534
13.755560
48.854947
156.085491
290.880799
565.282702
819.348693
1015.788913
1015.788913
1015.788913
1015.788913
1015.788913
996.971726
674.680471
439.468622
221.673846
119.374990
44.194460
21.934509
19.874573
25.712848
40.813684
55.825710
76.968670
96.145868
115.667582
123.078823
123.675466
114.113688
97.604990
81.997514
59.874654
45.382977
29.342771
21.618605
16.304851
13.588667
12.063980
11.875629
11.716485
11.782646
11.489987
11.199713
11.597872
11.549592
11.047721
11.046529
10.846853
10.560751
10.430813
10.188818
9.893775
9.723902
9.698868
9.623766
9.034872
9.032488
8.891821
8.602738
8.794665
8.352995
8.122921
8.343458
8.041859
7.687807
##ZVALUE=305
1.029968
0.972748
1.036525
1.031756
0.999570
1.005530
1.020432
1.160502
1.147985
1.319647
1.172423
1.245737
1.208782
1.161695
1.203418
1.242757
1.250505
1.406670
1.218915
1.335740
1.347661
1.232624
1.490712
1.449585
1.503825
1.622438
1.675487
1.709461
1.802444
1.859665
1.942515
2.209544
2.310872
2.778769
5.553961
34.101605
92.790723
245.531797
426.371694
738.980770
983.085632
1015.788913
1015.788913
1015.788913
1015.788913
1015.788913
856.425762
525.018573
326.582789
155.594945
76.403618
27.573705
16.559958
19.238591
24.610758
39.901733
53.811669
75.445771
90.887547
107.787848
115.983486
116.314888
108.409524
93.938708
77.487826
56.984425
42.249560
27.946830
20.770431
15.289783
12.922883
11.850595
11.531711
11.444688
11.004806
10.740757
10.557771
10.410547
10.401607
10.268688
10.026693
10.169744
9.554625
9.400845
9.578466
9.189844
9.280443
9.365678
9.164810
8.815527
8.632541
8.298755
8.008480
8.200407
7.847548
8.345842
##ZVALUE=310
1.082420
0.997782
1.096725
0.998974
0.965595
1.069903
1.045465
0.941753
1.117587
1.170635
1.093745
1.065731
1.248717
0.982881
1.139641
1.423955
1.209974
1.354814
1.478791
1.399517
1.345873
1.399517
1.321435
1.324415
1.558661
1.436472
1.548529
1.489520
1.655817
1.707673
1.827478
1.898408
2.053976
2.059937
2.371669
2.648830
3.260970
12.134910
62.251687
142.470598
324.290395
525.443554
855.016708
1015.788913
1015.788913
1015.788913
1015.788913
1015.788913
981.258750
741.021037
432.798862
260.188580
112.093687
51.707625
19.496679
14.024973
17.697811
22.718906
34.180880
46.842694
66.206455
81.962943
99.089742
107.068419
110.316873
103.108883
90.070963
75.762868
54.707527
41.231513
27.023554
20.442605
14.820695
12.370944
10.861754
10.595918
10.334849
9.995699
10.111928
9.715557
9.856820
9.704828
9.281635
9.655952
9.255409
9.433627
9.472966
9.063482
9.197593
8.985996
8.361936
8.559823
8.262992
8.115768
8.096695
8.192658
##ZVALUE=315
1.005530
1.102686
1.105666
0.915527
1.034737
1.016855
0.963807
1.098514
1.191497
1.222491
1.172423
1.029968
1.039505
1.204610
1.180768
1.071692
1.198649
1.273751
1.280904
1.207590
1.259446
1.371503
1.350641
1.591444
1.249909
1.454949
1.456738
1.540780
1.674891
1.623631
1.677871
1.398921
1.724958
1.922846
2.007484
1.874566
2.237558
2.491474
2.669692
6.935596
26.651621
105.524659
217.109919
453.833938
698.763728
1014.680862
1015.789509
1015.789509
1015.789509
1015.789509
1015.789509
868.029594
612.471700
326.097608
177.722573
64.319968
27.195811
13.562441
13.191700
16.347766
21.206737
32.083988
43.501854
60.349703
74.857473
92.417002
100.462437
103.146434
96.399784
84.527731
70.922971
52.022934
40.278435
25.898814
19.373894
13.765693
11.560917
10.273457
9.992719
9.531975
8.939505
8.915663
9.191632
9.024739
9.447932
9.297729
9.072423
8.517504
8.736849
8.349419
8.485913
8.640885
8.638501
7.978678
7.834435
8.379817
##ZVALUE=320
0.979900
1.042485
0.996590
0.890493
0.826716
1.077652
1.025796
1.079440
1.189709
1.085997
1.102686
0.987649
1.071692
1.030564
0.960827
1.004934
1.097918
1.018643
1.158714
1.249909
1.124740
1.296997
1.318455
1.332760
1.163483
1.262426
1.214743
1.356602
1.456738
1.413822
1.420975
1.502633
1.559854
1.631975
1.713634
1.735687
1.859665
2.082586
2.206564
2.466440
2.655983
2.965927
15.443563
51.567554
163.963437
307.879448
576.810837
814.033747
1015.788913
1015.788913
1015.788913
1015.788913
1015.788913
1015.788913
720.587969
472.836494
221.902728
114.388466
42.130947
18.477440
10.852814
11.339784
13.898611
17.283559
28.107762
38.068891
55.030584
68.968534
85.327625
92.988610
95.167756
92.063546
78.890920
66.539645
50.088763
38.256645
25.202632
18.251538
13.088584
10.888577
9.442568
9.649992
8.826852
8.835793
8.662939
8.757710
8.444786
8.670688
8.411407
8.624792
8.769631
8.377433
8.261800
8.092523
7.877946
7.732511
##ZVALUE=325
0.928640
0.907779
0.937581
0.966787
0.985861
0.909567
1.074672
1.070499
0.882745
0.954866
0.847578
0.994802
1.079440
1.152754
1.038909
0.984669
1.182556
1.162887
1.181960
1.192689
1.055598
1.156926
1.272559
1.244545
1.146793
1.152754
1.220703
1.332760
1.217723
1.236796
1.421571
1.304746
1.417994
1.688600
1.497865
1.584888
1.760721
1.839995
1.878738
2.077818
2.032518
1.818538
2.457500
2.848506
6.498694
42.639971
104.015470
249.148607
424.957871
747.928619
991.472602
1015.788913
1015.788913
1015.788913
1015.788913
1015.788913
865.378976
530.985594
322.501659
141.284466
66.133738
21.242499
11.113882
8.891821
9.566545
12.243986
16.273856
25.760531
36.638975
52.430630
65.211654
80.041885
87.454915
90.560913
84.986687
72.380900
60.949922
45.288801
34.562945
22.452474
16.890764
12.143850
9.912848
9.110570
8.993745
8.587837
8.564591
8.681417
8.595586
8.362532
8.091927
8.050799
8.026958
8.010864
7.828474
7.962584
##ZVALUE=330
0.881553
0.910759
0.859499
0.962615
0.952482
0.837445
1.046658
0.918508
0.978708
0.979900
0.813603
0.998974
1.087785
1.117587
1.013875
0.879765
1.064539
1.094937
1.053810
1.126528
1.278520
1.042485
1.121759
1.215935
1.190901
1.084805
1.087785
1.248717
1.268983
1.336932
1.283884
1.379848
1.456738
1.382828
1.459718
1.368523
1.358986
1.497865
1.508594
1.764894
1.857877
1.825690
2.019405
1.999736
2.172589
2.398491
3.560781
18.646717
57.853460
174.172521
314.216614
584.066510
820.930004
1015.790701
1015.790701
1015.790701
1015.790701
1015.790701
964.353681
624.458790
403.057933
191.513896
96.172690
33.040643
14.337897
8.563995
8.139610
8.946657
10.913610
16.941428
22.981763
34.975410
47.352910
63.087940
74.220896
81.827641
82.966685
78.409910
69.503784
55.593848
43.420792
30.581951
22.806525
15.513897
12.629628
10.083914
8.941889
8.342862
8.241534
8.131862
7.955432
7.794499
7.741451
7.654428
7.433891
7.831454
##ZVALUE=335
0.917912
0.878572
0.959635
0.910759
0.969768
1.006722
0.857711
1.007915
0.959635
0.989437
0.950694
1.026988
0.922680
0.978708
0.916719
0.937581
1.011491
0.967979
0.983477
0.903606
1.026988
1.012683
1.004934
1.080632
1.187921
1.123548
1.147985
1.087785
1.142621
1.071692
1.100898
1.253486
1.256466
1.217723
1.344681
1.440644
1.591444
1.405478
1.566410
1.553893
1.529455
1.377463
1.614690
1.658797
1.829863
1.968741
2.067685
2.407432
2.614856
8.637905
31.548738
113.488436
221.614838
457.202792
694.981813
1003.484726
1015.788913
1015.788913
1015.788913
1015.788913
1015.788913
749.873519
508.304834
263.790488
139.576793
48.717856
19.784570
8.750558
8.036494
7.970929
8.868575
11.108518
14.405847
23.060441
31.637549
46.228766
57.554841
69.433451
75.744987
78.123808
74.077845
64.491630
53.406954
41.013956
30.962825
21.995902
16.986728
11.911988
10.336637
8.641481
8.344650
7.981658
7.904768
7.586479
7.573962
7.346869
##ZVALUE=340
0.884533
0.913739
0.776649
0.867844
0.935793
0.749826
0.804663
0.840425
0.889897
0.804663
0.986457
0.925660
1.039505
1.134872
0.946522
0.879765
0.902414
0.961423
0.786781
0.952482
1.037717
0.910759
1.014471
1.120567
1.046658
1.034737
1.016855
1.016855
1.088977
1.035929
1.100898
1.122952
1.104474
1.161695
1.309514
1.365542
1.198649
1.307726
1.265407
1.240969
1.378655
1.404881
1.651645
1.533628
1.748800
1.775622
1.660585
1.961589
1.992583
2.347827
2.374649
4.485846
15.402436
70.507526
160.295963
362.114906
578.662753
884.386897
1015.788913
1015.788913
1015.788913
1015.788913
1015.788913
864.318013
614.703894
322.103500
177.928805
71.605444
27.797818
9.737611
8.079410
7.913709
7.600784
8.839965
10.358691
14.588833
20.729899
30.880570
41.783452
55.778623
63.881874
71.216822
72.202682
68.404675
62.454939
51.272511
41.400790
30.263662
22.837520
16.028881
11.965632
9.300709
8.087754
7.688999
7.058978
7.369518
##ZVALUE=345
0.866652
0.883937
0.989437
0.807643
0.803471
1.076460
0.787973
0.918508
0.759959
0.760555
0.864863
0.851750
0.870824
0.939965
0.981688
1.028776
0.880957
0.932813
0.883937
1.043677
0.883937
0.868440
1.004934
1.039505
1.017451
1.083612
1.170635
0.994802
1.103878
1.076460
1.004934
1.108646
1.240969
1.094937
1.243949
1.221895
1.209974
1.206994
1.209974
1.286864
1.233816
1.273751
1.201630
1.384616
1.369715
1.574755
1.596808
1.560450
1.782775
1.856685
1.893640
1.949668
2.061725
2.579689
7.051826
41.410923
104.489923
248.245597
417.705774
717.467666
946.153998
1015.786529
1015.786529
1015.786529
1015.786529
963.575840
717.260838
424.556732
240.181684
94.730854
41.877627
13.844967
8.709431
7.490516
7.388592
7.388592
7.936954
9.486675
12.861490
19.488931
26.936531
39.441586
48.543811
58.725476
63.983798
66.300631
64.114928
57.742000
49.875975
39.297938
30.983686
21.334887
16.119480
11.223555
9.329915
7.896423
##ZVALUE=350
0.893474
0.828505
0.888705
0.784993
1.047850
0.938773
0.901818
1.002550
0.877976
0.965595
0.989437
0.820756
0.845790
0.951886
0.807643
0.677705
0.843406
0.938773
0.933409
0.899434
1.025796
0.882745
0.989437
0.989437
0.901818
1.059771
1.035929
1.105666
1.055598
1.011491
1.078844
1.019835
1.091957
1.070499
1.157522
1.177788
1.223683
1.186728
1.152754
1.274943
1.166463
1.275539
1.209974
1.322627
1.388788
1.350641
1.419783
1.505613
1.558661
1.515746
1.443624
1.727939
1.829863
2.011657
2.091527
2.376437
3.706813
21.555424
63.334703
180.253983
318.612456
579.680800
801.490545
1015.789509
1015.789509
1015.789509
1015.789509
1011.350751
812.290907
492.208004
303.825736
137.279630
64.428449
17.778873
8.779764
7.202625
6.916523
6.351471
6.610751
7.376671
8.727908
12.586713
17.080903
25.474429
32.999516
43.710470
51.373839
58.971643
60.427785
58.976412
54.391623
45.235753
38.228631
27.191639
21.137595
14.838576
##ZVALUE=355
0.819564
0.864863
0.795722
0.771880
0.826716
0.808835
0.913739
0.844598
0.705719
0.929832
0.914931
0.803471
1.061559
0.839829
0.812411
0.784993
0.820756
0.828505
0.820756
0.850558
0.995994
0.949502
0.988841
0.956655
1.004934
0.930429
1.105666
0.971556
0.994802
1.213551
0.918508
1.063943
1.008511
1.081824
1.201630
1.292825
1.061559
1.112819
1.231432
1.072884
1.233816
1.108646
1.017451
1.213551
1.357794
1.340508
1.299977
1.437664
1.430511
1.472831
1.535416
1.681447
1.732707
1.655817
1.790524
1.865625
1.817942
2.327561
2.543926
10.713935
36.190748
121.732950
232.139826
451.513529
668.326020
982.080698
1015.717983
1015.717983
1015.717983
1015.717983
919.866562
617.156625
395.056605
175.972581
83.868504
24.500489
10.359883
6.937981
6.421804
6.220937
6.245971
6.276965
6.387830
8.161664
10.100603
15.412569
20.512938
29.499531
36.762953
45.660734
50.982833
54.871440
53.826571
50.216913
43.937564
34.764409
##ZVALUE=360
0.838637
0.941753
1.006722
0.907779
0.855923
1.015663
0.877976
1.084805
0.971556
0.825524
0.797510
0.718832
0.960827
0.942945
0.874996
1.001954
0.998974
0.950694
0.999570
0.969768
1.199841
0.841618
0.982881
1.143813
0.949502
1.199841
1.210570
1.040697
1.040697
0.908971
1.059771
0.980496
0.993609
1.033545
1.120567
1.180768
1.240969
1.170635
1.088977
1.267791
1.328588
1.161695
1.213551
1.305938
1.309514
1.318455
1.496673
1.434684
1.385808
1.268983
1.398921
1.553893
1.502633
1.636744
1.649857
1.718998
1.925826
2.005696
2.051592
2.199411
2.450943
4.724860
16.379952
66.470504
145.904422
327.318907
522.350669
832.879543
1015.788913
1015.788913
1015.788913
1015.788913
1012.997627
710.340738
475.136638
231.638551
117.302537
42.000413
16.024709
6.979704
6.415844
6.056428
6.042719
5.644560
5.834699
6.037951
6.783605
8.734465
11.391640
17.727613
23.081899
32.098889
38.646460
45.378804
48.505664
49.357414
##ZVALUE=365
1.026988
0.942945
0.982881
1.004934
0.988841
1.043677
1.006722
0.931621
0.909567
0.922680
1.039505
0.879765
0.911951
0.914931
0.999570
0.904799
0.878572
0.860691
0.927448
1.065731
1.018643
1.022816
1.170635
1.086593
1.098514
1.069903
1.050830
1.050830
1.097918
0.942945
1.103878
1.033545
1.029968
1.037717
1.256466
1.234412
1.030564
1.085997
1.174808
1.065731
1.153946
1.199841
1.335740
1.311898
1.300573
1.345873
1.209974
1.312494
1.375675
1.444817
1.315475
1.376867
1.390576
1.516938
1.591444
1.658797
1.475811
1.837611
1.771450
2.046824
2.003908
2.279878
2.364516
2.854466
7.120967
40.331483
99.004507
236.217380
406.123996
692.242980
906.047821
1015.815735
1015.815735
1015.815735
1015.815735
814.648867
583.711863
321.158767
174.474716
60.581565
23.157597
7.636547
6.388426
5.711913
5.559921
5.583763
5.324483
5.262494
5.227923
5.993843
7.464886
10.399818
13.925433
20.909905
26.467443
34.115911
##ZVALUE=370
0.912547
1.009703
0.916719
0.788569
0.909567
0.948906
0.912547
1.004934
0.899434
0.866652
1.004934
0.836849
0.922680
0.939965
0.942945
0.968575
0.938773
0.970960
1.009703
1.008511
0.891685
1.191497
1.070499
0.967979
0.995994
1.052618
1.130700
1.168847
1.080632
1.161695
1.072884
1.003742
0.992417
1.040697
1.124740
1.064539
1.181960
1.228452
1.071692
1.138449
1.207590
1.028776
1.144409
1.220703
1.321435
1.288652
1.343489
1.247525
1.294613
1.284480
1.365542
1.287460
1.325607
1.186728
1.370907
1.364946
1.561642
1.516938
1.679659
1.780987
1.664758
1.959801
2.058744
2.141595
2.266765
2.471805
4.248619
16.405582
75.156689
166.987777
363.093615
552.252531
837.037563
1015.840769
1015.840769
1015.840769
1015.840769
983.640552
663.634539
426.679850
194.284916
97.528696
35.157800
14.327765
6.136894
5.359650
5.006790
5.014539
4.748702
4.865527
4.673600
4.704595
5.349517
6.467700
9.290576
11.995435
##ZVALUE=375
0.905991
0.832677
0.829697
0.822544
0.860691
0.839829
0.745654
0.888705
1.007915
0.928640
0.976920
0.920892
0.995994
0.708699
0.954866
0.862479
0.846982
0.976920
0.901818
0.852942
1.066923
0.973940
0.871420
0.886917
0.789762
0.848770
0.891685
0.995994
1.005530
1.000762
0.950694
0.888705
1.042485
1.019835
1.005530
1.057982
0.925660
0.979900
0.980496
0.998974
1.103878
0.965595
1.058578
1.018643
1.114607
1.062751
1.025796
1.115799
1.042485
0.902414
1.164675
1.018643
1.219511
1.243949
1.199841
1.242757
1.328588
1.316667
1.382828
1.202822
1.332760
1.331568
1.599789
1.625419
1.529455
1.755953
1.834631
2.207756
2.687573
10.221601
33.974648
112.939477
225.070715
466.972589
684.209466
972.985029
1015.788913
1015.788913
1015.788913
993.297696
791.645646
488.063693
311.723948
153.491497
75.308681
22.788644
8.837581
5.233884
4.948974
4.682541
4.633665
4.501939
4.305840
4.348755
4.239678
5.014539
##ZVALUE=380
0.938773
0.926852
0.738502
1.015663
0.819564
0.897646
0.839829
0.940561
0.796914
0.845790
0.975728
0.979900
0.876784
0.938773
0.900626
0.813603
0.989437
1.015663
0.886917
1.048446
1.067519
1.016855
1.135468
0.862479
0.984669
1.043677
1.042485
0.835657
1.087785
1.141429
0.842810
1.123548
0.967979
1.011491
1.062751
1.024604
1.116991
1.169443
1.183748
1.078844
0.977516
0.984669
1.037717
1.051426
1.022816
1.070499
1.157522
1.060963
1.010895
1.361966
1.292825
1.264811
1.310706
1.289845
1.264811
1.333952
1.070499
1.195669
1.357794
1.320839
1.333952
1.290441
1.571774
1.490712
1.419783
1.526475
1.671910
1.831651
2.079606
2.419949
2.672672
5.229712
19.396544
81.019998
172.014832
372.765660
575.227737
853.955746
1015.884876
1015.884876
1015.884876
1015.884876
880.996585
593.461990
397.046804
197.044611
101.855993
34.464598
13.594627
5.661845
5.006790
4.361868
4.400611
4.283786
4.106760
3.983974
##ZVALUE=385
0.783801
0.805855
0.745654
0.738502
0.751615
0.752807
0.725985
0.720620
0.806451
0.857711
0.884533
0.879765
0.896454
0.641942
0.993609
0.819564
0.809431
0.907779
0.854731
0.812411
0.759959
0.645518
0.761747
0.895858
0.793934
0.845790
0.923872
0.926852
0.960827
1.014471
0.900626
0.925660
0.946522
0.981688
0.879765
0.836849
0.925660
1.017451
0.906587
1.018643
0.950694
0.867844
0.969768
0.867844
1.038909
0.915527
0.974536
1.079440
0.979900
0.974536
1.123548
0.985861
0.945926
1.151562
1.063943
1.090765
1.061559
1.114607
1.059771
1.186728
1.226664
1.331568
1.167655
1.223683
1.366735
1.424551
1.514554
1.605749
1.635551
1.865625
1.909733
2.273917
2.424717
3.007650
9.663701
48.407912
112.851858
263.139606
438.469648
727.014542
941.986442
1015.788913
1015.788913
1015.788913
989.864469
728.796721
526.352525
305.189490
171.236992
64.103603
25.118589
7.199645
4.689693
4.509687
4.277825
3.905892
##ZVALUE=390
0.870824
0.793934
0.912547
0.712872
0.840425
0.985861
0.632405
0.856519
0.759959
0.727773
0.767708
0.889897
0.846982
0.784993
0.789762
0.824928
0.904799
0.822544
0.755787
0.709891
0.837445
0.887513
0.712872
0.723600
0.890493
0.849962
1.003742
0.751615
0.969768
0.873804
1.022816
0.883937
1.022816
0.935793
1.075864
1.025796
0.971556
1.007915
0.940561
0.860691
0.881553
0.955462
1.016855
0.930429
0.951886
0.929832
0.979900
1.021624
0.944734
1.031756
1.067519
1.034737
1.039505
0.951886
1.044869
1.069903
1.129508
1.108646
1.060963
1.234412
0.987649
1.183748
1.247525
1.130700
1.327991
1.399517
1.511574
1.543760
1.546741
1.858473
1.838803
1.781583
2.007484
1.960993
2.118945
2.346635
4.694462
26.747584
75.307488
209.675431
379.820466
660.483837
873.013735
1015.788913
1015.788913
1015.788913
1015.788913
879.839659
671.596527
408.386588
241.609812
97.420812
45.258999
13.508797
5.708933
4.097819
##ZVALUE=395
0.773668
0.619888
0.840425
0.847578
0.712872
0.781417
0.677705
0.840425
0.860691
0.736713
0.807643
0.907779
0.840425
0.768900
0.853539
0.820756
0.888705
0.767708
0.910759
0.791550
0.856519
0.883937
0.614524
0.814795
0.956655
0.973940
0.954866
0.854731
0.973940
0.983477
0.968575
0.810623
0.921488
0.792742
0.998974
1.081824
1.039505
0.904799
0.858903
0.902414
0.902414
0.926852
0.888705
0.924468
0.989437
1.127720
0.895858
0.976920
1.108646
0.978708
0.945926
1.069903
1.068711
1.196861
1.171827
1.189709
1.156926
1.187921
1.065731
1.144409
1.119971
1.257658
1.191497
1.292825
1.254678
1.320839
1.376867
1.428723
1.454949
1.789927
1.698732
1.865625
1.826882
1.625419
1.650453
1.957417
2.017617
2.160668
2.743602
14.781952
49.523711
148.409605
273.633599
499.863029
700.352788
970.925689
1015.788913
1015.788913
1015.788913
996.546745
797.691941
494.743586
316.868424
148.945451
71.026683
22.064447
##ZVALUE=400
0.807643
0.688434
0.822544
0.816584
0.659823
0.870824
0.865459
0.856519
0.745654
0.640750
0.655651
0.986457
0.933409
0.722408
0.864863
0.741482
0.912547
0.917912
0.910759
0.780821
0.631809
0.717640
0.979900
0.765920
0.916719
0.896454
0.862479
0.816584
0.948906
0.875592
0.794530
1.004934
0.874996
1.129508
0.950694
0.935793
0.986457
0.911951
0.984669
0.921488
0.872612
0.988841
0.964999
0.931621
1.014471
1.090765
1.162887
1.072884
1.017451
1.031756
0.934601
1.055598
0.990629
1.002550
1.075864
0.920892
1.061559
1.135468
1.173615
0.903606
0.957847
1.161695
1.151562
1.217723
1.219511
1.452565
1.316667
1.426935
1.471639
1.711845
1.799464
1.551509
1.687407
1.748800
1.730919
1.636744
1.885891
1.797676
1.876950
2.091527
2.409816
8.651614
29.708743
94.957948
188.093781
387.173891
584.762692
857.884884
1010.445952
1015.788913
1015.788913
1015.788913
868.169665
578.552485
381.232500
193.459988
##END
