##TITLE=FKDZ0102
##FORMAT=SPECTACLE-ASCII V-1.2
##DATA TYPE=ULTRAVIOLET SPECTRUM
##SECOND TYPE=ULTRAVIOLET SPECTRUM
##DATE=11/28/17
##TIME=15:49:15
##SPECTROMETER/DATA SYSTEM=SPECTACLE
##XUNITS=NM EM
##YUNITS=ENERGY
##YFACTOR=1
##FIRSTX=220
##LASTX=410
##NPOINTS=96
##3DDATA=Equidistant
##ZUNITS=NM EX
##FIRSTZ=210
##LASTZ=400
##ZPOINTS=39
##XYDATA=(Y..Y)
##ZVALUE=210
4.692674
4.278421
4.402995
3.923774
4.709959
5.290508
4.215837
4.458427
4.657507
4.420877
3.665686
3.604889
3.049970
3.359914
3.430843
3.291965
3.363490
3.767610
3.477931
3.604889
3.644824
4.510880
4.714727
4.889965
4.813671
5.196929
5.526543
5.026460
5.824566
6.613731
6.038547
6.790757
6.910563
6.898642
7.287860
6.702542
7.644892
7.509589
7.944703
7.398725
7.653832
7.900000
7.307529
7.634759
8.746982
8.455515
7.926822
8.142591
8.908510
7.833838
8.975863
8.080602
7.614493
8.135438
8.399487
9.399652
8.598566
8.809566
7.875562
8.784533
8.537769
9.137988
7.917881
10.074973
8.665919
8.578897
9.292960
11.191964
11.111498
13.135672
15.756488
18.393993
20.123720
23.165941
23.918748
26.403666
25.614500
24.826527
26.953816
23.807883
22.455454
20.704865
16.620755
15.791655
12.718439
11.766553
10.111928
9.280443
9.287596
8.030534
9.149909
9.306669
8.665919
8.762479
9.171963
10.267496
##ZVALUE=215
11.373758
10.533929
11.461973
8.807778
9.496808
9.013414
8.465648
8.347631
8.014441
7.934570
7.260442
6.942749
7.106662
5.546808
4.572868
3.616810
3.787875
3.362894
3.533959
3.969669
4.390478
4.486442
4.634857
4.701614
4.586577
5.754828
5.636811
6.330609
6.475449
6.752610
7.506609
6.886721
7.419586
8.419752
8.245707
8.782744
8.146763
9.326935
7.710457
7.990599
8.326769
8.211732
9.149909
7.746816
8.713603
8.659959
8.222461
8.461475
8.414984
8.699894
8.856654
8.892417
8.993745
8.602738
8.602738
10.040998
9.262562
9.479523
8.646846
9.279847
9.406805
9.072423
9.928942
10.028481
10.486841
10.104775
10.579824
11.075735
11.508465
14.563799
14.456511
17.063618
18.632412
21.172762
23.605824
24.841428
26.404858
25.215745
25.804639
22.846460
21.895766
20.010471
16.558766
14.291406
13.644695
11.713505
10.174513
9.533763
8.383989
7.938743
9.141564
9.369850
7.735491
8.433461
8.427501
8.965731
##ZVALUE=220
28.943419
29.843450
33.309460
34.332871
31.481981
25.492907
20.617843
17.326474
16.098619
16.275644
17.456412
16.462803
15.669465
13.610721
11.180639
9.865761
6.724596
6.180406
5.022883
4.315972
4.414916
4.346967
4.472733
5.381703
4.885793
5.701780
6.185770
6.359816
7.734895
6.688833
7.489920
8.510947
10.356903
9.297729
10.167956
9.519458
9.059906
9.737611
8.599758
9.441972
9.072423
9.393692
8.480549
9.081960
9.479523
8.947849
9.527802
9.301901
9.233952
11.265874
10.805726
10.699630
10.306835
9.292960
10.295510
10.808706
9.897947
9.847879
9.909868
9.528995
10.665655
10.037422
10.133982
10.668635
10.508895
10.833740
10.191798
11.203885
10.913610
12.650490
15.172958
16.676784
19.784570
21.076798
24.397969
25.638938
24.021864
26.331544
25.711656
23.699999
23.357868
20.672679
17.964840
17.680526
15.142560
12.747645
10.529757
10.471940
10.121465
8.998513
8.566976
8.418560
7.199645
9.978414
10.145903
9.488463
##ZVALUE=225
40.994883
43.490529
58.258772
76.746941
87.936521
85.813999
82.475543
66.079497
51.843524
35.583973
32.276511
27.998686
30.918717
29.330850
29.440522
28.002858
23.147464
18.990636
14.608502
10.994673
8.659959
6.631613
5.504489
5.980730
6.387830
6.481409
6.819963
7.106662
7.480979
7.989407
7.257462
8.451939
8.275509
9.984970
9.585619
9.836555
9.915829
10.199547
11.603832
10.705590
9.912848
11.098981
11.673570
12.121797
10.415912
11.366606
10.927916
11.251569
11.838675
10.803938
12.090802
12.903810
11.567473
11.550784
11.823773
12.582541
12.529492
11.648536
11.361837
11.677742
11.871457
12.147427
13.138652
11.406541
13.057590
13.355613
13.057590
13.132691
14.913678
15.367866
16.782880
19.074678
21.751523
22.155643
24.696589
24.204850
24.598837
23.705959
22.939444
23.092628
21.266937
20.256639
17.001629
16.385913
14.916658
12.922883
12.691617
11.349916
11.648536
10.783672
11.355877
11.665821
10.328889
10.201931
10.722876
10.952950
##ZVALUE=230
34.661889
37.142634
62.797666
106.639862
145.822763
185.477734
206.708908
213.349462
200.033784
169.676542
110.173821
82.073808
56.976676
47.773719
47.166944
50.260425
51.300526
51.163435
44.277906
36.134720
30.483603
18.526912
12.695789
8.969903
7.447600
6.520748
6.977916
6.896853
7.560849
7.853508
7.281899
8.998513
9.668469
9.502769
9.090900
9.661913
10.278821
10.237694
11.198521
11.575818
11.323690
12.088418
12.577772
12.845993
11.795759
14.469624
14.312863
12.437701
13.570786
13.572574
13.950467
14.751554
14.106631
14.681816
15.421510
15.920997
15.504956
15.570521
14.433861
16.121864
15.352964
14.285445
14.837980
15.710592
16.282797
17.291903
16.052723
16.299486
16.723871
19.117594
19.636750
21.451712
24.396777
23.063421
26.312470
28.803945
28.111935
25.987625
24.743676
24.913549
21.704435
21.525621
20.777583
17.020702
16.688704
16.499758
15.629530
13.863444
13.241768
13.042688
13.909936
13.400912
12.170672
12.289882
13.632774
12.647510
##ZVALUE=235
12.466908
12.105703
34.325719
67.067742
118.305683
202.252865
279.935598
373.679996
423.491597
424.722433
396.720767
308.793783
226.993561
139.843822
103.023648
77.605844
71.517825
76.627731
82.088709
81.103444
74.638724
65.214634
51.829815
37.609935
22.834539
17.560720
12.297630
9.752512
8.215904
7.991791
8.736849
7.641912
8.400679
9.821653
8.765459
9.403825
11.443496
11.146665
12.017488
12.801886
13.158917
13.652444
13.372898
14.545918
15.420914
15.801787
17.162561
17.587543
18.164515
17.383695
17.580986
17.604828
18.745661
20.058751
18.944740
19.929409
19.815564
18.984675
19.917488
20.078421
18.358827
19.469857
19.352436
17.986894
19.117594
19.736886
20.670891
21.478534
22.500753
23.371577
25.008917
27.689934
30.386448
30.497909
30.636787
32.175779
31.910539
29.625893
29.342771
27.047992
24.223924
23.521781
23.204684
21.012425
21.152496
17.886758
17.325878
19.915700
17.465949
16.562939
16.539693
16.535521
15.754700
16.099811
16.705990
16.330481
##ZVALUE=240
2.537966
3.166795
5.187988
19.061565
40.280819
98.959804
179.615617
312.811732
439.036489
540.551543
627.378821
647.752881
578.754544
484.993458
354.196429
251.334906
148.897767
113.246441
88.603497
93.065500
101.503730
110.521913
106.530786
95.338821
84.151626
63.381791
49.011707
29.864907
21.775961
13.922453
11.090636
9.726882
9.564757
10.170937
10.658503
11.420846
12.074709
12.649894
14.219880
14.129877
14.418960
16.502738
17.226934
17.985702
18.450618
19.455552
20.227432
21.229982
21.098852
21.055937
23.069978
21.307468
21.922588
22.063851
24.246573
23.285747
24.166703
23.845434
21.502972
21.801591
23.451447
22.341609
21.598935
22.702813
23.018718
21.221638
24.164915
23.544431
21.638870
26.418567
26.214719
28.227568
30.906796
32.547712
33.327937
32.431483
31.797886
32.262802
31.059980
29.346943
26.286840
26.124716
24.459958
22.626519
23.211837
21.681786
20.963550
20.917654
18.996596
19.745827
20.435452
17.616749
18.235445
18.035769
17.857552
17.331839
##ZVALUE=245
2.404451
2.145767
2.653599
2.307892
4.097819
13.348460
33.158660
96.683502
179.206729
325.638652
467.649698
624.276996
732.679963
766.192675
738.683939
607.552528
487.947464
320.024490
221.322775
129.428506
102.536678
93.457699
106.255412
115.069747
121.750832
118.184686
102.535486
92.492700
69.672465
51.937699
36.193728
23.292899
15.783906
12.306571
11.199713
10.716915
11.514425
11.758804
13.956428
14.132857
16.928911
15.810728
17.954707
18.446445
19.918680
19.287467
21.517873
22.340417
23.362637
22.742748
21.781921
23.444891
25.867820
24.145842
22.800565
21.352768
24.765730
24.365783
23.664832
22.911429
21.444559
22.490621
21.113753
20.890832
21.627545
21.251440
21.573901
22.769570
22.737980
23.943782
23.455620
25.430918
28.908849
30.053854
28.722882
28.400421
29.522777
28.804541
27.732849
27.072430
25.747418
24.089813
22.806525
20.608902
20.673871
18.485785
19.117594
18.262863
19.148588
17.594695
16.576648
16.818643
16.737580
17.832518
17.028451
16.899705
##ZVALUE=250
2.112985
2.114773
2.041459
1.959801
1.913905
2.298951
2.871752
8.901954
23.779869
72.599649
147.307515
303.073525
455.810428
654.379725
790.809989
879.258513
885.530710
788.045526
668.028593
454.724431
311.208963
238.698721
115.019679
90.827942
98.457932
110.103488
125.013590
131.965876
127.999783
117.076635
99.799633
80.546737
53.534508
38.675666
24.094582
17.162561
13.310909
12.780428
13.299584
12.228489
14.566779
15.655756
16.453862
17.450452
17.789602
20.108819
19.965768
21.301508
20.665526
21.645427
22.539496
21.891594
22.508502
22.668839
23.626685
23.002625
19.775629
20.251870
21.619797
20.912886
20.551682
19.972920
20.749569
19.500852
18.850565
19.315481
19.324422
19.915700
18.795729
21.224618
21.639466
21.315813
22.827983
23.524761
25.048852
24.598837
23.934841
23.652911
23.614764
22.108555
21.380782
18.844604
17.906427
18.958449
17.482638
16.970634
16.272664
16.180873
16.105771
16.072989
15.647411
15.160441
16.028881
14.379621
13.729930
14.826655
##ZVALUE=255
1.689792
1.590848
1.933575
1.936555
1.884699
2.320409
2.391934
2.295971
2.478957
4.807711
20.926595
50.654411
108.393431
244.944692
386.933684
610.959530
770.103931
920.428634
972.971916
911.308527
779.158473
619.023442
394.146442
248.172879
130.546689
92.166662
85.145831
97.499490
117.614865
129.229426
135.324597
134.019852
124.840736
103.462934
82.536936
58.026910
39.271712
24.750829
18.766522
14.077425
14.068484
14.213920
14.483929
15.640855
15.935898
16.187429
17.387867
16.994476
18.546581
18.033981
18.700957
19.095540
17.834902
19.093752
19.156933
17.510653
17.833710
18.060803
17.354488
16.938448
17.447472
17.449856
17.158985
16.115904
16.251802
16.240478
16.761422
16.122460
16.128421
16.954541
18.028617
18.335581
19.086599
19.057989
19.799471
18.727779
19.592643
18.269420
18.190742
17.176867
17.668605
15.889406
16.335845
15.550852
15.330911
14.193654
14.633536
14.300942
14.089942
12.634993
12.484789
13.190508
13.387799
12.868643
13.711452
12.795925
##ZVALUE=260
1.604557
1.519918
1.598597
1.586676
1.587868
1.546741
1.956820
1.858473
1.663566
1.801848
2.192855
3.003478
7.982850
32.622814
78.334808
191.991925
322.519541
534.348488
718.446970
946.351886
1015.586853
1015.586853
943.089724
764.209628
510.690808
349.622965
198.901892
122.921467
78.716874
77.856779
91.136694
119.790435
134.770870
142.450929
144.102573
126.604438
108.771920
81.866980
60.949922
38.755536
28.620958
19.391775
15.302896
13.814569
14.200807
14.405847
14.045835
14.913678
14.633536
15.012622
14.724731
14.824867
15.660524
15.206933
14.188886
14.336705
14.585853
14.694929
14.156699
13.584495
14.156699
12.974739
13.163686
12.953877
13.173819
12.527704
13.022423
12.878776
13.465881
14.007688
14.239550
14.736652
14.800429
16.375780
16.544461
15.729666
15.484691
15.384555
14.870763
15.008450
15.125871
13.165474
12.897849
12.121797
11.952519
12.424588
11.317730
11.466742
11.428595
12.881756
11.370778
11.551976
11.305809
10.848641
11.578798
10.976791
##ZVALUE=265
1.430511
1.505613
1.637936
1.490712
1.693964
1.684427
1.752973
1.696944
1.990795
2.074838
2.240539
2.429485
2.234578
2.315640
5.292892
18.489957
68.976879
137.956738
231.123567
486.853719
707.193017
986.164808
1015.788913
1015.788913
1015.788913
898.536444
713.316798
449.162722
291.634798
150.757432
91.778636
68.090558
75.905919
102.997422
122.266412
141.591430
148.126483
140.933990
133.432746
105.160475
84.733963
58.396459
41.575432
25.783777
19.675493
14.431477
13.073683
12.591481
13.045669
13.289452
12.980700
13.012886
13.095737
12.826920
12.786984
12.981892
12.431741
12.398958
11.838675
11.296868
11.786819
11.922717
11.298656
10.514855
11.048913
10.857582
11.463761
12.047887
11.533499
11.820793
12.306571
13.598800
13.800859
14.296770
13.873577
13.889670
14.407635
13.556480
14.170408
13.164878
12.246966
12.420416
11.950731
11.676550
11.581779
11.214614
11.545420
10.850430
10.789633
11.603832
10.818839
10.326505
10.122657
9.971857
10.571480
10.857582
##ZVALUE=270
1.468658
1.436472
1.446605
1.606941
1.655817
1.523495
1.452565
1.878738
2.022982
1.678467
1.824498
2.007484
1.877546
2.071857
1.949668
2.358556
3.514886
9.382963
40.413737
95.006824
244.004726
420.314670
733.789802
975.790620
1015.788913
1015.788913
1015.788913
1015.788913
935.850739
643.401742
431.331992
214.522481
123.507977
65.932870
58.683753
80.951452
99.859834
128.078461
142.760873
149.435997
146.180987
130.696893
110.823512
84.022880
62.776804
38.171411
27.066469
18.860698
14.785528
12.842417
12.675524
11.668801
11.319518
11.190772
11.803508
11.347532
11.148453
10.890961
11.355877
10.541677
11.062622
10.839701
10.316968
10.098815
10.120869
10.675788
10.217428
10.696650
11.267662
11.750460
11.105537
12.661815
12.992620
13.439655
13.444424
13.737679
13.472438
12.712479
12.157559
12.237430
11.972785
11.290908
10.939837
9.977818
10.577440
10.219812
10.257959
10.279417
10.103583
10.437965
10.386705
9.972453
10.246634
10.029674
9.965897
9.519458
##ZVALUE=275
1.455545
1.385808
1.488924
1.402497
1.532435
1.590848
1.560450
1.410842
1.498461
1.652837
1.447797
1.643896
1.554489
1.691580
1.739860
2.163649
2.225637
2.197623
2.529621
5.677938
20.771623
60.049891
182.755589
346.325040
646.750927
890.035629
1015.788913
1015.788913
1015.788913
1015.788913
1015.788913
843.857527
589.747429
312.663913
172.149539
78.118443
51.985979
56.535602
74.020624
103.199482
123.394728
141.999722
148.002505
143.387914
128.456950
105.030537
85.161924
61.396956
44.648647
27.662516
19.463897
14.311671
12.512803
11.152625
10.433793
10.504723
10.097623
10.350943
10.142922
10.192990
9.819865
10.025501
10.159612
9.979606
9.974837
10.009408
9.863973
10.106564
10.439754
10.624528
10.316968
12.170672
11.787415
11.890531
12.254715
12.612939
12.691617
12.126565
11.742711
11.094809
11.034608
10.096431
10.768771
9.846687
10.026693
10.262728
9.397864
9.731650
9.842515
9.644628
9.370446
9.534955
9.200573
9.132624
8.761883
8.962750
##ZVALUE=280
1.479983
1.275539
1.270771
1.239777
1.141429
1.378655
1.494884
1.437664
1.337528
1.453757
1.534820
1.519918
1.779795
1.835823
1.722574
1.752973
1.750588
1.874566
1.939535
2.473593
2.138615
3.149509
14.468431
46.256781
145.556927
273.211598
524.664521
773.971677
1015.788913
1015.788913
1015.788913
1015.788913
1015.788913
989.275575
733.504891
413.032770
243.873000
106.480718
56.202412
41.581988
52.115917
77.007413
98.565817
122.821927
135.315657
145.209432
141.933560
124.542713
107.950568
80.507994
62.148571
40.119886
28.038621
18.126965
13.536811
10.747910
10.554790
9.743571
9.961724
9.921789
9.957552
9.778738
9.290576
9.764433
9.756684
9.796619
9.800792
9.828806
10.001659
10.951757
10.897517
10.979772
12.276769
11.726618
11.791587
12.044907
11.673570
11.350513
11.246800
10.772943
10.206699
10.089874
9.278655
9.471774
9.353757
9.540915
9.091496
9.163618
8.702874
9.304881
8.993745
9.181499
8.902550
8.376837
8.977652
8.536577
##ZVALUE=285
1.323819
1.339912
1.336932
1.416802
1.321435
1.323819
1.336932
1.354814
1.352429
1.229644
1.490712
1.744628
1.496673
1.622438
1.456738
1.495481
1.677871
1.923442
1.833439
1.957417
2.037883
2.226830
2.458692
2.811551
7.081628
24.308562
83.993673
178.721547
394.214988
632.919669
913.379788
1015.788913
1015.788913
1015.788913
1015.788913
1015.788913
944.553614
585.579872
360.399485
167.987943
84.145665
36.539435
34.808517
51.387548
68.566799
96.952915
116.660595
133.229494
140.155554
136.955976
127.181411
103.695989
86.426735
59.610605
43.358803
27.294755
18.372536
12.835860
10.674000
9.221435
9.447932
9.634495
9.074807
8.852482
9.316802
9.267926
9.405613
9.703636
9.817481
10.204911
10.162592
10.720491
10.678768
11.050701
11.349916
10.844469
11.093616
10.833740
10.530949
9.860992
9.793639
9.501576
9.340644
9.182692
9.395480
9.390712
9.439588
8.952618
8.685589
8.720756
8.705854
8.352995
8.282661
8.537769
8.443594
8.091927
##ZVALUE=290
1.346469
1.418591
1.224875
1.278520
1.409650
1.169443
1.577735
1.427531
1.570582
1.416802
1.440644
1.385808
1.398921
1.529455
1.528859
1.712441
1.597404
1.682639
1.578927
1.791716
1.864433
1.864433
1.900792
2.316833
2.577901
2.547503
3.472567
10.821819
48.384666
117.698908
233.407617
504.618883
782.482624
1015.869975
1015.869975
1015.869975
1015.869975
1015.869975
1015.869975
742.808580
485.584736
242.953897
126.101971
47.645569
27.872920
33.389926
46.191812
66.592693
84.873438
110.218525
126.248002
134.234428
133.286715
119.269490
104.235411
78.672767
59.916973
39.015412
28.054714
17.398000
13.046861
10.468960
9.492636
8.697510
8.431673
8.782744
9.018779
9.532571
9.586811
9.905696
9.943843
10.764599
10.573864
10.837913
10.837913
11.148453
10.398626
9.826422
10.280609
9.738803
9.523630
9.516478
9.023547
9.177923
9.383559
8.866787
9.044409
8.746982
8.830428
8.606911
8.746982
8.466840
8.709431
8.224845
7.998943
8.516908
##ZVALUE=295
1.242757
1.170635
1.311898
1.323819
1.272559
1.303554
1.471639
1.485944
1.272559
1.417994
1.511574
1.405478
1.453757
1.463890
1.416802
1.572967
1.455545
1.741648
1.552701
1.501441
1.663566
1.965761
1.819730
1.708865
2.099872
2.126694
2.256632
2.690554
3.051758
5.134940
18.384457
79.172850
179.004669
426.368713
693.793893
1015.892625
1015.892625
1015.892625
1015.892625
1015.892625
1015.892625
934.108496
647.761822
343.546867
185.237527
65.484643
31.244755
22.455454
27.789474
43.990612
59.734583
82.103610
101.216435
119.148493
126.630664
124.916434
114.983916
98.392963
78.979731
55.571795
40.909648
25.545955
18.122792
12.932420
10.528564
8.835793
8.966923
8.882880
8.920431
9.374619
9.520650
10.269880
10.067821
10.585785
10.485649
10.394454
10.202527
10.202527
9.270906
9.691715
9.659529
9.346604
9.451509
9.159446
9.162426
8.822680
9.094477
9.194613
8.889437
8.597970
8.606911
8.247495
8.381605
8.230805
8.298755
8.285642
##ZVALUE=300
1.008511
1.138449
1.155734
1.238585
1.249909
1.231432
1.361966
1.217723
1.357794
1.317859
1.187921
1.330972
1.191497
1.310706
1.126528
1.430511
1.401901
1.320839
1.411438
1.517534
1.424551
1.573563
1.699924
1.827478
1.757741
1.942515
1.960993
2.124906
2.201796
2.344847
2.611876
3.117919
11.436939
45.390725
157.803893
303.424001
609.373450
924.508572
1015.788913
1015.788913
1015.788913
1015.788913
1015.788913
1015.788913
796.182752
518.658757
259.649754
136.319995
45.794845
21.605492
18.903613
24.695992
40.043592
53.989887
76.550841
93.947649
111.727715
119.331479
119.071603
112.260580
94.536543
78.047514
54.878592
40.900707
26.478767
18.736720
12.567639
10.435581
9.373426
9.110570
9.414554
9.616613
9.315610
9.705424
9.674430
10.152459
9.744763
9.544492
9.571910
9.434819
9.206533
9.020567
9.096861
8.761883
8.704662
9.195805
9.038448
8.436441
8.698702
8.698702
8.300543
8.578897
8.382797
8.146763
8.189678
8.157492
##ZVALUE=305
1.063943
1.191497
1.082420
1.098514
1.143813
1.039505
1.050830
1.258850
1.111627
1.146793
1.408458
1.214743
1.313686
1.403689
1.279712
1.226664
1.585484
1.404881
1.317859
1.599789
1.623631
1.351833
1.449585
1.545548
1.561642
1.687407
1.717806
1.871586
1.695752
1.885891
1.808405
2.408624
2.723932
3.020763
5.296469
31.873584
91.197491
248.302817
450.881720
812.138915
1015.824676
1015.824676
1015.824676
1015.824676
1015.824676
1015.824676
984.382033
628.427863
387.722850
171.220899
83.758831
27.360916
15.514493
17.326474
23.942590
38.094521
52.332878
72.868466
90.525746
104.930997
112.968683
113.253593
104.173422
89.261532
73.766708
51.820874
38.585663
25.602579
18.465519
12.664795
10.570884
10.114908
9.636879
9.635687
9.553432
9.938478
9.288788
9.056926
9.494424
9.050965
8.547902
9.267926
9.089708
8.600950
9.045601
9.200573
8.974671
8.639693
8.890629
8.680820
8.643866
8.755922
8.813739
8.406639
8.343458
8.038878
##ZVALUE=310
1.042485
1.126528
1.099706
1.215935
1.027584
1.085997
1.110435
1.178980
0.976920
1.168847
1.255870
1.194477
1.023412
1.318455
1.154542
1.325607
1.233816
1.214743
1.244545
1.433492
1.306534
1.215935
1.379848
1.529455
1.639724
1.541972
1.644492
1.822710
1.759529
1.602769
1.876950
2.034903
2.078414
2.191663
2.438426
2.628565
3.179908
14.342666
47.972798
163.604617
318.526626
650.822520
966.608524
1015.796661
1015.796661
1015.796661
1015.796661
1015.796661
1015.796661
906.572938
598.004460
294.416547
152.653456
51.184893
20.445585
13.013482
15.496612
22.336841
31.816959
47.751665
63.819885
83.067417
95.935464
105.697513
107.801557
100.473762
89.377761
72.073936
55.704713
37.653446
27.724504
18.528700
14.596581
11.255741
10.018945
9.656549
9.323955
9.067655
9.074807
9.075999
8.847713
8.865595
8.980632
9.018779
8.780956
8.757710
8.943677
8.928776
8.647442
8.793473
8.662939
8.600950
8.967519
8.517504
8.363724
8.335710
##ZVALUE=315
0.938773
1.110435
1.089573
1.108646
1.227856
1.220703
1.128912
1.126528
1.153946
1.005530
1.127720
1.342893
1.326799
1.198649
1.142621
1.148582
1.270771
1.114607
1.211762
1.314878
1.288652
1.299977
1.212955
1.337528
1.561642
1.548529
1.324415
1.417994
1.677871
1.561642
1.693964
1.936555
1.914501
2.025962
2.077818
2.202988
2.274513
2.785921
3.134608
5.954504
32.694936
91.232657
277.074575
524.509549
973.622799
1015.788913
1015.788913
1015.788913
1015.788913
1015.788913
1015.788913
1015.788913
717.670918
443.182588
201.362967
93.164444
25.716424
13.010502
11.893511
14.138818
20.511746
28.021932
43.986440
57.715774
76.516867
88.846684
99.349618
102.095604
95.716715
83.333850
66.110492
52.704811
37.280917
27.415752
18.360615
14.093518
10.937452
9.921789
9.406805
9.337664
9.084940
9.340644
8.818507
8.881688
8.934736
9.125471
9.049773
9.110570
8.916855
8.826852
8.562803
8.862615
8.422732
8.309484
8.473992
8.322597
##ZVALUE=320
1.036525
1.032948
1.057982
1.096725
1.178980
1.061559
1.179576
1.105666
1.123548
1.138449
1.261830
1.047850
1.039505
1.141429
1.208782
1.031756
1.102686
1.110435
1.232624
1.131892
1.040697
1.085997
1.208782
1.369715
1.395941
1.419783
1.396537
1.504421
1.522899
1.642704
1.439452
1.643896
1.534820
1.631975
1.683831
1.889467
1.823902
2.062917
2.128482
2.348423
2.765656
3.851652
11.813641
59.866905
148.938894
388.583541
637.362599
1005.203724
1015.797853
1015.797853
1015.797853
1015.797853
1015.797853
1015.797853
916.876793
500.311852
283.880830
120.754838
52.540898
15.838742
10.160804
10.725856
12.816787
18.520951
25.623441
39.888620
53.404570
70.023537
84.219575
94.836950
95.168948
92.172623
82.455873
64.993501
50.849915
34.897923
26.311874
17.638803
13.419986
10.574460
9.484887
9.115934
9.224415
9.061694
8.987784
9.114742
8.937716
9.174943
8.896589
8.749962
8.886456
9.047985
8.851886
8.608699
8.492470
8.288622
##ZVALUE=325
1.102686
1.003742
1.009703
1.005530
1.193881
1.009703
0.990629
1.031756
1.127720
1.145601
1.177788
1.110435
1.287460
1.246929
1.181960
1.143813
1.301765
1.334548
1.118779
1.161695
1.125932
1.249909
1.199841
1.248717
1.297593
1.244545
1.406670
1.270771
1.488924
1.622438
1.436472
1.605749
1.493692
1.671910
1.650453
1.664758
1.849532
2.000928
2.129674
2.189875
2.321601
2.380610
2.609491
3.089905
6.303787
39.455891
101.155639
268.609524
497.714877
950.858593
1015.826464
1015.826464
1015.826464
1015.826464
1015.826464
1015.826464
1015.826464
644.478798
382.996798
160.830617
73.562860
22.284985
11.505485
9.414554
9.944439
12.571812
17.041564
26.102662
36.611557
53.703785
67.904592
81.007481
88.334680
90.354681
86.447597
73.244572
61.547756
45.450926
34.650564
22.472739
16.908646
12.156963
10.330677
9.657741
9.080768
8.920431
9.073615
8.983612
8.746982
8.805990
8.570552
8.252859
8.544922
8.487701
8.211732
8.329749
##ZVALUE=330
0.981688
1.048446
1.171827
0.982881
1.086593
0.999570
0.970960
0.953674
1.035929
1.014471
0.986457
0.949502
1.041889
1.076460
1.041889
1.150966
1.207590
1.158714
1.248717
1.078844
1.231432
1.177788
1.168847
1.025796
1.264811
1.316667
1.252890
1.207590
1.153946
1.290441
1.424551
1.430511
1.331568
1.463890
1.447797
1.518726
1.507998
1.659989
1.760721
1.802444
1.772642
1.962781
2.293587
2.249479
2.609491
2.930760
3.782511
17.179847
54.694414
177.249908
342.215896
708.951950
1015.786529
1015.786529
1015.786529
1015.786529
1015.786529
1015.786529
1015.786529
817.356706
507.283807
224.609971
106.388927
35.456419
14.525652
9.216666
8.816719
9.730458
11.567473
17.103553
24.029613
36.329627
48.341751
64.235926
74.814558
83.705783
83.983541
79.146624
71.007609
56.005716
43.844581
30.725598
22.705793
16.367435
12.776852
10.637641
9.214878
8.705854
8.617640
8.318424
8.362532
8.209944
8.037686
7.997751
8.330941
7.814765
##ZVALUE=335
0.973940
1.200438
1.005530
0.939965
1.112819
0.897646
0.824928
0.954866
1.040697
0.979900
0.926852
1.060963
1.028776
1.055598
0.942945
0.986457
1.144409
1.174808
1.119971
1.055598
1.056790
1.265407
1.041889
1.169443
1.284480
1.173615
1.172423
1.237988
1.208782
1.249909
1.300573
1.290441
1.303554
1.196861
1.339912
1.364946
1.433492
1.453757
1.588464
1.724958
1.704693
1.731515
1.736879
1.900792
2.165437
2.124906
2.188683
2.539754
2.976656
8.408427
28.594732
105.693936
217.388868
485.966802
786.933899
1015.841961
1015.841961
1015.841961
1015.841961
1015.841961
1015.841961
978.409052
658.439994
323.475003
165.169835
51.581860
20.676851
9.671450
8.500814
9.059906
9.489655
12.113452
15.847683
24.310946
32.880902
47.686696
58.364868
70.466995
75.808764
78.285933
74.318647
63.181520
54.037571
41.694641
32.774806
22.845864
17.088652
12.676716
10.602474
9.177923
8.667707
8.205771
7.937551
7.923841
7.957816
7.873774
##ZVALUE=340
0.848770
0.982881
0.947714
1.006722
1.011491
1.056790
1.057982
0.883937
0.947714
0.985861
0.824928
0.834465
0.890493
0.941753
1.014471
0.883937
0.884533
0.899434
1.088977
0.948906
1.000762
1.190901
1.166463
1.119971
1.101494
1.120567
1.169443
1.246929
1.229644
1.176000
1.311898
1.109838
1.386404
1.291633
1.346469
1.261830
1.374483
1.411438
1.435876
1.522899
1.507998
1.569986
1.713634
1.834631
1.815557
1.830459
2.225637
2.023578
2.071857
2.463460
2.658963
4.390478
14.930964
69.346428
160.971880
394.129753
665.170550
1015.788913
1015.788913
1015.788913
1015.788913
1015.788913
1015.788913
1015.788913
871.181488
433.311462
229.585767
85.718632
32.216907
10.808706
8.950830
8.853674
9.210706
9.858608
11.550784
16.172528
21.941662
32.091737
41.847825
55.415630
64.681768
72.294474
72.770715
68.737864
62.865615
50.504804
41.790605
29.794574
23.037791
16.484857
12.847781
9.774566
8.890629
7.927418
7.894635
7.718801
##ZVALUE=345
0.871420
1.041889
1.077652
0.902414
0.924468
0.877976
0.956655
0.977516
0.959635
0.982881
1.041889
0.824928
0.920892
0.902414
0.856519
0.993609
0.967979
1.069903
1.075864
0.946522
0.948906
1.044869
1.012683
0.998974
1.136661
1.142621
1.183748
1.064539
1.149774
1.221895
0.953674
1.079440
1.102686
1.069903
1.207590
1.236796
1.356602
1.224875
1.334548
1.316667
1.397729
1.454949
1.405478
1.508594
1.654625
1.557469
1.701713
1.980662
2.024770
2.148747
2.236962
2.504587
2.694726
3.197789
7.238984
40.902495
107.717514
270.161629
477.805734
895.578861
1015.788913
1015.788913
1015.788913
1015.788913
1015.788913
1015.788913
1015.788913
689.767599
371.796489
134.974718
56.089759
17.211437
9.947419
9.499788
8.804798
8.500814
9.083748
10.761619
13.892651
21.200776
28.651953
40.831566
49.390793
58.838725
65.326691
67.561865
65.622926
58.367848
51.264763
40.018559
30.861497
21.629930
16.121864
11.262894
9.152889
8.278489
##ZVALUE=350
1.026988
0.981688
0.927448
0.993609
1.000762
1.020432
0.983477
0.977516
0.984669
1.022816
0.828505
0.935793
0.986457
1.093745
1.229644
1.081824
1.115799
1.255870
1.008511
1.022816
1.084805
1.003742
1.085997
1.240969
1.192689
1.254678
1.077652
1.322627
1.340508
1.075864
1.243949
1.273751
1.395941
1.282692
1.306534
1.280904
1.382828
1.469851
1.333952
1.367927
1.322627
1.486540
1.543760
1.389980
1.353621
1.531839
1.781583
1.696944
1.970530
1.913905
2.104640
1.987815
2.170801
2.188683
2.509952
2.977848
4.139543
20.868778
63.123703
193.846822
361.706614
715.714693
1010.696888
1015.833020
1015.833020
1015.833020
1015.833020
1015.833020
1015.833020
747.808814
455.824733
200.295448
90.004802
25.289655
11.522770
8.666515
7.988811
7.333755
7.580519
8.316636
9.505749
13.694763
18.077493
25.639534
32.712817
44.505596
51.859617
59.419870
60.902834
59.686899
55.309534
46.018958
38.423538
28.387904
22.497773
15.654564
##ZVALUE=355
0.964999
1.095533
1.013875
1.049638
0.917912
0.886917
0.950694
0.974536
0.801682
1.034737
1.060963
1.136661
0.890493
0.977516
1.013875
1.011491
1.132488
1.115799
0.926852
1.236796
0.957847
0.922680
1.000762
0.880957
0.922680
0.964999
1.066923
1.106858
1.115799
1.217723
1.066923
1.235604
1.160502
1.181960
1.094937
1.172423
1.176000
1.121759
1.307726
1.176596
1.358986
1.364946
1.407862
1.432896
1.536608
1.368523
1.487732
1.489520
1.738667
1.573563
1.695752
1.768470
1.863837
1.977682
2.148747
2.489686
2.398491
2.605915
3.058910
9.594560
35.544634
131.551623
262.200832
531.723499
829.411745
1015.788913
1015.788913
1015.788913
1015.788913
1015.788913
1015.788913
792.422891
488.095880
208.158493
94.916821
27.863979
11.727810
7.749796
7.208586
7.031560
7.130504
6.975532
7.405877
9.170771
11.081696
16.299486
21.451712
29.217601
37.452579
47.206879
52.469969
55.458546
55.110455
50.119758
44.541955
35.626888
##ZVALUE=360
0.764728
0.729561
0.778437
0.836849
0.706911
0.786781
0.891685
0.795722
0.752807
0.874996
1.038909
0.795722
0.824928
0.825524
0.776649
0.828505
0.824928
0.792742
0.923872
0.894666
0.744462
0.829697
0.912547
0.988841
0.893474
0.817776
0.869632
0.919700
0.957847
1.007915
1.169443
0.942945
0.969768
1.009703
1.076460
1.105666
0.957847
1.068711
0.995994
1.158714
1.124740
1.295805
1.078844
1.272559
1.283884
1.162887
1.164675
1.276731
1.169443
1.264811
1.568794
1.789927
1.631975
1.625419
1.644492
1.801848
1.825690
2.034903
2.194643
2.326965
2.753735
4.573464
16.128421
68.063736
160.437822
393.242836
639.326572
997.954011
1015.633941
1015.633941
1015.633941
1015.633941
1015.633941
1015.633941
759.453773
363.515019
178.703666
57.151914
19.587874
7.833838
7.011890
6.592870
6.341934
6.237626
6.044507
6.603599
7.234812
9.471774
12.365580
17.775893
23.894906
33.191442
39.478540
46.642423
49.475431
49.943924
##ZVALUE=365
0.967979
1.029968
0.899434
0.992417
1.189709
1.005530
0.976920
0.901818
0.911951
1.077652
0.980496
0.954866
1.078844
0.997782
0.865459
1.047850
0.919700
0.928640
1.011491
0.987649
1.008511
1.080632
1.024604
1.104474
1.100898
1.099706
1.026988
1.142621
1.166463
1.013875
1.292825
1.306534
1.143813
1.043677
1.210570
1.185536
1.253486
1.326799
1.271963
1.438856
1.394749
1.214743
1.155734
1.295805
1.487732
1.217723
1.258850
1.379848
1.433492
1.420975
1.565814
1.603961
1.766682
1.821518
1.734495
1.748800
1.868606
2.061725
2.104640
2.353787
2.509952
2.764463
3.069639
3.425479
7.395744
41.383505
108.644962
285.930634
522.916913
931.085944
1015.788913
1015.788913
1015.788913
1015.788913
1015.788913
1015.788913
967.726707
542.450547
285.580754
91.373920
29.907823
8.924603
7.148981
6.496906
6.387830
5.812645
5.704761
5.843639
5.830526
6.597638
7.752776
10.987520
14.799833
22.012591
27.566552
34.966469
##ZVALUE=370
0.976920
0.907779
0.838637
1.042485
0.917912
0.844598
0.890493
0.934601
1.072884
0.897646
0.903606
0.957847
0.969768
0.925660
0.998974
0.937581
0.932813
0.896454
0.929832
0.837445
0.820756
0.942945
0.843406
0.919700
0.908971
1.069903
1.074672
0.878572
0.961423
1.028776
1.027584
1.160502
1.164675
0.999570
0.992417
1.102686
1.142621
1.027584
0.988841
1.022816
1.073480
1.235604
1.331568
1.294613
1.271963
1.242757
1.253486
1.266599
1.227856
1.264811
1.379848
1.415610
1.238585
1.466870
1.346469
1.510978
1.402497
1.616478
1.591444
1.626611
1.750588
1.968741
2.044439
2.156496
2.574921
2.733469
3.987551
21.315813
68.331957
208.700895
381.017923
699.453950
978.614688
1015.788913
1015.788913
1015.788913
1015.788913
1015.788913
936.556458
553.001761
307.779908
113.564730
47.496557
13.601780
7.268786
5.892515
5.861521
5.448461
5.183816
5.020499
5.224943
5.045533
5.767941
7.161498
9.203553
13.349652
##ZVALUE=375
0.799894
0.744462
0.917912
0.913739
0.726581
0.776649
0.927448
1.024604
0.826716
0.936985
0.901818
0.859499
0.988841
0.767708
0.792742
0.883937
0.801682
0.763535
0.874996
0.882745
0.836849
0.949502
0.942945
0.930429
1.037717
1.022816
0.849962
0.985861
0.972748
0.828505
1.138449
0.875592
0.865459
1.074672
1.071692
1.018643
1.035929
1.002550
0.900626
1.110435
1.060963
1.068711
1.195669
1.109838
1.089573
1.203418
1.218915
1.109838
1.183748
1.173615
1.369715
1.229644
1.170635
1.217723
1.117587
1.372695
1.567602
1.633763
1.510978
1.487732
1.455545
1.543760
1.750588
1.808405
1.875758
2.109408
2.355576
2.671480
3.129840
10.730624
38.134456
133.010745
271.389484
589.648485
893.316865
1015.755534
1015.755534
1015.755534
1015.755534
1015.755534
1015.755534
859.986544
561.571717
281.447768
138.046741
36.065578
10.993481
5.887747
5.484819
5.559921
5.163550
4.871488
4.682541
4.667640
5.077720
4.894733
##ZVALUE=380
0.850558
0.869632
0.853539
0.888705
0.911951
0.806451
0.921488
0.798702
0.769496
0.837445
0.854731
0.903606
0.775456
0.803471
0.892878
0.902414
0.830889
0.923872
0.847578
0.818968
0.974536
0.991821
0.932813
0.936985
0.973940
0.910759
0.971556
0.887513
1.027584
0.837445
1.240969
1.089573
1.015663
1.090765
1.051426
0.917912
1.106858
1.052618
1.187921
0.978708
1.073480
1.046658
1.034737
1.086593
0.931621
1.066923
1.028776
1.143813
1.120567
1.132488
1.244545
1.209974
1.096725
1.229644
1.193881
1.264811
1.322627
1.451969
1.399517
1.389980
1.524687
1.394749
1.401901
1.730919
1.711845
1.823902
1.864433
2.189875
2.308488
2.589822
2.967715
5.382895
20.206571
93.216896
209.808946
477.218032
745.834708
1015.788913
1015.788913
1015.788913
1015.788913
1015.788913
1015.788913
787.770748
550.195575
283.030868
147.154927
49.769878
18.321872
6.480813
5.304813
4.988909
4.842877
4.818439
4.704595
4.667640
##ZVALUE=385
0.920892
0.879765
0.712872
0.826716
0.855923
0.798702
0.929832
0.831485
0.855923
0.809431
0.741482
0.831485
0.918508
0.743866
0.660419
0.945926
0.868440
0.622869
0.969768
0.774860
1.016855
1.013875
0.855923
0.967979
1.020432
0.742674
0.941753
1.016855
0.836849
0.946522
1.019835
0.938773
0.939965
0.977516
1.017451
0.876784
0.937581
0.855923
1.027584
0.950694
0.947714
0.935793
1.220703
1.087785
1.033545
1.234412
1.131892
1.121759
1.143813
1.167655
1.092553
1.170635
1.230836
1.250505
1.241565
0.976920
1.201630
1.207590
1.168847
1.157522
1.164675
1.100898
1.589656
1.482964
1.350641
1.609921
1.724958
1.736879
1.986623
2.278686
2.388954
2.473593
2.738833
3.083944
11.461973
40.014982
145.830512
305.846930
642.598867
949.793458
1015.788913
1015.788913
1015.788913
1015.788913
1015.788913
1015.788913
743.450522
523.940921
271.018744
145.318508
46.543479
13.604760
5.151629
4.819632
4.549623
4.499555
##ZVALUE=390
0.837445
0.720620
0.926852
0.902414
0.888705
0.923872
0.895858
1.014471
0.689626
0.710487
0.801682
0.831485
0.811815
0.841618
0.959635
0.793934
0.718832
0.818968
0.843406
0.877976
0.832677
0.907779
0.998974
0.867844
0.883937
0.961423
0.802875
0.778437
0.978708
0.913739
0.940561
0.873804
0.847578
1.033545
0.998974
0.905991
1.140833
0.911951
1.027584
0.962615
0.991821
0.813603
0.992417
1.169443
1.067519
1.147985
1.169443
1.217723
1.131892
1.078844
1.156926
1.076460
1.083612
1.046658
1.163483
1.231432
1.230836
1.259446
1.290441
1.055598
1.261830
1.319647
1.459718
1.282692
1.474619
1.439452
1.619458
1.802444
1.916885
2.011657
2.270937
2.299547
2.241731
2.457500
2.428889
2.646446
4.875660
27.272701
84.056854
253.889561
474.330783
861.436725
1015.797853
1015.797853
1015.797853
1015.797853
1015.797853
1015.797853
885.476470
535.304546
313.837528
126.489401
55.513978
13.831854
6.259680
4.786849
##ZVALUE=395
0.875592
0.702739
0.710487
0.760555
0.876784
0.685453
0.913739
0.795722
0.695586
0.790954
0.730753
0.749826
0.783801
0.779629
0.957847
0.828505
0.720620
0.784993
0.815988
0.854731
0.787973
0.835657
0.873804
0.738502
0.834465
1.067519
0.893474
0.880957
0.990629
0.979900
1.029968
0.912547
0.843406
1.046658
0.946522
0.856519
1.046658
1.080632
0.980496
0.980496
0.967979
0.925660
0.955462
0.897646
1.042485
1.049638
1.051426
1.008511
1.048446
1.061559
1.147985
1.109838
1.118779
1.167655
1.063943
1.238585
1.189709
1.337528
1.060963
1.203418
1.341701
1.258850
1.251698
1.300573
1.221895
1.484752
1.467466
1.604557
1.792908
1.958609
2.084970
2.126694
2.331734
2.242923
2.271533
2.340674
2.431870
2.677441
3.328919
16.308427
56.585670
186.110735
351.301432
655.701756
957.207680
1015.788913
1015.788913
1015.788913
1015.788913
1015.788913
1012.835503
644.990802
392.741561
168.462992
78.494549
24.147630
##ZVALUE=400
0.834465
0.826716
0.796914
0.686646
0.736713
0.893474
0.830889
0.759959
0.834465
0.761747
0.832677
0.893474
0.851750
0.979900
0.816584
0.742674
0.885725
0.809431
0.907779
0.955462
0.814795
0.790954
0.934601
0.745654
0.747442
0.864863
0.728965
0.919700
0.935793
0.762939
0.922680
0.843406
0.941753
0.857711
0.864863
1.023412
0.981688
1.011491
0.908971
0.904799
0.878572
1.018643
0.953674
1.112819
1.112819
1.039505
0.953674
1.186728
0.954866
1.048446
1.075864
0.827909
1.081824
1.006722
0.938773
1.095533
0.986457
1.117587
1.072884
1.150966
1.120567
1.259446
1.290441
1.259446
1.271963
1.245737
1.461506
1.542568
1.856685
1.776814
1.863837
2.021790
1.769662
1.889467
1.886487
1.983643
2.079606
2.057552
2.247691
2.656579
2.940893
8.977652
32.544732
116.262436
243.874788
525.527000
819.951892
1015.788913
1015.788913
1015.788913
1015.788913
1015.788913
1015.788913
791.319609
514.733791
253.242850
##END
