##TITLE=FQP00351
##FORMAT=SPECTACLE-ASCII V-1.2
##DATA TYPE=ULTRAVIOLET SPECTRUM
##SECOND TYPE=ULTRAVIOLET SPECTRUM
##DATE=11/28/17
##TIME=16:52:39
##SPECTROMETER/DATA SYSTEM=SPECTACLE
##XUNITS=NM EM
##YUNITS=ENERGY
##YFACTOR=1
##FIRSTX=220
##LASTX=410
##NPOINTS=96
##3DDATA=Equidistant
##ZUNITS=NM EX
##FIRSTZ=210
##LASTZ=400
##ZPOINTS=39
##XYDATA=(Y..Y)
##ZVALUE=210
12.235641
12.368560
8.665919
8.632541
8.204579
7.118583
7.860661
7.610917
9.171963
10.276437
10.060668
10.053515
11.369586
13.196468
13.561845
15.416741
15.791655
17.273426
18.010736
18.743873
21.859407
23.770928
26.132464
26.758909
28.238893
31.821728
32.589436
33.412576
34.768581
36.408901
37.572980
38.503408
39.379001
41.988492
40.471554
42.793751
43.393970
44.981837
45.160651
47.122836
47.940612
49.460530
47.920942
53.717494
53.615570
54.991841
59.160590
55.454969
55.356622
59.032440
56.236982
59.111714
61.686635
62.744617
63.894987
63.124895
65.332651
64.200759
66.606998
67.149997
67.974925
65.931678
66.325665
66.614747
71.832538
68.305731
73.266625
79.746842
96.870661
110.702515
137.964487
168.607831
199.672580
233.208537
267.717838
287.665725
309.217572
318.944454
325.300694
327.099562
296.707749
277.252793
244.571567
213.368535
169.325471
140.995979
107.323527
87.735653
70.428848
67.051649
64.715743
62.002540
60.914755
61.360002
60.999990
64.182878
##ZVALUE=215
45.153499
44.445992
42.311549
32.763481
25.488734
18.210411
13.816953
9.848475
11.551976
11.417866
13.230443
11.487603
11.038780
11.640787
11.728406
11.638999
13.310909
14.406443
15.502572
15.326738
16.016960
18.755794
19.255877
20.242929
23.159981
23.162961
25.146604
26.644468
26.649833
28.550625
29.331446
30.500889
30.514598
32.187700
31.712651
33.965707
33.615828
35.340786
35.697818
35.533905
34.343600
36.561489
36.718845
38.561821
38.236976
40.980577
40.667653
40.467978
41.296482
41.636825
41.158795
43.793917
43.725967
43.606758
42.898655
44.368505
44.825673
42.649508
43.991804
45.272708
44.866800
47.438741
44.012666
47.450662
45.264959
50.871968
51.274896
54.981709
61.297417
73.118806
80.710649
101.145506
113.944411
133.633614
147.808790
163.593888
169.207454
177.125931
175.036788
170.802474
158.469677
146.338940
129.641891
114.255548
95.667839
76.743960
64.308643
54.066777
49.146414
41.639805
38.683414
40.507913
37.699938
36.481619
39.290786
38.521886
##ZVALUE=220
101.670623
107.041001
116.748810
117.212534
107.931495
91.095567
62.348843
45.943856
27.577877
19.681454
16.194582
18.908978
18.521547
18.486977
16.823411
14.424920
13.608932
12.692809
12.534857
11.616945
12.503862
14.168620
14.768839
15.410781
17.184615
18.271804
20.867586
20.005703
20.185709
20.204782
23.174882
22.574663
24.762750
23.341775
25.010705
25.822520
26.199818
25.383830
26.939511
27.166605
27.450919
27.133822
26.498437
27.570724
26.452541
28.623939
30.280948
29.011965
28.077960
29.005408
28.327703
29.564500
29.320717
29.321909
31.450987
31.209588
32.138824
32.982826
32.889843
31.539798
31.565428
32.552481
32.053590
31.743646
32.653809
30.877590
35.515428
35.984516
40.907860
47.339797
53.380728
65.136552
71.588755
84.135532
92.615485
103.444457
102.484822
109.148622
103.008747
103.395581
100.929737
87.217689
81.499815
72.671771
64.547658
50.256848
43.038726
35.329461
32.222867
29.995441
27.345419
26.779771
29.013753
26.039481
26.977658
26.792884
##ZVALUE=225
122.842789
136.694908
182.131529
239.040852
264.039636
278.811455
260.706544
207.295418
155.356526
110.715628
61.700940
40.360689
30.176640
31.861663
33.076406
30.827522
26.876926
23.933649
18.898845
15.816689
13.827682
11.819601
13.597608
13.961792
14.859438
14.851689
16.256571
16.205907
17.301440
19.015670
18.386841
21.330714
20.798445
22.489429
24.256706
23.088455
24.763942
23.097992
22.740960
24.031997
24.104714
24.111867
23.239851
24.178624
23.314953
24.551749
27.749538
26.997924
27.715564
27.456880
27.847886
27.549863
30.009747
28.265715
27.126670
29.357672
30.033588
29.134750
30.023456
28.819442
30.324459
29.613972
31.518936
31.347871
31.553507
32.112598
32.481551
35.116673
38.571954
43.312907
47.289729
53.974986
60.062408
68.263412
77.108741
80.119967
82.046986
82.495809
82.630515
79.887509
75.879693
68.729520
62.729716
56.815743
50.164461
40.255785
35.927892
32.094717
30.494928
28.397441
27.056932
26.425719
25.487542
26.272535
25.883913
25.717616
##ZVALUE=230
83.909631
94.297528
162.387490
287.674665
379.055738
501.043797
555.373430
584.770441
545.547009
470.176935
329.864621
219.172835
118.437409
78.108907
55.869818
53.876638
57.760477
53.939819
50.023794
40.785670
35.520792
27.467608
20.969510
17.839670
16.204715
16.206503
15.855432
15.610456
17.195940
18.213987
19.093752
19.902587
20.047426
20.836592
22.121668
21.893978
20.286441
23.703575
22.740960
22.334456
23.146868
25.424957
25.337934
25.014877
26.546717
26.488900
27.460456
28.361678
27.989745
28.038621
30.124784
28.077960
31.787753
28.935671
29.531717
30.586720
30.440688
32.659769
31.602979
32.317638
33.089519
33.713579
34.699440
34.494996
35.995841
35.699606
34.619570
36.814809
39.813519
44.515729
49.489737
55.860877
65.330863
71.285963
80.962777
87.455511
89.469552
89.121461
89.294910
84.412694
82.401633
76.206923
67.528486
59.166551
52.692890
42.867661
41.348934
36.979914
33.097863
32.280684
28.975606
29.708743
29.777884
30.574799
28.930902
26.769638
##ZVALUE=235
21.076798
24.396777
72.577596
143.288970
251.726508
461.316705
661.985874
907.720923
1015.788913
1015.788913
1015.788913
835.501552
647.917986
401.857495
269.728899
144.121647
99.648833
82.576871
85.560679
84.005594
80.729723
71.796775
59.521794
45.976639
32.584667
25.820732
21.773577
19.130707
19.749999
18.211603
19.216537
20.248890
18.721819
20.401478
19.824505
20.967722
21.246672
19.891858
22.628903
22.732615
24.455786
24.876595
24.652481
27.147532
29.509664
28.117895
31.289458
30.926466
31.175613
31.878948
32.562613
32.602549
32.625794
36.880970
34.907460
35.494566
34.027696
36.216974
35.630465
37.522912
35.579801
36.708713
37.955642
37.838817
38.204789
36.942959
39.448738
38.878918
43.133497
47.414899
51.155686
56.765676
64.694881
74.832439
78.041553
88.174939
89.278817
92.374682
88.702440
87.997913
84.169507
75.746775
67.234635
61.643720
56.511760
46.890974
41.642785
38.826466
36.781430
36.706924
33.735633
33.461452
34.420490
34.836531
31.872988
30.688643
##ZVALUE=240
3.828406
3.994703
9.371638
32.984614
80.033541
205.486417
371.227860
721.347928
1001.773477
1015.788913
1015.788913
1015.788913
1015.788913
1015.788913
978.165865
673.139691
362.727642
220.586658
194.611549
102.489591
107.930899
121.566653
116.775632
107.740760
93.806982
76.508522
56.735873
42.359829
32.349825
24.230480
23.050904
21.848679
22.691488
23.443699
20.946860
21.540523
23.263693
24.477839
22.868514
25.131702
25.066733
27.737617
27.824640
29.091835
32.321811
33.599734
35.281777
33.233762
36.159754
39.211512
38.728714
39.203763
39.518476
41.242838
41.134953
41.265488
42.175651
42.589903
41.614771
43.454766
43.599606
43.685436
40.886998
42.925477
42.474866
45.982599
47.094822
46.396852
50.332546
54.514408
58.259964
64.993501
70.935488
77.711940
88.145733
91.810822
93.919635
91.760755
89.288950
90.806484
82.634687
75.399876
66.837668
59.708953
55.655837
46.922565
44.310689
41.774511
41.432977
39.292574
38.577914
37.726760
35.445690
36.224723
34.972429
35.322905
##ZVALUE=245
3.650784
3.144741
3.246665
3.942847
8.106828
26.210546
87.139606
190.928578
449.879766
725.571513
1015.893817
1015.893817
1015.893817
1015.893817
1015.893817
1015.893817
1015.893817
956.624746
652.952790
344.347954
210.149884
136.808753
118.431449
126.862526
134.398937
132.827759
120.528936
103.096962
78.683496
62.513947
49.845576
35.948753
29.198527
22.465587
21.130443
21.094680
21.759868
21.580458
24.134517
24.370551
24.453998
26.638508
30.219555
30.118823
30.196905
33.767819
35.435557
35.421848
38.186908
37.440658
39.956570
39.912462
40.532947
42.244792
42.595863
41.190982
42.448640
42.395592
41.173697
40.591955
41.592717
42.035580
41.605830
39.111972
40.481687
42.394996
42.671561
44.495463
43.021441
48.714876
53.177476
57.701468
61.397552
67.765713
71.156621
77.465773
78.502893
77.811480
73.966980
73.058605
69.889426
61.187744
56.060553
50.501823
45.312643
44.528842
41.532516
36.343932
37.610531
34.265518
34.714937
32.387972
32.709837
31.271577
32.816529
33.446550
##ZVALUE=250
2.619624
2.914667
3.262758
3.231764
3.423691
3.417730
5.529523
16.073585
65.852404
156.292915
412.912369
733.017921
1015.788913
1015.788913
1015.788913
1015.788913
1015.788913
1015.788913
1015.788913
1015.788913
752.589107
445.441008
211.417675
132.506490
110.341907
120.883584
134.766698
140.559673
137.250423
125.292540
108.951926
84.737539
65.911412
45.195818
34.227967
24.356842
22.190809
19.222498
18.684864
20.702481
21.882653
23.458600
23.582578
26.787519
27.505755
29.212832
32.872558
32.642484
33.534765
35.011768
37.385821
38.201809
36.840439
38.060546
36.753416
38.688779
38.043857
37.184954
36.917925
36.262870
37.897825
35.059452
37.139654
34.499764
35.147667
34.461617
34.351945
36.951900
36.989450
38.292408
42.067766
44.236779
47.588944
50.723553
55.693984
57.717562
57.374835
59.176683
58.612823
53.386688
52.711964
48.507452
44.960976
39.662719
37.405491
33.527613
30.720830
28.638840
28.466582
29.571652
26.366711
26.412606
26.707649
26.458502
25.793910
25.176406
##ZVALUE=255
2.536774
2.111793
2.493858
2.404451
2.535582
2.942681
2.976656
3.407598
3.857613
9.310842
49.084425
120.908618
251.473784
574.034452
902.831554
1015.788913
1015.788913
1015.788913
1015.788913
1015.788913
1015.788913
1015.788913
818.402767
487.916470
222.748518
135.340691
97.926855
104.728937
126.768947
136.243701
145.007968
144.112706
133.754611
107.892752
88.704824
60.173869
44.637918
29.538870
24.204850
19.919872
18.858910
20.192862
22.133589
23.336411
24.419427
26.125908
26.038885
28.145909
30.575991
29.805899
31.490922
32.208562
32.638907
31.807423
32.829642
32.067895
31.457543
30.409694
30.291677
28.545856
28.491616
28.690696
28.800964
28.271675
27.635694
26.989579
26.756525
28.230548
27.613640
28.853416
30.299425
32.831430
34.587979
36.793947
37.097931
36.957860
37.322640
36.017895
35.500526
34.165978
32.296777
30.696988
28.322935
26.380420
24.594665
24.409890
23.315549
23.903847
23.417473
22.461414
21.747947
20.748973
20.834804
20.612478
21.027923
20.578504
##ZVALUE=260
2.200603
2.199411
2.212524
2.532601
2.252460
2.436638
2.319813
2.439618
2.750754
2.923608
3.540516
5.060434
14.599562
71.850419
179.845691
450.330377
747.988820
1015.798450
1015.798450
1015.798450
1015.798450
1015.798450
1015.798450
1015.798450
997.015834
693.526864
370.410681
195.553899
100.679994
85.900426
98.352432
124.639869
139.074922
148.552656
147.344470
132.059455
111.086965
86.787939
67.009926
45.868754
34.325719
24.955869
22.863746
20.853877
21.437407
21.664500
23.133755
24.458766
24.821758
25.442839
26.074648
26.920438
26.172996
24.856925
27.251840
26.201606
25.915504
25.586486
24.760962
23.335814
24.113655
22.789836
23.050904
23.120642
22.059679
22.131801
22.714734
22.468567
22.876859
24.634600
24.225712
26.553869
27.720928
30.082464
29.330850
30.988455
29.426813
29.258728
29.191971
27.377605
26.433468
24.753809
22.427440
22.500753
20.330548
20.919442
19.334555
18.935800
19.226670
18.857718
18.280745
19.075871
18.143654
18.180609
18.093586
17.730594
##ZVALUE=265
2.015829
1.768470
2.267957
1.885891
2.031922
2.170801
2.167821
2.296567
2.444983
2.476573
2.831817
2.987981
3.703833
3.860593
9.452701
59.727430
159.390569
404.055715
714.589953
1015.780568
1015.780568
1015.780568
1015.780568
1015.780568
1015.780568
1015.780568
1015.780568
816.533566
423.438549
232.576728
130.109787
77.075958
81.135631
104.420781
123.896599
145.505667
150.124431
144.576430
134.076476
112.120509
91.180801
64.169765
47.583580
32.938719
26.074648
21.998882
19.797683
20.423532
21.020770
21.323562
22.201538
21.953583
21.955967
21.441579
21.166801
20.187497
20.411611
20.652413
19.399524
18.836856
18.598437
18.317699
18.170476
17.749667
18.469691
17.912984
17.586946
17.546415
19.987822
19.246936
20.812750
22.581816
22.889972
24.137497
24.583936
23.765564
25.196671
22.770762
22.959709
21.456480
21.516681
20.818710
19.107461
18.032789
17.915964
16.222000
16.255975
16.959906
16.628504
16.424656
16.317964
16.368628
15.925765
16.358495
16.141534
15.948415
##ZVALUE=270
1.793504
1.808405
1.786947
1.563430
2.010465
1.656413
2.177954
2.064705
2.096891
2.163649
2.285838
2.528429
2.584457
2.876520
2.810955
3.057718
4.975796
18.489957
88.999867
215.056539
524.566770
865.568519
1015.788913
1015.788913
1015.788913
1015.788913
1015.788913
1015.788913
1015.788913
933.815837
613.254905
304.415822
170.739889
80.781579
64.018965
80.470443
101.068616
126.228929
143.117905
150.129795
147.960782
131.197572
114.479661
86.935759
67.327619
44.893622
33.888817
25.826693
21.926761
18.614531
17.759800
18.191934
17.072558
17.810464
17.693639
17.520785
16.555786
16.765594
16.827583
15.374422
15.569925
15.437603
15.248656
14.675856
15.046000
14.389753
15.467405
16.261935
16.577840
17.180443
17.739534
18.557906
18.447638
20.145774
19.600987
19.266605
19.837618
19.847751
19.087791
18.086433
17.851591
16.890764
15.973449
15.533566
14.916658
14.547706
14.813542
14.570951
14.610887
14.002919
14.263988
14.355779
14.349818
14.128685
14.179945
13.853908
##ZVALUE=275
1.789927
1.836419
1.698732
1.876950
1.917481
1.960993
1.809597
2.008677
2.240539
2.147555
2.050996
2.318621
2.288818
2.402663
2.878904
2.738833
2.699494
2.956986
3.242493
9.621978
36.214590
105.004907
305.673480
566.922426
988.178849
1015.960574
1015.960574
1015.960574
1015.960574
1015.960574
1015.960574
1015.960574
922.980905
488.520861
277.284980
120.470524
67.819953
60.908794
76.017976
102.539659
123.138428
141.419768
152.272582
146.691799
136.173964
109.939575
89.928508
64.379573
48.588514
33.025742
25.104880
19.096732
17.268658
15.282631
15.860796
15.517473
15.350580
14.886856
14.999509
15.076995
15.000701
14.527440
14.227629
13.897419
14.103651
14.171600
13.343692
14.081597
14.702678
15.240908
15.802979
16.636848
17.263889
18.270612
18.468499
18.511415
19.183755
18.418431
17.825961
16.904473
16.325712
16.145706
15.094876
14.706850
13.971925
13.801455
13.650656
14.214516
13.371706
13.446808
13.876557
12.879968
13.085604
13.207793
12.980700
12.751818
##ZVALUE=280
1.669526
1.660585
1.506805
1.572967
1.681447
1.538992
1.473427
1.664758
1.667738
1.940727
1.736879
1.762509
2.176762
1.794696
2.015829
2.146959
2.326965
2.202988
2.531409
3.203750
3.127456
4.163980
23.662448
76.733828
232.080817
419.213772
772.444606
1015.788913
1015.788913
1015.788913
1015.788913
1015.788913
1015.788913
1015.788913
1015.788913
665.590763
388.072729
165.275931
80.591440
47.056675
53.836703
77.109933
99.160671
124.360919
138.154626
146.443844
142.271519
130.335689
112.693906
84.601641
66.676736
44.838786
32.527447
22.807717
17.385483
14.559627
13.494492
12.990832
12.897849
13.071895
13.230443
12.880564
12.685657
12.616515
13.011694
13.157725
13.545752
13.722777
13.138652
14.140606
15.108585
15.375614
16.222000
17.078519
17.625690
17.247796
16.320944
16.271472
15.374422
14.758706
14.840961
14.282465
13.585687
13.826489
13.237596
13.135672
12.587905
12.902617
12.924671
12.146831
12.055635
11.790991
12.399554
12.087822
12.541413
12.288690
##ZVALUE=285
1.439452
1.496673
1.542568
1.586676
1.494884
1.471639
1.602769
1.640916
1.578927
1.722574
1.800656
1.852512
1.813769
1.992583
1.826882
1.947880
1.994967
2.214909
2.241731
2.027750
2.674460
2.895594
3.315806
3.301501
10.728836
38.802624
133.162737
280.600786
603.061914
930.755734
1015.788913
1015.788913
1015.788913
1015.788913
1015.788913
1015.788913
1015.788913
851.681828
532.090664
243.701935
122.899413
47.827959
37.130713
51.627755
70.499778
98.339915
117.096901
132.153630
141.517520
138.281584
130.556822
107.058883
88.549852
62.345862
46.087503
28.772950
21.249652
15.278459
13.068914
11.829734
11.388659
11.449456
11.378527
11.654496
11.738539
11.854768
12.151599
12.532473
12.395978
13.172626
13.648868
13.540983
14.525652
14.781952
15.346408
15.535951
14.821887
14.536977
14.122725
13.140440
13.452768
12.522936
12.488961
12.534857
12.061000
12.221932
12.389421
11.938810
11.764765
11.643767
11.746883
11.678934
11.029840
11.459589
11.129975
11.810660
##ZVALUE=290
1.458526
1.344681
1.569986
1.414418
1.337528
1.335740
1.394749
1.514554
1.516938
1.538992
1.660585
1.469851
1.720786
1.700521
1.744628
1.629591
1.674891
1.911521
1.874566
2.087951
2.055764
2.135634
2.410412
2.594590
2.832413
3.535748
4.672408
15.401840
76.089501
187.558532
372.906327
753.113627
1015.802622
1015.802622
1015.802622
1015.802622
1015.802622
1015.802622
1015.802622
935.373902
617.987514
305.695534
156.791806
57.491660
32.090545
34.745932
47.603846
66.568851
85.612535
111.879706
126.294494
133.982897
134.157538
123.158693
104.711652
80.832839
60.939789
41.495562
29.429793
18.455982
14.068484
11.331439
10.624528
9.925961
9.999871
10.595918
10.564923
11.002421
11.304617
11.877418
12.270808
12.772679
12.978911
13.755560
13.418794
13.762712
13.094544
12.737513
12.789965
12.465715
11.769533
12.378693
11.724830
11.797547
11.789799
11.748672
11.301637
11.148453
11.428595
11.127591
10.895729
11.201501
10.798573
10.799766
11.105537
10.690689
##ZVALUE=295
1.347661
1.373887
1.246929
1.370907
1.273751
1.272559
1.495481
1.295805
1.475811
1.463890
1.405478
1.470447
1.586676
1.530647
1.575947
1.717806
1.443624
1.773834
1.874566
1.878738
1.849532
1.875758
1.985431
2.284646
2.294779
2.465844
2.877712
2.730489
3.526807
6.617904
26.001930
117.349029
266.609788
598.000884
926.813483
1015.822887
1015.822887
1015.822887
1015.822887
1015.822887
1015.822887
1003.713012
727.320910
383.448005
206.216574
74.796677
35.154819
22.687912
28.706789
44.289827
60.732961
84.632635
100.542903
119.661689
127.259493
125.142932
115.751624
97.873807
79.514980
56.323409
41.435957
25.817752
18.292665
12.457967
10.452867
8.975863
9.194613
9.441972
9.875894
10.103583
10.613799
11.378527
11.194944
11.841655
12.044907
11.828542
12.001991
11.800528
11.547804
11.290908
11.000633
11.138916
11.325479
11.104941
11.288524
10.552406
10.722876
10.895729
10.936856
10.838509
10.275841
9.943843
10.397434
10.437965
10.193586
10.355711
##ZVALUE=300
1.285672
1.154542
1.096725
1.158714
1.389980
1.177788
1.371503
1.214743
1.390576
1.346469
1.156926
1.132488
1.245737
1.418591
1.450777
1.559854
1.583695
1.382828
1.391768
1.635551
1.698732
1.671910
1.734495
1.873970
2.080798
2.086759
2.162457
2.371669
2.385974
2.626777
3.043413
3.604889
16.825795
59.603453
195.472836
367.732644
720.942020
1010.399461
1015.788913
1015.788913
1015.788913
1015.788913
1015.788913
1015.788913
870.240927
565.940738
284.011960
150.218606
53.256750
23.441911
18.594861
24.284720
38.540959
52.834749
74.045658
92.543960
111.296773
118.513703
118.158460
111.127496
92.446804
77.271461
55.618882
41.956902
25.926828
18.247962
12.968779
10.276437
9.320974
9.444952
9.778738
9.990931
10.876656
10.556579
11.254549
10.749698
11.078715
11.087656
10.654926
10.622740
10.611415
10.784864
10.329485
10.259748
10.553598
10.523796
10.109544
10.491610
10.739565
10.189414
10.118484
9.948611
9.828806
9.836555
9.761453
9.677410
##ZVALUE=305
1.180768
1.200438
1.061559
1.285672
1.325607
1.248717
1.444817
1.190901
1.192689
1.140833
1.286864
1.102686
1.346469
1.262426
1.339912
1.403689
1.346469
1.503825
1.452565
1.498461
1.572967
1.566410
1.626611
1.704693
1.748800
1.703501
1.987815
1.991987
2.080798
2.346635
2.125502
2.642870
2.817512
3.226995
6.495714
42.375922
115.420818
308.950543
544.650555
964.450836
1015.788913
1015.788913
1015.788913
1015.788913
1015.788913
1015.788913
1015.788913
693.779588
425.874591
192.309618
91.339946
29.439926
15.597939
16.790628
23.295879
36.845803
51.242709
71.227551
87.798834
105.083585
112.152696
111.118555
105.912685
89.624524
73.574781
52.736998
39.175749
26.127696
18.440485
12.802482
11.042953
10.322928
10.461807
10.868907
10.881424
10.900497
10.618567
10.736585
10.438561
10.570884
10.456443
10.746717
10.266900
10.577440
10.451674
10.716915
10.637641
10.348558
10.652542
10.457635
10.162592
10.042787
10.020733
10.175705
9.917617
9.662509
##ZVALUE=310
1.065731
1.097918
1.072884
1.086593
1.118779
1.194477
1.287460
1.173615
1.183748
1.205802
1.142621
1.232624
1.132488
1.230836
1.212955
1.263618
1.233816
1.336932
1.367927
1.576543
1.557469
1.589656
1.542568
1.645684
1.715422
1.468658
1.776814
1.746416
2.011657
1.935959
2.102852
2.305508
2.396703
2.570748
2.840757
2.812743
4.065633
14.729500
77.208877
179.314613
418.382883
685.251951
1015.788913
1015.788913
1015.788913
1015.788913
1015.788913
1015.788913
1015.788913
990.814567
582.758784
342.036486
137.390494
61.294436
19.600987
12.726784
15.712976
20.881891
31.957626
43.497682
63.741803
79.135895
95.593929
104.422569
107.171535
102.184415
87.102652
73.640943
52.785873
39.574504
26.557446
19.895434
14.979839
12.714863
11.815429
11.271834
10.618567
10.795593
10.732412
10.593534
10.460615
10.554790
10.618567
10.771751
10.769963
10.935664
10.838509
10.759830
11.010766
10.403991
10.937452
10.402799
10.367632
10.184646
10.334849
9.870529
##ZVALUE=315
1.176596
0.886917
1.131892
0.947714
0.959635
1.105666
1.369715
1.160502
1.063943
1.137853
1.153946
1.266599
1.239777
1.296997
1.194477
1.214743
1.140833
1.374483
1.396537
1.438856
1.417994
1.312494
1.459718
1.477599
1.414418
1.544952
1.469851
1.777411
1.714826
1.894832
1.930594
2.023578
2.166629
2.236962
2.412796
2.705455
2.581477
2.969503
3.167987
8.624792
33.555627
135.048628
284.839869
613.840818
960.452557
1015.788913
1015.788913
1015.788913
1015.788913
1015.788913
1015.788913
1015.788913
815.144777
419.981480
223.251581
78.527927
31.157732
12.909770
11.453629
14.268756
19.164681
30.544996
41.853786
59.266686
73.717833
90.686679
98.660588
101.379752
97.521544
83.406568
70.171952
53.574443
40.129423
27.458668
20.217896
14.833808
12.388825
11.278987
11.058450
10.969639
10.494590
10.914803
10.693669
10.967851
10.643601
10.964870
10.786653
10.474920
10.639429
10.702610
10.409951
10.336637
10.274649
10.089874
10.338426
10.260940
##ZVALUE=320
1.092553
1.053810
0.989437
1.017451
1.007915
1.138449
1.021624
1.244545
1.004934
1.213551
1.151562
1.150966
1.174808
1.174808
1.220703
1.179576
1.244545
1.245737
1.320839
1.285672
1.428723
1.392961
1.328588
1.492500
1.445413
1.448989
1.448989
1.310706
1.612902
1.660585
1.891851
1.803637
1.909733
1.803637
2.005696
2.066493
2.168417
2.277493
2.315640
2.897978
3.200769
4.133582
15.568733
80.199838
197.238922
490.292907
789.773464
1015.788913
1015.788913
1015.788913
1015.788913
1015.788913
1015.788913
1015.788913
983.982682
551.197529
307.130814
128.422976
55.298805
16.878843
10.876656
10.909438
12.872815
18.457770
25.109649
40.306449
53.318739
70.669651
84.496737
94.400644
96.485615
92.563629
85.354447
67.346692
52.876472
36.964417
28.127432
19.566417
14.990568
12.158751
11.275411
10.963678
11.047721
10.848641
11.121631
10.875463
10.912418
10.871887
10.501742
10.496974
10.444522
10.511875
10.380745
10.301471
10.176897
10.083914
##ZVALUE=325
0.999570
1.032948
1.150966
0.991821
1.097918
1.037717
1.076460
1.232624
1.091957
1.060963
0.933409
0.969768
1.061559
1.029968
1.105666
1.182556
1.156926
1.210570
1.207590
1.229644
1.314878
1.157522
1.270771
1.246929
1.396537
1.440644
1.386404
1.353621
1.404881
1.481771
1.475811
1.669526
1.693964
1.692772
1.552701
1.757741
2.116561
1.904964
2.057552
2.362728
2.481937
2.648830
2.968907
3.358722
10.263920
41.061640
148.280859
302.990675
650.902987
990.086794
1015.741825
1015.741825
1015.741825
1015.741825
1015.741825
1015.741825
1015.741825
734.264851
387.126803
208.604932
73.218942
29.264688
11.794567
10.395646
10.775924
12.741685
18.086433
25.429726
39.280653
53.063631
70.249438
80.644488
90.367794
91.432929
86.754560
77.683926
62.484741
50.000548
34.599900
25.778413
17.728806
14.876723
12.604594
11.430979
10.948777
10.821819
10.775924
10.729432
10.412931
10.306835
10.388494
10.328889
10.138750
10.282993
9.863973
9.862781
##ZVALUE=330
0.993609
0.932813
0.845790
1.087785
0.945926
1.024604
1.269579
1.053810
1.185536
1.093745
0.960827
1.132488
1.158714
1.133680
1.184940
1.149774
1.083612
1.104474
1.339912
1.201630
1.096725
1.126528
1.159906
1.281500
1.406670
1.255870
1.345873
1.302958
1.349449
1.364946
1.398921
1.614690
1.472831
1.525879
1.734495
1.652837
1.758933
1.805425
1.965761
1.986623
2.030730
2.285838
2.308488
2.599955
2.871752
3.045797
4.201531
25.495887
78.653693
235.214829
439.298749
850.375891
1015.788913
1015.788913
1015.788913
1015.788913
1015.788913
1015.788913
1015.788913
872.283578
545.774698
246.816874
122.702718
42.907596
17.396808
10.539889
9.804964
10.774732
13.078451
18.256903
25.314689
37.638545
49.511790
65.371990
76.323748
85.386634
85.786581
80.297589
71.945786
58.441758
46.478510
32.625794
25.616884
18.133521
15.249848
12.433529
11.141896
10.897517
10.498762
10.362864
10.170937
10.091662
9.968877
10.144711
9.649992
9.912848
##ZVALUE=335
0.901818
1.067519
1.198649
1.007915
1.060963
0.928640
0.876784
1.006722
0.912547
0.957847
1.017451
0.886917
1.077652
0.962615
1.021624
1.075864
1.077652
1.222491
1.064539
1.164675
1.079440
1.138449
1.102686
1.078844
1.133680
1.296997
1.314878
1.268983
1.400709
1.382828
1.413822
1.414418
1.418591
1.677871
1.531839
1.554489
1.635551
1.562834
1.738667
1.984835
1.766682
1.926422
1.970530
2.322793
2.305508
2.432466
2.633929
2.844930
3.338456
10.599494
40.534735
149.551034
304.012895
652.563572
984.582901
1015.788913
1015.788913
1015.788913
1015.788913
1015.788913
1015.788913
1005.432606
708.756447
361.480713
188.172460
62.202811
24.254918
11.332631
10.373592
10.338426
11.093616
13.991594
17.063618
25.764704
34.061670
48.375726
59.758425
71.867704
77.869892
80.235004
75.653791
65.290928
56.331754
44.403672
34.511685
24.718642
19.229650
14.456511
12.408495
10.801554
10.592937
10.222793
9.936690
9.819865
9.715557
9.602904
##ZVALUE=340
1.081824
1.029968
0.994802
0.924468
0.920892
1.106858
1.065731
1.002550
0.927448
1.025796
0.969768
1.080632
1.018643
0.964999
0.883937
1.018643
0.961423
1.090765
0.965595
1.030564
1.047850
1.206994
1.248717
1.137853
1.094937
1.083612
1.178980
1.268983
1.327991
1.319647
1.199841
1.311898
1.382828
1.345873
1.476407
1.436472
1.452565
1.647472
1.495481
1.792908
1.711845
1.919866
1.757741
1.864433
1.965761
1.978874
2.112985
2.214909
2.444983
2.946854
3.023744
5.607605
20.409822
94.809532
219.716430
520.427823
843.807459
1015.788913
1015.788913
1015.788913
1015.788913
1015.788913
1015.788913
1015.788913
867.614746
453.475714
245.498419
88.368654
35.424829
12.961626
10.432601
10.148883
10.260940
11.379719
12.952685
17.031431
23.191571
33.681989
43.528676
56.317449
66.358447
72.969794
75.238943
71.028471
63.337684
52.606463
43.414831
32.972693
25.648475
17.925501
14.149547
11.428595
10.442734
9.813905
9.537935
9.399652
##ZVALUE=345
1.014471
0.880957
1.145601
0.882745
0.940561
1.047850
0.972748
0.956655
0.962615
0.938773
1.017451
0.960827
0.942945
1.027584
1.037717
1.004934
0.921488
1.161695
1.120567
0.951886
1.085997
0.991821
1.088977
1.093745
1.168847
1.065731
1.180768
1.197457
1.324415
1.278520
1.241565
1.227856
1.368523
1.332760
1.459718
1.356602
1.388788
1.462698
1.348853
1.404881
1.424551
1.591444
1.576543
1.589656
1.737475
1.743436
1.884699
1.995564
2.028942
2.233982
2.376437
2.587438
2.692938
3.390908
8.780956
54.641962
147.121549
374.512076
629.059672
1014.492512
1015.788913
1015.788913
1015.788913
1015.788913
1015.788913
1015.788913
990.861058
594.053864
332.376957
129.792690
56.034923
17.032623
10.794997
9.789467
9.838939
9.550452
9.701848
11.711717
15.098453
21.956563
29.269457
41.802526
50.222874
60.609579
66.584945
69.312453
66.791773
60.663819
52.683949
41.951537
32.876730
23.059845
17.761588
13.613701
11.213422
9.937882
##ZVALUE=350
0.989437
0.915527
0.856519
0.919700
0.961423
0.903606
1.051426
1.131892
1.035929
1.047850
1.125932
1.137853
1.059771
0.845790
1.152754
1.029968
0.999570
1.008511
1.133680
1.208782
1.177788
1.066923
1.257658
1.127720
1.026988
1.069903
1.156926
1.301765
1.085997
1.374483
1.366735
1.238585
1.289845
1.278520
1.343489
1.316667
1.238585
1.352429
1.362562
1.494884
1.440644
1.484752
1.590848
1.512766
1.565814
1.638532
1.772642
1.750588
1.947880
1.891851
1.960993
2.136827
2.304912
2.459884
2.767444
3.095865
4.713535
28.642416
85.865855
250.783563
457.428694
862.057805
1015.788913
1015.788913
1015.788913
1015.788913
1015.788913
1015.788913
1015.788913
712.801814
429.411530
190.159678
86.275935
23.998618
11.737943
9.320974
8.669496
8.524656
8.581877
9.094477
10.991693
14.774799
19.379854
27.066469
34.531951
45.356750
53.162575
60.863495
63.069463
61.621666
56.825876
47.942996
40.201545
29.945970
23.552775
17.175674
##ZVALUE=355
0.978708
0.948906
0.939965
0.873804
1.233816
1.056790
1.050830
0.963807
1.119971
1.018643
0.959635
1.061559
1.020432
1.052618
0.986457
1.146793
1.026988
1.012683
1.170635
0.971556
1.069903
1.079440
1.139641
1.042485
1.134872
1.173615
0.995994
1.211762
1.219511
1.144409
1.070499
1.304746
1.351833
1.184940
1.264811
1.270771
1.319647
1.277924
1.267791
1.307726
1.573563
1.570582
1.379848
1.448989
1.408458
1.571774
1.445413
1.584888
1.708865
1.768470
1.798868
1.919866
2.052784
2.064705
2.290606
2.503991
2.639890
2.925992
3.662705
12.677908
48.603415
172.465444
334.434509
661.652684
979.377627
1015.788913
1015.788913
1015.788913
1015.788913
1015.788913
1015.788913
881.726742
551.217794
236.974955
109.892488
32.347441
13.469458
8.637905
8.547902
8.238554
7.920861
8.315444
8.567572
10.441542
12.575984
17.562509
22.491813
30.843616
38.584471
48.720837
53.105950
56.767464
56.092739
52.202940
45.964718
37.043691
##ZVALUE=360
1.072884
0.944734
0.957847
1.104474
0.945926
1.080632
1.097918
1.126528
1.238585
1.024604
1.051426
1.119971
1.025796
1.027584
1.173615
1.129508
1.149774
1.044869
1.173615
1.232624
1.116991
0.963807
1.138449
1.100898
1.056790
1.116991
1.284480
1.283884
1.239777
1.133680
1.196861
1.418591
1.336932
1.217723
1.319647
1.431704
1.207590
1.327991
1.281500
1.531839
1.440644
1.561642
1.531839
1.304746
1.643896
1.469851
1.585484
1.445413
1.779795
1.660585
1.649857
1.950860
2.061725
1.949668
2.034903
2.226830
2.395511
2.504587
2.772808
3.141761
3.265738
6.100535
21.877885
91.426969
208.212733
491.133928
791.531801
1015.788913
1015.788913
1015.788913
1015.788913
1015.788913
1015.788913
1006.506085
699.793696
338.621736
172.785521
59.373975
22.731423
8.985996
8.436441
7.634759
7.622838
7.515550
7.843971
7.708669
8.598566
11.043549
13.914704
19.178987
25.254488
34.497976
40.883422
47.105551
51.440001
51.357746
##ZVALUE=365
0.923872
0.848770
0.906587
0.787973
0.984669
0.946522
0.928640
1.020432
1.000762
1.008511
0.953674
1.043677
0.969768
0.938773
1.095533
1.100898
0.955462
1.067519
0.997782
1.006722
0.939965
1.112819
1.002550
1.019835
1.108646
0.890493
0.984669
1.275539
1.119971
1.196861
1.139641
1.157522
1.207590
1.187921
1.252890
1.281500
1.312494
1.246929
1.238585
1.371503
1.315475
1.386404
1.460910
1.308918
1.341701
1.423955
1.396537
1.431704
1.493692
1.580715
1.580715
1.742840
1.703501
1.826882
1.926422
1.814961
1.971722
2.254844
2.217889
2.580881
2.790689
2.892613
3.260970
3.776550
9.170771
52.481890
134.074688
334.441662
598.160625
1012.329459
1015.712619
1015.712619
1015.712619
1015.712619
1015.712619
1015.712619
874.432921
478.634834
254.831910
88.207722
32.924414
10.429621
8.060932
7.844567
6.998777
6.934404
7.016659
6.641746
6.835461
7.481575
8.922815
12.310743
15.762448
22.292733
28.398633
36.215782
##ZVALUE=370
0.861883
0.901818
0.877976
0.872612
0.944734
0.910759
0.787973
0.841618
0.747442
0.849962
0.864863
0.836849
0.886917
0.891685
0.861883
0.969768
0.992417
0.831485
0.920892
0.960827
1.022816
0.892878
1.171827
1.057982
0.794530
0.876784
1.006722
1.001954
1.087785
1.096725
0.895858
1.001954
1.066923
1.193881
1.176596
1.084805
1.192689
1.101494
1.034737
1.198649
1.285672
1.284480
1.231432
1.289845
1.241565
1.225471
1.195669
1.388788
1.249909
1.294613
1.393557
1.474619
1.490712
1.649857
1.577735
1.589656
1.694560
1.632571
1.877546
1.861453
2.051592
2.228618
2.463460
2.641678
2.749562
3.145933
4.921556
27.022958
86.253881
260.499716
470.480919
870.673656
1015.660763
1015.660763
1015.660763
1015.660763
1015.660763
1015.660763
991.426706
566.937923
314.370990
119.432807
52.057505
16.254783
8.755922
7.136464
6.782413
6.228685
6.201863
5.972981
6.108880
6.309748
6.590486
8.379817
10.296702
14.309883
##ZVALUE=375
0.940561
0.909567
0.929832
1.073480
0.914931
0.987649
0.955462
0.994802
1.003742
0.942945
1.042485
0.993609
0.872612
1.072884
1.077652
1.074672
0.988841
1.084805
0.928640
1.040697
0.939965
1.079440
1.061559
1.053810
1.047850
1.199841
1.138449
0.970960
1.100898
1.092553
1.146793
1.251698
1.116991
1.064539
1.283884
1.176596
1.228452
1.215935
1.050830
1.307726
1.165867
1.233816
1.162887
1.232624
1.343489
1.063943
1.317859
1.220703
1.354814
1.444817
1.306534
1.582503
1.472831
1.422763
1.441836
1.601577
1.528859
1.589656
1.652837
1.744628
1.678467
2.002716
1.879930
2.025962
2.130866
2.337694
2.709627
2.885461
3.523827
13.489723
47.335625
161.134005
328.576565
703.058839
1009.766459
1015.788913
1015.788913
1015.788913
1015.788913
1015.788913
1015.788913
743.252635
463.401675
224.056840
107.299685
31.844974
12.083650
6.939769
6.563663
6.091595
6.184578
5.896688
5.682707
5.703568
5.756617
6.390810
##ZVALUE=380
0.952482
0.942945
0.953674
0.936985
0.970960
0.998974
0.829697
0.940561
0.981688
0.890493
0.752807
0.978708
0.857711
0.805855
1.036525
0.895858
0.858903
0.893474
0.860691
0.771880
0.889897
0.851750
0.859499
0.958443
0.935793
0.972748
0.962615
0.972748
1.120567
1.027584
0.782609
1.268983
1.080632
1.032948
1.085997
1.194477
1.083612
1.132488
1.179576
1.001954
1.135468
1.219511
1.202822
1.304746
1.144409
1.183748
1.132488
1.252890
1.231432
1.256466
1.151562
1.133680
1.303554
1.262426
1.412630
1.339912
1.531839
1.532435
1.622438
1.606941
1.500845
1.756549
1.711845
1.806617
1.876950
2.041459
2.158880
2.360940
2.612472
3.000498
3.265738
7.065535
27.221441
117.308497
258.813500
582.841635
916.139483
1015.788913
1015.788913
1015.788913
1015.788913
1015.788913
1015.788913
965.189934
646.044016
310.386419
154.446959
49.631596
18.679500
7.467866
6.187558
5.900860
5.404949
5.332828
5.308986
5.373955
##ZVALUE=385
0.889897
0.871420
0.854731
0.821948
0.970960
0.879765
0.870824
0.986457
0.748634
0.924468
0.944734
0.849962
1.056790
0.869632
1.038909
0.839829
0.908971
0.959635
0.950694
0.887513
1.033545
0.896454
0.872612
0.936985
1.049638
1.037717
0.944734
1.027584
0.993609
1.059771
1.052618
1.019835
0.973940
1.198649
1.052618
1.012683
1.100898
0.984669
1.034737
1.158714
1.219511
1.152754
1.089573
1.306534
1.207590
1.162887
1.233816
1.354814
1.145601
1.261830
1.266599
1.321435
1.140833
1.232624
1.236796
1.289845
1.505613
1.350641
1.479983
1.478791
1.422763
1.710653
1.525879
1.683831
1.654625
1.708865
1.930594
2.223849
2.347827
2.542734
2.604723
3.039837
3.139973
4.223585
12.900829
69.530606
170.015693
409.502387
706.433654
1015.788913
1015.788913
1015.788913
1015.788913
1015.788913
1015.788913
1015.788913
857.967734
454.689860
252.851844
98.831654
37.113428
9.663701
6.205440
5.521774
5.168915
5.085468
##ZVALUE=390
0.878572
0.910759
0.754595
0.946522
0.966787
0.881553
0.977516
0.870824
0.851750
0.903606
0.871420
0.833869
0.881553
0.979900
0.889897
0.973940
0.927448
0.975728
0.957847
0.898838
1.036525
0.969768
0.950694
0.854731
0.905991
0.901818
1.003742
1.004934
1.063943
0.971556
1.074672
0.909567
1.083612
1.062751
1.017451
1.004934
1.091957
1.172423
1.085997
1.086593
1.205802
0.948906
1.164675
1.124740
1.284480
1.122952
1.096725
1.124740
1.100898
1.074672
1.295805
1.213551
1.096725
1.213551
1.111627
1.315475
1.270771
1.275539
1.296997
1.380444
1.306534
1.427531
1.415610
1.433492
1.583695
1.617670
1.835823
1.991987
2.079606
2.234578
2.469420
2.564788
2.616644
2.846718
2.965927
3.372431
6.329417
37.765503
108.797550
310.007930
562.697649
986.113548
1015.795469
1015.795469
1015.795469
1015.795469
1015.795469
1015.795469
1015.795469
659.722686
377.604961
147.316456
65.300465
18.432736
7.297993
5.420446
##ZVALUE=395
0.773668
0.698566
0.922680
0.741482
0.758767
0.971556
0.976920
0.885725
0.828505
0.702739
0.845790
0.829697
0.875592
1.016855
0.966787
0.952482
0.960827
0.837445
0.784993
0.876784
0.761747
0.877976
0.886917
0.919700
0.916719
0.942945
0.963807
0.946522
1.025796
1.040697
0.945926
1.038909
1.139641
1.023412
1.125932
1.035929
1.088977
1.233816
1.112819
1.011491
1.077652
1.100898
1.169443
1.113415
1.143813
1.243949
1.066923
1.154542
1.152754
1.173615
1.251698
1.262426
1.167655
1.181960
1.357794
1.169443
1.334548
1.352429
1.291633
1.340508
1.364946
1.430511
1.397729
1.418591
1.582503
1.657605
1.672506
1.960993
2.036691
2.164841
2.329946
2.297759
2.376437
2.502799
2.470613
2.782941
2.789497
3.032684
4.033446
22.146702
75.256824
237.254500
433.236957
788.592696
1015.791893
1015.791893
1015.791893
1015.791893
1015.791893
1015.791893
1015.791893
812.351704
495.279431
207.901597
95.436573
27.927756
##ZVALUE=400
0.906587
0.849962
0.929832
0.938773
0.816584
0.822544
0.759959
0.967979
0.870824
0.956655
0.886917
0.888705
1.082420
0.734925
0.805855
0.975728
0.809431
0.826716
0.881553
0.892878
0.825524
1.060963
0.976920
0.903606
1.002550
1.048446
0.922680
0.899434
1.078844
1.082420
0.921488
1.013875
1.012683
1.107454
0.976920
0.958443
0.975728
0.875592
0.814795
1.202822
1.203418
1.153946
1.047850
1.062751
1.126528
0.987649
1.199841
1.136661
0.998974
1.232624
1.154542
1.408458
1.166463
1.211762
1.220703
1.310706
1.244545
1.278520
1.313686
1.350641
1.258850
1.283884
1.412630
1.451969
1.343489
1.658797
1.620650
1.829863
1.834631
2.157688
2.195835
2.304912
2.322793
2.239943
2.364516
2.230406
2.223849
2.335906
2.634525
2.846718
3.186464
11.681914
41.806698
140.446424
289.951563
615.088940
952.543020
1015.802622
1015.802622
1015.802622
1015.802622
1015.802622
1015.802622
981.964469
661.183000
324.226618
##END
