##TITLE=FQP00652
##FORMAT=SPECTACLE-ASCII V-1.2
##DATA TYPE=ULTRAVIOLET SPECTRUM
##SECOND TYPE=ULTRAVIOLET SPECTRUM
##DATE=11/28/17
##TIME=14:36:52
##SPECTROMETER/DATA SYSTEM=SPECTACLE
##XUNITS=NM EM
##YUNITS=ENERGY
##YFACTOR=1
##FIRSTX=220
##LASTX=410
##NPOINTS=96
##3DDATA=Equidistant
##ZUNITS=NM EX
##FIRSTZ=210
##LASTZ=400
##ZPOINTS=39
##XYDATA=(Y..Y)
##ZVALUE=210
5.960464
5.824566
5.176663
5.118847
4.482865
4.926920
4.745722
4.305840
4.648566
4.991889
4.291534
4.638433
4.320741
3.744960
4.432797
4.949570
5.412698
5.791783
6.235838
5.997419
6.685853
6.014705
6.959438
6.467700
7.177591
8.450747
8.292794
9.457469
8.933544
9.189844
10.175705
10.725856
11.453629
11.934638
11.587739
11.848807
11.125803
13.165474
12.470484
11.555552
13.081431
12.794733
13.881922
13.507605
14.001727
14.061928
13.418794
12.293458
14.592409
14.343858
15.271902
15.275478
14.445782
15.372634
14.895797
14.708638
15.986562
15.646815
16.080737
15.991926
14.933944
14.903545
17.327666
15.969872
17.201900
16.883612
18.793941
18.540621
23.429990
26.755929
30.152798
37.282705
41.204691
49.288869
53.028464
58.847666
60.201883
65.235496
63.897967
62.809587
58.384538
53.155422
45.126677
41.007996
30.081868
27.429461
22.046566
19.421577
16.683936
14.648438
16.930699
14.368892
16.008615
15.173554
16.914606
17.198920
##ZVALUE=215
18.218756
16.984940
16.904473
14.188886
11.157990
8.784533
9.754896
7.990599
9.450912
8.731484
8.804798
7.203817
6.616712
5.986691
5.547404
4.921556
4.502535
4.624724
5.829930
6.193519
6.621480
5.494952
7.513762
7.562637
7.017851
7.997751
9.069443
9.505749
8.127689
10.532737
11.102557
10.397434
10.679960
12.211800
11.687875
11.586547
12.886524
11.716485
11.583567
12.481809
12.629628
12.658834
12.166500
12.283921
13.032556
13.375878
13.141632
14.600754
13.661981
13.875961
13.297796
14.034510
13.428926
12.983680
13.261437
13.450980
13.634562
13.542771
14.210939
14.485717
13.940930
13.074875
14.461875
14.049411
15.414953
15.803576
16.595721
17.613769
18.987656
22.100806
26.453733
31.917691
36.203861
39.472580
42.318702
46.246648
46.629906
47.562718
43.987632
43.538809
41.385889
34.852624
32.841563
27.651787
23.174882
21.432638
18.839836
16.561747
15.625954
15.108585
13.741851
12.693405
14.346838
12.177825
12.846589
13.352633
##ZVALUE=220
51.736832
52.980781
56.462884
54.607987
50.477982
38.789511
31.874776
20.040870
17.897487
17.381907
15.528798
16.125441
16.677976
13.723969
12.754798
10.556579
8.394718
7.451773
5.589724
6.753802
5.983710
6.380677
7.993579
7.222891
8.487701
7.791519
9.230971
9.596944
9.939671
9.401441
10.099411
11.753440
11.246800
11.478662
12.113452
12.587905
13.010502
13.479590
12.073517
12.301803
12.948513
13.301969
12.745857
11.663437
13.481975
13.040900
13.594627
14.150739
14.663935
13.561845
14.680624
14.295578
13.800859
14.835000
13.280511
14.537573
14.489889
13.613701
14.500618
15.615821
14.257431
15.442967
14.575720
14.718771
14.803410
16.004443
15.519857
17.629862
18.668771
20.443797
23.811460
27.689934
31.707883
34.608841
37.085414
39.971471
42.748451
40.081739
40.064454
37.651658
36.497712
33.367872
28.274655
25.664568
22.639632
18.907785
17.448664
14.794469
15.551448
14.324784
13.635755
13.485551
13.359785
12.279749
13.301969
11.509657
##ZVALUE=225
78.671575
84.774494
110.146999
141.846538
148.901939
142.569542
129.477978
101.345778
81.042647
57.837963
38.531423
30.495524
28.785467
30.542612
30.123591
25.926828
24.454594
20.351410
15.056729
11.473894
8.847713
7.030964
6.724596
7.121563
7.613897
7.884502
9.149909
9.620786
9.257793
10.583997
10.543466
11.843443
11.468530
12.566447
11.858940
13.764501
13.380647
15.103817
13.366938
14.420748
14.135838
12.914538
13.805628
15.092492
14.406443
15.994906
15.540719
14.760494
15.617609
16.265512
16.023517
14.930964
16.640425
16.183853
16.089678
14.720559
15.388727
16.196966
16.313791
15.112758
15.679598
16.665459
16.177893
15.572906
15.797615
17.706752
18.296838
18.371940
20.289421
21.635890
23.272634
27.603507
29.247999
32.755733
32.215714
36.010742
36.048889
36.922693
34.774542
32.773614
30.048490
26.273727
25.471449
22.643805
20.744801
18.111467
16.477704
15.512705
15.058517
14.831424
13.905764
16.951561
14.543533
13.684630
13.235807
14.009476
##ZVALUE=230
55.328608
61.048865
102.577806
177.621841
234.505534
296.176672
323.454738
321.090817
298.426747
250.648856
175.888538
121.723413
77.240467
56.851506
47.881603
47.788620
51.858425
51.833987
45.222640
35.263896
29.765964
19.735694
15.584826
10.830760
9.220839
9.379983
8.372664
9.682775
9.226799
9.393692
10.595918
11.919737
10.576844
11.351705
12.007952
12.997985
13.468862
12.872815
13.697743
14.742613
16.096830
15.190840
14.847517
17.727613
16.264915
18.755794
17.336607
17.660856
19.926429
18.764734
16.637444
18.404722
18.100739
18.900633
20.125508
18.876791
18.517971
20.098686
19.643903
19.585490
19.703507
19.158721
20.745993
20.335913
20.437837
20.561814
22.080541
21.660924
23.447871
26.058555
25.570989
30.017495
33.603907
36.822557
37.997961
39.232969
38.470626
37.386417
37.264824
33.572912
32.371879
30.066967
28.221607
26.630759
24.213791
21.632910
20.782948
20.366907
19.133687
17.882586
18.706918
18.625855
17.643571
17.080903
18.175840
17.046928
##ZVALUE=235
12.794733
15.145540
41.636825
90.195537
183.186531
273.516774
421.656966
526.418686
618.751645
614.235997
550.982952
459.245443
356.462598
231.218934
154.855847
92.761517
74.542761
74.251890
83.695650
84.157586
77.843666
69.321990
54.999590
41.781664
27.761459
19.603968
14.262795
11.648536
11.350513
10.352731
10.584593
10.947585
9.969473
11.826754
12.322664
14.003515
13.808608
16.170740
16.703606
16.881824
18.903613
20.064712
19.221902
22.339821
22.913814
21.779537
23.137927
25.519729
24.355650
25.217533
26.207566
25.755763
26.916862
24.523735
26.970506
26.874542
26.990771
24.166703
26.164651
26.096702
26.874542
28.279424
26.558638
25.339723
25.090575
27.631521
28.256774
27.901530
29.202700
32.810569
34.870505
36.698580
42.551756
41.752458
45.494437
45.971870
44.512749
43.143630
44.366717
41.055679
41.773915
37.607551
36.377907
32.022595
29.444695
27.743578
27.116537
26.062727
23.690462
23.630857
23.104548
23.459792
21.550655
21.730661
20.304918
22.013783
##ZVALUE=240
2.820492
2.598763
7.173419
18.191934
51.309466
105.111599
249.918699
404.582620
653.347969
819.923878
965.672731
985.403657
911.128521
745.258927
580.901504
349.413753
227.133632
137.152672
103.594661
95.694661
103.908777
112.438798
109.638572
101.494789
81.244707
65.919757
47.338605
36.088824
23.638606
19.423962
15.342832
14.052987
13.378859
13.922453
14.604926
17.228723
16.881824
19.237995
18.878579
22.760630
22.436976
24.848580
27.531981
26.702881
29.238462
29.935837
32.062531
30.982494
34.392476
34.544468
33.034682
36.080480
35.561919
34.534931
34.873486
32.459497
34.821630
34.388900
34.209490
35.400987
33.364892
34.458637
34.033656
34.230947
32.378435
35.049915
33.586621
38.903952
36.479831
40.069818
39.869547
43.232441
49.168468
51.932931
51.801801
54.308772
52.957535
49.179792
50.991774
48.987865
46.138763
43.688416
41.457415
37.394762
34.799576
33.775568
31.103492
31.805634
28.570890
27.535558
27.887821
28.711557
27.232766
26.307702
28.381944
25.455952
##ZVALUE=245
2.514720
2.788901
2.655983
3.432631
5.300641
13.369918
43.585896
102.096796
259.256959
448.732972
754.456520
969.747901
1015.834808
1015.834808
1015.834808
986.031890
790.264606
529.909730
339.979529
176.200867
117.451549
99.112988
109.764934
117.762685
123.947859
120.091438
106.926560
94.615817
71.779490
52.786469
41.857958
26.386976
19.056797
16.193986
15.125871
15.718937
16.315579
18.190742
19.027591
20.843744
24.160743
24.896860
27.140975
29.617548
30.844808
32.770634
32.003522
34.891963
35.092831
35.950541
35.381913
35.292506
35.596490
36.519766
35.842657
35.375953
34.533739
36.007762
34.084916
34.961700
33.416748
33.530593
37.904978
31.915903
32.420754
32.762885
32.560825
31.827688
33.410788
36.605597
36.673546
40.157437
42.868853
45.091510
44.770837
49.218535
45.691729
45.050979
44.137836
42.914748
42.414665
36.668777
36.805868
34.618974
31.386614
29.661655
27.780533
28.808713
25.030971
28.204918
25.401711
25.707483
26.658773
26.287436
24.437904
25.389791
##ZVALUE=250
2.656579
2.408624
2.171993
2.493858
2.476573
2.617836
3.860593
8.326769
35.253763
82.717538
234.044790
425.252914
662.860870
985.500813
1015.788913
1015.788913
1015.788913
1015.788913
949.947834
626.640916
406.919718
247.414708
127.815604
95.498562
100.369453
115.085840
125.412941
130.338669
126.940608
117.146969
103.740692
77.581406
61.388612
37.757754
29.530525
20.381808
16.719699
17.870665
18.798709
20.500422
20.912886
23.852587
26.665926
28.415918
29.313564
31.025410
32.070875
32.542944
34.099817
33.652782
35.376549
35.941601
36.345720
35.082698
33.330917
35.803914
35.069585
32.007694
32.909513
31.703711
30.249953
30.408502
29.693842
28.060675
28.177500
28.572679
28.476715
27.983785
29.114485
30.460954
31.635761
34.121871
34.967661
37.522912
36.822557
37.439466
38.408637
37.488937
36.455989
33.813715
32.740831
31.635761
30.370951
28.917789
26.948452
25.471449
25.038719
24.243593
23.562908
23.069978
21.423697
21.707416
20.939708
22.044778
22.974610
21.760464
##ZVALUE=255
2.022982
2.094507
1.967549
2.412796
2.499819
2.342463
2.531409
2.655983
2.646446
6.418824
18.542409
75.906515
172.879696
404.511690
624.460578
974.555016
1015.788913
1015.788913
1015.788913
1015.788913
1014.728546
807.606578
480.500460
286.512971
147.311687
99.814534
86.805820
95.325708
118.270516
131.752491
139.418840
138.362646
130.013824
103.807449
83.760619
60.529709
43.610930
28.720498
22.880435
19.587874
19.042492
20.116568
21.294951
23.596883
24.787784
25.971532
27.204752
28.261542
29.755831
29.856563
30.235648
29.482841
29.633641
29.550791
28.647780
28.547645
28.354526
27.502775
25.799870
25.954843
25.980473
26.024580
25.151968
25.018454
24.299622
23.559928
24.046898
24.155974
24.247766
24.868846
25.397539
28.065443
28.375983
28.833747
28.307438
28.988719
29.572845
28.461814
28.217435
28.216839
25.975704
24.279952
23.534894
22.106767
22.138953
20.606518
21.579862
20.124912
19.809604
19.998550
20.592809
21.073818
20.401478
19.380450
18.256903
19.226670
##ZVALUE=260
1.895428
1.853704
2.072453
1.993775
2.121925
2.235770
2.112985
2.063513
2.192855
2.478957
2.466440
3.621578
13.556480
39.778948
130.490661
277.218819
577.358603
854.398608
1015.788913
1015.788913
1015.788913
1015.788913
1015.788913
935.500860
656.379461
363.950729
229.613781
122.921467
85.787773
81.715584
99.194646
117.391944
137.551427
145.971775
140.563846
130.081773
111.619830
87.078810
61.698556
46.763420
34.911633
24.844408
20.894408
21.076798
19.340515
20.775795
22.244453
23.344755
23.417473
23.003817
23.696423
23.431778
23.191571
23.830533
22.297502
22.796988
22.127628
22.566915
21.264553
19.933581
19.454956
19.059777
19.486547
18.576980
19.501448
18.321872
18.473864
19.127727
20.514727
19.810796
21.246672
21.251440
21.913648
23.512840
23.347735
23.972988
23.172498
23.761988
22.020936
23.080707
21.511912
20.589828
19.793510
18.703938
19.222498
18.223524
17.907619
18.132925
17.791986
17.151833
17.193556
18.124580
18.401742
18.127561
17.495751
16.236901
##ZVALUE=265
1.831651
1.747608
1.857877
1.808405
1.977682
1.898408
1.920462
2.200603
2.189875
2.179742
2.201796
2.581477
2.450943
3.089905
5.920529
29.264688
83.756447
240.296721
437.162519
821.629763
1015.788913
1015.788913
1015.788913
1015.788913
1015.788913
1015.788913
895.893574
625.947714
333.379507
195.911527
117.970705
74.483752
75.548887
103.107691
125.805736
144.856572
151.148438
145.470500
133.330822
108.683705
87.820888
63.492656
47.115684
31.375885
25.048852
20.482540
19.813776
18.354654
18.863678
19.441843
19.148588
19.246936
18.947721
19.332767
18.871427
18.546581
18.447638
17.040968
16.903877
17.814636
16.237497
16.738772
15.583634
15.321970
15.443563
15.683770
16.308427
15.865564
15.877485
16.811490
17.699599
18.571615
18.771887
20.670891
21.167994
20.459890
19.954443
19.313693
19.134879
18.649697
17.533898
17.526746
17.417669
15.832782
15.837550
15.880466
15.727878
15.823841
15.063882
15.298724
15.020967
15.808940
15.989542
15.345812
14.900565
16.734600
##ZVALUE=270
1.676679
1.792908
1.638532
1.599789
1.743436
1.639724
1.814961
1.768470
1.620650
2.075434
2.040863
1.870990
2.180934
2.450943
2.417564
2.552867
3.420711
13.341904
42.431951
162.295699
344.873667
605.114698
1000.325680
1015.790701
1015.790701
1015.790701
1015.790701
1015.790701
1015.790701
852.702856
574.799776
290.213823
157.895684
74.768662
60.812831
80.379844
100.085735
125.962496
143.287778
150.878429
145.433545
133.403540
114.148855
87.143779
67.323446
43.895841
32.899976
23.470521
20.131469
17.435551
17.155409
16.489625
16.200542
15.750527
15.533566
15.294552
14.868975
15.196800
14.883876
15.052557
13.487935
14.245510
13.646483
13.901591
13.648868
13.432503
13.778806
13.486743
14.288425
14.602542
15.202761
15.901923
17.492771
17.047524
17.482638
17.649531
17.220974
17.020702
16.995668
16.013980
16.038418
14.712811
14.712811
14.471412
13.746619
14.172792
14.781952
14.696717
13.602972
13.961792
14.372468
13.606548
14.102459
14.528632
14.034510
14.521480
##ZVALUE=275
1.484752
1.550913
1.763701
1.643896
1.631975
1.414418
1.510978
1.686811
1.796484
1.638532
1.996756
2.026558
1.675487
2.132654
2.074838
2.334714
2.284646
2.611876
2.847910
6.149411
25.716424
76.868534
235.995650
455.075502
840.889812
1015.795469
1015.795469
1015.795469
1015.795469
1015.795469
1015.795469
998.061895
718.273520
367.467999
206.317902
86.387992
55.572987
58.448911
74.622631
101.927519
121.463537
142.265558
148.795843
145.533681
133.636594
108.840466
87.151527
64.882636
47.838688
30.628443
24.033785
17.179847
15.830994
14.124513
14.136434
13.573766
13.833642
13.385415
13.368726
12.705922
12.731552
12.494922
12.933612
12.521744
12.853742
12.470484
12.756586
12.889504
12.868643
13.697743
14.121532
15.153885
15.161633
16.012788
16.550422
16.553998
16.560555
15.722513
15.770793
15.074611
14.268756
14.151931
14.035702
14.514923
13.509989
13.267994
13.196468
13.225675
13.657808
13.428926
13.666749
12.700558
13.166666
12.570620
12.630820
12.899637
##ZVALUE=280
1.340508
1.593828
1.581907
1.270771
1.544952
1.494884
1.572967
1.681447
1.620650
1.575947
1.640916
1.549721
1.811981
1.621842
1.751781
1.832843
2.123713
2.143979
2.056956
2.528429
2.504587
4.007816
13.819933
64.881444
158.030987
381.165743
619.137883
988.135934
1015.788913
1015.788913
1015.788913
1015.788913
1015.788913
1015.788913
840.688944
475.872755
278.568864
118.591785
60.376525
43.642521
53.164959
79.592466
98.523498
122.519732
138.578415
144.424438
142.261982
127.645731
109.685659
82.181692
64.198971
43.044686
31.218529
20.478964
16.003847
13.351440
12.622476
12.008548
11.843443
12.458563
11.174679
12.195706
11.434555
11.649728
11.909604
11.640787
11.561513
12.169480
12.554526
12.684464
13.710856
13.769865
14.172792
14.991760
14.657974
15.165806
14.872551
14.570951
14.968514
14.040470
13.646483
13.265610
13.353825
13.051629
13.263822
12.678504
12.141466
12.974739
12.067556
12.456775
12.138486
11.900663
12.384653
12.759566
12.016892
12.002587
##ZVALUE=285
1.409650
1.356602
1.331568
1.484752
1.458526
1.411438
1.398921
1.547933
1.659989
1.543760
1.464486
1.524687
1.647472
1.713634
1.860857
1.832843
1.769662
1.706481
1.768470
1.945496
2.238750
2.341866
2.452731
2.901554
7.722974
28.172731
98.904967
209.333897
468.367934
748.463869
1014.022827
1015.822887
1015.822887
1015.822887
1015.822887
1015.822887
1015.822887
649.027824
396.357775
183.592439
93.159676
41.020513
36.680698
51.830411
70.406795
97.081661
115.572810
133.517981
139.575601
136.807561
127.368569
106.454492
88.087916
61.742663
44.692755
27.659535
20.220876
14.090538
12.092590
11.182427
10.295510
10.566711
10.892749
10.870695
10.903478
11.303425
11.215806
10.999441
11.810660
11.936426
12.422800
13.301969
13.659000
13.400912
14.252663
14.141798
13.949871
13.553500
13.536811
13.446808
13.038516
12.710690
12.640953
12.165904
12.666583
12.609959
12.339950
12.096763
11.957884
11.795759
11.766553
11.543632
11.460781
11.609793
11.272430
11.445880
##ZVALUE=290
1.415610
1.301765
1.305938
1.368523
1.327991
1.451969
1.399517
1.400709
1.392961
1.402497
1.616478
1.480579
1.490712
1.681447
1.516938
1.736879
1.581907
1.559854
1.860857
1.825690
2.014637
2.058744
2.284646
2.297759
2.723932
3.065467
4.121661
11.614561
53.602457
131.714940
269.360542
580.207705
897.853971
1015.788913
1015.788913
1015.788913
1015.788913
1015.788913
1015.788913
832.195878
545.599461
266.597867
135.408640
50.834417
29.266477
33.864975
45.739412
65.802932
85.158944
109.210610
123.528838
134.609938
131.392479
120.098591
102.469921
78.591704
60.044527
39.518476
28.412938
18.684864
13.875961
10.616779
9.904504
9.464622
9.474754
10.192990
10.159612
10.520816
10.825992
11.213422
11.985898
12.276769
12.476444
13.245940
13.182759
12.643933
13.515949
12.485981
13.078451
12.623668
12.167692
12.334585
12.293458
12.388825
11.595488
12.077689
11.848807
11.459589
11.394620
11.277795
11.646748
11.238456
10.874867
11.290908
10.821819
11.081696
##ZVALUE=295
1.092553
1.200438
1.264811
1.270771
1.435876
1.259446
1.349449
1.305938
1.390576
1.267791
1.432896
1.428723
1.388788
1.457930
1.457930
1.518726
1.549721
1.480579
1.598597
1.667738
1.778603
1.677871
1.976490
1.872778
2.155900
2.268553
2.595782
2.751946
3.137589
5.333424
19.814968
83.608627
191.681981
459.170938
749.326944
1015.788913
1015.788913
1015.788913
1015.788913
1015.788913
1015.788913
981.611013
695.023537
363.820791
193.569660
67.174435
32.737851
22.704601
28.310418
44.006705
59.206486
83.697438
100.813508
119.086504
126.140714
123.294592
113.402605
96.441507
78.961849
55.727959
40.752888
25.868416
18.418431
13.050437
10.720491
9.144545
9.194613
9.320974
9.864569
10.550618
10.849833
11.463761
11.513829
11.908412
11.882782
12.172461
12.019873
11.737943
11.951923
11.508465
11.606812
11.581779
11.668801
11.732578
11.086464
11.377931
11.339784
11.166930
11.193752
10.823607
10.662675
10.674000
10.731816
10.778904
10.549426
10.762811
##ZVALUE=300
1.121759
1.029968
1.218915
1.239777
1.288652
1.222491
1.295805
1.279712
1.291633
1.245737
1.275539
1.331568
1.363754
1.384616
1.237988
1.372695
1.562834
1.412630
1.545548
1.703501
1.606941
2.019405
1.726747
1.772642
2.001524
1.900792
2.214909
2.292991
2.185702
2.644658
2.707839
3.187656
13.446808
47.192574
154.762864
305.369496
623.216629
943.812728
1015.788913
1015.788913
1015.788913
1015.788913
1015.788913
1015.788913
822.678804
527.243018
265.576839
138.249993
48.926473
22.594929
18.311739
24.734735
38.172603
51.859617
74.305534
93.051791
109.666586
117.924809
117.666721
110.992789
93.361735
78.118443
55.197477
40.663481
26.287436
18.533468
12.634993
10.772943
9.892583
9.960532
10.343790
10.115504
11.085868
11.415482
11.335611
11.043549
11.582971
11.865497
11.125803
11.654496
11.265874
11.027455
11.393428
11.234879
10.848641
11.396408
10.755658
11.203885
10.636449
11.218786
11.129975
10.674000
10.699630
10.523796
10.885000
10.914803
##ZVALUE=305
1.116991
1.191497
1.216531
1.138449
1.292825
1.168847
1.214743
1.111627
1.151562
1.373887
1.308918
1.174808
1.219511
1.224875
1.299977
1.320839
1.307726
1.223683
1.400709
1.232624
1.478791
1.533628
1.518726
1.470447
1.655817
1.656413
1.620650
1.695752
2.163649
2.164841
2.388954
2.437830
2.471805
2.929568
5.548000
33.864975
90.337992
251.695514
450.891852
832.775831
1015.788913
1015.788913
1015.788913
1015.788913
1015.788913
1015.788913
998.209715
619.491935
380.162597
174.681544
85.226893
27.392507
15.436411
16.969442
23.220778
37.759542
51.143765
71.370602
87.714791
103.596449
111.293793
111.720562
104.099512
89.847445
73.956847
53.171515
39.292574
24.717450
17.888546
13.177991
11.518598
10.644794
10.841489
11.314750
11.181831
11.011958
10.998845
10.892749
11.158586
11.308789
11.239648
11.137724
11.308789
11.429787
10.592937
11.464953
11.403561
10.974407
11.349916
10.796785
10.982752
10.909438
10.943413
10.637641
10.298491
10.407567
##ZVALUE=310
0.935793
1.019835
1.146793
1.157522
1.127720
1.290441
1.007915
1.125932
1.087785
1.062751
1.208782
1.268983
1.148582
1.300573
1.278520
1.231432
1.180768
1.340508
1.441836
1.429915
1.447797
1.558661
1.351833
1.437664
1.494884
1.554489
1.619458
1.684427
1.648664
1.726747
2.063513
2.122521
2.182722
2.300739
2.693534
2.637506
3.220439
45.111775
52.258968
157.767534
554.292798
602.376461
1015.788913
1015.788913
1015.788913
1015.788913
1015.788913
1015.788913
1015.788913
831.459761
544.985533
258.846879
133.103728
46.094656
13.208985
11.750460
17.965436
20.762682
31.130910
44.230819
74.253678
82.286000
93.657970
103.936791
103.522539
100.376606
88.640451
73.993802
52.957535
39.571524
22.415519
18.937588
15.498996
12.742877
11.723638
11.096597
10.885596
11.262894
11.499524
11.573434
11.378527
10.982752
11.065602
11.523962
11.477470
11.445880
11.483431
11.906624
11.512637
11.158586
11.092424
10.891557
10.984540
10.670424
10.303855
10.652542
##ZVALUE=315
1.095533
1.027584
1.018643
1.306534
1.023412
0.978708
1.078844
1.040697
1.106858
1.152754
1.127720
1.096725
1.086593
1.106858
1.234412
1.041889
1.329780
1.245737
1.163483
1.236796
1.385808
1.237988
1.349449
1.396537
1.441836
1.623631
1.647472
1.612902
1.590848
1.751781
1.583695
1.819730
2.012849
2.075434
1.839995
2.050996
2.300739
2.602935
3.018975
6.966591
25.485754
103.018880
219.288468
484.310985
778.020024
1015.788913
1015.788913
1015.788913
1015.788913
1015.788913
1015.788913
995.953679
712.002516
364.127755
188.047886
64.906478
26.412606
11.691451
11.074543
13.984442
18.828511
30.087829
41.323900
58.709979
73.746443
89.368820
99.141598
102.240443
96.713901
82.341433
69.277883
52.883625
40.259957
26.186705
20.074844
15.059710
12.918711
11.423826
11.144876
11.445880
11.063814
11.408925
11.081696
11.345744
11.043549
11.668801
11.229515
11.423826
11.378527
11.459589
10.956526
10.995865
11.294484
11.041760
10.994673
10.948777
##ZVALUE=320
1.074672
1.008511
0.996590
1.048446
1.040697
1.072884
1.126528
1.141429
1.165867
1.179576
1.116991
0.956655
0.953674
0.995994
1.139641
1.160502
1.146793
1.155734
1.102686
1.193881
1.272559
1.467466
1.112819
1.324415
1.347661
1.257658
1.394749
1.432896
1.519918
1.535416
1.544952
1.639724
1.775622
1.800656
1.877546
1.828671
2.001524
2.089739
2.394915
2.576709
2.921820
3.085732
15.493631
49.727559
165.477991
325.077772
632.669926
926.308632
1015.788913
1015.788913
1015.788913
1015.788913
1015.788913
1015.788913
828.542709
533.185005
242.711902
119.853616
37.987828
16.730428
10.276437
10.486841
12.994409
17.196536
26.842952
37.121773
55.098534
67.334771
85.782409
93.468428
95.902681
92.064738
80.263615
66.375732
51.578879
39.595962
27.253628
20.295978
15.175939
12.755990
11.977553
11.485815
11.507869
11.508465
11.314750
11.421442
11.043549
11.406541
11.154413
11.390448
11.108518
11.330843
11.410713
11.129975
10.798573
11.010766
##ZVALUE=325
0.953674
1.038909
0.955462
0.873804
0.997782
0.930429
0.877976
1.105666
0.930429
0.985861
1.173615
1.143813
1.095533
1.079440
1.160502
1.107454
1.119971
0.959635
1.126528
1.133680
1.086593
1.162887
1.100898
1.103878
1.254678
1.295805
1.359582
1.357794
1.318455
1.370907
1.400709
1.380444
1.507998
1.712441
1.813769
1.904964
1.769662
1.843572
1.973510
1.995564
2.258420
2.558827
2.667904
2.711415
8.425713
32.182932
116.855502
235.876441
509.808660
804.744959
1015.788913
1015.788913
1015.788913
1015.788913
1015.788913
1015.788913
932.844877
637.525916
332.317948
175.826550
61.135888
24.962425
10.691881
9.846687
10.437965
12.741685
17.819405
24.677515
39.762855
53.356886
69.845915
80.550909
89.394450
91.259480
85.043907
77.067614
61.608553
49.363971
34.260750
25.494695
18.497705
15.047789
12.700558
12.130737
11.623502
11.332631
11.603832
11.066794
10.915995
11.320710
11.300445
11.083484
10.942817
10.905862
10.975599
10.814667
##ZVALUE=330
0.885725
1.039505
0.994802
1.062751
0.966787
0.988841
1.065731
1.070499
1.020432
0.982881
1.140833
0.935793
1.010895
0.994802
1.068711
1.018643
1.143813
1.061559
0.963807
1.179576
1.139641
1.331568
1.184940
1.260638
1.127720
1.367927
1.274943
1.219511
1.358986
1.372695
1.398921
1.269579
1.396537
1.291633
1.545548
1.533628
1.551509
1.618862
1.769662
1.816750
1.786947
1.883507
2.151728
2.199411
2.393723
2.706647
3.841519
19.689798
60.893893
183.886886
345.469713
667.454600
967.338681
1015.788913
1015.788913
1015.788913
1015.788913
1015.788913
1015.788913
718.494654
449.725986
202.840567
98.885894
34.917593
14.702678
9.468794
9.845495
10.642409
12.627840
17.883778
24.497509
36.698580
48.323870
64.814687
75.942874
83.987713
84.976554
79.202652
71.670413
57.070851
46.027899
32.333732
25.497675
18.034577
15.430450
12.707710
12.247562
11.780858
11.032820
11.263490
10.963678
10.681748
10.885000
10.446906
10.615587
10.757446
##ZVALUE=335
1.099706
1.008511
1.106858
1.158714
1.008511
1.007915
1.148582
0.962615
0.982881
1.232624
1.064539
1.151562
1.144409
1.302958
1.210570
1.107454
1.247525
0.929832
1.008511
1.221895
1.163483
1.168847
1.381636
1.328588
1.296997
1.282692
1.288652
1.326799
1.229644
1.379848
1.287460
1.458526
1.351833
1.284480
1.374483
1.495481
1.452565
1.612902
1.619458
1.683831
1.794696
1.792908
1.772642
2.013445
2.025962
2.338886
2.447963
2.673864
2.676845
8.805990
31.097531
116.772652
240.439773
524.057746
818.313956
1015.853882
1015.853882
1015.853882
1015.853882
1015.853882
1015.853882
912.807584
610.932708
307.800770
156.874657
49.706697
20.225644
10.452867
9.823442
9.676814
10.670424
13.199449
16.920567
25.349855
34.568906
48.409700
59.504509
72.156787
76.876879
79.545975
75.666904
65.526962
56.681633
43.728948
34.868717
24.873614
19.284487
14.844537
13.001561
11.680722
11.238456
10.708570
10.866523
10.547638
10.459423
10.150671
##ZVALUE=340
0.981688
1.024604
1.058578
0.937581
0.994802
0.934601
0.948906
0.861883
1.076460
0.943542
0.850558
1.000762
1.014471
0.998974
1.141429
0.896454
0.942945
1.081824
0.916719
0.993609
1.123548
1.108646
1.034737
1.060963
1.185536
1.123548
1.061559
1.119971
1.046658
1.165867
1.246929
1.251698
1.045465
1.208782
1.146793
1.238585
1.305938
1.414418
1.316667
1.419783
1.547933
1.509786
1.654625
1.572967
1.780987
1.859665
1.969934
2.144575
2.172589
2.499819
2.739429
4.261732
14.778972
71.319938
171.075463
416.501760
686.156750
1015.788913
1015.788913
1015.788913
1015.788913
1015.788913
1015.788913
992.834568
713.879466
362.159014
195.602775
75.231791
30.113459
11.369586
9.670854
9.632707
9.692907
10.370612
12.524724
17.249584
22.927523
33.107996
43.253899
57.750940
66.188574
74.180961
74.655414
70.306659
64.393878
53.161979
43.745637
31.981468
25.226474
18.217564
14.847517
11.969805
10.998845
10.419488
9.793639
9.682775
##ZVALUE=345
0.933409
1.030564
0.966787
1.052618
0.858903
0.953674
0.804663
0.942945
1.103878
0.863671
0.971556
0.969768
0.871420
0.984669
0.912547
0.871420
1.009703
0.933409
1.041889
0.984669
1.023412
1.026988
1.187921
1.163483
1.075864
1.020432
0.959635
1.067519
1.141429
1.116991
0.879765
1.210570
1.195669
1.154542
1.109838
1.317859
1.380444
1.245737
1.331568
1.380444
1.262426
1.516938
1.524687
1.616478
1.569986
1.520514
1.711845
1.842976
2.080798
1.937747
2.155900
2.431870
2.702475
3.109574
7.361770
43.694973
118.135810
299.392939
521.653891
916.142464
1015.788913
1015.788913
1015.788913
1015.788913
1015.788913
1015.788913
855.345726
496.726632
275.446773
104.375482
44.163465
15.199780
9.913445
9.687543
9.409785
9.211898
10.016561
11.502504
14.643669
21.821856
29.275417
41.235685
50.272942
60.009956
65.814853
68.795681
66.899657
60.067773
52.719712
41.556954
33.122897
23.593903
18.265843
13.512969
11.978745
10.492802
##ZVALUE=350
0.849962
0.974536
0.924468
1.090765
0.837445
0.940561
0.890493
0.953674
0.981688
1.015663
1.035929
1.059771
1.091957
1.038909
0.888705
0.956655
1.058578
0.972748
1.027584
1.187921
1.104474
1.015663
0.951886
1.015663
1.157522
1.040697
0.982881
0.978708
1.115799
1.042485
1.057982
1.099706
1.161695
1.243949
1.255870
1.348853
1.139641
1.484752
1.387596
1.322627
1.298785
1.611710
1.398921
1.438856
1.386404
1.524687
1.502633
1.632571
1.606941
1.954436
2.008677
1.981854
2.129674
2.162457
2.378821
2.624989
4.116893
21.791458
65.941811
198.439360
373.484492
730.327964
1006.670594
1015.788913
1015.788913
1015.788913
1015.788913
1015.788913
973.154902
573.408008
345.099568
151.388645
70.810914
20.210743
10.550618
8.794665
8.684993
8.362532
8.342862
9.356737
10.433793
14.625788
19.038916
27.100444
34.550428
45.478940
52.965879
59.902668
62.929988
61.101913
56.537986
47.947764
40.339828
30.410886
23.965836
17.680526
##ZVALUE=355
0.935793
1.042485
0.809431
0.960827
0.868440
0.965595
0.919700
0.910759
1.030564
0.879765
1.012683
0.978708
0.970960
1.103878
1.122952
1.015663
0.792742
1.125932
0.997782
1.185536
1.076460
0.959635
0.934601
1.179576
1.042485
1.112819
1.202822
1.230836
1.014471
1.131892
1.096725
1.151562
1.245737
1.099706
1.220703
1.145601
1.196861
1.157522
1.284480
1.426935
1.300573
1.277924
1.378655
1.237988
1.314878
1.384616
1.464486
1.552701
1.706481
1.502633
1.833439
1.714826
1.583695
2.008677
2.249479
2.186894
2.284646
2.666712
3.055930
10.668635
37.389994
136.532784
275.737643
567.354560
870.350599
1015.788913
1015.788913
1015.788913
1015.788913
1015.788913
1015.788913
701.021552
434.662700
186.561942
88.060498
26.890635
11.675954
8.481741
8.153915
7.753968
7.978678
8.093715
8.708835
10.353923
12.317896
17.582774
22.854805
32.114983
39.086938
47.841668
53.508878
56.950450
56.420565
51.536560
46.131611
37.943721
##ZVALUE=360
0.977516
1.055598
1.042485
0.876784
1.037717
0.934601
0.876784
0.980496
0.932813
1.005530
1.031756
0.875592
0.925660
1.028776
0.810623
1.167655
0.978708
1.066923
1.058578
1.087785
1.103878
1.015663
1.129508
0.986457
1.091957
1.121759
1.186728
0.987649
1.145601
1.224875
1.183748
1.187921
1.131892
1.210570
1.172423
1.292825
1.231432
1.416802
1.370907
1.371503
1.429915
1.343489
1.186728
1.130700
1.413822
1.289845
1.515746
1.453757
1.548529
1.630783
1.627803
1.730919
1.672506
1.715422
1.897812
2.059937
2.210736
2.200603
2.307892
2.610683
2.757907
4.911423
15.658736
69.294572
164.875388
411.616564
675.947666
1015.788913
1015.788913
1015.788913
1015.788913
1015.788913
1015.788913
815.968513
529.909730
253.114700
129.454732
46.560764
18.681884
8.736849
7.965565
7.805824
7.456541
7.458925
7.456541
7.799864
8.601546
11.143684
13.834834
19.266605
25.010705
33.957958
40.762424
47.370791
51.042438
51.619411
##ZVALUE=365
0.912547
0.919700
1.119971
0.882745
0.893474
0.950694
0.942945
0.931621
0.944734
0.987649
0.988841
0.981688
0.957847
0.964999
0.856519
0.956655
1.123548
1.091957
0.859499
1.049638
1.050830
1.037717
1.031756
1.046658
1.044869
1.048446
1.024604
1.105666
1.031756
0.983477
1.171827
1.195669
1.396537
1.324415
1.105666
1.262426
1.200438
1.325607
1.091957
1.113415
1.348853
1.151562
1.379848
1.294613
1.340508
1.514554
1.244545
1.336932
1.533628
1.436472
1.440644
1.456738
1.575947
1.579523
1.731515
1.788735
1.723766
1.880527
1.875758
2.214909
2.291799
2.498627
2.781749
3.327727
6.290674
35.038590
95.185637
262.479782
477.496982
852.259994
1015.782952
1015.782952
1015.782952
1015.782952
1015.782952
954.972506
655.292869
349.914432
186.217427
68.679452
27.703643
9.459853
7.617474
7.205606
7.079840
6.793737
6.759763
6.573796
6.847978
7.649660
8.850694
12.454987
15.970469
21.977425
27.881861
35.287738
##ZVALUE=370
0.995994
0.707507
0.958443
0.886917
1.097918
0.923872
0.921488
0.897646
0.964999
0.961423
0.912547
0.953674
0.919700
0.911951
1.001954
0.925660
0.872612
1.003742
0.951886
1.096725
0.968575
1.124740
0.947714
0.936985
1.140833
1.063943
0.850558
1.011491
1.055598
1.009703
0.999570
1.080632
0.940561
1.033545
1.058578
1.072884
1.005530
1.120567
1.150966
1.150966
1.146793
1.182556
1.304746
1.177788
1.141429
1.152754
1.151562
1.210570
1.212955
1.310706
1.272559
1.283884
1.272559
1.453757
1.551509
1.675487
1.520514
1.606941
1.622438
1.771450
1.792908
2.068877
2.070665
2.167821
2.409816
2.755523
4.070401
20.431876
62.922835
189.535618
362.305641
680.554509
976.231694
1015.788913
1015.788913
1015.788913
1015.788913
1015.788913
804.719925
439.096689
241.702795
91.491938
39.134622
12.572408
7.633567
6.739497
6.675720
6.372929
6.253719
6.276965
6.204844
6.465912
6.842613
8.095503
10.373592
14.413595
##ZVALUE=375
0.827909
0.940561
0.862479
0.876784
0.832677
0.859499
0.853539
0.902414
0.807643
0.928640
1.036525
0.861883
0.896454
0.910759
1.025796
1.033545
0.941753
0.825524
0.932813
0.884533
0.901818
0.937581
0.962615
0.930429
0.881553
0.965595
0.906587
1.034737
1.016855
0.994802
0.995994
0.989437
1.010895
0.940561
1.091957
1.050830
1.230836
1.269579
1.142621
1.106858
1.077652
1.086593
0.986457
1.106858
1.161695
1.181960
1.158714
1.229644
1.116991
1.173615
1.424551
1.320839
1.257658
1.369715
1.325607
1.449585
1.231432
1.352429
1.430511
1.529455
1.505613
1.726747
1.601577
1.750588
1.977682
1.979470
2.162457
2.551675
2.942681
9.702444
34.231544
116.370916
244.803429
538.156629
832.243562
1015.788913
1015.788913
1015.788913
1015.788913
1015.788913
971.641541
579.461455
348.811746
150.236487
70.926547
21.623969
9.488463
6.336570
6.302595
6.018877
6.014705
5.620718
5.622506
5.702972
5.701780
6.030798
##ZVALUE=380
0.932813
0.899434
0.964999
0.775456
0.893474
0.792742
0.790954
0.949502
1.071692
0.809431
0.899434
0.875592
0.839829
0.962615
0.982881
0.891685
0.934601
0.905991
0.939965
1.061559
0.868440
0.902414
0.805855
0.921488
0.973940
0.900626
1.073480
0.909567
1.005530
1.049638
1.043677
1.014471
1.016855
1.041889
1.021624
0.938773
0.948906
1.077652
0.799894
1.116991
1.017451
1.111627
1.192689
1.085997
1.054406
1.088977
1.129508
1.029968
1.120567
1.133680
1.079440
1.123548
1.205802
1.188517
1.205802
1.221895
1.206994
1.303554
1.432896
1.319647
1.379848
1.497865
1.544952
1.643896
1.795888
1.874566
1.898408
2.225637
2.262592
2.651811
2.868772
5.172491
19.502640
87.284446
197.515488
451.242924
718.500614
1015.788913
1015.788913
1015.788913
1015.788913
1015.788913
1015.788913
725.889802
472.659469
224.989653
112.154484
36.234856
14.463663
6.811619
5.719662
5.526543
5.386472
5.353689
5.454421
5.326867
##ZVALUE=385
0.804663
0.782609
0.914931
0.868440
0.899434
0.951886
0.820756
0.744462
0.835657
0.658631
0.777841
0.751615
0.782609
0.913739
0.825524
0.803471
0.796914
0.829697
0.844598
0.902414
0.882745
0.927448
0.846982
0.797510
1.048446
0.872612
0.967979
1.003742
1.071692
0.895858
1.121759
1.102686
0.949502
0.921488
1.102686
1.013875
1.019835
0.884533
1.010895
1.088977
1.247525
0.953674
1.121759
1.149774
1.064539
1.007915
1.009703
1.184940
1.194477
1.048446
1.129508
1.259446
1.227856
1.123548
1.312494
1.231432
1.261830
1.273751
1.220703
1.383424
1.244545
1.347661
1.342893
1.399517
1.524687
1.532435
1.671910
1.857877
1.921654
2.219677
2.343655
2.531409
2.532601
3.384948
9.628534
50.323009
125.007629
311.282873
542.704463
944.630504
1015.790701
1015.790701
1015.790701
1015.790701
1015.790701
944.823027
655.730963
346.667767
192.328691
74.751973
28.703809
8.249879
5.663633
5.223751
5.154610
4.687905
##ZVALUE=390
0.758767
0.726581
0.645518
0.764728
0.733733
0.799894
0.702739
0.645518
0.616908
0.653863
0.560880
0.793934
0.729561
0.677705
0.711679
0.775456
0.725985
0.819564
0.805855
0.707507
0.630617
0.789762
0.852942
0.796914
0.610948
0.848770
0.803471
0.774860
0.988841
0.781417
0.744462
0.936985
0.896454
0.915527
0.861883
0.910759
0.966787
0.823736
0.906587
0.844598
0.993609
0.871420
0.923872
0.882745
0.920892
1.061559
0.836849
0.982881
0.932813
0.976920
1.000762
0.966787
0.919700
1.031756
0.948906
1.133680
1.063943
1.129508
1.240969
1.254678
1.164675
1.205802
1.224875
1.109838
1.170635
1.390576
1.402497
1.577735
1.776814
1.798868
1.987815
2.120733
1.924634
2.141595
2.368689
2.696514
4.706979
27.402639
82.537532
239.035487
441.650748
819.152594
1015.670896
1015.670896
1015.670896
1015.670896
1015.670896
1015.670896
850.619674
508.845448
290.357471
113.681555
48.109889
12.591481
6.247759
5.123615
##ZVALUE=395
0.857711
0.812411
0.837445
0.864863
0.777841
0.954866
0.734925
0.797510
0.780821
0.914931
0.754595
0.764728
0.791550
0.905991
0.822544
0.691414
0.779629
0.813603
0.945926
0.846982
0.805855
0.857711
1.116991
0.827909
0.719428
0.789762
0.910759
0.968575
0.882745
0.983477
1.061559
0.931621
0.931621
1.084805
0.948906
0.995994
1.142621
0.935793
1.030564
1.012683
1.044869
1.172423
1.036525
0.984669
1.164675
1.091957
1.114607
1.079440
1.066923
1.116991
0.961423
1.127720
1.029968
1.017451
1.315475
1.255870
1.225471
1.273751
1.131892
1.186728
1.296997
1.257658
1.247525
1.288652
1.363754
1.461506
1.512766
1.631975
1.669526
1.984835
1.922846
2.155900
2.175570
1.967549
2.183914
2.229810
2.119541
2.551675
3.165603
15.928745
57.208538
185.023546
340.692401
620.127916
896.197557
1015.787721
1015.787721
1015.787721
1015.787721
1015.787721
993.911624
630.402565
385.058522
164.167881
73.256493
22.193789
##ZVALUE=400
0.736713
0.876784
0.843406
0.743866
0.708699
0.691414
0.812411
0.805855
0.833869
0.831485
0.743866
0.793934
0.895858
0.847578
0.762939
0.866652
0.810623
0.976920
0.913739
0.845790
0.967979
0.853539
0.763535
0.901818
0.911951
0.852942
0.848770
0.788569
0.893474
0.933409
0.823736
1.062751
0.886917
1.049638
0.924468
1.016855
0.918508
1.010895
0.879765
0.922680
0.946522
0.907779
1.015663
1.009703
1.045465
1.057982
1.007915
0.982881
1.070499
1.010895
1.188517
1.183748
0.990629
1.051426
1.030564
1.076460
1.187921
1.134872
1.126528
0.955462
1.150966
1.108646
1.144409
1.265407
1.300573
1.414418
1.386404
1.525879
1.795888
1.734495
1.752973
1.838803
1.831651
1.808405
1.715422
1.741648
1.810789
2.025962
2.200603
2.329946
2.587438
8.432865
30.635595
105.961561
222.883821
481.635928
750.927925
1015.768647
1015.768647
1015.768647
1015.768647
1015.768647
1015.768647
786.228776
515.618920
253.461003
##END
