##TITLE=FQP00651
##FORMAT=SPECTACLE-ASCII V-1.2
##DATA TYPE=ULTRAVIOLET SPECTRUM
##SECOND TYPE=ULTRAVIOLET SPECTRUM
##DATE=11/28/17
##TIME=14:33:23
##SPECTROMETER/DATA SYSTEM=SPECTACLE
##XUNITS=NM EM
##YUNITS=ENERGY
##YFACTOR=1
##FIRSTX=220
##LASTX=410
##NPOINTS=96
##3DDATA=Equidistant
##ZUNITS=NM EX
##FIRSTZ=210
##LASTZ=400
##ZPOINTS=39
##XYDATA=(Y..Y)
##ZVALUE=210
4.364848
3.926754
4.059672
3.744960
3.621578
5.357862
5.028844
4.912615
4.168749
3.650784
3.498793
3.469586
3.047585
3.244877
2.777576
3.665686
3.447533
4.399419
4.133582
4.581809
4.547834
4.713535
4.547834
5.507469
5.505681
5.545616
6.245971
6.045699
7.402897
6.573796
7.338524
6.930828
7.498860
7.694960
7.371902
8.104444
7.369518
8.457899
8.555651
8.762479
7.680655
7.589459
9.513497
8.183718
7.844567
7.192492
8.780956
7.784963
8.608699
9.614825
7.769465
8.493662
9.267926
9.334683
9.835958
8.178949
9.017587
9.746552
8.175969
8.815527
9.084940
9.056926
9.435415
10.227561
9.302497
9.625554
10.585785
10.504723
12.501478
13.550520
16.326904
18.168688
20.391941
24.003983
26.805997
26.746988
29.795766
30.115843
27.211905
27.626753
27.343631
23.668408
19.610524
19.924641
14.064908
12.159944
10.338426
8.933544
8.107424
9.748936
8.305907
9.005666
7.202625
8.625984
8.405447
10.183454
##ZVALUE=215
11.295676
9.468794
10.557771
7.790923
8.932948
7.499456
8.383989
7.260442
8.837581
7.822514
7.342696
7.004738
6.479621
5.337596
3.573895
3.754497
4.089475
3.771782
4.178882
4.821420
5.057454
4.375577
6.007552
5.577803
5.393624
6.119609
6.753802
7.219911
6.680489
8.210540
8.270741
9.219646
8.367896
10.028481
8.463860
9.740591
9.355545
10.196567
8.800626
9.155869
10.082722
8.639693
8.997917
10.038614
9.843707
10.346770
9.626746
9.646416
10.263920
9.686947
10.645986
9.486675
10.014772
9.429455
9.437799
9.636879
11.137724
10.368824
9.889603
9.407997
10.411739
10.744929
9.788871
9.501576
9.275675
11.631846
10.563731
11.858940
12.902617
14.871955
15.673637
19.165874
20.280480
22.847652
25.448799
25.384426
26.158690
25.587678
27.137995
25.747418
23.130774
20.326972
18.340945
15.614629
13.625622
11.996627
11.130571
9.774566
9.336472
8.321404
8.571744
8.007884
9.081960
8.273721
8.398890
8.435845
##ZVALUE=220
28.481483
27.327538
32.598972
31.632781
28.696656
26.359558
19.462705
16.682744
14.773607
15.498996
16.029477
16.048551
15.334487
12.869835
11.517406
9.448528
7.882714
6.492734
5.068779
4.936457
4.661679
6.148815
5.392432
4.830956
6.855726
6.109476
7.057786
8.336902
8.081794
9.261966
9.359717
9.805560
10.458827
10.236502
11.408925
11.039972
10.496974
10.533929
11.222959
10.461807
10.891557
9.889603
10.632873
11.332631
11.262894
12.312531
11.562705
11.334419
11.578798
11.455417
11.915565
12.092590
9.551644
10.920763
11.074543
10.638833
12.860894
11.552572
11.559725
12.015700
11.954904
11.887550
11.359453
10.794997
9.807944
12.169480
12.145638
13.662577
12.331605
15.298724
17.314553
20.598769
19.687414
22.429824
22.912621
25.041699
26.337504
26.555657
23.904443
23.069978
23.729801
21.407604
21.018982
17.934442
15.883446
13.705492
13.113618
10.717511
10.460615
10.582805
10.655522
9.659529
8.322001
9.763837
10.205507
9.270906
##ZVALUE=225
43.297410
46.546459
56.917667
73.247552
80.615878
84.605813
76.585412
60.712695
47.485828
34.551620
30.786991
27.946830
27.538538
29.604435
30.348897
30.181408
24.669766
19.055605
13.399720
11.545420
6.900430
6.466508
5.254745
5.513430
6.662607
7.225871
7.494688
8.085966
7.746816
8.251667
8.686781
9.978414
9.489655
10.171533
11.647940
10.501742
10.677576
11.766553
11.140704
11.504889
12.320876
11.793971
11.735559
11.543632
12.292862
12.023449
13.406873
12.742877
11.808872
12.890697
12.161732
12.954473
14.000535
13.096929
12.419820
12.429953
12.827516
13.490915
12.775660
13.400912
12.654662
13.768673
14.014840
14.667511
13.421774
13.816953
14.039874
15.330911
16.070604
17.588735
18.169880
20.399690
20.862818
24.679899
23.729801
24.489760
24.337769
24.847984
20.528436
23.091435
21.019578
17.735958
17.034411
15.492439
14.447570
13.917685
14.491677
13.689995
13.077855
12.608767
12.627840
12.101531
12.484789
10.623932
12.124777
10.546446
##ZVALUE=230
30.817986
36.905408
57.358742
101.585984
137.012601
171.268582
181.745887
186.376572
177.181959
146.959424
100.929737
74.251890
52.044988
45.875907
45.967698
48.460960
49.504638
48.407912
44.993758
36.752820
30.743480
19.026995
14.041662
8.337498
6.878972
7.324815
6.911755
7.024407
8.442998
7.443428
7.727742
7.914901
9.212494
8.397698
8.596778
10.730624
9.955764
11.238456
10.856986
11.033416
11.151433
12.558699
14.216900
15.115738
13.615489
15.476942
14.675856
15.383959
16.683936
17.394423
16.356707
16.945601
18.764734
17.663836
17.659664
17.175674
18.265843
18.212795
16.572475
18.494725
17.882586
19.757748
19.728541
17.909408
20.628572
20.755529
20.456910
21.693707
21.034479
22.988915
23.361444
27.117729
25.033951
26.349425
30.003786
27.912855
26.687980
27.313828
27.411580
24.146438
24.781823
22.760630
20.690560
20.329952
21.387935
19.625425
18.667579
18.797517
15.988946
16.278625
15.617609
16.078949
16.379952
15.280843
14.333725
16.206503
##ZVALUE=235
10.495782
12.108684
30.335784
57.579875
113.728642
167.229772
245.416760
304.100513
351.424813
351.663828
305.321813
252.112746
201.780796
127.533674
95.241666
71.602464
70.235729
74.776411
79.366565
80.305934
72.707534
66.186786
50.863624
37.124753
24.061799
17.803907
12.187958
9.675622
8.335710
8.858442
7.707477
8.977652
8.828640
8.969903
9.100437
9.524822
10.549426
11.252761
12.530684
13.742447
13.882518
14.624000
16.666651
17.481446
18.572807
21.544695
21.259785
23.159981
22.558570
24.782419
25.704503
27.081966
26.747584
27.165413
27.175546
27.140975
28.208494
28.244853
27.999878
27.440786
26.792884
29.479861
28.442740
28.307438
27.686954
29.236674
27.098656
29.532909
30.442476
32.269955
32.825470
34.123659
35.884976
35.942793
37.111640
36.927462
36.781430
35.762787
33.448935
33.775568
32.802820
30.287504
28.942823
27.219653
27.483702
25.741458
25.178790
25.521517
24.740696
23.405552
22.927523
22.486448
21.272898
21.575689
18.743873
19.935966
##ZVALUE=240
2.395511
2.433658
4.631877
16.330481
36.295652
82.957745
143.958926
259.300470
359.504819
446.986556
527.022481
533.117652
478.965640
414.692760
301.365852
215.595961
141.297579
102.357864
90.194941
94.316602
101.487637
107.948780
104.491711
94.133615
79.340935
57.736635
46.552420
30.414462
22.907853
15.854836
11.271834
10.562539
10.907650
10.437965
11.375546
11.560917
11.737943
13.581514
14.510751
16.779900
16.982555
20.055771
22.373796
24.947524
25.621653
27.257800
30.463934
34.093857
33.664703
36.116838
35.844445
36.354661
38.026571
38.420558
37.432909
36.440492
37.398934
40.733814
38.703680
37.163496
38.365722
35.604835
36.833882
37.942529
39.148927
37.709475
38.495660
40.134788
40.429831
39.973855
41.488409
43.012500
44.304729
41.876435
44.538975
47.212839
44.862628
42.549968
40.823817
39.446950
39.539933
37.439466
34.777522
33.441782
32.379627
30.510426
31.304955
30.941963
29.440522
29.255748
27.000904
27.690530
24.300814
26.310682
24.960637
25.944710
##ZVALUE=245
2.112985
2.213717
2.575517
2.592802
3.954768
9.828806
32.672882
75.466633
170.492530
271.281600
425.557494
545.842648
625.415444
656.854510
628.275871
518.053770
422.320962
289.350748
202.596784
121.153593
97.439885
88.316798
105.190873
116.451979
123.060942
116.767883
107.895732
91.356635
70.880651
52.635670
38.653612
24.752617
18.215775
12.581944
11.142492
11.785626
12.809634
13.010502
15.097857
18.693805
18.742681
21.767616
24.851561
26.450753
28.902888
32.237768
35.757422
35.498738
37.814975
40.642619
40.540695
43.751001
44.047832
42.301416
44.513941
43.521523
42.583942
43.334961
41.376948
41.423440
41.563511
41.430593
37.731528
39.235950
38.085580
40.324926
40.465593
39.141774
39.900541
39.448738
38.861632
41.753650
40.581822
40.815473
39.838552
40.345788
39.959550
38.857460
37.696958
34.983754
34.635663
33.874512
31.444430
32.114983
30.774474
28.949976
29.641986
29.523969
28.039813
27.680993
27.136803
25.826693
24.901628
24.434924
24.727583
23.828745
##ZVALUE=250
2.177954
2.230406
2.030730
2.117753
2.394915
2.446771
3.034472
6.354451
27.049780
63.951612
157.863498
260.968804
395.007730
573.838949
674.497485
763.573647
751.323700
671.944618
561.980605
387.674570
264.156461
175.168514
107.421875
88.206530
94.518661
109.405518
124.179721
132.321715
126.807690
116.831660
101.271868
79.551935
58.369637
38.337708
27.542710
18.455982
14.537573
14.815927
15.803576
17.551780
19.577742
22.281408
25.395751
26.850700
31.128526
32.828450
33.510923
38.305521
38.981438
40.331483
41.316748
42.853951
41.885972
42.974949
44.496655
42.475462
43.923855
42.624474
39.874911
41.352510
40.640831
37.618876
37.333965
34.968853
36.275983
34.869909
34.504533
34.762621
33.497810
35.344958
34.034848
34.634471
32.713413
35.200715
32.874942
33.254623
34.665465
32.604933
31.691790
30.105710
31.270981
28.982759
28.109550
27.075410
27.576685
26.190877
26.497841
25.311708
25.528669
23.427606
23.518801
21.416545
22.719502
21.968484
23.247600
21.792650
##ZVALUE=255
1.863837
1.812577
2.223849
1.986623
1.822710
2.070665
1.899600
1.956820
2.656579
4.780889
20.733476
51.837564
107.075572
233.409405
364.756584
565.949678
706.131458
829.609632
869.242549
810.287595
691.577792
550.358891
345.406532
225.074887
123.867989
89.886785
84.264874
93.566775
117.981434
129.952431
134.650469
137.898922
123.295784
103.705525
83.687901
58.386922
41.705966
27.437806
22.002459
18.491745
19.550920
20.966530
23.292899
25.160909
27.255416
30.223727
32.197833
34.565926
34.963489
35.912991
37.609935
39.472580
38.409829
39.272904
38.227439
37.367940
38.205981
36.621690
36.148429
35.094619
34.885406
33.176541
33.463836
31.083822
30.352473
30.319691
29.998422
29.765964
28.001666
28.663874
28.157830
28.028488
27.088523
28.254986
28.437972
28.210878
26.933551
25.983453
25.401711
25.574565
26.106834
25.443435
24.086833
22.921562
23.041964
22.379756
21.524429
21.707416
22.208691
21.063685
21.562576
21.559596
18.869638
20.374656
19.909739
19.277930
##ZVALUE=260
1.695752
1.671910
1.581907
1.724958
1.622438
1.767874
2.013445
2.060533
1.935959
2.145767
2.430677
3.029704
8.290410
34.105778
79.599619
192.257762
319.990516
517.244935
683.689713
872.975588
953.574777
954.563618
842.840672
685.004592
459.390879
312.596560
183.513761
114.949942
76.024532
76.366663
91.169477
119.151473
134.229660
144.416690
138.401985
126.501918
109.761953
82.020760
64.505935
44.668913
34.294724
26.433468
22.970438
22.469759
24.569631
25.217533
27.793646
28.611422
30.911565
31.041503
31.648874
30.977726
31.371713
30.809641
31.080842
30.362606
31.114817
28.245449
29.685497
27.719736
27.408600
26.810765
25.335550
25.217533
24.508834
23.772717
24.128556
22.937655
23.741722
22.776723
24.084449
22.841692
23.997426
23.963451
23.681521
22.238493
22.730827
22.082925
22.514462
21.959543
21.487474
21.735430
21.333694
19.576550
19.800663
18.934608
19.468665
19.149780
18.909574
18.594861
19.192696
18.514991
18.449426
19.216537
17.848611
17.669797
##ZVALUE=265
1.609921
1.603961
1.568794
1.748800
1.778603
1.426935
1.719594
1.775622
1.806617
1.723766
1.959801
2.051592
1.949668
2.453923
4.916787
24.267435
61.460733
152.483582
269.478559
493.829846
683.671832
865.505934
1013.980508
1015.771627
953.975916
805.683732
599.420667
418.398976
234.209895
144.025683
91.514587
66.038966
73.924661
101.744533
120.149851
140.156746
147.364736
144.304633
130.866766
107.162595
87.861419
64.141750
46.952963
33.699870
27.615428
23.986697
23.563504
22.641420
24.577975
24.785995
25.536418
25.748610
25.462508
24.816990
25.699735
24.136901
24.963617
23.317933
21.909475
21.738410
21.590590
21.692514
20.884871
20.138621
20.563602
20.146966
18.990636
19.197464
20.065904
20.315647
20.012856
19.414425
20.313859
20.119548
21.126866
20.552874
19.642711
19.337535
19.740462
19.245744
18.444657
18.688440
17.610788
18.016696
17.524958
18.246770
16.911626
17.058849
16.016960
16.956925
16.404986
15.946627
16.451478
16.968846
16.546845
16.024709
##ZVALUE=270
1.552701
1.446605
1.583695
1.570582
1.449585
1.509786
1.432896
1.685619
1.616478
2.085567
1.785755
2.102852
1.972914
1.924634
2.141595
2.476573
2.986789
12.237430
36.655664
118.664503
231.244564
392.951965
662.621856
868.485570
1015.788913
1015.788913
1015.788913
983.850956
754.281878
559.921861
389.051437
199.546814
114.020705
60.582757
59.806705
78.357458
99.482536
125.292540
139.799714
151.515603
149.210691
132.784843
116.222501
88.643432
68.949461
48.080683
36.872625
28.711557
23.671985
22.648573
21.702647
21.566749
22.492409
21.833777
20.505786
20.836592
20.182729
20.114779
18.888712
19.457936
18.863678
18.144846
18.246770
17.451644
17.516613
17.309785
16.479492
16.666651
17.617941
17.624497
17.314553
18.819571
18.984675
18.652678
18.814802
18.456578
17.691851
17.530918
17.313957
18.021464
17.642975
16.734600
17.030835
16.545653
16.494989
15.643835
15.972853
15.345812
16.165972
15.208721
15.683770
15.491843
15.055537
14.880896
15.177727
15.201569
##ZVALUE=275
1.292825
1.470447
1.542568
1.396537
1.512766
1.596808
1.571774
1.525879
1.292825
1.743436
1.653433
1.608729
1.572967
1.635551
1.818538
2.090931
2.265573
2.031922
2.292991
6.385446
26.178956
73.003769
201.561451
355.229974
629.754663
834.425688
1015.788913
1015.788913
1015.788913
1015.788913
969.787836
709.748864
493.865609
259.884596
148.045421
68.776608
49.254894
56.988597
73.576570
102.224946
121.893883
141.529441
150.030851
145.839453
133.909583
110.575557
92.118979
67.887902
51.532984
36.092997
28.535724
22.547841
19.895434
18.827915
18.265843
18.147826
17.889738
16.935468
17.224550
16.420484
17.209649
15.920997
16.199946
16.298890
16.264915
16.211867
16.220808
16.413927
16.247630
17.203689
16.766787
17.682910
17.517805
17.538667
17.950535
17.763972
17.968416
16.992688
16.971827
17.004609
15.804768
16.298890
15.968680
15.654564
15.583634
15.599728
15.085936
15.363693
15.041828
14.772415
14.511943
14.187694
14.477968
14.221668
14.209747
13.730526
##ZVALUE=280
1.273751
1.212955
1.358986
1.200438
1.336932
1.470447
1.574755
1.661777
1.724958
1.623631
1.733899
1.697540
1.733899
1.617670
1.668930
1.754761
1.783967
1.959801
2.081990
2.240539
2.288818
3.006458
17.098784
56.588650
168.746710
296.797752
526.341796
752.153993
1008.417010
1015.788913
1015.788913
1015.788913
1015.788913
819.673538
606.598854
340.760946
199.927688
91.038942
52.540898
41.621923
51.896572
77.443719
98.353624
124.576688
140.222907
146.131516
145.386457
130.009651
111.000538
84.360838
67.391992
45.552850
34.587979
24.021864
19.832850
17.034411
16.054511
15.036464
16.017556
15.512705
14.750957
14.511943
15.158653
15.530586
15.626550
15.387535
15.315413
15.095472
15.745759
15.891790
15.896559
16.285777
16.792417
17.381907
16.756654
17.196536
17.060637
17.095804
15.591979
16.275644
15.999675
15.423894
15.128851
14.799833
14.302731
14.966726
14.701486
14.690757
14.529824
13.725758
14.080405
13.664961
13.168454
13.697743
13.512969
13.303757
##ZVALUE=285
1.293421
1.405478
1.216531
1.314878
1.421571
1.356602
1.404881
1.452565
1.266599
1.359582
1.482964
1.506805
1.408458
1.667738
1.601577
1.566410
1.672506
1.740456
1.630783
1.815557
1.946688
1.983643
2.236962
2.564788
8.502603
30.667782
102.408528
205.268860
413.079858
624.031425
845.480561
1015.783548
1015.783548
1015.783548
1015.783548
969.590545
749.828815
459.537506
285.181999
134.088993
72.124004
35.901666
34.679770
51.625967
70.132613
98.225474
116.135478
132.926702
140.485764
138.349533
129.831433
106.527805
88.091493
63.680410
46.164989
30.746460
23.161769
17.246604
14.816523
13.382435
12.906790
13.026595
12.948513
13.581514
13.640523
13.606548
13.790727
14.262795
14.490485
14.719963
14.826655
15.137792
16.014576
16.413927
16.049743
15.554428
15.904903
15.841722
15.545487
15.437603
15.424490
14.861822
15.050769
14.639497
14.566779
14.276505
13.756752
13.776422
13.519526
13.445616
13.100505
12.914538
13.614893
13.429523
12.709498
13.228655
##ZVALUE=290
1.000762
1.082420
0.982881
1.202822
1.099706
1.292825
1.212955
1.262426
1.318455
1.282692
1.192689
1.449585
1.228452
1.395941
1.447797
1.297593
1.256466
1.380444
1.303554
1.505613
1.621842
1.638532
1.821518
1.896620
1.966953
2.450943
3.429651
12.916923
61.439872
138.458610
253.301859
499.825478
740.389824
1014.393568
1015.668511
1015.668511
1015.668511
1015.668511
912.698507
606.953502
405.326486
202.308893
108.232498
42.562485
26.782751
33.177733
46.702623
66.682696
84.713697
109.069943
124.499798
134.964585
133.746862
120.615959
103.460550
79.575777
60.848594
41.779876
30.024648
20.417571
15.145540
12.438893
11.541843
11.563897
11.588931
11.847615
12.375712
11.978745
12.644529
13.138652
13.197660
13.499856
13.893843
13.777614
14.181733
13.882518
14.295578
13.985634
14.052987
13.680458
13.590455
14.151931
13.607740
13.609529
13.747811
13.609529
13.214946
13.112426
12.999773
12.684464
12.881756
12.477636
12.159944
12.179613
12.213588
11.850595
##ZVALUE=295
1.230836
1.146793
1.291633
1.236796
1.286864
1.240969
1.109838
1.237988
1.384616
1.391768
1.481771
1.366735
1.503825
1.475811
1.377463
1.592636
1.605749
1.640916
1.577735
1.419783
1.604557
1.779795
1.627803
1.930594
2.035499
2.191663
2.219677
2.240539
2.760887
5.484819
21.350980
90.418458
196.942687
434.998870
666.745901
986.407995
1015.853882
1015.853882
1015.853882
1015.853882
1015.853882
738.080740
505.738854
264.912844
145.119429
54.223537
28.412938
21.225810
27.769804
43.747425
58.906674
82.169771
98.515749
119.405985
125.168562
123.444796
113.957524
96.883774
79.487562
56.404471
40.885806
26.716590
19.148588
13.501644
11.033416
10.464787
10.072589
10.535717
10.845661
11.212826
11.707544
11.934638
12.485981
12.931824
13.044477
12.948513
13.007522
13.211966
13.291836
13.331771
12.923479
13.117790
13.128519
12.777448
12.861490
12.844801
11.954904
12.221932
13.076663
12.080669
12.170672
12.115836
12.372732
11.742711
11.896491
11.836886
##ZVALUE=300
1.203418
1.251698
1.067519
1.133680
1.300573
1.089573
1.251698
1.236796
1.003742
1.105666
1.366735
1.061559
1.266599
1.203418
1.294613
1.281500
1.263618
1.386404
1.708865
1.457930
1.638532
1.468658
1.494884
1.662970
1.598597
1.606941
1.905560
1.988411
2.287626
2.522469
2.439618
2.888441
12.819767
48.731565
163.315535
304.026604
569.321513
824.951530
1015.788913
1015.788913
1015.788913
1015.788913
1015.788913
928.058624
603.490472
389.307737
195.572972
103.443861
37.223697
19.183755
17.979741
23.826957
37.396550
51.725507
73.072910
91.282725
110.218525
117.285848
116.714835
110.957623
93.357563
76.056719
54.535866
40.735602
26.915669
19.393563
13.545752
11.291504
10.512471
10.539889
11.021495
10.894537
11.057854
11.645555
11.999607
11.871457
11.818409
12.499690
12.531877
12.127757
12.488961
12.120605
12.386441
12.447834
12.706518
12.418628
12.289882
11.963844
12.364984
12.008548
12.201667
11.999607
11.937618
11.889935
11.695623
11.596680
##ZVALUE=305
1.134872
1.169443
1.070499
1.213551
1.059771
1.061559
1.040697
1.054406
1.261830
1.252890
1.212955
1.283884
1.052618
1.238585
1.311898
1.298785
1.282692
1.144409
1.252890
1.440644
1.257658
1.407862
1.594424
1.504421
1.505613
1.467466
1.721978
1.779795
1.708865
1.910925
2.111793
2.136827
2.438426
2.668500
5.827546
37.302971
100.914836
264.550447
453.353524
773.411989
996.335745
1015.788913
1015.788913
1015.788913
1015.788913
986.220837
759.863853
479.688644
297.930837
131.842494
64.250827
22.277832
13.867617
16.091466
22.435784
36.189556
50.034523
71.062446
87.596774
103.230476
111.629963
111.152530
104.657412
88.437796
73.007941
53.375959
40.271878
25.820732
19.024611
13.738871
11.640787
11.010766
11.615753
11.273623
12.113452
11.871457
11.692643
11.934638
12.115836
12.454987
12.227893
12.653470
12.383461
12.811422
12.801886
12.798905
12.590885
12.456775
12.350678
12.259483
12.051463
12.467504
12.071729
11.776686
11.933446
11.867881
##ZVALUE=310
1.020432
0.882745
1.054406
1.116991
1.005530
1.123548
1.230836
1.061559
1.172423
1.109838
1.046658
1.055598
1.305938
1.235604
1.368523
1.101494
1.213551
1.370907
1.286864
1.291633
1.276731
1.440644
1.348853
1.160502
1.415610
1.460910
1.605749
1.757741
1.667738
1.704693
1.560450
1.688600
2.071857
1.943707
2.244711
2.615452
3.537536
13.033748
72.146654
159.081817
352.545977
555.830598
879.084468
1015.788913
1015.788913
1015.788913
1015.788913
1015.788913
917.320848
667.781830
384.168625
228.241682
92.938542
43.350458
15.729666
11.780858
14.501810
20.046830
30.911565
43.093562
63.991547
78.487992
95.734000
103.883743
107.004642
102.391839
87.376833
73.102713
53.224564
39.882660
26.961565
20.990968
15.882850
13.269782
12.682676
12.660623
12.170672
11.932850
12.397766
12.672544
12.540817
12.691617
12.789965
12.510419
13.069510
13.097525
12.991428
13.256669
13.034940
12.777448
13.132691
12.939572
12.168884
11.933446
12.122989
11.654496
##ZVALUE=315
0.974536
1.068711
0.987649
0.950694
1.086593
1.066923
1.053810
0.967979
0.912547
1.113415
1.055598
1.161695
1.042485
1.084805
1.140833
1.117587
1.182556
1.097918
1.082420
1.167655
1.018643
1.250505
1.313686
1.330972
1.280904
1.368523
1.299977
1.525879
1.453757
1.434684
1.582503
1.695752
1.694560
1.687407
1.905560
2.234578
2.297759
2.329946
2.607703
5.625486
36.290884
98.743439
259.817839
440.366864
765.135884
997.636914
1015.744805
1015.744805
1015.744805
1015.744805
1015.744805
823.636651
506.653786
315.430760
140.963793
66.004992
19.642711
11.524558
10.923743
13.147593
19.659996
28.020740
42.573810
56.740642
76.708794
87.212920
99.022985
101.748705
93.955994
83.919764
67.128539
54.378510
39.543509
29.064417
20.484924
16.679764
13.770461
13.297796
12.857914
12.266636
13.105869
12.905598
13.327599
12.843609
13.046861
13.277531
12.970567
13.111830
12.991428
12.895465
12.859702
12.398958
12.677908
12.551546
12.600422
12.244582
##ZVALUE=320
1.011491
1.077652
0.998974
1.097918
1.125932
0.851750
0.947714
0.931621
0.885725
1.028776
1.140833
1.088977
1.221895
1.220703
1.188517
1.283884
1.138449
1.106858
1.456738
1.100898
1.215935
1.116991
1.206994
1.206994
1.128912
1.263618
1.445413
1.364946
1.381636
1.355410
1.346469
1.575947
1.539588
1.513958
1.676679
1.828671
1.711845
1.891851
2.196431
2.310872
2.714992
3.537536
13.342500
69.208741
158.937573
365.238786
581.550598
906.324983
1015.788913
1015.788913
1015.788913
1015.788913
1015.788913
949.638486
686.082840
373.086929
208.123922
87.320805
39.393902
13.656616
9.973645
10.488629
12.768507
17.976761
25.209785
39.376616
52.883625
71.089864
83.146691
95.301867
96.546412
92.187524
83.054900
67.061782
54.172873
37.797689
29.425621
20.813942
16.530752
14.235973
13.794899
13.219714
13.240576
13.325810
13.799667
13.409853
13.503432
13.402700
13.151765
13.306737
13.035536
13.138652
12.536645
13.004541
12.998581
12.698770
##ZVALUE=325
1.042485
1.008511
1.056790
0.994802
0.877976
1.066923
1.129508
1.073480
1.120567
0.945926
0.961423
1.124740
1.146793
1.128912
1.082420
1.031756
0.910759
1.224875
1.073480
1.299977
1.320839
1.206994
1.110435
1.287460
1.254678
1.253486
1.218915
1.223683
1.281500
1.272559
1.381636
1.221895
1.425743
1.459718
1.672506
1.628995
1.530647
1.704693
1.765490
1.982450
2.197623
2.227426
2.379417
2.846718
7.050633
45.905709
113.760829
271.830559
459.773540
793.843865
1015.302539
1015.796661
1015.796661
1015.796661
1015.796661
1009.605527
774.492621
468.264818
276.894569
117.872953
55.106878
18.546581
10.753870
9.688735
10.374784
13.894439
17.584562
26.516914
37.681460
54.943562
67.157745
82.159638
88.615417
91.125965
87.147951
76.243877
63.737631
48.797727
37.450790
26.443601
20.631552
16.083717
14.573932
13.953447
13.583899
13.437867
13.404489
13.417602
13.101697
13.012886
13.194680
13.147593
12.890697
12.987852
12.885928
12.893677
##ZVALUE=330
1.010895
1.016855
1.096725
1.080632
0.932813
0.886917
0.899434
0.806451
0.995994
1.078844
1.048446
1.031756
1.046658
1.036525
0.975728
1.081824
1.165867
1.049638
1.043677
0.995994
1.061559
1.095533
1.117587
1.249909
1.196861
1.250505
1.283884
1.294613
1.227856
1.259446
1.302958
1.228452
1.329780
1.348853
1.350641
1.492500
1.479983
1.615882
1.666546
1.431704
1.724958
1.854897
2.070665
2.136827
2.262592
2.565980
3.764629
21.099448
63.278675
184.610486
334.287882
622.427464
873.311758
1015.788913
1015.788913
1015.788913
1015.788913
1015.788913
931.942463
591.244698
368.235707
165.517926
81.828833
30.184984
13.724566
9.762645
9.432435
10.707974
13.127923
18.299818
25.426745
37.453771
48.770905
65.352917
76.184869
85.036755
86.495876
81.729889
72.624683
59.544444
48.532486
34.802556
26.803613
20.378828
17.163754
14.668703
13.712645
13.572574
13.471842
13.056993
13.363957
12.780428
12.749434
12.526512
12.595654
12.719631
##ZVALUE=335
0.974536
1.067519
0.836849
0.966787
0.840425
0.973940
1.110435
0.900626
1.065731
1.095533
0.940561
1.011491
0.946522
1.012683
0.956655
0.921488
1.045465
0.993609
1.024604
1.031756
1.043677
1.140833
0.945926
1.124740
1.002550
1.098514
1.153946
1.141429
1.219511
1.328588
1.087785
1.160502
1.221895
1.352429
1.323819
1.388788
1.417994
1.465678
1.403689
1.505613
1.457930
1.508594
1.786947
1.661777
1.833439
1.752973
2.209544
2.211928
2.559423
9.363890
34.297705
121.248960
238.988996
488.692522
727.949739
1015.242934
1015.787721
1015.787721
1015.787721
1015.787721
993.755460
681.591034
456.233621
233.318806
121.793747
41.404963
18.525720
10.380745
9.766817
10.205507
11.139512
13.747811
17.053485
25.478601
34.340620
48.619509
59.406757
72.248578
78.317523
80.286860
77.488422
66.115856
57.668686
45.733452
36.724806
26.513934
21.391511
16.312599
14.788508
13.312697
12.853742
12.362599
12.503862
12.247562
12.340546
11.759996
##ZVALUE=340
0.873804
0.830889
0.868440
1.100898
0.819564
0.994802
0.897646
0.983477
0.868440
1.061559
0.901818
0.866652
0.790954
1.106858
0.822544
1.068711
1.113415
1.076460
1.041889
1.218915
1.082420
1.084805
1.073480
0.906587
0.909567
1.142621
0.915527
1.100898
1.128912
1.091957
1.058578
1.191497
1.114607
1.255870
1.205802
1.223683
1.242757
1.238585
1.307726
1.343489
1.317859
1.539588
1.446605
1.665950
1.638532
1.805425
1.724958
1.820922
2.060533
2.196431
2.319813
4.437566
17.560720
79.204440
178.650618
407.838821
639.915466
949.661732
1015.788913
1015.788913
1015.788913
1015.788913
1015.788913
854.956508
601.555705
330.365896
188.610554
80.791712
33.746958
12.237430
10.179877
10.100603
10.160804
11.459589
13.353825
17.939806
24.141669
34.099817
44.359565
57.301521
67.139864
73.798895
74.991584
71.282983
65.172911
53.771734
44.750571
33.943653
26.669502
20.131469
16.344786
13.617873
12.650490
11.975765
11.849999
11.489987
##ZVALUE=345
0.872612
0.902414
0.763535
1.060963
0.956655
0.897646
0.864863
1.027584
0.896454
0.855923
1.048446
0.915527
0.984669
0.856519
0.969768
0.906587
0.747442
0.970960
1.002550
1.027584
1.150966
0.917912
0.994802
1.008511
1.089573
1.053810
1.126528
1.139641
1.017451
1.144409
1.205802
1.119971
1.104474
1.090765
1.182556
1.187921
1.277924
1.190901
1.394749
1.164675
1.455545
1.434684
1.368523
1.459718
1.469851
1.405478
1.498461
1.511574
1.714826
1.781583
2.097487
2.182722
2.503991
2.790689
7.575750
47.277808
121.793747
285.908580
469.607711
775.637031
992.120504
1015.788913
1015.788913
1015.788913
1015.788913
896.613002
658.838749
384.251475
213.624835
83.910823
37.697554
13.883710
10.316968
9.826422
9.451509
9.806752
10.474920
12.250543
15.718937
22.869706
30.815601
42.685866
51.669478
61.188936
67.158937
69.675446
67.842603
60.769916
53.967834
42.723417
34.258962
24.467707
19.945502
15.190840
13.008714
11.841655
##ZVALUE=350
0.928640
0.888705
0.913739
1.092553
0.870824
1.048446
1.051426
0.930429
0.840425
0.985861
0.980496
1.063943
0.932813
0.876784
1.072884
0.894666
0.902414
1.060963
0.927448
0.903606
0.990629
1.160502
1.148582
0.954866
0.944734
1.067519
1.094937
1.049638
0.990629
1.156926
0.980496
0.980496
1.050830
0.965595
1.141429
1.256466
1.191497
1.170635
1.286864
1.337528
1.389980
1.227856
1.262426
1.280904
1.258850
1.445413
1.422763
1.536608
1.538992
1.682639
1.601577
1.751781
1.790524
1.936555
2.305508
2.487898
3.815889
23.683906
71.357489
201.526880
352.588892
627.129674
847.696662
1015.788913
1015.788913
1015.788913
1015.788913
1015.788913
843.155980
509.205461
323.661566
157.188773
71.356893
20.180941
10.268688
8.871555
8.465648
8.507967
8.658767
9.539723
11.026859
15.346408
19.662976
27.391911
34.933686
46.625733
54.080486
61.198473
62.855482
61.988831
57.906508
49.111843
41.032434
31.388998
25.056601
18.428564
##ZVALUE=355
0.936985
0.952482
0.963807
0.930429
0.882745
1.159906
0.924468
1.036525
1.011491
1.050830
1.000762
0.943542
0.893474
0.924468
0.989437
0.960827
0.984669
0.934601
0.931621
0.993609
0.908971
1.164675
0.931621
1.018643
1.194477
1.073480
1.097918
1.185536
1.101494
0.977516
0.956655
1.112819
1.070499
1.030564
1.193881
1.115799
1.069903
1.187921
1.156926
1.165867
1.273751
1.224875
1.352429
1.336932
1.243949
1.441836
1.337528
1.396537
1.553893
1.399517
1.481771
1.699924
1.676679
1.765490
1.670718
1.963973
2.137423
2.153516
2.752542
11.119843
38.812757
130.884647
253.300667
486.213565
711.944699
995.604992
1015.788913
1015.788913
1015.788913
1015.788913
839.934945
548.519492
345.903635
150.612593
71.702600
22.160411
10.926723
8.211732
8.205771
8.067489
8.038878
8.285642
9.054542
10.683537
12.731552
17.805696
23.414493
32.547712
39.920807
48.833489
54.331422
58.116913
57.013631
52.302480
47.581792
38.675666
##ZVALUE=360
0.924468
0.846982
0.985861
0.952482
0.918508
0.942945
0.863671
0.786781
0.884533
1.118779
1.017451
0.908971
0.924468
0.831485
0.879765
0.914931
0.886917
1.022816
1.099706
0.992417
0.933409
0.891685
0.933409
0.906587
1.094937
0.964999
0.971556
1.046658
1.110435
1.115799
1.014471
1.037717
1.099706
1.135468
1.145601
1.205802
1.204610
1.163483
1.056790
1.208782
1.263618
1.488924
1.385808
1.292825
1.262426
1.240969
1.293421
1.343489
1.302958
1.378655
1.498461
1.487732
1.610518
1.505613
1.752973
1.644492
1.680851
2.033710
2.173781
2.365708
2.536774
4.768968
17.914772
74.813962
167.626739
380.469561
589.188933
880.790949
1015.767455
1015.767455
1015.767455
1015.767455
949.556828
644.608736
427.195430
209.700465
109.001994
39.894581
16.182661
8.158684
7.790923
7.415414
7.530451
7.546544
7.774830
8.391738
8.881688
11.520982
14.215708
19.914508
25.968552
34.949780
41.135550
48.280954
51.272511
52.696466
##ZVALUE=365
0.921488
0.941753
0.962615
0.846982
0.795722
0.892878
0.946522
0.895858
0.837445
0.942945
0.989437
0.998974
0.938773
0.919700
0.891685
1.052618
1.008511
0.941753
0.886917
0.959635
0.965595
0.945926
0.918508
1.122952
0.950694
1.136661
0.985861
1.043677
0.936985
1.136661
1.043677
1.067519
1.037717
0.944734
1.118779
1.069903
0.971556
1.022816
1.214743
1.066923
1.286864
1.209974
1.075864
1.232624
1.064539
1.282692
1.246929
1.304746
1.245737
1.418591
1.331568
1.391768
1.495481
1.555681
1.494884
1.641512
1.692772
1.749992
1.788735
1.900792
2.130866
2.295971
2.523661
2.953410
7.269979
41.020513
108.130574
271.883607
455.353856
740.637779
960.514545
1015.788913
1015.788913
1015.788913
1014.266610
762.373805
529.741645
282.053947
151.921511
54.753423
23.051500
8.484721
7.294416
7.127523
7.206798
6.909966
6.905794
7.021427
7.565618
8.206964
9.527802
12.751818
16.419888
22.195578
28.315783
36.145449
##ZVALUE=370
0.831485
0.759959
0.943542
0.849962
0.841618
0.922680
0.868440
0.884533
0.989437
0.770688
1.009703
1.012683
0.951886
0.910759
0.929832
0.694990
0.880957
1.064539
0.849962
0.944734
0.917912
0.901818
0.999570
1.080632
0.949502
0.918508
0.986457
1.001954
0.964999
0.996590
1.055598
0.985861
0.991821
1.122952
0.890493
0.981688
1.126528
1.125932
1.069903
1.006722
0.925660
1.155734
1.100898
1.196861
1.224875
0.908971
1.214743
1.059771
1.035929
1.207590
1.185536
1.277924
1.298785
1.262426
1.400709
1.394749
1.455545
1.312494
1.573563
1.509786
1.641512
1.897812
1.806617
2.099872
2.059937
2.492666
3.992915
21.665692
67.932010
196.283460
341.216922
592.937469
810.706019
1015.788913
1015.788913
1015.788913
1015.788913
841.900706
627.031922
348.285437
196.877718
78.280568
35.379529
12.349486
7.294416
6.509423
6.493926
6.458759
6.279945
6.293654
6.378889
6.654859
7.053614
8.774996
10.732412
14.674664
##ZVALUE=375
0.967979
0.898838
0.934601
0.654459
0.934601
0.938773
0.947714
0.776649
0.912547
0.939965
0.986457
0.865459
0.805855
0.952482
0.938773
0.810623
0.974536
0.874996
0.841618
0.820756
0.880957
0.917912
0.903606
0.933409
1.016855
0.849962
0.941753
0.986457
0.871420
0.875592
1.020432
0.902414
0.934601
0.982881
0.901818
0.955462
0.938773
0.978708
1.061559
1.131892
0.991821
0.972748
1.136661
1.116991
1.089573
1.113415
1.241565
1.158714
1.129508
1.108646
1.127720
1.312494
1.220703
1.148582
1.146793
1.334548
1.279712
1.323819
1.201630
1.311898
1.426935
1.526475
1.668930
1.715422
1.651645
1.779795
1.934767
2.053976
2.644658
10.978580
37.978888
121.827722
238.831639
479.530692
692.650676
966.645479
1015.788913
1015.788913
1015.788913
922.095776
710.944533
432.692766
272.713900
134.383440
66.136718
21.092892
9.093881
6.500483
5.984902
5.869865
5.823970
6.062984
5.798936
6.149411
5.956888
6.575584
##ZVALUE=380
0.797510
0.863671
0.890493
0.860691
0.897646
1.005530
0.649691
0.751615
0.752807
0.725985
0.790954
0.837445
0.844598
0.901818
0.850558
0.880957
0.819564
0.853539
0.932813
0.766516
0.791550
0.981688
0.847578
0.984669
0.988841
0.904799
0.884533
0.962615
0.854731
0.964999
0.992417
0.905991
0.771880
1.090765
0.949502
0.923872
1.015663
1.080632
1.059771
1.159906
1.078844
0.980496
0.905991
0.971556
1.077652
1.208782
1.108646
1.094937
1.030564
1.038909
1.064539
1.126528
1.106858
1.153946
1.090765
1.089573
1.075864
1.198649
1.251698
1.407862
1.413822
1.280904
1.476407
1.500845
1.546741
1.653433
1.566410
1.778603
2.012849
2.334714
2.516508
5.497932
21.060705
89.129806
189.662576
404.284596
612.389445
900.174975
1015.788913
1015.788913
1015.788913
1014.561653
840.628743
559.767485
370.901823
180.934668
92.195868
32.055974
13.440847
6.412864
5.894899
5.559921
5.396605
5.646944
5.441904
5.610585
##ZVALUE=385
0.734925
0.793934
0.810623
0.942945
0.778437
0.825524
0.815988
0.807643
0.871420
0.728965
0.804663
0.785589
0.859499
0.756979
0.815988
0.786781
0.801682
0.865459
0.764728
0.835657
0.849962
0.794530
0.905991
0.920892
0.840425
1.006722
0.830889
0.842810
0.929832
1.013875
0.891685
1.006722
0.992417
0.888705
0.975728
1.042485
0.905991
0.899434
0.833869
0.831485
1.004934
0.903606
1.088977
1.066923
0.946522
1.000762
0.998974
1.033545
1.156926
0.948906
1.097918
0.997782
1.239777
1.155734
1.068711
1.181960
1.195669
1.223683
1.214743
1.207590
1.284480
1.263618
1.254678
1.328588
1.320839
1.507998
1.454949
1.574755
1.681447
1.809597
1.913905
2.153516
2.380610
3.126860
10.198951
52.726865
124.069452
285.004377
471.890569
762.923956
963.999629
1015.788913
1015.788913
1015.788913
955.075622
695.488453
488.533974
261.168480
148.754716
61.115623
24.520755
7.472634
5.438924
5.063415
5.137920
5.145669
##ZVALUE=390
0.831485
0.596642
0.783801
0.843406
0.610948
0.649691
0.795722
0.551939
0.729561
0.870824
0.800490
0.798702
0.990629
0.918508
0.828505
0.928640
0.688434
0.817776
0.703931
0.794530
0.839829
0.765920
0.843406
0.842810
0.838637
1.012683
0.941753
1.015663
0.973940
0.886917
0.970960
1.026988
0.905991
0.954866
0.990629
0.868440
0.866652
0.943542
0.841618
0.925660
1.057982
0.967979
0.998974
0.947714
0.937581
0.986457
0.831485
1.116991
0.996590
1.062751
1.006722
0.855923
1.084805
1.059771
1.071692
1.023412
1.034737
1.067519
1.145601
1.158714
1.161695
1.309514
1.249909
1.295805
1.357794
1.436472
1.513958
1.669526
1.725554
1.728535
1.903772
2.081990
2.061725
2.056956
2.152920
2.298951
4.883409
30.064583
83.594918
223.824978
391.415954
675.828457
886.474848
1015.790701
1015.790701
1015.790701
1015.790701
812.955499
614.608526
373.309851
221.870542
90.410709
42.285919
12.963414
6.402731
4.997849
##ZVALUE=395
0.718832
0.817776
0.948906
0.802875
0.825524
0.782609
0.651479
0.823736
0.953674
0.721812
0.775456
1.030564
0.855923
0.743866
0.796914
0.919700
0.824928
0.667572
0.849962
0.774860
0.801682
0.871420
0.763535
0.845790
0.786781
0.847578
0.902414
0.899434
0.895858
1.063943
0.990629
0.969768
1.002550
1.002550
1.020432
0.850558
1.162887
1.072884
1.038909
1.059771
0.899434
1.115799
1.096725
0.920892
0.965595
0.944734
1.167655
1.007915
1.167655
0.999570
1.098514
0.906587
1.166463
1.067519
1.247525
1.132488
0.984669
1.190901
1.203418
1.334548
1.280904
1.173615
1.281500
1.297593
1.215935
1.489520
1.550913
1.461506
1.675487
1.696944
1.823902
1.753569
1.757741
1.873970
1.858473
1.885891
2.190471
2.203584
3.017783
17.089844
56.809783
173.082948
310.763717
557.422638
782.616735
1015.796661
1015.796661
1015.796661
1015.796661
1015.796661
829.679966
513.503551
317.330956
144.609809
70.056915
20.735860
##ZVALUE=400
0.687838
0.886917
0.791550
0.935793
0.861883
0.915527
0.848770
0.868440
0.835657
0.833869
0.919700
0.910759
0.854731
0.899434
0.818968
0.999570
0.816584
0.867844
0.889897
0.850558
0.891685
0.892878
0.934601
0.752807
1.012683
1.155734
0.959635
0.900626
0.980496
1.102686
0.984669
1.013875
0.941753
1.056790
1.162887
1.074672
1.058578
1.096725
1.014471
1.092553
1.059771
1.168847
1.123548
1.014471
1.148582
1.222491
1.045465
0.994802
0.990629
0.909567
1.155734
1.040697
1.134872
1.085997
1.043677
1.214743
1.134872
1.083612
1.170635
1.248717
1.280904
1.223683
1.202822
1.299977
1.197457
1.347661
1.388788
1.715422
1.563430
1.682639
1.865625
1.832843
1.801848
1.791716
1.780987
1.644492
1.651645
1.747608
2.034903
2.091527
2.306700
8.186698
29.768944
105.547905
208.509564
428.982973
638.414621
919.587016
1015.837789
1015.837789
1015.837789
1015.837789
882.488489
638.152957
445.143580
234.945416
##END
