##TITLE=FQP00301
##FORMAT=SPECTACLE-ASCII V-1.2
##DATA TYPE=ULTRAVIOLET SPECTRUM
##SECOND TYPE=ULTRAVIOLET SPECTRUM
##DATE=11/28/17
##TIME=16:28:53
##SPECTROMETER/DATA SYSTEM=SPECTACLE
##XUNITS=NM EM
##YUNITS=ENERGY
##YFACTOR=1
##FIRSTX=220
##LASTX=410
##NPOINTS=96
##3DDATA=Equidistant
##ZUNITS=NM EX
##FIRSTZ=210
##LASTZ=400
##ZPOINTS=39
##XYDATA=(Y..Y)
##ZVALUE=210
15.467405
12.708902
11.268854
8.467436
7.713437
8.198619
10.145903
10.301471
9.819865
11.154413
12.309551
13.039708
14.612675
15.291572
18.278956
19.013882
20.202994
21.364689
22.488832
24.640560
24.859905
27.440786
29.024482
33.913851
36.101937
37.699938
40.801764
42.074919
43.311715
43.317676
47.342777
48.308969
49.366951
50.137639
50.032735
51.982999
52.381754
55.877566
55.430532
57.506561
58.399439
60.622692
62.403679
59.681535
65.004826
62.854886
64.923763
68.186522
71.722865
69.194436
73.193908
72.987676
73.658824
74.767470
78.369975
81.029534
76.341629
78.766942
80.341697
79.117417
80.730915
80.775619
86.225867
84.117651
88.789463
87.360740
96.436739
99.124908
116.764903
138.346553
166.589618
195.192695
245.484710
282.274485
324.834585
358.650684
394.548774
416.525602
427.860618
423.824787
398.811698
368.081927
314.553976
267.742872
208.661556
171.477795
127.283931
102.043748
82.871914
80.228448
72.399974
72.526932
72.525740
72.467923
76.665878
75.819492
##ZVALUE=215
59.105754
60.978532
54.732561
43.516755
30.816793
21.499991
16.931891
13.645887
13.313890
14.831424
14.212728
15.880466
14.778972
14.209747
15.489459
16.425848
17.524958
18.052459
18.985868
20.328760
23.949742
21.958947
25.097728
28.170943
30.346513
31.902790
31.953454
31.808615
36.023855
38.305521
38.156509
38.724542
40.998459
44.468641
41.860938
43.323636
43.867826
45.961738
44.410825
44.088960
46.125650
47.224760
45.919418
48.988461
51.319599
52.052736
53.122640
52.860975
53.816438
56.261420
54.933429
56.352615
55.892467
58.392882
57.431459
57.413578
56.141615
58.696866
60.407519
59.124827
59.231520
61.301589
60.520768
61.322451
63.249469
65.918565
68.024993
75.684786
81.370473
99.604726
117.136836
138.771534
162.867904
193.599463
213.205814
243.339539
259.461999
266.523957
277.692676
259.869695
254.276991
230.113864
203.243494
163.291693
139.768720
111.391544
90.487003
73.408484
67.019463
60.598850
53.812861
54.236650
53.893924
52.765608
51.783919
51.385760
##ZVALUE=220
172.579885
170.861483
192.421675
178.935528
157.159567
120.922923
89.662671
53.312778
34.445524
24.166703
21.734834
21.285415
22.930503
21.685958
19.796491
18.521547
15.905499
16.345978
16.672611
18.153787
18.056631
17.801523
22.218823
20.832419
23.434758
22.406578
24.712682
26.825666
28.151870
29.765964
31.368732
31.551719
32.397509
32.756925
34.095645
34.016967
35.438538
34.230947
36.486983
35.989881
36.773682
36.272407
39.246678
37.720799
37.538409
38.979650
39.742589
41.291714
38.162470
39.718747
40.907860
42.838454
42.331815
40.988922
42.436719
40.197968
41.875839
42.455792
41.576624
43.100715
46.242476
43.069720
42.788982
43.258667
45.575500
44.998527
47.330856
51.380992
55.739880
65.639615
77.364445
91.903806
102.810860
122.116804
136.586428
150.969625
154.502988
159.588456
164.087415
161.907673
159.852505
142.611861
128.811002
110.373497
92.000961
73.675513
59.658885
49.563646
43.216944
40.642619
36.900640
37.513971
36.418438
37.047863
35.632849
36.472678
##ZVALUE=225
215.506554
224.530697
292.907953
362.507701
383.780003
363.571644
304.467678
227.699876
154.387951
102.804899
59.281588
37.490726
34.436584
35.137534
35.029650
32.590628
29.821992
24.092793
21.876693
19.357800
16.435981
15.182495
15.637875
16.779900
16.803741
16.902685
18.800497
20.961761
21.783710
22.316575
22.795796
23.101568
26.304722
25.502443
25.371909
25.417805
26.785731
28.574467
28.277636
27.770996
27.629733
26.922822
29.760599
31.228662
31.852722
31.337738
31.435490
30.184984
32.553673
31.953454
30.509830
32.419562
34.442544
31.348467
32.222867
32.813549
33.296943
35.037994
32.137632
34.334660
34.185648
35.371780
35.824776
36.461949
34.372807
38.152933
37.810802
41.677952
44.669509
47.003627
52.874684
60.232878
69.329739
78.874826
85.286498
89.365840
91.151595
92.037916
91.987848
90.393424
87.841749
75.987577
69.902539
60.250759
51.700473
45.230985
40.698647
36.468506
33.500791
31.031966
31.790733
28.583407
30.262470
30.880570
30.347705
28.817654
##ZVALUE=230
127.397776
143.762827
224.349499
368.119478
470.557809
569.878817
587.454438
547.059774
471.807718
374.544859
230.656862
142.701864
83.801746
60.782433
54.858923
56.609511
55.869818
54.306984
49.441457
40.911436
33.932924
24.665594
19.356608
15.823841
14.064908
13.695955
13.836622
15.021563
15.574694
16.326904
17.376542
18.798709
18.376708
17.591715
19.216537
18.720627
19.359589
20.731688
19.812584
20.745993
20.780563
22.418499
22.175908
24.520755
25.034547
23.873448
24.421811
26.269555
27.867556
28.332472
27.631521
29.050708
27.820468
31.589866
31.305552
30.032992
31.956434
32.772422
32.690763
31.979680
32.321811
31.208992
34.277439
33.139586
30.556917
33.023953
33.125877
36.710501
38.468838
40.256977
43.389797
48.389435
55.338740
58.073997
58.010817
61.919689
62.222481
65.417886
63.925982
62.547922
56.780577
52.693486
46.691895
43.290854
37.936568
36.706924
33.722520
30.719638
30.145645
29.039979
29.022694
30.367970
28.883815
29.839873
28.005838
27.022958
##ZVALUE=235
30.621886
36.972761
74.357986
173.949599
293.876529
457.315445
586.052537
711.966753
748.796463
719.698668
579.493642
451.148748
278.780460
188.671947
117.972493
89.971423
75.816512
76.094866
84.754825
82.693696
76.441765
63.801408
55.935979
39.788485
28.734803
20.444989
16.011596
13.851523
11.922717
11.072755
12.432933
12.516975
12.979507
13.635755
12.183785
14.861822
13.517737
14.663935
15.883446
16.414523
18.344522
18.157959
20.173788
22.932887
21.348596
23.292899
24.552941
29.176474
30.057430
33.161640
32.711625
33.578873
34.072995
32.318830
36.104918
36.566854
38.348436
36.922693
39.262772
38.522482
39.412975
40.361881
39.797425
39.754510
39.765835
41.666627
41.490793
42.591691
42.858720
44.533610
46.483874
49.774647
51.883459
56.367517
58.256984
58.258772
59.869885
56.500435
58.019757
54.837465
54.230690
48.236847
49.021840
43.673515
43.780804
40.392876
40.220618
37.844777
39.994717
37.146807
37.705898
34.774542
35.716891
35.125613
32.610893
32.736659
##ZVALUE=240
3.366470
3.885627
8.487701
39.230585
96.614957
211.196542
348.639488
573.127866
749.197602
883.813500
955.779552
892.651677
741.824508
590.568781
403.589010
274.554491
160.943866
114.360452
99.848509
98.204613
104.199648
113.586783
111.947656
99.967718
82.889795
64.585805
48.137903
31.408668
24.292469
16.985536
13.858676
12.025833
12.836456
12.865663
13.383627
14.807582
13.308525
15.015602
17.330647
17.995834
20.131469
20.522475
20.552874
24.502873
26.544929
30.223727
35.437942
36.491752
38.785934
37.489533
40.924549
43.799877
44.275522
46.773553
46.810508
46.667457
47.144890
50.682425
52.263737
50.113797
51.192641
51.721931
50.525665
47.825575
50.518513
50.718784
49.936771
51.806569
53.315759
55.738688
56.909919
59.122443
63.756704
63.277483
63.483715
63.001513
66.795945
61.191916
59.950948
60.685873
57.807565
56.645870
53.203702
50.447583
47.655702
46.730638
47.289729
46.248436
45.700669
43.890476
42.894483
43.480992
42.496920
39.993525
39.811730
39.998889
##ZVALUE=245
3.076792
2.436638
3.484488
3.493428
6.534457
31.581521
79.245567
214.620829
368.186831
601.436496
801.878572
1007.909775
1015.915871
1015.915871
954.669714
768.781900
598.573685
429.854989
261.407495
172.943473
117.383599
100.758672
109.431744
119.162798
128.852725
120.846629
107.879639
93.731880
72.545409
55.629611
36.769509
26.401877
20.273924
15.250444
14.763474
15.204549
15.166998
15.601516
16.300678
18.304586
21.486878
25.115609
26.668906
29.437542
31.866431
38.528442
36.958456
40.140748
45.165420
47.301650
48.001409
50.995946
52.398443
54.157972
55.537820
53.924918
52.603483
56.810975
56.086779
56.203604
56.009889
56.056976
54.842830
55.990815
55.248737
55.448413
54.356456
54.191947
55.103898
56.497455
56.668520
58.786869
59.854984
62.756538
63.583851
64.666867
64.986944
63.476562
60.816407
61.217546
58.741570
57.811737
54.506660
52.332878
50.270557
50.369501
48.009753
48.473477
46.189427
46.771765
43.061972
42.401552
44.159889
42.922497
40.940642
43.113828
##ZVALUE=250
2.585649
2.360940
2.623796
2.897978
2.514720
2.963543
4.184842
19.466877
63.099861
146.949887
352.953672
590.601563
926.994681
1015.788913
1015.788913
1015.788913
1015.788913
1015.788913
1048.160791
753.803849
513.985753
277.161002
177.668929
106.198788
99.770427
118.517876
129.335523
131.470561
130.161643
119.353533
101.788640
81.760883
60.362816
40.298700
30.130744
20.247698
18.248558
18.016696
16.902685
18.641949
22.076964
24.809837
26.915669
30.524731
35.689473
37.648678
40.138960
45.219660
47.345757
48.549771
52.394867
52.428842
55.063963
53.959489
56.220889
58.356524
59.085488
56.146979
52.763820
55.220723
55.142641
54.877996
53.591728
52.534938
50.229430
51.980615
49.929619
51.452518
49.861670
51.627755
53.843856
53.025484
54.795742
56.303740
56.263804
59.451461
59.156418
57.557821
59.531927
55.690408
54.606795
51.561594
51.403642
48.571825
48.563480
45.977831
45.338869
42.597651
41.501522
42.289495
40.404797
39.688945
41.290522
40.885806
40.098429
40.289760
##ZVALUE=255
2.189875
2.421737
2.378821
2.739429
2.379417
2.558827
3.002882
2.974868
3.546476
9.038448
55.414438
143.588781
291.911960
594.756007
885.753036
1015.788913
1015.788913
1015.788913
1015.788913
1015.788913
1015.788913
1015.788913
700.792670
458.837748
237.180591
146.279931
99.024773
101.665854
119.895935
133.305788
141.682625
140.485764
128.970742
104.823709
84.164739
60.710907
44.742823
31.416416
25.177598
22.151470
21.976829
25.849938
26.762486
31.354427
32.150745
35.451651
36.253929
39.636493
41.589737
44.099689
46.808720
48.203468
48.041940
50.914884
51.158667
48.841834
48.953891
48.885942
49.295425
47.157407
48.793554
46.712756
46.894550
44.257641
44.584870
44.246912
43.894649
43.659806
44.469833
44.445992
44.264793
44.764876
46.557784
46.320558
47.858953
49.438477
48.541427
48.409700
47.136545
47.938824
45.014620
44.781566
42.080879
41.233897
41.662455
41.313767
41.662455
38.344860
39.059520
39.099455
38.536787
36.867857
36.780834
36.994815
36.978722
36.164522
##ZVALUE=260
1.705885
1.949668
2.201796
2.054572
2.339482
2.212524
2.228618
2.711415
2.775788
2.948642
3.430843
5.059838
19.633770
98.835826
227.376819
515.885949
800.531507
1015.788913
1015.788913
1015.788913
1015.788913
1015.788913
1015.788913
1015.788913
784.974694
533.743501
304.324627
177.060962
100.804567
88.339448
98.107457
123.953819
138.958693
149.244666
148.035884
133.063793
115.483999
87.127686
66.911578
47.302842
37.690997
29.715896
28.215647
27.669668
28.864741
31.313896
33.232570
33.993721
36.090612
38.903952
39.030910
38.108826
41.153431
40.893555
41.516423
39.696693
41.229725
41.160583
40.515661
39.379001
38.749576
37.976503
38.957000
37.469864
37.921667
36.455989
36.199689
35.884976
35.247803
37.519932
37.136674
38.050413
38.914680
39.450526
40.374994
41.291714
40.492415
38.620830
39.330721
38.883686
38.153529
37.814975
36.018491
36.644936
35.135746
35.859942
35.072565
34.381747
34.516454
33.870935
34.687519
32.747984
32.944679
32.893419
33.076406
32.804608
##ZVALUE=265
1.957417
1.887679
1.745820
2.091527
2.110600
2.328753
2.534986
2.229810
2.552867
2.567768
2.505779
2.955794
2.906919
4.257560
10.338426
72.059631
185.846686
443.173647
720.267892
1015.788913
1015.788913
1015.788913
1015.788913
1015.788913
1015.788913
1015.788913
863.490701
592.336655
315.869451
182.573795
108.059645
71.559548
80.906749
107.464790
128.462911
147.186518
152.484775
148.651004
136.323571
113.337636
92.872977
69.781542
54.630637
39.539933
33.624768
30.058622
29.603839
30.590892
30.079484
32.861829
33.794641
33.117533
33.318996
34.519434
32.632947
34.680963
33.586621
32.530427
33.404827
33.112764
32.205582
31.484962
31.564832
30.516982
30.417442
30.783415
30.440688
32.015443
32.847524
32.124519
32.460690
32.783747
32.972693
33.864975
34.336448
34.532547
33.725500
35.062432
32.965541
34.084916
32.828450
33.110976
31.247735
31.384826
30.895472
32.075644
31.707883
31.309724
30.450821
32.204986
29.424429
29.981732
29.899478
32.659769
30.959845
30.304790
##ZVALUE=270
1.782775
1.565814
1.887679
1.908541
1.936555
1.980662
2.162457
2.073646
2.018809
2.204776
2.355576
2.301931
2.845526
2.864599
2.831817
3.525615
4.991889
31.726956
107.294917
346.207023
641.744733
983.531475
1015.782952
1015.782952
1015.782952
1015.782952
1015.782952
1015.782952
989.586711
722.665787
476.956964
235.832930
131.234527
69.912672
63.011646
85.372925
105.282664
133.556724
146.720409
158.028007
154.336691
139.956474
120.078921
95.309615
74.683428
53.132772
43.376684
36.047697
31.827688
29.544830
29.863715
29.032826
30.337572
29.210448
29.875636
30.311942
30.372739
29.166937
28.609633
29.526949
29.442906
28.878450
28.606653
28.817654
28.543472
28.383732
28.732419
29.368997
29.493570
29.523969
29.920936
30.648708
31.594634
32.527447
31.314492
32.128692
31.561852
30.750632
31.616688
30.166507
29.427409
30.400753
29.452443
28.815866
29.509664
28.379560
28.746724
29.325485
29.793978
29.435754
28.518438
28.761625
27.231574
27.524829
28.016567
28.565526
##ZVALUE=275
1.766682
1.812577
1.791716
1.655817
1.648664
1.809597
1.826882
1.695752
1.691580
2.235770
1.966953
2.030730
2.199411
2.517700
2.193451
2.796650
3.219843
3.655553
3.865957
11.378527
58.935881
253.140926
508.303046
965.257883
1015.788913
1015.788913
1015.788913
1015.788913
1015.788913
1015.788913
1015.788913
840.529799
572.523475
299.538970
170.310736
82.668662
57.374835
61.842799
79.799891
107.561946
127.524734
148.496628
156.700611
154.599547
143.641829
118.657947
98.297000
72.251558
58.460832
44.917464
36.685467
31.990409
29.375553
29.113889
28.257966
28.610826
28.554797
29.709935
29.078722
29.454827
28.996468
27.814507
28.397441
28.328896
28.492808
29.089451
29.100776
27.662516
29.611588
29.153824
30.262470
30.840635
30.666590
31.802654
31.830668
31.776428
31.347871
32.266974
30.844808
30.975938
29.774904
29.563904
29.231906
29.064417
28.831959
28.530955
28.123856
28.460622
27.732849
27.924776
27.474761
27.264953
27.660728
27.354956
27.290583
27.074814
##ZVALUE=280
1.517534
1.757741
1.543760
1.598597
1.676679
1.585484
1.592636
1.551509
2.192855
1.909733
1.985431
2.021790
2.004504
2.160668
2.307892
2.484918
2.586842
2.849698
2.810955
3.192425
3.885627
5.310774
44.417977
157.932639
472.601652
789.941549
1015.802622
1015.802622
1015.802622
1015.802622
1015.802622
1015.802622
1015.802622
1015.802622
822.151899
458.195806
268.809795
115.592480
62.014461
47.927499
57.453513
83.612800
105.767846
131.497979
145.683885
154.966712
151.504874
136.974454
121.756792
93.508959
75.678825
55.654645
44.443607
35.066605
30.168891
28.380752
27.841926
28.002858
28.165579
27.620792
28.858781
28.215647
28.638840
28.114915
28.727651
28.827786
28.820634
29.409528
29.546618
30.149817
30.415654
31.812787
31.178594
31.513572
32.218695
32.076836
30.899644
31.138659
31.274557
30.266643
29.473901
29.107928
29.466748
28.319955
29.074550
28.771758
28.968453
28.315783
27.708411
27.626753
27.027726
26.453733
27.093887
26.224852
25.997758
26.417971
##ZVALUE=285
1.668930
1.517534
1.554489
1.651645
1.590848
1.565814
1.600981
1.881719
1.598597
1.727939
1.920462
1.885891
2.133846
2.098680
2.269745
2.080798
2.259612
2.268553
2.368689
2.701879
2.757907
3.312826
3.383756
4.488826
16.444921
106.394887
263.122916
622.311831
969.020724
1015.788913
1015.788913
1015.788913
1015.788913
1015.788913
1015.788913
1015.788913
1005.856395
618.747473
370.477438
162.276626
80.102682
40.669441
40.483475
57.054758
76.009631
103.982687
122.611523
140.105486
148.130655
147.095919
138.554573
118.999481
99.056959
75.818896
59.432983
42.359829
35.154819
30.314922
27.409792
27.469993
27.513504
28.084517
28.102994
27.733445
28.848648
27.231574
28.967857
29.364824
29.916763
29.869676
30.935407
31.362772
31.203628
32.012463
31.440854
30.924678
30.764937
32.029748
30.456781
30.580759
30.472875
29.468536
30.055642
28.697848
28.146505
28.075576
28.613806
27.968884
27.503967
27.260780
27.290583
26.947856
25.803447
26.194453
25.485754
25.561452
##ZVALUE=290
1.550913
1.585484
1.395941
1.626611
1.652837
1.567602
1.672506
1.646876
1.732707
1.492500
1.711845
1.745820
1.994967
1.864433
1.958609
1.917481
1.925826
2.030730
2.261996
2.381802
2.505779
2.673864
2.886653
2.922416
3.594756
4.292727
6.677508
34.755468
173.308849
385.744572
698.410869
1015.788913
1015.788913
1015.788913
1015.788913
1015.788913
1015.788913
1015.788913
1015.788913
804.090500
502.665639
230.942965
115.114450
45.925975
30.899644
38.661957
51.425695
72.954893
92.797875
120.357871
133.156776
145.598650
144.461989
133.088827
116.066933
92.053413
74.930787
55.663586
43.721795
34.089684
30.268431
27.547479
27.462840
27.831793
27.586818
27.967691
28.212667
28.912425
28.438568
29.881001
30.608773
30.846596
31.348467
30.748844
30.961633
30.699968
30.475855
30.435920
29.721856
29.865503
29.399991
28.579831
28.744936
28.711557
28.741956
28.177500
28.221607
27.878881
27.300715
27.189851
27.452707
26.468635
25.837421
25.852919
25.280714
25.164485
##ZVALUE=295
1.430511
1.528859
1.544952
1.390576
1.436472
1.510978
1.406670
1.649857
1.669526
1.555681
1.664758
1.579523
1.720786
1.689792
1.882911
1.843572
2.020597
2.053976
2.168417
2.148747
2.360940
2.541542
2.239943
2.753735
2.978444
3.120899
3.716946
3.956556
4.672408
13.590455
26.853681
260.854959
541.346669
1012.138724
1015.788913
1015.788913
1015.788913
1015.788913
1015.788913
1015.788913
1015.788913
969.012976
640.881658
304.403901
157.631636
61.911941
32.848716
25.913715
32.789707
49.426556
68.299770
91.153979
110.533834
130.163431
138.578415
136.297941
128.375888
109.823942
95.304847
71.820617
56.255460
42.455792
35.047531
29.350519
27.069449
26.591420
26.645660
26.627779
27.692914
28.047562
29.198527
29.097795
30.066967
30.281544
29.862523
29.971600
29.376745
29.413700
29.003620
29.609799
29.373765
28.644800
29.638410
29.097795
28.823614
28.303862
27.480721
27.386546
28.033853
27.564764
27.059913
26.262999
25.704503
25.736690
25.139451
25.292635
##ZVALUE=300
1.335740
1.436472
1.383424
1.461506
1.648664
1.552701
1.338720
1.369715
1.464486
1.502633
1.653433
1.398921
1.608729
1.583695
1.540780
1.691580
1.697540
1.969934
1.894832
1.936555
2.057552
2.212524
2.284646
2.411604
2.520680
2.672672
2.943873
3.118515
3.260970
3.701448
3.958941
5.818605
42.702556
151.705742
453.831553
792.461634
1015.788913
1015.788913
1015.788913
1015.788913
1015.788913
1015.788913
1015.788913
1015.788913
755.376816
467.332602
218.919516
114.282966
44.402480
24.990439
24.484992
32.258630
46.930909
61.760545
85.560679
103.590488
123.503804
130.888820
132.033825
125.453472
108.753443
92.631578
72.035789
57.239532
41.572452
34.624934
29.804707
27.145743
27.336478
27.952790
28.034449
28.896928
29.148459
28.964877
29.587746
28.897524
29.367805
29.077530
28.702617
29.027462
29.654503
29.120445
29.679537
28.974414
28.656721
28.476715
27.725697
28.304458
27.996898
27.804971
27.669668
27.069449
26.283860
26.010871
26.143789
25.383830
##ZVALUE=305
1.364946
1.426935
1.278520
1.307726
1.504421
1.401901
1.352429
1.493692
1.292825
1.338720
1.471639
1.577735
1.577735
1.491904
1.348853
1.555681
1.729727
1.765490
1.800656
1.872778
1.882911
1.922846
2.047420
2.098680
2.386570
2.332926
2.498627
2.680421
2.606511
2.948642
3.082752
3.325939
3.859997
4.759431
14.531612
109.950900
283.449888
672.571659
1015.788913
1015.788913
1015.788913
1015.788913
1015.788913
1015.788913
1015.788913
1015.788913
957.841873
567.335486
344.635844
152.805448
76.789856
31.389594
21.531582
24.826527
31.158924
46.759844
61.547756
83.501935
100.615621
116.692781
124.938488
125.727654
119.837523
104.598999
89.561939
67.375898
55.209994
41.931868
35.226941
30.041933
28.111935
28.623939
28.682947
28.513670
28.820634
29.210448
29.177666
29.183626
29.728413
29.250979
29.516816
30.298829
30.555725
29.792786
30.400753
30.178428
29.652715
29.183626
28.868914
28.555989
28.134584
27.370453
27.625561
27.424693
26.978850
26.326776
##ZVALUE=310
1.293421
1.336932
1.313686
1.287460
1.426935
1.242757
1.406670
1.535416
1.408458
1.335740
1.272559
1.429915
1.447797
1.457930
1.427531
1.522899
1.622438
1.552701
1.515746
1.673698
1.602769
1.874566
1.767874
2.022982
1.847744
2.037883
2.221465
2.134442
2.489686
2.563596
2.662539
2.679825
2.943873
3.320575
3.752708
4.179478
5.880594
49.733520
163.173676
466.576815
817.996860
1015.792489
1015.792489
1015.792489
1015.792489
1015.792489
1015.792489
1015.792489
1015.792489
784.083009
504.468679
246.451497
130.350590
48.945546
24.968982
20.141602
22.266507
31.053424
39.437413
57.583451
72.511435
93.429685
107.587576
118.403435
120.480657
114.315748
102.620721
85.909963
71.303844
53.038597
44.475794
35.521984
31.374693
28.942823
28.502941
28.986931
28.037429
28.817654
29.771924
29.736757
29.558539
30.451417
30.193925
30.655861
30.162930
30.372739
30.315518
30.065775
29.799938
29.624701
29.559731
28.223991
28.131604
28.470755
27.429461
27.045608
##ZVALUE=315
1.334548
1.285672
1.225471
1.336932
1.307726
1.322627
1.393557
1.266599
1.243949
1.529455
1.403689
1.388788
1.390576
1.362562
1.458526
1.524687
1.377463
1.516938
1.569986
1.594424
1.719594
1.859665
1.788735
1.778603
2.018809
1.962781
1.863837
2.081990
2.171993
2.139807
2.220869
2.541542
2.368689
2.847910
2.938509
3.260970
3.589988
3.986955
4.634857
22.078753
92.656612
333.492756
635.025501
1015.788913
1015.788913
1015.788913
1015.788913
1015.788913
1015.788913
1015.788913
1015.788913
986.248851
686.520934
347.417593
182.901621
65.280795
30.750632
18.516779
17.837882
22.705793
27.731657
39.792657
51.857829
70.184469
85.085630
102.028847
112.597942
115.089417
110.125542
96.832514
85.092783
66.815615
54.001808
42.575598
35.386682
30.952692
29.179454
28.781891
28.535724
29.847622
29.869676
29.843450
30.280948
30.639768
31.188726
30.962825
30.362606
30.276775
30.314922
29.874444
29.779673
29.064417
28.636456
28.707981
27.954578
27.730465
##ZVALUE=320
1.269579
1.134872
1.105666
1.249909
1.293421
1.172423
1.366735
1.196861
1.198649
1.290441
1.439452
1.404881
1.651645
1.290441
1.421571
1.446605
1.325607
1.431704
1.527667
1.454949
1.546741
1.425743
1.614690
1.818538
1.678467
1.701713
1.765490
1.835823
2.018809
1.962781
2.120733
2.076626
2.269745
2.447963
2.475977
2.747774
2.774596
2.973676
3.452897
3.953576
4.202724
8.222461
43.786764
210.290551
456.996560
960.856676
1015.788913
1015.788913
1015.788913
1015.788913
1015.788913
1015.788913
1015.788913
1015.788913
888.885856
476.921797
266.446471
110.914707
50.008893
19.982457
15.958548
17.173886
19.482970
25.127530
33.327937
49.223900
61.362982
80.100894
93.970895
105.966926
108.016729
104.040504
96.339583
79.854727
67.027807
51.696897
43.392777
35.372972
31.955838
29.237866
29.229522
29.105544
29.379725
30.267835
30.343533
30.638576
30.294657
29.819608
29.361844
29.707551
30.159950
29.942989
28.881431
28.727651
28.894544
28.358698
##ZVALUE=325
1.280904
1.380444
1.388788
1.367927
1.312494
1.374483
1.394749
1.291633
1.442432
1.332760
1.332760
1.437664
1.284480
1.453757
1.556873
1.579523
1.461506
1.574755
1.466870
1.544952
1.565814
1.649857
1.689792
1.757741
1.787543
1.854897
1.760721
1.912713
1.907945
2.053976
2.003908
2.069473
2.234578
2.250671
2.417564
2.502799
2.582669
2.798438
3.103614
2.933741
3.472567
3.699660
4.076958
5.089641
21.214485
147.795677
338.573456
735.196471
1015.906930
1015.906930
1015.906930
1015.906930
1015.906930
1015.906930
1015.906930
1015.906930
982.012749
605.025887
357.882977
152.437687
71.232915
24.997592
15.383959
14.511943
15.328526
18.913746
23.761988
33.428669
44.600964
63.512921
76.567531
92.162490
99.414587
102.092624
99.934936
87.440610
76.775551
62.269568
50.920844
40.414929
35.044551
31.222701
30.499697
29.854774
29.412508
29.430985
29.429793
29.548407
29.492974
29.613972
29.840469
29.218793
29.198527
28.915405
28.523803
28.336644
##ZVALUE=330
1.151562
1.130700
1.031756
1.169443
1.213551
1.328588
1.312494
1.131892
1.316667
1.309514
1.095533
1.211762
1.156926
1.226664
1.339912
1.374483
1.312494
1.279712
1.285672
1.488924
1.403689
1.504421
1.481771
1.506805
1.582503
1.484752
1.608729
1.670718
1.601577
1.888871
1.754761
1.655817
1.700521
1.929998
1.995564
2.080798
2.301931
2.066493
2.364516
2.636909
2.657771
2.848506
2.981424
3.516674
3.785491
4.608631
8.375645
71.756840
208.127499
550.603867
926.092863
1015.788913
1015.788913
1015.788913
1015.788913
1015.788913
1015.788913
1015.788913
1015.788913
701.183677
445.000529
203.867555
102.145672
37.248731
17.910600
13.542771
14.141798
15.444756
18.791556
24.582744
32.188892
45.957565
57.825446
74.814558
86.691976
96.248984
97.428560
92.940927
85.295439
71.889758
60.927868
47.520995
41.947961
35.078526
31.987429
29.269457
28.742552
28.565526
28.326511
28.344989
28.048754
27.821660
28.149486
27.449727
27.751923
27.176738
##ZVALUE=335
1.167655
1.160502
1.028776
1.106858
1.079440
1.006722
1.207590
1.195669
1.268983
1.138449
1.219511
1.226664
1.332760
1.251698
1.220703
1.044869
1.189709
1.275539
1.474619
1.365542
1.491904
1.423955
1.454949
1.400709
1.517534
1.516938
1.637936
1.539588
1.576543
1.716614
1.707673
1.661777
1.729727
1.752973
1.840591
1.968741
1.937747
1.947880
1.936555
2.109408
2.135634
2.301931
2.460480
2.590418
3.091693
3.052950
3.724694
3.864765
5.093813
22.665858
147.499442
341.387987
754.138827
1015.806794
1015.806794
1015.806794
1015.806794
1015.806794
1015.806794
1015.806794
1015.806794
840.731859
490.698814
294.463634
123.627782
57.091713
22.109747
14.997721
14.457703
15.038848
17.113686
19.305944
25.067925
31.614900
43.445826
54.810643
71.698427
80.679655
89.978576
92.088580
87.802410
80.531836
69.649816
60.412884
48.706532
41.652918
35.451651
31.285882
28.613806
27.659535
26.803613
26.547909
26.860833
26.804805
26.072860
26.072860
##ZVALUE=340
1.148582
0.949502
0.952482
1.142621
0.970960
1.089573
1.161695
1.219511
1.261830
1.195669
1.047850
1.153946
1.244545
1.059771
1.204610
1.309514
1.313686
1.235604
1.319647
1.309514
1.419783
1.277924
1.265407
1.324415
1.541972
1.467466
1.475811
1.516938
1.461506
1.481771
1.515746
1.589656
1.648664
1.833439
1.715422
1.979470
1.856685
1.757741
1.880527
2.096891
1.855493
2.271533
2.143979
2.134442
2.436638
2.665520
2.949834
3.205538
3.364682
3.583431
3.985763
12.176633
60.429573
259.181857
530.229807
999.599695
1015.788913
1015.788913
1015.788913
1015.788913
1015.788913
1015.788913
1015.788913
930.112004
633.382797
319.402814
173.861980
72.228909
31.613708
15.409589
14.709830
14.721751
15.125871
17.073750
19.490719
24.593472
31.179786
42.075515
53.285956
68.426728
77.920556
86.147785
87.324977
84.106922
78.023672
67.257881
57.790875
46.903491
39.976835
33.079982
29.542446
26.617646
25.950670
24.857521
24.820566
25.078654
##ZVALUE=345
1.092553
1.247525
1.166463
0.973940
1.224875
1.146793
1.066923
1.150966
1.228452
1.142621
1.208782
1.331568
1.147985
1.063943
1.344681
1.155734
1.221895
1.277924
1.309514
1.373887
1.380444
1.236796
1.187921
1.349449
1.225471
1.351833
1.366735
1.394749
1.367927
1.486540
1.528859
1.494884
1.548529
1.613498
1.647472
1.612902
1.623631
1.689792
1.654625
1.720786
1.765490
2.017617
2.035499
1.971722
2.334714
2.173781
2.346635
2.495646
2.599955
2.807975
3.106594
3.360510
3.998876
4.645586
31.895638
132.554770
431.624651
750.045776
1015.788913
1015.788913
1015.788913
1015.788913
1015.788913
1015.788913
1015.788913
1015.788913
724.511743
465.526581
210.385919
102.984905
37.276745
19.816756
14.516711
14.425516
14.277697
15.151501
16.767979
18.180609
23.224950
29.361844
40.435791
49.215555
61.483979
69.715977
78.133941
81.355572
78.520775
73.525906
63.678622
55.377483
45.050979
37.841797
31.392574
27.883649
25.373697
24.559498
##ZVALUE=350
1.148582
1.286864
1.134872
1.133680
1.221895
1.248717
1.092553
1.339912
1.195669
1.248717
1.255870
1.229644
1.094937
1.348853
1.240969
1.294613
1.193881
1.247525
1.340508
1.327991
1.286864
1.346469
1.418591
1.483560
1.365542
1.334548
1.191497
1.366735
1.290441
1.270771
1.559854
1.604557
1.481771
1.661777
1.752973
1.584888
1.675487
1.708865
1.800656
1.717806
1.741648
1.798868
1.947880
1.953840
1.983643
1.936555
2.093911
2.098680
2.321601
2.498627
2.592802
2.861619
3.237724
3.345609
3.585815
4.271865
10.741949
88.790655
245.331526
601.387620
959.413648
1015.788913
1015.788913
1015.788913
1015.788913
1015.788913
1015.788913
1015.788913
872.275829
507.313609
304.864645
135.423541
65.039992
22.563934
14.462471
13.212562
13.724566
13.626814
14.434457
15.554428
17.555952
22.080541
27.428865
36.421418
44.624805
55.959821
63.923597
71.334839
73.944926
73.113441
68.379641
59.743524
52.269697
42.577982
36.628842
30.237436
##ZVALUE=355
1.229644
1.203418
1.255870
1.096725
1.395941
1.262426
1.251698
1.264811
1.240969
1.242757
1.284480
1.146793
1.359582
1.172423
1.203418
1.270771
1.324415
1.358986
1.406670
1.345873
1.311898
1.549721
1.385808
1.585484
1.323819
1.510978
1.394749
1.489520
1.449585
1.506805
1.628995
1.532435
1.499653
1.461506
1.763701
1.477599
1.759529
1.716614
1.542568
1.797676
1.692772
1.846552
1.969934
1.902580
1.936555
1.889467
2.225637
2.173781
2.388954
2.269745
2.310872
2.683997
2.727509
2.773404
3.099442
3.124475
3.411770
4.027486
5.442500
41.093826
148.026943
440.635681
750.922561
1015.788913
1015.788913
1015.788913
1015.788913
1015.788913
1015.788913
1015.788913
987.380743
632.891655
393.491387
175.051689
87.163448
32.269955
16.362667
12.512803
12.704730
12.833476
13.194680
14.187694
15.002489
16.904473
19.776821
24.968982
30.749440
40.880442
47.802925
57.795644
63.555837
67.247748
67.462921
62.597990
56.492686
47.814846
##ZVALUE=360
1.199841
1.149774
1.090765
1.259446
1.308918
1.202822
1.201630
1.287460
1.135468
1.302958
1.241565
1.305938
1.393557
1.226664
1.299977
1.469851
1.306534
1.312494
1.287460
1.409650
1.406670
1.476407
1.295805
1.603961
1.411438
1.393557
1.640916
1.519918
1.587868
1.516938
1.600981
1.537800
1.489520
1.609921
1.598597
1.796484
1.615882
1.678467
1.825690
1.877546
1.725554
1.752973
1.942515
1.821518
1.784563
1.998544
2.046824
2.071857
2.219677
2.236962
2.281666
2.442598
2.275705
2.572536
2.628565
2.837777
2.946854
3.312826
3.774762
4.434586
5.147457
14.292002
66.776872
258.805752
509.992838
972.211957
1015.787721
1015.787721
1015.787721
1015.787721
1015.787721
1015.787721
1015.787721
774.492621
504.570603
241.846442
127.129555
48.177838
21.397471
12.479424
11.765957
12.157559
12.316704
12.522936
13.189912
13.986826
15.250444
18.014908
21.016598
26.811957
33.360720
42.520761
49.158931
56.737661
60.021877
60.670972
##ZVALUE=365
1.235604
1.255870
1.053810
1.164675
1.157522
1.161695
1.102686
1.187921
1.277924
1.214743
1.228452
1.423955
1.304746
1.277924
1.278520
1.449585
1.269579
1.253486
1.114607
1.423955
1.475811
1.474619
1.215935
1.565814
1.373887
1.422763
1.238585
1.436472
1.398921
1.462698
1.439452
1.488924
1.537800
1.537800
1.498461
1.619458
1.432896
1.567602
1.609921
1.621842
1.620650
1.818538
1.632571
1.678467
1.686811
1.803637
1.959801
1.725554
1.863837
1.940727
2.010465
2.006888
2.056956
1.926422
2.198815
2.344847
2.353787
2.692938
2.921820
3.203750
3.700852
4.111528
4.472733
6.072521
23.810863
149.468780
342.657566
738.272667
1015.788913
1015.788913
1015.788913
1015.788913
1015.788913
1015.788913
1015.788913
863.433480
596.049428
319.342613
173.898935
64.277649
27.599931
12.125969
10.571480
10.810494
11.092424
11.025667
11.416674
11.521578
12.282729
13.956428
15.289783
18.812418
22.630692
29.241443
35.250783
43.837428
##ZVALUE=370
1.205802
1.232624
1.034737
1.107454
1.207590
1.277924
1.064539
1.319647
1.216531
1.288652
1.086593
1.124740
1.258850
1.215935
1.127720
1.259446
1.191497
1.199841
1.066923
1.176596
1.149774
1.205802
1.092553
1.435876
1.061559
1.253486
1.242757
1.149774
1.523495
1.320839
1.388788
1.444817
1.602769
1.459718
1.329780
1.395941
1.282692
1.430511
1.238585
1.513958
1.398921
1.614690
1.465678
1.386404
1.375675
1.510978
1.522899
1.601577
1.589656
1.548529
1.780987
1.673698
1.567602
1.998544
1.823902
1.983643
1.960993
2.021790
2.404451
2.455711
2.643466
2.775788
2.995729
3.179908
3.655553
4.228950
10.211468
81.621408
231.207609
564.488769
891.659856
1015.788913
1015.788913
1015.788913
1015.788913
1015.788913
1015.788913
982.172489
712.562799
387.982726
215.767622
85.385442
39.632916
15.771985
10.836720
10.041595
10.036826
10.151863
10.368824
10.581613
10.923743
11.056662
11.934638
13.950467
16.211867
20.508766
##ZVALUE=375
1.050830
1.090765
1.127720
1.023412
1.077652
1.183748
1.106858
1.198649
1.115799
1.167655
1.103878
1.132488
0.948906
1.141429
1.094937
1.007915
1.132488
1.155734
1.088977
1.107454
1.044869
1.135468
1.286864
1.309514
1.148582
1.233816
1.182556
1.080632
1.172423
1.186728
1.095533
1.348853
1.229644
1.274943
1.250505
1.183748
1.268983
1.508594
1.228452
1.361966
1.248717
1.371503
1.343489
1.375675
1.461506
1.396537
1.466870
1.463890
1.426935
1.573563
1.420975
1.624823
1.528859
1.600981
1.624823
1.667738
1.653433
1.799464
1.864433
1.847744
2.065897
2.096891
2.113581
2.229810
2.604723
2.936721
3.244877
3.770590
5.252957
37.227869
134.521723
383.200049
667.807460
1015.788913
1015.788913
1015.788913
1015.788913
1015.788913
1015.788913
1015.788913
858.838558
519.571900
318.737626
144.161582
72.433949
24.571419
12.370944
9.165406
8.969903
9.219646
9.447932
9.549856
9.871721
10.037422
10.379553
11.490583
##ZVALUE=380
0.974536
0.948906
0.979900
0.862479
0.892878
0.899434
1.059771
1.058578
1.146793
1.090765
0.856519
1.026988
1.107454
0.967979
1.119971
1.050830
1.085997
1.115799
0.991821
1.076460
1.239777
1.040697
1.147985
0.868440
0.992417
0.913739
1.186728
1.037717
1.073480
1.265407
1.328588
1.241565
1.268983
1.195669
1.247525
1.236796
1.107454
1.210570
1.091957
1.235604
1.283884
1.221895
1.380444
1.361966
1.224875
1.309514
1.376867
1.293421
1.275539
1.460910
1.565814
1.574755
1.577735
1.565814
1.682639
1.559854
1.546741
1.642704
1.665950
1.813769
1.853704
1.786947
1.913905
2.082586
2.025962
2.398491
2.629757
2.811551
3.187656
3.800988
4.238486
15.956759
78.637004
296.407938
552.938581
981.358886
1015.788913
1015.788913
1015.788913
1015.788913
1015.788913
1015.788913
987.137556
677.021742
447.461009
217.434764
110.753775
39.043427
17.111897
9.451509
8.514524
8.510947
8.680820
8.793473
8.753538
9.498000
##ZVALUE=385
1.087785
0.992417
1.095533
1.031756
0.904799
1.082420
0.939965
0.781417
0.925660
0.970960
0.857711
0.864863
1.023412
0.986457
1.167655
1.052618
1.012683
0.961423
0.947714
1.066923
0.934601
0.902414
1.166463
1.173615
1.018643
1.215935
1.044869
1.227856
1.199841
1.206994
1.071692
1.283884
1.137853
1.223683
1.291633
1.057982
1.290441
1.270771
1.177788
1.168847
1.190901
1.266599
1.211762
1.378655
1.317859
1.152754
1.378655
1.277924
1.411438
1.395941
1.397729
1.422763
1.363754
1.300573
1.432896
1.570582
1.513958
1.522899
1.626611
1.784563
1.659989
1.755953
1.733899
1.954436
1.932979
2.058744
2.308488
2.455711
2.910495
2.972484
2.984405
3.466606
3.851652
6.433725
36.575794
187.887549
395.510793
781.054497
1015.788913
1015.788913
1015.788913
1015.788913
1015.788913
1015.788913
1015.788913
838.075876
583.601594
315.598845
177.667737
72.245598
29.912591
10.540485
8.074641
7.807612
7.904768
7.793903
##ZVALUE=390
0.885725
0.978708
0.810623
0.938773
1.041889
0.893474
0.867844
0.905991
0.884533
1.104474
1.011491
1.069903
1.004934
0.937581
1.069903
1.133680
1.133680
1.097918
0.969768
0.949502
1.051426
1.016855
1.013875
0.994802
1.014471
1.075864
1.067519
1.060963
1.118779
1.060963
1.178980
1.190901
1.101494
1.351833
1.495481
1.343489
1.168847
1.306534
1.281500
1.201630
1.250505
1.292825
1.254678
1.307726
1.328588
1.194477
1.243949
1.437664
1.324415
1.293421
1.272559
1.168847
1.308918
1.365542
1.564622
1.379848
1.400709
1.449585
1.550913
1.549721
1.543760
1.615882
1.630783
1.667738
1.982450
2.040863
1.988411
2.404451
2.503991
2.805591
2.846718
2.840757
2.865791
3.072619
3.413558
4.157424
14.745593
107.005835
276.301503
640.323758
974.972844
1015.788913
1015.788913
1015.788913
1015.788913
1015.788913
1015.788913
994.427800
753.731728
447.408557
255.777836
102.422833
45.846701
14.091730
8.111596
7.353425
##ZVALUE=395
0.966787
0.904799
1.017451
0.945926
0.900626
0.915527
0.897646
0.925660
0.994802
0.814795
1.041889
1.001954
0.781417
1.012683
0.922680
1.078844
1.011491
1.092553
0.978708
1.106858
1.007915
0.970960
0.992417
1.107454
0.816584
0.994802
1.122952
1.212955
1.152754
1.281500
1.293421
1.146793
1.167655
1.176596
1.268983
1.291633
1.236796
1.249909
1.270771
1.049638
1.250505
1.326799
1.312494
1.274943
1.222491
1.317859
1.317859
1.446605
1.461506
1.341701
1.461506
1.418591
1.354814
1.370907
1.368523
1.382828
1.612902
1.527667
1.557469
1.484752
1.611710
1.517534
1.673698
1.803637
1.822710
1.919866
1.923442
2.313852
2.442598
2.304912
2.373457
2.675653
2.733469
2.813935
3.107786
3.018975
3.056526
3.676414
6.500483
60.580969
192.132592
506.103635
818.662643
1015.788913
1015.788913
1015.788913
1015.788913
1015.788913
1015.788913
1015.788913
908.900499
545.080900
338.608623
156.663656
74.183941
24.393797
##ZVALUE=400
0.991821
0.948906
0.931621
1.034737
0.913739
0.859499
1.003742
0.956655
0.905991
0.870824
0.984669
0.879765
1.000762
1.018643
0.934601
0.890493
1.021624
0.997782
0.951886
0.985861
1.037717
0.889897
1.199841
1.018643
1.193881
1.171827
1.029968
1.143813
1.198649
1.121759
1.109838
1.210570
0.965595
1.030564
1.241565
1.314878
1.237988
1.232624
1.145601
1.288652
1.201630
1.159906
1.238585
1.282692
1.464486
1.348853
1.304746
1.295805
1.390576
1.461506
1.471639
1.446605
1.331568
1.297593
1.403689
1.598597
1.381636
1.479983
1.686811
1.657605
1.510978
1.745820
1.779795
1.702905
1.897812
1.770854
1.983643
2.092719
2.404451
2.506971
2.442598
2.273917
2.259612
2.385974
2.315640
2.559423
2.531409
2.901554
2.985597
3.329515
4.287958
28.724670
114.272833
346.245766
606.509447
1003.098488
1015.788913
1015.788913
1015.788913
1015.788913
1015.788913
1015.788913
995.863676
674.782991
437.989831
217.271447
##END
