##TITLE=FSH751
##FORMAT=SPECTACLE-ASCII V-1.2
##DATA TYPE=ULTRAVIOLET SPECTRUM
##SECOND TYPE=ULTRAVIOLET SPECTRUM
##DATE=11/28/17
##TIME=17:57:05
##SPECTROMETER/DATA SYSTEM=SPECTACLE
##XUNITS=NM EM
##YUNITS=ENERGY
##YFACTOR=1
##FIRSTX=220
##LASTX=410
##NPOINTS=96
##3DDATA=Equidistant
##ZUNITS=NM EX
##FIRSTZ=210
##LASTZ=400
##ZPOINTS=39
##XYDATA=(Y..Y)
##ZVALUE=210
9.372830
10.633469
9.504557
9.182692
8.870959
7.701516
6.616712
6.372929
6.054640
5.072951
4.416704
4.104972
3.538728
3.390908
4.229546
3.443956
3.500581
4.013777
4.232526
4.050732
4.415512
4.990697
4.818439
4.546642
5.463958
6.798506
8.031726
8.299947
10.090470
9.955764
12.191534
12.830496
14.229417
13.898611
14.112592
13.974905
14.455914
14.025569
14.037490
14.267564
14.788508
14.456511
14.507771
13.878942
12.976527
13.824701
13.547540
14.929771
15.002489
14.804602
14.648438
14.165640
15.079975
16.295910
15.967488
15.698671
15.141964
14.605522
14.932752
15.380979
15.532970
14.277697
14.818907
14.538765
13.558865
14.232993
15.360713
15.747547
17.092824
18.443465
21.473765
21.388531
25.048852
26.370883
29.757619
31.716824
31.631589
30.756593
28.852820
28.147697
24.759769
23.720860
19.898415
18.375516
15.452504
14.787912
12.817979
11.382699
11.011958
11.257529
12.103915
12.236834
14.899969
15.526414
17.382503
20.392537
##ZVALUE=215
30.155778
32.017827
26.457906
21.733642
19.125938
13.981462
13.551712
13.985634
12.345910
10.889769
11.007786
8.828640
6.792545
6.553531
4.353523
4.437566
4.243851
3.971457
4.492998
4.186630
4.357696
4.961491
4.563928
5.372763
6.840825
7.110834
9.180903
10.099411
12.247562
13.371706
14.720559
15.703440
15.478730
19.038916
18.229485
17.943978
18.572807
17.508864
19.248724
18.200874
17.769933
16.908646
16.054511
15.424490
16.735792
16.874671
15.681982
15.640855
16.250610
16.912818
16.909838
16.287565
16.512871
16.067624
17.535686
15.494823
16.967654
16.873479
15.410781
15.331507
14.723539
15.878677
15.988946
16.195774
15.961528
16.023517
15.143752
17.202497
17.513633
19.421577
22.455454
23.049712
25.109649
26.004910
28.314590
29.876828
28.195977
30.728579
28.042793
27.224422
24.104714
20.761490
20.687580
17.776489
15.378594
14.962554
12.362599
14.096498
11.366606
10.711551
11.172891
10.036826
11.001825
10.489821
11.599660
13.008714
##ZVALUE=220
71.228743
70.378780
75.984597
71.447492
63.722730
49.734712
39.528608
27.578473
21.225810
20.900965
21.482706
21.079779
19.232631
18.664598
13.733506
10.979772
8.056760
5.577803
4.701614
5.003810
5.469918
5.692840
4.933476
6.470680
7.076859
9.699464
9.979606
11.571646
13.069510
15.269518
16.645789
20.750761
19.512773
21.641850
23.487806
21.537542
22.744536
21.100640
19.993782
22.345781
21.106601
19.531846
21.185875
18.483996
20.131469
17.250776
20.366907
18.242598
18.317699
18.443465
18.623471
18.794537
18.434525
18.474460
18.237829
19.483566
18.411875
19.186735
18.954873
19.164681
19.097924
20.465851
18.748641
19.526482
17.643571
19.320846
19.237995
19.169450
20.662546
20.516515
23.517609
25.015473
25.500655
30.941963
32.350421
31.543970
33.211708
29.908419
30.289888
28.778911
26.769638
24.290681
23.918748
21.940470
19.407868
17.167926
15.629530
14.136434
14.539957
12.112856
11.790991
12.912750
12.170672
12.562871
12.234449
12.632608
##ZVALUE=225
91.546774
96.352696
122.925639
153.386593
152.917504
144.829750
128.188729
97.049475
73.386431
52.222610
38.065910
35.166740
33.925772
34.226775
31.676888
30.464530
27.868748
21.378994
15.736818
10.149479
8.713603
6.577969
5.746484
6.421804
7.045865
8.145571
9.300709
11.689663
13.836622
13.508797
16.651750
16.853809
20.100474
20.428896
21.029711
23.237467
21.293759
22.421479
21.112561
20.787716
21.456480
22.341609
22.058487
20.662546
21.748543
21.271706
22.016764
22.678971
23.693442
21.909475
23.496747
22.701621
25.066733
23.375750
24.068952
23.973584
24.199486
23.424625
22.676587
24.058819
24.409890
24.456978
26.598573
24.000406
23.922920
24.586916
24.704933
24.815798
26.165843
25.747418
26.428699
31.457543
32.252669
32.728910
35.336614
34.369826
34.301877
33.081770
32.131672
30.013919
27.265549
26.976466
22.777915
23.227930
19.465685
19.216537
19.648671
18.642545
17.185807
16.851425
15.976429
15.867949
16.851425
14.449954
13.103485
14.901757
##ZVALUE=230
60.616732
68.497658
109.560490
177.686810
224.514008
273.442864
298.599005
285.358429
252.605677
209.311843
140.529871
95.248818
66.569448
51.950812
52.686930
55.728555
56.133866
50.738454
45.653582
38.054585
30.835867
20.140409
14.337897
10.253787
9.349585
8.690953
8.469820
10.210872
11.411905
12.371540
12.531877
13.887882
14.553666
15.655756
17.618537
17.776489
18.091798
18.701553
19.544959
19.839406
20.957589
20.074844
22.999644
22.793412
25.060773
26.324987
27.479529
29.373765
30.318499
31.787753
32.189488
32.095909
34.918785
35.943985
33.596754
34.441948
35.062432
38.126707
36.936998
35.843849
36.026835
36.345720
36.046505
36.674738
34.271479
33.265948
35.340786
35.332441
37.007928
37.546754
37.834644
41.315556
42.729974
41.294694
43.699741
43.607950
41.955709
41.193962
40.019751
37.553906
33.286810
33.011436
30.336976
27.623773
25.101900
24.261475
24.390817
25.066733
22.281408
22.025704
20.891428
20.391941
18.983483
19.058585
19.689798
18.915534
##ZVALUE=235
17.170906
20.697713
44.974685
101.458430
175.673962
278.263688
358.929634
458.371639
508.997440
484.137535
436.557531
360.759497
238.169432
172.166824
116.284490
84.049702
75.550675
79.876781
81.948638
83.554983
77.119470
66.610575
49.610734
35.299659
24.088621
18.083453
12.864470
10.814667
9.965897
10.196567
10.944605
11.281967
11.951923
13.628602
13.867617
12.899637
15.578866
15.135407
18.654466
20.436645
23.629665
23.210645
25.859475
28.712749
31.522512
34.678578
34.741759
40.083528
40.848851
47.295690
46.083927
47.128797
46.985745
52.608848
52.471757
51.716566
53.960681
53.085685
55.773854
56.364536
52.600503
52.343607
53.668618
54.106712
55.038929
53.815842
48.448443
53.142905
50.610900
54.602623
53.243637
55.229664
55.262446
57.032704
57.095885
57.063699
55.876970
56.020617
51.442981
48.222542
43.722987
43.766499
38.584471
37.992001
35.945773
34.399629
32.457709
31.459928
30.823946
29.349923
28.436780
26.403666
27.520657
23.374557
25.343895
22.066832
##ZVALUE=240
2.602935
2.979636
8.364916
22.685528
61.091781
115.350485
237.628818
365.833640
552.929640
678.146482
783.939958
769.075751
700.600743
558.082461
433.549881
272.857547
189.430714
125.402808
106.373429
98.966956
107.735991
118.079782
108.452439
103.363991
81.853867
65.512657
48.694611
35.803914
23.601651
18.015504
13.366938
12.297630
13.766885
13.444424
14.320612
15.656948
16.762614
18.962622
20.192862
23.281574
26.932955
30.477643
30.481815
37.477612
43.021441
46.608448
51.134825
56.537986
60.023665
66.453815
64.891577
70.241690
73.559880
71.535707
75.685978
74.809790
76.979995
77.374578
76.643825
76.246858
76.083541
78.194737
74.206591
72.634816
72.376728
72.214603
71.901679
68.954825
70.198774
72.358847
71.063638
70.856810
72.308779
72.536469
68.926811
65.102577
64.511895
66.586733
61.423779
56.251884
54.623485
52.987933
49.597621
46.252608
43.110847
43.072701
41.714907
39.501786
38.390756
36.067963
34.086704
33.932924
31.878948
30.454993
29.512644
30.200481
##ZVALUE=245
2.124906
2.547503
3.073812
2.782941
5.803704
15.684962
51.183701
110.110641
251.114964
391.186476
612.311959
776.041746
892.961025
937.308669
898.900628
746.044517
596.652627
412.955880
283.949971
160.846710
121.273994
99.797845
112.007856
119.820833
127.657652
122.933984
109.810829
94.049573
72.799921
57.929754
41.479468
27.395487
20.034909
15.965700
15.319586
16.754866
18.266439
19.548535
22.387505
25.529861
27.624965
31.642914
36.160946
41.472912
47.482848
51.559806
57.346821
64.832568
69.457889
69.582462
79.715848
81.313848
80.844760
89.480877
82.072616
86.599588
87.652802
88.239908
90.356469
84.222555
84.435940
85.173845
83.426833
81.295967
80.628991
74.623823
73.141456
74.554682
72.791576
72.331429
71.295500
69.367886
70.890784
69.602728
67.845583
65.866709
62.877536
63.476562
58.864951
55.129528
53.221583
49.425960
47.184825
42.797923
43.663979
40.547848
39.253831
38.463473
35.465956
34.740567
31.124949
33.420920
31.050444
29.294491
29.449463
29.164553
##ZVALUE=250
2.265573
1.837611
2.412796
2.282858
2.427697
2.678633
3.857613
10.028481
42.746663
94.629526
230.333805
393.245816
575.279593
817.922950
971.042514
1015.766859
1015.766859
976.065993
829.249024
566.132665
378.101468
243.296623
134.316683
101.455450
101.181865
116.684437
128.785968
135.469437
129.136443
121.720433
106.436610
82.379580
63.462853
42.389631
32.814741
23.251772
19.605756
20.078421
21.282434
27.201772
28.782487
33.923984
38.403869
42.180419
48.852563
54.813623
58.683753
64.368844
68.936944
73.022842
78.753829
81.235766
81.757903
83.191991
84.472895
88.441968
83.766580
85.430741
84.410906
82.490444
79.824924
79.512000
75.339675
74.808002
72.607994
71.624517
68.378448
67.012906
63.394904
64.724684
64.262748
61.734915
61.330795
60.674548
59.207678
55.720806
55.608749
51.416755
50.758719
47.592521
45.696497
42.408705
40.476918
38.716793
37.275553
34.597516
31.475425
31.382442
30.936599
30.998588
30.751824
28.147697
27.497411
25.226474
26.724935
23.075938
##ZVALUE=255
1.911521
2.128482
2.038479
2.485514
2.055764
2.365708
2.387762
2.627969
2.964735
7.637739
25.808811
88.656545
181.250572
375.667810
568.009615
779.031515
1015.785933
1015.785933
1015.785933
1015.785933
1009.576917
815.194845
503.686666
322.018862
171.558857
110.448003
92.001557
101.646781
120.503902
134.190917
143.989921
140.069723
130.080581
107.454658
87.142587
64.532757
48.136711
34.941435
29.185414
26.943684
28.832555
30.006766
35.171509
41.749477
45.146942
49.336553
54.550767
56.387782
59.974790
64.165592
64.882636
69.861412
72.081685
71.522593
72.802901
74.100494
73.266625
72.365999
71.537495
71.186423
68.872571
67.952871
65.847635
62.419772
61.893463
59.126616
58.398843
56.146979
55.385828
52.559972
50.725937
50.138831
50.954819
49.673915
49.044490
46.388507
46.764612
44.624805
43.126941
39.994717
38.510561
35.511851
34.652948
31.826496
30.500889
28.836727
28.157830
28.604865
27.807951
26.161671
25.214553
23.807883
24.373531
23.579597
21.770597
22.115707
##ZVALUE=260
1.763701
1.886487
1.805425
2.048612
1.918674
1.989603
2.045631
2.097487
2.111793
2.291799
2.907515
3.459454
12.298822
52.713752
124.502778
295.118690
486.310720
793.725848
1006.065607
1015.788913
1015.788913
1015.788913
1015.788913
1010.961533
700.354576
478.590727
270.270705
158.910751
91.384649
84.306002
98.462701
122.967958
141.820908
149.463415
150.700808
132.400990
119.588971
92.385411
72.713494
52.669644
41.234493
34.158826
32.734871
35.150647
36.734939
40.829778
43.226480
44.050813
47.741532
49.975514
51.913857
54.945946
55.481791
56.708455
58.058500
56.224465
56.791902
56.173801
54.325461
54.305792
52.654743
52.311420
51.247478
48.352480
48.348904
45.745969
44.246912
43.954849
43.065548
42.468905
42.571425
41.580796
40.140748
39.912462
39.101839
37.535429
36.203861
35.998821
34.811497
32.107830
30.435920
30.895472
28.531551
26.346445
26.075840
26.384592
24.467707
24.013519
22.860765
22.936463
21.263957
21.499991
20.537972
20.110607
19.454956
21.050572
##ZVALUE=265
1.757741
1.559854
1.944900
1.954436
1.900792
1.842976
1.965761
2.014637
2.082586
2.239943
2.349615
2.313852
2.440810
3.136992
7.177591
38.813949
95.439553
243.507624
418.797731
767.796636
1015.788913
1015.788913
1015.788913
1015.788913
1015.788913
1015.788913
943.942666
665.775537
362.602472
217.591524
177.373886
80.172420
83.439946
110.669732
130.135417
152.279735
156.929493
153.558850
142.272711
116.952658
99.081993
72.725415
57.925582
42.969584
37.823915
36.042929
35.868883
37.802458
38.398504
39.659739
41.616559
43.414831
43.740869
43.677688
44.249892
44.935942
43.334961
44.168830
43.204427
43.643713
41.448474
41.541457
39.688945
39.448738
37.964582
37.028790
36.400557
35.595894
35.615563
35.145879
35.889745
33.766627
34.887791
33.604503
33.624768
32.337904
31.379461
30.544996
29.848814
26.823878
26.579499
25.256872
23.302436
23.298860
23.144484
22.046566
21.143556
20.690560
20.569563
20.864606
19.438863
19.408464
18.994808
18.625855
18.347502
17.828941
##ZVALUE=270
1.646876
1.727939
1.523495
1.706481
1.805425
1.784563
1.577735
1.717806
2.132654
1.968741
2.075434
2.175570
2.154708
2.325773
2.649426
2.569556
4.521608
15.676618
48.657656
166.306496
335.911512
690.258741
981.754661
1015.788913
1015.788913
1015.788913
1015.788913
1015.788913
1015.788913
857.650638
579.921007
294.364691
168.237686
85.150003
68.584681
86.236000
108.405948
136.067867
150.430799
160.287619
158.825517
140.399933
123.955607
99.567771
78.161955
57.704449
48.167706
38.991570
36.519766
36.770701
36.263466
37.945509
38.133860
37.730932
38.953424
39.609671
39.062500
38.165450
38.591623
37.927628
36.606789
36.195517
35.588741
36.863685
34.395456
33.362508
32.296777
31.747818
32.475591
31.840801
32.783747
32.218695
32.924414
31.466484
30.751824
29.779673
28.693676
28.094649
27.180910
25.193691
23.796558
23.969412
22.963881
22.306442
21.404624
20.928979
20.931959
20.583868
19.290447
18.675923
18.435717
18.150806
17.568469
16.923547
17.084479
16.355515
##ZVALUE=275
1.763701
1.759529
1.762509
1.649857
1.778603
1.718998
1.682639
1.812577
1.698732
1.710653
1.841784
2.001524
2.268553
2.117753
2.202988
2.479553
2.508759
2.711415
3.045797
9.046793
34.934878
104.734898
303.880572
545.874834
968.183875
1015.917659
1015.917659
1015.917659
1015.917659
1015.917659
1015.917659
1015.917659
799.483657
427.297950
243.502855
105.674863
65.395832
65.405965
82.745552
109.600425
131.465793
153.173804
160.778761
156.759620
145.042539
120.939612
103.035569
79.676509
64.531565
48.505664
42.450428
38.523674
36.384463
36.809444
36.332607
37.444830
36.667585
36.802888
36.939979
36.695600
36.597848
35.232902
34.796596
34.538507
33.881664
33.944845
33.788681
32.677650
32.521486
32.294989
31.574965
32.111406
32.131672
31.396747
30.921698
30.072927
28.858781
27.659535
26.380420
26.321411
25.409460
24.591684
23.279786
21.828413
21.031499
20.329952
20.028949
20.104647
19.088984
19.114614
18.219948
17.379522
17.243624
17.437935
16.150475
16.429424
##ZVALUE=280
1.550913
1.537800
1.452565
1.561642
1.443624
1.727939
1.522899
1.611710
1.395941
1.595616
1.906753
1.678467
1.630783
1.849532
1.831651
2.141595
2.118945
2.238750
2.287626
2.896786
2.977848
3.672838
24.953485
84.086657
253.857970
457.152724
820.246935
1015.788913
1015.788913
1015.788913
1015.788913
1015.788913
1015.788913
1015.788913
963.436961
548.170805
323.126912
145.405531
76.849461
51.321983
59.964657
86.342692
108.936429
134.921670
149.188638
159.128904
154.852867
143.706799
124.652982
99.395514
81.128478
62.898993
51.397681
42.187572
38.151741
36.940575
36.520958
36.700964
37.438869
36.966801
36.704540
36.473870
35.949945
35.574436
34.407973
33.688545
33.644438
33.200979
33.173561
33.000708
32.054782
31.855702
31.811595
31.987429
30.387640
29.625893
28.678775
28.195977
26.556849
25.531650
24.205446
24.463534
23.298860
21.339655
21.828413
20.343661
19.716620
19.022822
18.544793
17.894506
18.416643
16.968846
16.745925
16.137958
16.473532
15.509725
##ZVALUE=285
1.320839
1.483560
1.488924
1.530647
1.426935
1.485944
1.497865
1.433492
1.599789
1.446605
1.710653
1.433492
1.610518
1.598597
1.815557
1.653433
2.015829
2.042651
2.284646
2.322793
2.509952
2.651811
3.148913
3.282428
11.766553
41.896701
146.060586
304.914713
640.410781
963.286757
1015.788913
1015.788913
1015.788913
1015.788913
1015.788913
1015.788913
1015.788913
804.577470
429.397821
244.495869
104.798675
55.279732
44.800639
56.238770
81.513524
102.142692
126.881003
144.885778
153.061748
154.900551
141.528845
127.250552
101.280808
84.428787
64.078569
52.732825
42.888522
38.848519
36.495924
36.553741
36.409497
35.675764
35.159588
35.129786
34.370422
34.538507
34.108758
33.378601
33.209920
33.258796
33.171773
31.950474
31.696558
31.630993
29.910803
29.402971
28.946996
27.710795
27.292967
26.100874
24.399757
24.410486
22.554994
22.347569
21.483898
21.165609
20.033717
19.773841
18.395782
17.343760
17.239451
16.919971
16.824603
16.012788
15.722513
15.609860
##ZVALUE=290
1.376867
1.186728
1.361966
1.327991
1.180768
1.215935
1.358986
1.565814
1.396537
1.453757
1.488924
1.415610
1.747608
1.519918
1.548529
1.779795
1.726747
1.771450
2.031922
2.114773
1.947880
2.105832
2.396703
2.663732
2.991557
3.143549
4.749894
17.427802
85.600615
203.264952
385.324359
776.250958
1015.788913
1015.788913
1015.788913
1015.788913
1015.788913
1015.788913
1015.788913
977.936983
667.124987
334.507823
175.230503
65.490603
37.312508
40.884614
54.494739
76.019764
97.388625
123.975873
140.129924
153.287649
152.403712
140.732527
124.514699
100.768805
81.720948
63.946843
52.786469
44.522882
39.174557
36.478639
35.977960
34.088492
34.462810
33.606887
33.911467
32.860637
33.265948
32.727718
32.030940
31.430721
31.314492
32.115579
30.084848
29.015541
28.228760
27.139783
26.223660
24.726987
24.136901
23.323894
22.420883
21.506548
20.661950
20.282865
19.892454
19.211769
18.044710
17.534494
17.349720
17.031431
17.008781
15.975833
15.699863
15.540719
##ZVALUE=295
1.269579
1.224875
1.411438
1.235604
1.145601
1.406670
1.221895
1.449585
1.412630
1.308918
1.510978
1.363754
1.298785
1.459718
1.781583
1.563430
1.600981
1.688600
1.550913
1.858473
1.834631
1.699924
1.979470
2.154708
2.462864
2.611876
2.882481
3.168583
3.218651
9.291768
35.941601
150.811672
313.085914
674.213767
991.833806
1015.788913
1015.788913
1015.788913
1015.788913
1015.788913
1015.788913
1015.788913
865.013003
464.779735
256.306529
96.230507
44.500828
28.779507
36.506653
54.104924
70.925951
98.104477
117.185712
136.213899
145.596862
144.961476
136.691928
118.651986
102.385879
80.288649
65.815449
49.429536
42.708516
36.878586
34.568906
32.444596
32.713413
32.812953
31.941533
31.153560
30.993819
30.689836
29.678941
29.397607
28.539896
27.360916
26.423931
25.714636
24.837852
23.732781
23.000836
21.954775
21.842718
20.282865
20.216703
19.602776
18.933415
18.865466
18.141866
17.131567
17.059445
16.252995
16.167760
15.641451
15.162826
14.921427
##ZVALUE=300
1.118779
1.172423
1.347661
1.288652
1.020432
1.201630
1.152754
1.177788
1.216531
1.503825
1.307726
1.432896
1.475811
1.349449
1.358986
1.314878
1.543760
1.423955
1.444817
1.753569
1.741648
1.872778
1.919866
1.988411
1.949668
1.993775
2.339482
2.459884
2.719760
2.788901
3.294945
3.948808
19.793510
72.850585
237.118602
451.351404
880.194902
1015.788913
1015.788913
1015.788913
1015.788913
1015.788913
1015.788913
1015.788913
1013.613939
708.819628
361.377001
196.447968
70.093870
33.354759
29.001832
37.419796
52.342415
67.363977
91.859698
110.363960
131.525993
137.979984
140.055418
134.914517
117.178559
101.044774
79.043508
63.645840
48.240423
40.112734
35.186410
31.954646
30.738711
30.078888
29.588938
28.888583
28.513670
27.890801
27.055740
27.070642
25.503635
24.996996
23.310781
23.407936
22.362471
21.856427
20.718575
20.625591
19.580722
19.009709
18.845797
18.396974
17.651916
17.536879
16.445518
15.909672
15.668869
15.333891
14.677644
14.452934
##ZVALUE=305
1.119971
1.193881
1.093745
1.126528
1.222491
1.105666
1.243949
1.323819
1.236796
1.414418
1.372695
1.409650
1.539588
1.423955
1.466870
1.486540
1.461506
1.511574
1.281500
1.405478
1.708865
1.704693
1.770854
1.734495
1.834631
2.041459
2.034903
2.080798
2.303720
2.218485
2.616644
2.658963
2.745986
3.611445
7.959604
53.213835
143.564939
384.132862
670.920610
1015.788913
1015.788913
1015.788913
1015.788913
1015.788913
1015.788913
1015.788913
1015.788913
851.361752
529.232621
239.732862
119.820833
45.004487
28.335452
30.408502
37.839413
53.245425
68.695545
90.758801
107.657909
125.692487
133.444667
132.640600
126.089454
110.244751
93.321800
71.547627
57.410002
45.565963
38.428903
31.773448
29.216409
27.741790
27.170777
26.593804
26.032925
25.029778
23.785830
23.530722
22.615790
21.881461
22.097826
20.207763
20.526648
19.838810
19.945502
19.141436
19.014478
17.488599
17.896891
17.063618
16.748905
16.321540
15.749931
15.599728
15.521646
14.748573
##ZVALUE=310
1.174808
1.037717
1.121759
1.179576
1.132488
1.208782
1.078844
1.368523
1.349449
1.385808
1.195669
1.178980
1.150966
1.348853
1.296997
1.419783
1.475811
1.507998
1.284480
1.460910
1.486540
1.517534
1.744628
1.801848
1.703501
1.766682
1.943707
1.927614
1.858473
2.256632
2.057552
2.259612
2.670884
2.720952
2.817512
3.453493
4.348755
22.454858
78.116655
245.419741
467.839837
908.831954
1015.788913
1015.788913
1015.788913
1015.788913
1015.788913
1015.788913
1015.788913
1015.788913
748.939514
377.679467
199.529529
72.759986
35.554767
25.556684
28.202534
37.114620
46.896935
64.307451
79.253912
99.108815
111.597776
121.133924
123.944879
117.602944
105.628967
86.997747
71.807504
52.690506
42.476654
33.691525
29.125810
25.135875
24.405718
23.249984
23.035407
21.781921
21.534562
20.602942
20.389557
19.716620
19.512773
19.246936
19.094944
18.564463
17.991662
17.850995
17.546415
16.966462
16.417503
16.048551
15.707612
15.516877
15.054941
14.902949
##ZVALUE=315
1.125932
1.111627
1.114607
1.204610
1.209974
0.905991
1.122952
1.218915
1.276731
1.095533
1.333952
1.181960
1.400709
1.183748
1.254678
1.307726
1.341701
1.244545
1.279712
1.405478
1.462698
1.514554
1.516938
1.577735
1.658797
1.790524
1.667738
1.945496
1.775622
1.894832
2.044439
2.106428
2.205968
2.297759
2.458692
2.943873
2.927780
3.258586
3.816485
10.139942
41.138530
164.224505
348.956585
736.905932
1015.788913
1015.788913
1015.788913
1015.788913
1015.788913
1015.788913
1015.788913
1015.788913
973.479748
530.535579
290.520787
107.678771
45.786500
23.735762
22.982955
26.611686
32.134652
43.030977
53.959489
71.620941
87.239742
103.774667
111.053586
114.126801
108.791590
94.788671
81.687570
63.164830
51.517487
37.777424
29.960871
25.050640
21.886826
20.552874
19.757748
19.581914
19.184947
18.574595
18.390417
18.300414
18.020868
17.607808
17.513633
17.273426
17.341971
16.634464
15.932918
15.949607
15.526414
15.351772
15.327930
14.854670
##ZVALUE=320
1.119971
1.064539
1.087785
1.087785
1.063943
1.040697
1.147985
1.096725
1.183748
1.307726
1.248717
1.291633
1.299977
1.152754
1.296997
1.217723
1.263618
1.226664
1.247525
1.303554
1.452565
1.455545
1.291633
1.250505
1.375675
1.426935
1.486540
1.638532
1.730919
1.754761
1.790524
1.755953
1.852512
1.837611
1.915693
2.253652
2.207756
2.536774
2.888441
3.036857
3.457665
4.936457
18.978715
99.179745
239.077806
568.442941
896.062851
1015.788913
1015.788913
1015.788913
1015.788913
1015.788913
1015.788913
1015.788913
1015.788913
679.537654
389.933586
165.910721
73.117614
24.880767
18.405914
18.738508
20.667911
26.308894
33.231974
47.268867
60.501695
80.543756
92.089772
102.768540
105.286837
99.593997
90.444684
73.603988
59.956908
43.757558
34.382939
25.650859
21.837950
18.448830
17.966628
17.104745
17.292500
16.778708
17.072558
16.694665
16.183853
16.322732
16.311407
15.965700
15.847683
15.676618
15.320778
15.026927
14.451742
14.781952
##ZVALUE=325
1.018643
1.126528
1.060963
1.007915
1.098514
1.056790
1.140833
1.162887
1.219511
1.252890
1.179576
1.205802
1.240969
1.223683
1.225471
1.231432
1.120567
1.254678
1.277924
1.136661
1.335740
1.210570
1.444817
1.328588
1.449585
1.510978
1.549721
1.505613
1.445413
1.519918
1.475811
1.688600
1.806617
1.994967
1.843572
2.130866
1.879930
2.162457
2.237558
2.440810
2.789497
2.926588
3.178716
3.847480
10.123849
67.664981
167.610645
400.030613
685.577989
1015.794873
1015.794873
1015.794873
1015.794873
1015.794873
1015.794873
1015.794873
1015.794873
944.727659
585.661530
253.928900
111.905932
33.112764
15.955567
13.306737
13.917685
16.979575
21.247864
30.413866
40.739775
58.735609
71.069002
85.743666
92.823505
95.465779
91.199875
78.778863
66.841841
50.239563
40.039420
29.195547
23.197532
18.883944
16.886592
15.831590
16.036630
15.335679
15.424490
15.313625
15.550852
15.014410
15.166998
14.653802
14.921427
14.401674
14.696717
14.696717
##ZVALUE=330
1.014471
0.963807
1.084805
0.951886
1.013875
1.196861
0.996590
0.996590
0.940561
1.008511
1.089573
1.008511
0.780821
1.000762
0.947714
1.238585
1.107454
0.970960
1.123548
1.183748
1.068711
1.136661
1.244545
1.202822
1.408458
1.394749
1.227856
1.340508
1.417994
1.466870
1.261830
1.371503
1.449585
1.528859
1.582503
1.892447
1.857877
2.032518
1.927614
2.127886
2.091527
2.386570
2.587438
2.767444
2.876520
3.684759
5.317926
30.394793
92.896819
284.167528
514.712930
955.964923
1015.759706
1015.759706
1015.759706
1015.759706
1015.759706
1015.759706
1015.759706
978.579521
649.094582
307.153463
152.795911
51.543713
20.409822
11.873841
11.572838
12.735724
14.502406
20.273924
26.999712
39.471984
50.940514
68.433881
77.387691
87.535977
87.894797
83.270669
74.841976
60.811639
49.941540
36.253929
28.203726
21.622777
18.657446
16.161799
15.215874
14.502406
14.197826
14.552474
14.026761
14.414787
13.976693
13.715625
14.208555
13.585687
##ZVALUE=335
0.982881
0.913739
1.053810
1.018643
0.862479
1.106858
0.912547
0.978708
1.049638
1.139641
1.203418
1.228452
1.061559
1.181960
1.161695
0.894666
0.943542
0.912547
1.010895
0.944734
1.167655
1.109838
1.140833
1.272559
1.232624
1.091957
1.265407
1.348853
1.448989
1.444817
1.448989
1.454949
1.412630
1.434684
1.272559
1.645684
1.700521
1.684427
1.765490
1.847744
1.905560
1.982450
2.046824
2.368689
2.377629
2.614856
2.846718
3.076792
3.566742
13.039708
48.383474
177.561641
351.643562
733.920932
1015.788913
1015.788913
1015.788913
1015.788913
1015.788913
1015.788913
1015.788913
1015.788913
818.051100
426.071882
223.618746
73.390603
28.284788
12.959838
11.484623
11.430979
12.480617
15.203953
19.136667
27.310848
36.191940
50.733685
61.709881
73.734522
79.846978
81.445575
77.613592
67.216754
58.194995
46.949983
38.423538
27.619600
22.611618
17.872453
15.881658
14.291406
13.526678
13.530850
13.740659
13.367534
13.134480
13.246536
##ZVALUE=340
0.974536
1.124740
1.068711
0.873804
1.052618
0.897646
1.018643
1.118779
1.122952
1.018643
1.209974
1.037717
0.806451
1.085997
0.900626
1.076460
0.974536
1.149774
1.043677
1.070499
0.917912
1.185536
1.012683
1.031756
1.107454
1.221895
1.098514
1.317859
1.332760
1.322627
1.195669
1.250505
1.308918
1.437664
1.447797
1.467466
1.366735
1.519918
1.596808
1.572967
1.637936
1.737475
1.787543
2.037883
2.124906
2.101660
2.392530
2.622604
2.676845
3.064871
3.446937
6.196499
24.185777
112.305880
256.386995
593.952537
950.909853
1015.788913
1015.788913
1015.788913
1015.788913
1015.788913
1015.788913
1015.788913
985.792875
547.772646
302.300453
110.180974
42.098761
14.748573
11.328459
10.972619
11.515617
12.407899
13.989806
19.275546
24.467707
35.400987
45.170784
58.851838
68.693757
75.686574
77.341795
72.140694
66.690445
54.453611
46.554804
35.815835
28.188825
20.811558
17.364621
14.793873
13.494492
13.010502
13.063550
12.799501
##ZVALUE=345
0.929832
1.002550
0.924468
1.034737
0.974536
0.845790
1.075864
1.108646
0.900626
1.082420
1.022816
0.921488
1.062751
0.939965
0.917912
0.908971
1.035929
1.243949
1.179576
1.058578
1.110435
1.164675
1.147985
1.090765
1.203418
1.076460
1.095533
1.207590
1.045465
1.325607
1.040697
1.396537
1.308918
1.390576
1.237988
1.374483
1.399517
1.367927
1.443624
1.470447
1.402497
1.502633
1.775622
1.729727
1.861453
1.943707
2.036691
1.973510
2.138615
2.288818
2.448559
2.941489
2.961755
3.858805
10.789633
65.400600
168.778896
407.419801
692.589879
1015.788913
1015.788913
1015.788913
1015.788913
1015.788913
1015.788913
1015.788913
1015.788913
708.194971
401.898623
157.189965
68.664551
20.159483
11.883974
11.195540
10.757446
10.781884
11.335611
13.065934
16.198754
23.506880
30.790567
43.652654
52.276850
61.608553
68.178773
71.234703
69.096684
62.093735
54.603815
44.080615
35.399795
25.983453
20.615458
15.941858
13.869405
12.564659
##ZVALUE=350
0.941753
1.072884
0.827909
0.900626
0.963807
1.037717
0.963807
1.135468
1.012683
1.016855
0.898838
1.122952
1.089573
1.034737
1.004934
1.153946
1.199841
1.044869
0.975728
1.055598
1.244545
1.262426
1.176596
1.270771
1.000762
1.168847
1.215935
1.125932
1.179576
1.415610
1.131892
1.170635
1.166463
1.183748
1.342893
1.203418
1.361966
1.406670
1.479983
1.447797
1.557469
1.558661
1.463890
1.602769
1.726747
1.794696
1.627803
1.938939
1.992583
2.103448
2.297759
2.217889
2.525449
2.686977
3.075600
3.109574
7.148981
27.618408
114.017725
249.036551
562.017560
896.593928
1015.788913
1015.788913
1015.788913
1015.788913
1015.788913
1015.788913
1015.788913
846.912861
433.809757
238.398910
89.877844
33.106804
12.147427
10.422468
9.951591
9.551644
9.498596
9.779930
12.180805
15.420914
20.631552
27.520657
37.278533
45.915842
55.903792
60.871840
64.354539
63.597560
58.254600
51.312447
40.774941
33.382773
24.807453
19.851923
##ZVALUE=355
0.989437
1.033545
0.994802
0.941753
1.099706
1.075864
1.003742
1.132488
1.093745
1.114607
1.059771
0.996590
1.048446
1.046658
0.949502
1.078844
1.051426
1.189709
1.019835
1.021624
1.220703
1.113415
1.140833
1.168847
1.217723
1.328588
1.252890
1.281500
1.199841
1.281500
1.090765
1.264811
1.245737
1.215935
1.258850
1.430511
1.352429
1.384616
1.372695
1.468658
1.495481
1.594424
1.447797
1.680851
1.632571
1.811981
1.826882
1.806617
1.962781
1.937747
2.089739
2.035499
2.137423
2.508759
2.566576
2.698898
2.938509
3.170967
4.024506
16.562939
58.716536
200.617909
386.487842
750.224590
1015.794873
1015.794873
1015.794873
1015.794873
1015.794873
1015.794873
1015.794873
980.013013
646.622777
291.768909
137.394667
38.799644
15.002489
9.593964
9.267926
8.712411
8.756518
9.025931
9.639859
11.162758
13.446808
18.713474
24.151802
33.118725
40.592551
49.287677
54.724813
59.058666
58.559775
52.851439
47.314763
38.888454
##ZVALUE=360
1.079440
0.966787
0.922680
1.046658
1.025796
1.071692
1.055598
1.102686
0.814795
1.225471
1.167655
1.074672
1.023412
1.067519
1.254678
1.062751
1.099706
1.051426
1.058578
1.169443
1.116991
1.188517
1.229644
1.162887
1.042485
1.212955
1.152754
1.205802
1.124740
1.433492
1.317859
1.028776
1.248717
1.546741
1.478791
1.291633
1.481771
1.462698
1.445413
1.319647
1.521707
1.653433
1.461506
1.560450
1.623631
1.745820
1.700521
1.662970
1.741648
1.789927
2.006888
2.042651
2.079606
2.174973
2.360940
2.445579
2.500415
2.703667
3.062487
3.203750
3.820658
7.146001
26.340485
108.108521
244.343877
560.919046
879.068971
1015.792489
1015.792489
1015.792489
1015.792489
1015.792489
1015.792489
1015.792489
813.926458
405.077934
210.415721
72.431564
26.078820
9.719729
9.077787
8.546710
8.256435
8.174777
8.230805
8.904934
9.684563
11.839867
14.921427
20.379424
26.811957
35.717487
42.385459
50.078630
52.323937
53.198934
##ZVALUE=365
1.176000
1.187921
1.281500
1.172423
1.227856
1.181960
1.150966
1.097918
1.068711
1.216531
1.307726
1.379848
1.184940
1.144409
1.294613
1.224875
1.274943
1.172423
1.256466
1.275539
1.195669
1.296997
1.436472
1.255870
1.385808
1.265407
1.339912
1.355410
1.334548
1.402497
1.257658
1.296997
1.452565
1.484752
1.487732
1.498461
1.445413
1.570582
1.509786
1.393557
1.444817
1.490712
1.473427
1.646876
1.577735
1.623631
1.745820
1.765490
1.794696
1.904964
1.904964
1.951456
1.979470
1.960993
2.232790
2.286434
2.227426
2.497435
2.814531
2.699494
3.194809
3.466606
3.530979
4.345775
11.353493
63.617826
159.800649
386.340618
676.527619
1015.932560
1015.932560
1015.932560
1015.932560
1015.932560
1015.932560
1015.932560
966.004729
542.167425
300.096869
108.832717
41.004419
11.452436
8.624792
7.959604
7.736683
8.108616
7.670522
7.851720
7.960796
8.738637
9.992719
13.514757
17.097592
23.521781
29.297471
36.884546
##ZVALUE=370
0.999570
1.040697
1.043677
0.915527
0.939965
0.998974
1.082420
1.046658
1.037717
1.101494
1.022816
0.995994
0.867844
0.989437
1.080632
1.101494
1.142621
1.117587
1.027584
1.091957
1.080632
1.025796
1.089573
1.155734
0.999570
1.128912
1.161695
1.315475
1.176000
1.128912
1.201630
1.242757
1.206994
1.028776
1.284480
1.366735
1.338720
1.371503
1.275539
1.251698
1.279712
1.332760
1.277924
1.439452
1.484752
1.354814
1.463890
1.321435
1.533628
1.406670
1.561642
1.486540
1.497865
1.818538
1.684427
1.951456
1.826882
1.974702
1.910925
2.160668
2.215505
2.636909
2.689958
2.745986
3.059506
3.600717
5.699992
35.206676
105.767846
295.876861
541.239977
965.529680
1015.788913
1015.788913
1015.788913
1015.788913
1015.788913
1015.788913
1015.788913
665.615797
379.613638
150.840878
62.603951
17.092824
8.641481
7.406473
7.241964
7.118583
7.016659
6.610751
6.825924
7.017851
7.635951
9.024739
10.881424
14.936924
##ZVALUE=375
0.935793
0.879765
0.841618
0.784993
0.961423
0.906587
0.915527
1.043677
0.890493
0.906587
0.917912
0.914931
0.928640
0.954866
0.976920
1.016855
1.073480
0.931621
0.950694
0.930429
0.983477
1.197457
0.995994
0.936985
0.843406
1.000762
1.046658
1.086593
1.047850
1.053810
1.071692
1.106858
0.986457
1.141429
1.083612
1.103878
1.067519
1.262426
1.151562
1.211762
1.314878
1.151562
1.315475
1.526475
1.226664
1.330972
1.278520
1.311898
1.235604
1.500845
1.480579
1.431704
1.571774
1.399517
1.303554
1.643896
1.570582
1.682639
1.702905
1.776814
1.811981
1.783967
1.840591
2.077818
2.281666
2.475977
2.704859
2.994537
3.950596
16.690493
57.584643
187.388659
369.893909
766.968727
1015.788913
1015.788913
1015.788913
1015.788913
1015.788913
1015.788913
1015.788913
816.531777
511.924624
251.857638
122.813582
35.499930
13.004541
7.248521
6.580949
6.495714
6.487966
6.298423
6.423593
6.236434
6.127954
6.959438
##ZVALUE=380
0.899434
0.885725
0.860691
1.035929
0.817776
0.831485
0.876784
0.898838
1.006722
0.782609
0.864863
0.821948
0.790954
0.810623
0.826716
0.993609
0.933409
0.955462
0.929832
0.950694
0.995994
0.966787
1.164675
0.894666
0.968575
0.955462
1.006722
1.151562
1.102686
1.027584
0.932813
1.075864
1.147985
1.156926
1.152754
1.318455
1.119971
1.225471
1.118779
1.069903
1.282692
1.119971
1.178980
1.086593
1.180768
1.208782
1.129508
1.350641
1.238585
1.372695
1.180768
1.480579
1.461506
1.244545
1.307726
1.427531
1.494884
1.446605
1.489520
1.464486
1.592636
1.656413
1.709461
1.752973
1.965761
2.072453
2.217889
2.679825
2.912879
3.310442
3.870726
8.361936
32.810569
143.221617
306.431651
662.874579
986.057520
1015.785933
1015.785933
1015.785933
1015.785933
1015.785933
1015.785933
985.055566
678.955913
336.174965
172.706842
57.376623
21.205544
7.894635
6.653666
6.265640
6.122589
6.000996
5.872846
5.637407
##ZVALUE=385
0.894666
0.779629
0.898838
0.824928
0.780821
0.947714
0.809431
0.941753
0.821948
0.921488
0.895858
0.890493
0.756979
0.796914
0.827909
0.878572
0.829697
0.814795
0.959635
0.986457
1.019835
0.888705
0.907779
0.939965
0.935793
1.066923
0.951886
1.046658
1.099706
1.174808
1.212955
1.239777
1.176000
1.338720
1.422763
1.232624
1.308918
1.416802
1.221895
1.274943
1.425743
1.277924
1.235604
1.246929
1.327991
1.370907
1.311898
1.381636
1.240969
1.389980
1.396537
1.310706
1.485944
1.240969
1.460910
1.345873
1.447797
1.480579
1.475811
1.493692
1.524687
1.583695
1.682639
1.696944
1.848936
1.873970
2.124906
2.200603
2.373457
2.585649
2.981424
3.124475
3.297925
4.456639
15.261769
81.084967
195.358396
453.652740
764.487982
1015.790701
1015.790701
1015.790701
1015.790701
1015.790701
1015.790701
1015.790701
919.955969
510.305762
291.740894
118.211508
45.136809
10.534525
6.365776
5.945563
5.861521
5.454421
##ZVALUE=390
0.783801
0.808835
0.647902
0.893474
0.832677
0.930429
0.730753
0.844598
0.778437
0.862479
0.890493
0.874996
0.800490
0.952482
0.905991
0.805855
0.965595
0.980496
0.878572
0.824928
0.920892
0.923872
0.684857
1.032948
0.985861
1.167655
1.183748
1.036525
1.020432
1.151562
1.295805
1.243949
1.458526
1.413822
1.437664
1.304746
1.309514
1.396537
1.440644
1.377463
1.492500
1.368523
1.358986
1.282692
1.433492
1.301765
1.347661
1.456738
1.432896
1.429915
1.503825
1.439452
1.321435
1.384616
1.426935
1.515746
1.605749
1.507998
1.601577
1.587868
1.516938
1.587868
1.585484
1.817942
1.684427
1.832843
2.020597
2.147555
2.245903
2.519488
2.536774
2.961755
2.694726
3.038645
3.162622
3.411770
7.073879
43.556690
124.726892
346.729755
615.445971
1015.790701
1015.790701
1015.790701
1015.790701
1015.790701
1015.790701
1015.790701
1015.790701
724.743009
427.722931
172.892809
74.539781
17.679930
7.350445
5.758405
##ZVALUE=395
0.782609
0.831485
0.870824
0.841618
0.852942
0.749826
0.782609
0.890493
0.860691
0.830889
0.925660
0.989437
0.800490
0.891685
0.889897
0.781417
0.955462
0.874996
0.762939
0.932813
0.895858
0.790954
1.007915
0.907779
0.932813
0.922680
1.039505
1.173615
1.261830
1.308918
1.325607
1.321435
1.460910
1.624823
1.564622
1.428723
1.503825
1.408458
1.474619
1.395941
1.560450
1.515746
1.621842
1.570582
1.531839
1.480579
1.518726
1.537800
1.550913
1.423955
1.584888
1.429915
1.497865
1.431704
1.522899
1.592636
1.360774
1.450777
1.446605
1.533628
1.544952
1.649857
1.539588
1.795888
1.776814
1.827478
1.840591
2.134442
2.172589
2.214909
2.532601
2.352595
2.722740
2.723932
2.692938
2.751946
2.790689
3.139973
4.523993
25.412440
84.723830
267.600417
496.845841
923.736691
1015.788913
1015.788913
1015.788913
1015.788913
1015.788913
1015.788913
1015.788913
878.427625
564.960837
269.555449
126.813650
37.184954
##ZVALUE=400
0.951886
0.920892
0.852942
0.837445
0.875592
0.880957
0.911951
1.039505
0.976920
0.923872
0.789762
0.826716
0.980496
0.907779
0.865459
0.873804
0.817776
0.934601
0.817776
0.913739
0.898838
0.877976
0.832677
1.009703
1.016855
0.978708
1.017451
1.121759
1.032948
1.342893
1.270771
1.327991
1.399517
1.533628
1.500845
1.475811
1.422763
1.436472
1.509786
1.629591
1.486540
1.421571
1.388788
1.665950
1.558661
1.481771
1.417994
1.504421
1.598597
1.478791
1.454949
1.684427
1.584888
1.605749
1.615882
1.575947
1.638532
1.561642
1.516938
1.636744
1.679659
1.691580
1.807809
1.650453
1.749992
1.826882
2.044439
2.072453
2.258420
2.307892
2.515912
2.448559
2.521873
2.299547
2.442598
2.319813
2.275705
2.555847
2.783537
3.166795
3.569722
13.634562
48.854947
162.713528
330.010653
697.138906
1002.565026
1015.795469
1015.795469
1015.795469
1015.795469
1015.795469
1015.795469
1002.109647
693.148971
354.924798
##END
