##TITLE=FSH702
##FORMAT=SPECTACLE-ASCII V-1.2
##DATA TYPE=ULTRAVIOLET SPECTRUM
##SECOND TYPE=ULTRAVIOLET SPECTRUM
##DATE=11/28/17
##TIME=18:19:37
##SPECTROMETER/DATA SYSTEM=SPECTACLE
##XUNITS=NM EM
##YUNITS=ENERGY
##YFACTOR=1
##FIRSTX=220
##LASTX=410
##NPOINTS=96
##3DDATA=Equidistant
##ZUNITS=NM EX
##FIRSTZ=210
##LASTZ=400
##ZPOINTS=39
##XYDATA=(Y..Y)
##ZVALUE=210
2.568960
2.767444
3.112555
2.891421
2.791882
3.856421
3.955960
3.512502
3.410578
3.399849
3.412962
4.190803
3.945827
3.567934
4.319549
4.321933
4.397631
4.548430
4.706979
5.066991
5.160570
5.206466
5.746484
6.306767
6.888509
6.765723
7.463694
8.418560
8.479953
8.253455
8.674860
8.570552
8.661747
9.866953
10.108948
9.450912
9.555817
10.245442
10.699630
10.300875
11.993647
12.013912
10.981560
10.134578
11.623502
11.294484
11.522770
11.683702
12.179613
14.240742
12.369752
12.713671
13.011694
13.078451
12.985468
13.168454
13.331771
13.675690
15.188456
14.901757
15.997887
14.287829
14.501810
14.404655
15.931726
15.774965
16.899705
19.756556
22.396445
25.972724
30.473471
35.740733
43.319464
47.716498
55.700541
57.225823
59.497952
61.164498
60.027838
56.241751
53.490996
51.285625
43.875575
39.062500
31.362772
27.277470
21.487474
20.532608
18.727779
17.663836
16.051531
15.767813
16.167760
16.844869
16.242862
16.553998
##ZVALUE=215
6.840825
7.021427
6.824732
5.587935
5.842447
4.520416
5.493760
5.711913
6.854534
5.994439
6.472468
5.794764
5.670786
4.713535
5.719662
5.311966
4.593730
5.119443
5.414486
5.225539
5.853772
6.306767
7.550716
7.268786
7.759929
8.270741
7.520914
8.682609
9.352565
8.992553
9.624958
9.842515
10.798573
12.140870
10.881424
11.455417
11.822581
11.666417
11.918545
12.242794
13.573766
12.889504
13.021827
13.079643
12.007952
14.211535
14.083982
13.698936
14.512539
13.474822
13.439655
14.986992
13.818741
14.748573
14.670491
17.125607
14.694929
16.937852
16.358495
15.367866
16.161799
15.440583
16.583800
15.916824
17.373562
17.467737
17.416477
19.946694
22.241473
26.589632
28.163791
36.328435
40.750504
46.292543
50.018430
53.933859
56.681633
59.270859
59.212446
54.054856
51.207542
49.628615
44.496655
35.258532
31.759739
27.508736
23.758411
20.608902
18.612742
18.966794
16.582608
16.734600
18.298626
16.472936
16.961694
17.125607
##ZVALUE=220
20.257831
21.138787
23.089647
24.827719
24.726987
21.879673
18.336773
16.246438
12.406707
11.767745
11.281967
12.036562
11.357665
11.940598
10.811687
9.296536
7.819533
7.046461
6.612539
5.871654
6.694794
6.586909
7.149577
6.566644
8.526444
8.093715
7.791519
10.172725
9.463429
10.626912
11.168718
10.507703
11.422634
11.974573
13.023615
13.212562
13.091564
13.775826
12.226701
14.212728
13.824701
14.701486
12.915730
14.349818
14.632940
15.038848
14.221668
16.360879
15.271902
16.427636
16.490817
16.365647
17.151833
16.191602
16.875863
17.329454
17.405748
17.382503
18.535852
18.738508
18.405914
19.815564
18.985868
19.963980
20.822883
20.913482
20.587444
24.598837
24.468899
29.176474
34.540892
37.646890
41.701794
45.009851
52.285790
54.147840
55.483580
56.198835
55.616498
55.381656
51.150918
47.633648
44.704676
37.516952
32.226443
29.140711
26.671886
26.390553
23.565888
21.850467
20.740628
21.434426
19.604564
20.238757
19.541979
19.196868
##ZVALUE=225
36.785603
37.772655
56.093931
70.934892
87.083578
91.653466
85.657835
73.052645
57.419538
39.829612
28.113723
24.740696
23.513436
26.488900
25.501847
23.839474
21.381974
18.403530
14.326572
10.618567
9.578466
8.240938
7.216930
8.284450
8.258820
8.744597
8.548498
9.011626
10.014772
10.910630
11.586547
12.181997
12.441874
14.482737
13.517737
15.993714
15.195608
14.915466
15.947819
16.701818
16.435981
16.701818
16.116500
16.591549
17.412901
18.653870
18.421412
18.765926
20.541549
19.039512
19.528866
20.067692
20.236969
21.659732
22.721887
23.862720
23.273826
25.322437
23.322701
23.332834
23.336411
25.502443
24.900436
23.726821
24.066567
24.928451
27.643442
29.028654
30.766726
34.811497
36.526918
39.508939
44.744611
50.560832
51.232576
51.919818
55.404902
55.592656
55.400729
48.960447
47.289729
44.390559
41.368604
37.916899
35.311580
31.613708
30.454993
30.303597
27.547479
26.414990
27.836561
28.485656
28.455853
26.625991
26.648641
25.485754
##ZVALUE=230
27.094483
30.670762
57.866573
99.248886
144.909620
192.977786
222.624540
244.451761
232.042670
203.682780
141.987801
98.574758
64.982772
47.778487
47.104955
46.658516
47.820807
47.309995
43.199658
35.690665
28.561950
19.865632
15.542507
11.853576
10.264516
9.664893
9.478927
9.607673
9.472966
9.215474
12.868643
11.873841
11.895895
12.916923
12.990832
13.390779
14.511943
15.500784
15.703440
17.583966
17.025471
18.775463
18.320680
18.153787
21.670461
20.667911
20.603538
22.211671
23.768544
25.124550
23.926497
26.624799
26.861429
29.891729
29.184818
28.866529
28.596520
30.500889
31.135678
31.172633
33.892989
33.014417
33.123493
36.197901
33.934712
37.600994
36.661625
40.741563
41.230917
44.457912
46.505928
52.183867
55.241585
58.690906
61.746836
63.436627
64.137578
64.922571
63.390732
60.647726
58.088899
54.326653
49.580932
49.048662
44.333935
42.896867
42.103529
38.206577
37.334561
40.834546
39.248466
37.544966
37.253499
37.004948
34.588575
38.727522
##ZVALUE=235
10.364652
12.721419
32.344460
67.297816
134.482980
216.256976
332.973599
439.127684
516.256690
538.078547
485.690832
400.682688
308.054686
197.690725
129.396915
82.938671
70.443749
75.180531
77.879429
81.204772
72.115660
69.477558
51.051974
39.998889
29.096603
20.651817
14.223456
11.630654
11.712909
11.226535
11.245608
12.057424
13.380647
12.808442
13.599992
14.151931
15.060902
16.219616
16.386509
19.161701
20.661950
19.797683
21.547675
25.442839
26.752949
25.564432
28.016567
28.167963
31.594634
34.195781
35.293698
35.462976
38.258433
39.546490
42.443871
44.036508
42.940974
45.120716
46.092868
46.261549
45.109987
46.491623
49.911737
52.414536
51.005483
55.093765
51.566958
53.879619
56.887865
62.709451
68.458915
68.580508
70.253611
75.615644
80.952644
81.053972
82.912445
83.625913
81.810951
77.191591
74.211955
72.178841
68.014860
63.803792
62.125921
57.222843
57.868958
55.571795
57.354569
56.337714
54.487586
52.993894
53.604841
51.832795
52.358508
49.612522
##ZVALUE=240
2.731681
2.926588
7.543564
16.741753
51.763654
102.566481
228.119493
372.914672
588.746667
752.905011
889.454484
916.525722
858.168006
696.663857
539.406538
329.188704
224.010944
132.806897
104.756951
97.971559
105.919838
110.683441
108.278990
99.571943
82.473755
66.558719
49.336553
36.366582
26.482940
19.338727
14.152527
14.284849
14.624596
15.192628
15.609860
16.445518
17.116666
19.849539
18.015504
21.676421
23.703575
26.046634
28.446913
28.916597
33.042431
33.200979
35.584569
39.489865
42.787790
42.495728
49.717426
49.293637
51.849484
51.280856
54.664612
56.049824
58.452487
60.779452
60.381889
62.244534
64.525604
60.901642
65.218806
68.091750
65.241456
66.161752
65.203905
67.575574
72.985888
73.496699
78.649521
84.653497
84.491968
88.038445
88.417530
95.489621
92.423558
91.939569
90.920925
87.853670
86.737871
84.374547
80.495477
79.724789
71.410537
74.818730
68.444610
69.855452
70.931911
66.512823
66.341758
66.273808
64.713955
64.444542
64.347982
65.183640
##ZVALUE=245
2.205968
2.339482
2.564788
2.372861
4.960895
14.404655
53.475499
116.366744
264.319777
421.471000
690.211654
886.150599
1013.285518
1015.788913
1015.788913
893.886685
726.722479
482.944846
319.250822
176.253915
120.311975
99.454522
113.262534
120.966434
125.676990
126.522779
111.800432
94.230771
73.241591
58.879852
42.349696
28.415918
20.821691
15.780926
15.672445
16.122460
16.711950
18.333793
20.084977
20.627975
23.393631
26.427507
28.952956
30.565858
31.297803
35.709739
38.209558
42.110682
43.194890
46.188831
49.866438
52.672625
52.485466
54.473877
58.286786
57.133436
59.958696
61.055422
60.739517
63.785911
64.982772
63.344836
64.066648
66.205859
63.371658
61.490536
65.749884
67.399740
68.700910
69.877505
71.075559
76.218843
78.355670
80.818534
83.705783
84.000826
84.407926
84.639788
83.183646
81.836581
79.714656
80.853701
77.111721
73.709488
73.285699
71.730614
68.212748
66.496730
69.489479
67.477822
66.855550
64.878464
61.702728
64.624548
63.469410
63.848495
##ZVALUE=250
2.499819
2.184510
2.684593
2.139807
2.236962
2.619624
3.500581
13.524890
40.341616
111.921430
222.034454
455.949903
700.084567
1001.733541
1015.788913
1015.788913
1015.788913
1015.788913
1015.788913
707.995892
473.489761
304.478407
148.574710
105.283856
101.180673
112.814903
123.851895
132.796764
128.062963
118.165612
103.925467
81.967711
63.632727
41.936636
30.602813
20.969510
18.624663
18.025637
17.817616
20.437837
23.516417
24.926662
27.573705
31.145811
31.190515
36.201477
37.802458
41.331649
43.744445
45.570731
47.688484
50.010681
50.875545
53.078532
54.121614
55.847764
55.223703
56.804419
57.369471
57.910681
59.682727
56.966543
57.733655
57.014823
56.946874
56.725740
57.255626
57.735443
58.392882
60.292482
64.343810
65.966845
66.590905
70.557594
74.823499
74.438453
74.546933
70.734620
71.560740
69.379807
71.164966
69.009662
66.818595
65.193772
62.206984
62.060952
61.754584
60.816407
59.999824
60.731769
59.087873
60.438514
60.493946
58.375597
59.493780
60.332417
##ZVALUE=255
2.149940
2.084970
1.908541
2.130866
2.315640
2.672672
2.184510
2.879500
3.394485
6.742477
35.271645
85.072517
177.009702
402.263999
652.042627
1004.723907
1015.788913
1015.788913
1015.788913
1015.788913
1015.788913
1013.357639
644.858479
392.315984
186.157823
115.773678
93.556643
97.196698
119.711757
133.136511
140.261650
136.798620
127.879977
104.807615
85.659623
60.889721
45.953989
30.988455
25.406480
22.094846
23.179650
23.222566
25.142431
28.832555
30.264854
32.084584
34.706593
36.305785
37.343502
40.563941
42.806864
46.050549
46.893954
46.761632
46.361685
46.018958
47.970414
47.888756
48.481822
47.072768
49.498677
49.454570
47.523975
47.707558
48.243999
48.892498
47.474504
50.554872
48.865676
52.956939
54.506660
57.079792
57.035685
60.158968
59.689879
60.340762
64.460635
61.779618
61.972737
61.299801
61.629415
57.205558
57.858825
57.155490
57.546496
57.150722
58.001876
55.407882
54.508448
55.422783
55.064559
53.858757
54.226518
54.722428
55.686831
54.628849
##ZVALUE=260
2.140999
2.153516
2.100468
2.268553
1.793504
2.246499
1.960993
2.594590
2.593994
2.737641
2.882481
4.081726
19.879937
53.893924
152.044892
300.517678
619.466901
923.676491
1015.788913
1015.788913
1015.788913
1015.788913
1015.788913
1015.788913
1033.810973
589.040518
358.835459
169.274807
106.902719
87.456703
96.563697
124.931931
141.590834
149.049759
146.876574
132.108927
114.759803
85.442662
68.145990
48.694611
37.129521
29.306412
25.434494
25.833845
26.298761
28.734803
30.273795
32.645464
33.703446
35.675764
38.101673
38.553476
37.667751
40.001869
40.526986
40.993690
41.774511
41.868687
41.571856
42.008758
42.063594
41.859746
42.672753
42.647719
42.345524
44.087768
42.508841
43.039918
44.777989
45.188665
46.993494
49.219728
49.274564
52.895546
53.684711
55.084825
54.027438
54.861903
53.452849
52.642822
52.858591
52.851439
53.255558
50.574541
50.656796
50.139427
51.209927
50.304532
51.180720
51.721931
51.980615
51.322579
51.999688
49.891472
49.511790
51.109791
##ZVALUE=265
2.040863
1.698732
1.864433
1.896620
1.940727
2.301931
2.269745
2.400875
2.101660
2.123713
2.476573
2.863407
3.144741
3.668666
9.046793
46.611428
112.152696
278.219581
486.362576
898.141861
1015.788913
1015.788913
1015.788913
1015.788913
1015.788913
1015.788913
1015.788913
961.512923
545.989871
319.160819
178.496838
88.467002
81.029534
109.227896
125.164986
147.646666
154.651999
148.092508
134.023428
114.154816
94.132423
67.654848
52.778721
38.456917
31.798482
27.048588
27.615428
28.384924
29.788613
32.230616
32.792687
34.258962
35.162568
35.044551
36.352873
37.477612
37.222505
38.719773
37.583709
38.328767
38.584471
37.784576
38.452744
38.538575
39.315820
38.259625
40.179491
40.682554
41.250587
41.661859
43.583512
45.471787
45.691729
48.459768
48.955679
49.581528
50.323606
50.076842
49.803853
49.115419
48.271418
47.696829
47.013760
48.118830
46.707988
48.457980
47.267675
46.112537
47.428608
46.542883
47.849417
45.973659
48.548579
46.611428
47.523975
48.130751
##ZVALUE=270
1.701713
1.699924
1.647472
1.781583
1.718998
1.971722
2.055764
1.904964
1.840591
1.978874
2.040863
2.358556
2.489686
2.766848
3.007650
3.134608
4.487634
18.153787
85.601807
192.411542
451.236963
747.300982
1015.788913
1015.788913
1015.788913
1015.788913
1015.788913
1015.788913
1015.788913
1015.788913
856.589675
439.274907
238.748789
104.009509
71.929693
82.767606
104.522705
132.015944
146.458745
155.580640
150.982738
138.289928
117.724538
93.019605
75.714588
51.432848
40.682554
34.398437
30.577779
29.545426
31.571984
33.022761
33.113956
34.782887
35.524964
35.907626
37.096739
36.165714
38.788915
39.459467
37.896633
38.977861
39.629936
39.395690
39.263964
39.941669
40.232539
40.637851
41.473508
43.345690
43.894649
45.667887
47.258735
48.267841
47.822595
49.144626
48.360825
49.315691
48.554540
49.076676
47.809482
46.782494
45.986772
45.262575
45.418739
44.738650
45.180917
45.282841
44.666529
46.071410
45.507550
44.859648
44.996738
43.826699
44.309497
44.020414
##ZVALUE=275
1.842976
1.687407
1.646876
1.587868
1.935959
1.569986
1.699924
1.545548
1.782775
2.015829
2.035499
2.215505
2.504587
2.437830
2.545714
2.669692
2.893806
3.161430
3.552437
10.832548
44.116974
130.945444
365.256667
664.908886
1015.788913
1015.788913
1015.788913
1015.788913
1015.788913
1015.788913
1015.788913
1015.788913
1015.788913
592.243671
335.189700
138.029456
76.406002
63.630939
79.830885
107.121468
128.351450
147.406459
156.098604
154.446959
140.493512
115.505457
97.371936
74.504614
59.918761
45.552850
39.546490
34.744740
34.605861
34.160614
34.904480
36.181808
37.558675
39.233565
38.765669
39.339662
41.489601
41.997433
41.058660
40.984750
41.047931
41.530728
43.069720
42.957664
43.273568
44.033527
45.699477
47.263503
47.460794
48.626661
47.893524
48.715472
48.866868
49.882531
47.282577
46.683550
47.754645
46.740770
46.235919
44.133663
45.443773
44.402480
43.484569
43.243766
43.480992
43.162704
43.401718
42.483807
42.786598
42.727590
43.048859
42.557716
##ZVALUE=280
1.649857
1.518726
1.760721
1.686811
1.687407
1.557469
1.744628
1.947880
1.745820
1.713634
1.705885
1.737475
2.026558
1.899600
2.005696
2.303720
2.520680
2.630949
2.718568
2.963543
3.153682
4.398823
27.424693
97.262859
300.869942
538.445711
957.921743
1015.789509
1015.789509
1015.789509
1015.789509
1015.789509
1015.789509
1015.789509
1015.789509
624.167919
363.417864
153.886676
77.536702
50.874949
58.249831
84.733963
105.124712
130.490661
145.071745
152.581930
150.281787
138.288736
122.290850
98.277926
80.634952
62.233806
51.483512
43.226480
39.851665
38.010478
39.324760
40.851831
41.121840
42.770505
42.763948
43.422580
43.608546
44.723749
44.755936
45.320988
44.219494
45.681596
46.508908
47.379732
47.222972
47.500730
48.897862
47.179461
49.470663
49.040914
48.792958
47.442913
46.849847
47.114491
47.354698
46.863556
46.100616
43.964982
44.505596
44.967532
43.399930
44.071674
43.427944
43.323636
42.390823
41.810870
41.509867
41.793585
41.799545
41.289926
##ZVALUE=285
1.428723
1.595616
1.472831
1.545548
1.533628
1.513958
1.590848
1.749992
1.857877
1.767874
1.751781
1.615882
1.694560
1.856685
1.914501
1.971722
2.169609
2.125502
2.285838
2.545714
2.676845
3.267527
3.316998
4.109740
10.244846
62.465668
159.655809
407.795906
694.779754
1015.788913
1015.788913
1015.788913
1015.788913
1015.788913
1015.788913
1015.788913
1015.788913
863.761902
533.693433
245.422721
121.834874
50.635934
43.138862
58.268905
75.313449
105.236769
122.016668
144.656897
151.929855
151.696801
141.903758
125.531554
108.479857
85.308552
70.867538
55.842996
48.773885
45.135617
44.795871
46.441555
46.837926
47.831535
47.815442
48.126578
47.078729
48.816800
49.632788
49.113631
49.474835
50.768852
51.326752
52.034855
51.431656
50.440431
51.173568
50.538778
50.816536
50.870776
50.405860
48.449636
49.575567
47.738552
46.839714
46.829581
46.017766
44.130683
44.007897
43.531656
43.085814
43.661594
43.038726
41.165948
41.951537
41.107535
40.794611
42.046905
##ZVALUE=290
1.531839
1.471639
1.558661
1.648664
1.637936
1.597404
1.412630
1.546741
1.539588
1.571774
1.485944
1.655817
1.982450
1.889467
1.934767
1.788735
2.040863
2.099872
2.204776
2.328753
2.403855
2.734661
2.660751
3.069639
3.373623
4.173517
5.318522
19.013882
92.806816
225.817561
445.719957
908.893943
1015.875936
1015.875936
1015.875936
1015.875936
1015.875936
1015.875936
1015.875936
1015.875936
757.542849
369.842649
191.660523
68.814754
37.290454
40.951967
53.318739
76.353550
96.229911
125.929713
141.904950
153.409839
157.533884
144.305825
131.380558
108.414888
92.402697
75.282454
64.526796
57.854652
53.794980
52.787662
52.148700
52.073002
52.395463
52.494407
53.840876
52.742958
54.323673
54.441690
54.600835
55.104494
54.527521
54.325461
54.106712
52.894950
52.788854
51.389933
52.377582
50.218701
49.817562
49.656630
48.354864
48.901439
47.342777
45.973659
46.190619
45.966506
44.910908
43.758750
43.983459
43.082833
42.576790
40.606856
42.518973
41.227937
##ZVALUE=295
1.289845
1.419783
1.244545
1.314878
1.342893
1.490712
1.309514
1.377463
1.480579
1.654625
1.517534
1.490712
1.560450
1.731515
1.792908
1.749992
1.735687
1.940727
1.874566
1.941919
2.097487
2.260804
2.174973
2.451539
2.756715
2.957582
3.114939
3.546476
4.172921
8.005500
33.191442
147.611499
329.274535
745.625496
1015.788913
1015.788913
1015.788913
1015.788913
1015.788913
1015.788913
1015.788913
1015.788913
982.281566
529.629588
283.568501
100.459456
46.609640
31.496882
38.763881
57.207942
76.775551
104.693770
123.728514
144.126415
155.823827
156.615973
148.534775
133.694410
117.273927
96.920729
81.680417
68.986416
62.266588
57.030916
55.673718
54.858923
55.757761
55.479407
55.597425
56.555867
56.934953
56.602955
56.558847
55.540800
55.843592
55.561662
54.507852
53.608418
53.316951
51.936507
51.424503
50.258636
49.860477
49.046874
49.332976
48.160553
47.541857
46.591759
45.827627
46.306849
45.111775
44.458508
43.254495
42.601824
42.824745
41.422844
##ZVALUE=300
1.275539
1.391768
1.477599
1.448989
1.348853
1.404881
1.416802
1.438856
1.561642
1.549721
1.573563
1.447797
1.458526
1.262426
1.719594
1.715422
1.768470
1.987815
1.820922
1.855493
1.960993
1.970530
1.995564
2.283454
2.245903
2.405643
2.515912
2.793670
3.032684
3.148913
3.652573
4.592538
22.598505
81.812739
263.483524
500.889421
970.383883
1015.788913
1015.788913
1015.788913
1015.788913
1015.788913
1015.788913
1015.788913
1015.788913
859.949589
432.041883
223.212838
74.961782
38.745403
35.410523
44.990778
62.426925
78.203678
103.537440
123.773813
146.335959
154.758692
158.795714
152.876973
137.120485
121.921897
100.769997
87.291598
71.732998
64.283609
58.493614
57.681799
56.363940
55.971742
56.461692
55.898428
56.591630
56.494474
55.774450
55.477619
54.581761
54.041743
54.218769
53.773522
52.621961
51.641464
51.512718
50.484538
49.948692
48.813820
48.652887
48.335791
46.666861
47.089458
45.754910
45.155883
43.914914
43.193698
42.513609
41.978955
##ZVALUE=305
1.503825
1.460910
1.515746
1.543760
1.646876
1.566410
1.523495
1.440644
1.389980
1.462698
1.716614
1.382828
1.580715
1.697540
1.773834
1.805425
1.530647
1.555681
1.719594
1.844764
1.806617
1.907945
2.128482
2.118945
2.196431
2.135634
2.526641
2.438426
2.781749
2.762675
3.314614
3.249645
3.496408
4.135966
8.704662
57.899952
156.978965
419.547558
735.818744
1015.899777
1015.899777
1015.899777
1015.899777
1015.899777
1015.899777
1015.899777
1015.899777
1012.714505
677.739382
303.028822
146.609545
54.193735
37.202835
41.220784
48.868656
65.601468
82.336664
106.905699
124.263763
144.507885
152.243972
153.444409
147.716999
132.013559
116.427541
96.447468
83.477497
70.979595
63.282847
58.344603
56.461692
55.057406
54.544806
55.694580
55.160522
55.270791
54.550767
54.134727
53.545833
53.329468
52.901506
52.384734
51.511526
51.145554
51.208735
49.755573
50.133467
48.573613
48.581958
47.730803
46.829581
45.494437
44.987798
44.002533
43.972731
42.210817
##ZVALUE=310
1.291633
1.273751
1.186728
1.302958
1.293421
1.457930
1.236796
1.330972
1.168847
1.222491
1.350641
1.449585
1.390576
1.374483
1.611710
1.564622
1.441836
1.518726
1.534820
1.585484
1.656413
1.642704
1.760721
1.925826
1.947880
1.935959
2.182722
2.181530
2.050996
2.383590
2.438426
2.514720
2.664924
3.164411
3.367662
3.910661
4.759431
25.544763
86.892843
279.020667
529.296398
983.171463
1015.788913
1015.788913
1015.788913
1015.788913
1015.788913
1015.788913
1015.788913
1015.788913
957.806706
480.679870
255.888700
93.898773
46.469569
35.755634
40.186644
50.028563
60.889721
78.077912
95.055699
117.149949
129.596591
140.261650
143.705606
137.944818
127.782822
108.543634
94.811916
78.154802
67.662597
59.322715
55.406690
51.959753
51.399469
51.679611
50.647855
51.692724
51.901937
51.918626
51.779747
50.040483
50.071478
50.010681
50.238967
49.827695
49.987435
48.949718
48.451424
47.836900
46.904683
45.537949
45.917630
44.651628
44.006705
43.729544
##ZVALUE=315
1.333952
1.198649
1.176000
1.361966
1.191497
1.273751
1.198649
1.243949
1.239777
1.345873
1.281500
1.252890
1.431704
1.341701
1.392961
1.219511
1.524687
1.425743
1.531839
1.505613
1.632571
1.830459
1.522899
1.546741
1.816750
1.746416
1.917481
2.133846
1.946688
2.047420
2.205968
2.360940
2.488494
2.657771
2.808571
2.922416
3.359914
3.495812
4.227757
10.980964
45.769811
184.946060
396.370888
854.961872
1015.788913
1015.788913
1015.788913
1015.788913
1015.788913
1015.788913
1015.788913
1015.788913
1015.788913
659.453869
361.349583
137.353539
61.033964
34.972429
33.818483
39.666891
45.402646
57.268739
68.987608
87.940693
103.447437
120.865703
129.721761
133.222938
129.393935
116.854906
103.525519
87.722540
75.055957
61.711669
56.465864
51.525831
49.549937
49.026608
48.652887
48.329830
49.562454
48.873425
49.672723
49.312711
48.160553
49.462914
49.193501
48.438907
48.858523
47.991872
47.180653
45.693517
46.104789
44.287443
44.356585
44.124722
##ZVALUE=320
1.158714
1.229644
1.275539
1.368523
1.251698
1.245737
1.292825
1.291633
1.304746
1.176596
1.312494
1.489520
1.375675
1.258850
1.351833
1.384616
1.381636
1.387596
1.347661
1.399517
1.544952
1.480579
1.514554
1.671910
1.622438
1.702905
1.768470
1.904964
1.823902
1.854897
1.894832
1.853704
1.963973
2.175570
2.329946
2.549887
2.796650
2.971888
3.018975
3.577471
4.074574
5.828738
20.954609
110.834837
268.284678
660.905838
1002.012491
1015.788913
1015.788913
1015.788913
1015.788913
1015.788913
1015.788913
1015.788913
1015.788913
862.842798
496.674776
218.600631
98.857880
35.783648
27.779937
28.192997
31.185746
37.549734
44.863820
61.028600
74.763894
92.573762
106.673837
119.055510
122.540593
118.847489
110.945702
94.762444
82.113743
67.735910
59.138536
52.593946
47.791600
46.629906
45.764446
46.218634
46.356916
46.701431
46.832561
47.630668
47.409534
47.004819
46.478510
46.618581
46.103001
45.912862
45.752525
45.148730
44.463873
43.923855
##ZVALUE=325
1.060963
1.126528
1.194477
1.031756
1.118779
1.264811
1.183748
1.223683
1.244545
1.299977
1.099706
1.238585
1.352429
1.144409
1.215935
1.191497
1.371503
1.270771
1.396537
1.383424
1.451969
1.282692
1.505613
1.390576
1.476407
1.569986
1.667738
1.671910
1.777411
1.648664
1.579523
1.930594
1.892447
1.985431
1.944900
2.220869
2.338886
2.571940
2.871752
2.756715
3.222823
3.443956
3.838539
4.439950
11.487603
75.745583
191.338658
479.308963
821.482539
1015.788913
1015.788913
1015.788913
1015.788913
1015.788913
1015.788913
1015.788913
1015.788913
962.403417
600.981712
276.856422
132.812858
42.165518
22.416711
21.113753
22.222996
25.821924
31.359792
41.599870
52.472949
70.732832
85.645914
100.832582
110.240579
113.304853
110.807419
100.273490
89.019537
74.887872
65.546632
54.875612
49.466491
45.715570
44.414997
44.188499
44.716597
44.245720
45.618415
45.334697
45.481920
44.844747
44.525862
44.195652
44.298768
43.541789
43.312907
42.823553
##ZVALUE=330
1.141429
1.158714
1.185536
1.040697
1.146793
1.181960
1.143813
1.022816
1.170635
1.074672
1.325607
1.435876
1.284480
1.194477
1.230836
1.173615
1.265407
1.258850
1.329780
1.201630
1.398921
1.290441
1.405478
1.424551
1.509786
1.477599
1.494884
1.474619
1.584888
1.756549
1.731515
1.630783
1.839995
1.838803
1.600981
2.004504
2.096891
2.062917
2.308488
2.318621
2.528429
2.652407
2.827644
3.318787
3.789663
4.418492
5.839467
33.935905
108.253956
336.987972
620.775819
1015.788913
1015.788913
1015.788913
1015.788913
1015.788913
1015.788913
1015.788913
1015.788913
1015.788913
791.848898
363.656878
178.412795
61.224699
26.481748
18.656850
18.972754
20.825863
24.614930
31.679869
39.111972
52.979589
65.227747
83.588958
95.555782
105.794668
107.998848
104.109645
96.650720
84.384680
73.555708
61.687827
54.511428
49.929619
46.332479
44.405460
43.218732
43.831468
43.234825
43.777823
43.798685
43.098927
42.915940
42.275786
42.374730
42.011738
##ZVALUE=335
1.048446
0.895858
1.016855
0.971556
1.190901
1.242757
1.141429
1.122952
1.221895
1.253486
1.194477
1.168847
1.231432
1.126528
1.237988
1.163483
1.189709
1.275539
1.124740
1.226664
1.274943
1.260638
1.240969
1.401901
1.339912
1.325607
1.549721
1.344681
1.475811
1.395941
1.445413
1.550913
1.712441
1.891851
1.847744
1.793504
2.029538
1.899600
2.099872
2.077818
2.063513
2.168417
2.532601
2.789497
2.847910
3.183484
3.484488
4.029870
4.435778
14.634728
57.376623
216.917396
439.060926
919.538736
1015.782952
1015.782952
1015.782952
1015.782952
1015.782952
1015.782952
1015.782952
1015.782952
1000.163555
539.471507
280.094743
90.802908
37.158728
19.932985
19.064546
20.517707
22.834539
26.865602
31.595826
41.816831
51.123500
66.879988
79.430938
92.286468
99.296570
103.329420
100.284815
91.795921
83.507895
72.263479
63.336492
55.092573
49.543977
45.574903
44.317842
42.387843
41.922927
41.541457
41.854978
41.261911
41.191578
40.239692
##ZVALUE=340
1.157522
1.191497
1.152754
1.087785
1.227856
1.212955
1.218915
1.183748
1.210570
1.277924
1.203418
1.245737
1.277924
1.241565
1.355410
1.482964
1.434684
1.374483
1.368523
1.393557
1.440644
1.312494
1.372695
1.352429
1.550913
1.444817
1.513958
1.499653
1.572967
1.584888
1.628995
1.532435
1.650453
1.696944
1.735687
1.801848
1.837611
2.024770
2.125502
2.107620
2.189875
2.311468
2.374649
2.500415
2.566576
2.693534
2.859831
3.195405
3.231764
3.788471
4.157424
7.157922
28.103590
139.093399
324.094892
748.552680
1015.916467
1015.916467
1015.916467
1015.916467
1015.916467
1015.916467
1015.916467
1015.916467
1015.916467
688.870549
377.367735
146.072507
57.722926
22.561550
19.779801
21.156669
22.363663
24.638772
27.052760
33.356547
39.744973
51.696897
62.983632
78.954697
88.300705
97.285509
98.676682
96.962452
90.905428
80.788732
71.701407
59.895515
53.906441
47.316551
44.154525
41.401982
40.786862
39.239526
39.530993
40.049553
##ZVALUE=345
1.136661
0.972748
1.080632
1.026988
1.144409
1.115799
1.261830
1.117587
1.087785
0.990629
1.169443
1.103878
1.078844
1.177788
1.310706
1.142621
1.279712
1.283884
1.346469
1.197457
1.072884
1.203418
1.299977
1.075864
1.241565
1.323819
1.244545
1.265407
1.165867
1.188517
1.378655
1.412630
1.468658
1.582503
1.496673
1.609921
1.578927
1.703501
1.594424
1.745820
1.751781
1.942515
2.024770
2.151728
2.112985
2.360940
2.409816
2.475977
2.609491
3.051758
3.069639
3.452897
3.759861
4.846454
12.671947
79.732537
211.060047
525.505543
905.236602
1015.788913
1015.788913
1015.788913
1015.788913
1015.788913
1015.788913
1015.788913
1015.788913
925.108790
517.545938
195.985436
84.591508
30.001998
20.944476
20.795465
21.292567
22.024512
23.727417
26.660562
30.709505
38.893819
47.836900
60.709715
70.916414
83.393455
89.683533
92.631578
91.711879
85.705519
78.294873
67.508817
59.613585
50.118566
45.356750
41.721463
39.319992
37.587881
##ZVALUE=350
1.131892
1.121759
1.163483
1.149774
1.240969
1.157522
1.262426
1.001954
1.188517
1.195669
1.254678
1.205802
1.225471
1.226664
1.253486
1.370907
1.157522
1.315475
1.182556
1.213551
1.230836
1.274943
1.331568
1.349449
1.364946
1.451969
1.474619
1.195669
1.173615
1.422763
1.404881
1.392961
1.533628
1.516938
1.386404
1.539588
1.717806
1.479983
1.647472
1.601577
1.708865
1.835823
1.770854
1.914501
1.878738
2.070665
2.037883
2.423525
2.397895
2.630949
2.698898
2.867579
2.987981
3.324747
3.801584
4.107952
8.472800
32.212734
139.612556
312.559605
731.785893
1015.788913
1015.788913
1015.788913
1015.788913
1015.788913
1015.788913
1015.788913
1015.788913
1015.788913
594.041944
318.795443
118.981004
47.231913
21.158457
19.767880
20.144582
20.660758
21.764636
23.453832
26.329756
30.173659
37.606955
44.428706
55.771470
64.171553
75.576901
81.697702
85.573792
84.170699
79.328418
72.611570
62.247515
55.169463
47.567487
43.122768
##ZVALUE=355
1.124740
1.211762
1.177788
1.229644
1.270771
1.166463
1.167655
1.208782
1.201630
1.195669
1.171827
1.117587
1.103878
1.306534
1.373887
1.365542
1.210570
1.289845
1.230836
1.291633
1.176000
1.194477
1.285672
1.331568
1.287460
1.490712
1.338720
1.370907
1.565814
1.472831
1.387596
1.398921
1.543760
1.497865
1.467466
1.538992
1.580715
1.641512
1.698732
1.706481
1.771450
1.750588
1.758933
1.783967
1.941919
2.070665
1.955628
2.161860
2.250671
2.350807
2.582669
2.507567
2.774596
2.761483
3.212690
3.490448
3.684759
3.984571
4.820824
20.064712
73.321462
261.659622
518.990755
985.776782
1015.788913
1015.788913
1015.788913
1015.788913
1015.788913
1015.788913
1015.788913
1015.788913
879.479647
380.540490
179.513693
53.444505
24.617910
18.790960
18.663406
19.385815
19.873977
21.207929
22.828579
25.173426
28.309822
33.489466
40.231943
50.137639
58.158636
68.155527
73.858500
78.041553
77.485442
72.938800
66.963434
59.754848
##ZVALUE=360
1.256466
1.193881
1.328588
1.094937
1.233816
1.229644
1.118779
1.120567
1.253486
1.267791
1.280904
1.266599
1.186728
1.269579
1.243949
1.315475
1.398921
1.346469
1.218915
1.453757
1.314878
1.359582
1.265407
1.358986
1.396537
1.319647
1.469851
1.422763
1.424551
1.477599
1.373887
1.565814
1.369715
1.561642
1.522899
1.545548
1.763701
1.758933
1.665950
1.666546
1.671910
1.598597
1.748800
1.827478
1.912713
2.022982
2.070665
2.098680
2.117753
2.193451
2.274513
2.366900
2.707839
2.624989
2.721548
2.894998
3.059506
3.246665
3.748536
4.245639
4.733801
9.110570
33.253431
145.195723
333.948731
792.299509
1015.785933
1015.785933
1015.785933
1015.785933
1015.785933
1015.785933
1015.785933
1015.785933
1015.785336
548.115969
280.204415
97.594857
38.359761
18.604994
17.881989
18.161535
18.459558
19.535422
19.700527
21.119714
22.616982
25.646687
28.819442
34.824610
42.099953
51.300526
58.029890
66.300631
69.427490
70.165992
##ZVALUE=365
0.897646
1.040697
0.951886
1.103878
1.161695
1.119971
0.987649
0.954866
1.032948
1.106858
1.135468
1.189709
1.173615
1.030564
1.035929
1.121759
1.143813
1.197457
1.195669
1.156926
1.265407
1.245737
1.214743
1.188517
1.287460
1.248717
1.129508
1.125932
1.329780
1.167655
1.191497
1.362562
1.410842
1.342893
1.442432
1.602769
1.591444
1.657605
1.676679
1.575947
1.540780
1.535416
1.618862
1.670718
1.632571
1.827478
1.812577
1.911521
1.900792
2.041459
2.093911
2.071857
2.231598
2.165437
2.433658
2.552867
2.567768
2.833605
3.079772
3.421903
3.763437
4.098415
4.603863
5.252957
17.685890
65.841675
235.291719
494.270921
1007.376909
1015.660763
1015.660763
1015.660763
1015.660763
1015.660763
1015.660763
1015.660763
1015.660763
870.129466
371.642709
170.256495
47.941804
21.304488
16.298890
16.367435
16.878843
17.466545
18.179417
18.402934
19.252896
20.208955
22.895932
25.304556
31.148791
35.990477
44.935942
51.024556
##ZVALUE=370
0.982881
0.931621
1.085997
1.014471
0.940561
0.985861
1.011491
1.080632
1.125932
1.071692
1.131892
1.099706
1.035929
1.280904
1.026988
1.074672
1.149774
1.040697
1.095533
1.097918
1.296997
1.158714
1.303554
1.126528
1.107454
1.192689
1.155734
1.279712
1.202822
1.242757
1.184940
1.123548
1.139641
1.236796
1.231432
1.154542
1.388788
1.338720
1.382828
1.339912
1.472831
1.416802
1.456738
1.746416
1.564622
1.540780
1.626611
1.631975
1.619458
1.682639
1.677871
1.817942
1.745820
1.840591
2.134442
1.935959
1.949668
2.352595
2.220869
2.686977
2.923608
2.973676
3.205538
3.599524
3.843904
4.773736
7.371902
43.020844
139.212608
423.353910
770.157576
1015.641689
1015.641689
1015.641689
1015.641689
1015.641689
1015.641689
1015.641689
1015.641689
936.270952
526.665449
202.272534
87.854862
28.901696
16.759634
15.105605
14.993548
15.286803
15.599728
16.001463
16.742945
17.447472
18.280745
20.684600
23.129582
27.829409
##ZVALUE=375
1.067519
1.086593
1.034737
1.199841
1.118779
1.080632
0.966787
1.002550
1.059771
1.144409
1.182556
0.990629
1.357794
1.172423
1.255870
1.093745
0.994802
1.104474
1.229644
1.198649
1.151562
1.227856
1.219511
1.174808
1.137853
1.269579
1.176596
1.223683
1.257658
1.224875
1.285672
1.186728
1.394749
1.203418
1.197457
1.426935
1.402497
1.356602
1.511574
1.298785
1.370907
1.497865
1.516938
1.444817
1.543760
1.529455
1.500845
1.497865
1.532435
1.669526
1.695752
1.598597
1.606941
1.766682
1.943707
1.892447
2.108812
1.996756
2.105832
2.109408
2.376437
2.570748
2.652407
2.856851
2.883673
3.379583
3.675818
4.288554
5.230904
21.021962
75.654387
266.987681
545.851588
1015.788913
1015.788913
1015.788913
1015.788913
1015.788913
1015.788913
1015.788913
1015.788913
1015.788913
784.182549
379.992723
182.977915
55.115819
21.810532
13.843775
14.142990
14.125705
14.601946
14.873743
15.083551
15.824437
16.102791
16.789436
##ZVALUE=380
1.113415
1.156926
1.114607
1.014471
1.081824
1.058578
1.100898
0.995994
1.013875
1.015663
0.983477
1.082420
1.056790
1.185536
1.102686
0.887513
1.212955
1.172423
1.165867
1.076460
1.104474
1.056790
1.087785
1.216531
1.227856
1.118779
1.281500
1.034737
1.231432
1.316667
1.166463
1.070499
1.241565
1.218915
1.300573
1.152754
1.140833
1.389980
1.356602
1.213551
1.335740
1.299977
1.376867
1.324415
1.271963
1.429915
1.425743
1.521707
1.414418
1.449585
1.574755
1.450777
1.617670
1.732707
1.600981
1.721978
1.846552
1.865625
1.871586
2.085567
2.124906
2.176762
2.347827
2.478957
2.563000
2.821684
2.952814
3.434420
3.796816
4.484653
5.111694
10.923743
42.356849
196.970105
438.963771
961.502790
1015.791893
1015.791893
1015.791893
1015.791893
1015.791893
1015.791893
1015.791893
1015.791893
1015.791893
546.482801
273.321867
90.368986
34.806728
14.632940
13.349652
13.418794
13.386607
13.847947
13.684630
14.223456
##ZVALUE=385
0.982881
0.924468
0.906587
0.888705
1.040697
0.969768
0.808835
0.969768
1.075864
0.933409
1.100898
1.033545
0.961423
0.992417
1.056790
1.082420
1.056790
1.056790
0.858903
1.008511
0.984669
1.070499
1.093745
0.867844
0.798702
1.101494
1.220703
1.167655
1.172423
1.249909
1.198649
1.153946
1.084805
1.091957
1.218915
1.144409
1.341701
1.156926
1.295805
1.245737
1.269579
1.283884
1.276731
1.273751
1.338720
1.278520
1.417994
1.488924
1.359582
1.491904
1.465678
1.459718
1.632571
1.477599
1.624823
1.511574
1.587868
1.675487
1.795888
1.799464
1.861453
2.045631
2.127886
2.001524
2.281666
2.387762
2.439618
2.885461
3.233552
3.621578
3.892779
4.352927
4.601479
6.108880
20.142794
112.184882
285.213590
705.508590
1015.788913
1015.788913
1015.788913
1015.788913
1015.788913
1015.788913
1015.788913
1015.788913
1015.788913
838.449597
465.328693
181.837678
68.658590
18.458962
12.624860
12.363791
12.342930
12.198687
##ZVALUE=390
1.003742
0.994802
0.953674
1.036525
0.837445
0.993609
0.902414
0.970960
0.978708
0.982881
1.102686
0.921488
1.096725
1.055598
1.073480
0.998974
1.050830
1.118779
0.863671
0.943542
1.047850
0.887513
1.063943
1.052618
1.083612
1.193881
1.095533
1.001954
1.276731
1.234412
1.179576
1.246929
1.138449
1.311898
1.299977
1.168847
1.150966
1.237988
1.224875
1.108646
1.321435
1.398921
1.200438
1.259446
1.260638
1.291633
1.286864
1.458526
1.413822
1.353621
1.488924
1.452565
1.480579
1.605749
1.461506
1.648664
1.535416
1.654625
1.717806
1.687407
1.825690
1.815557
2.047420
1.959801
1.995564
2.297759
2.444983
2.724528
2.866983
3.184676
3.529787
3.969669
3.989935
4.111528
4.477501
4.754663
9.660721
60.903430
185.806751
552.052855
974.138975
1015.788913
1015.788913
1015.788913
1015.788913
1015.788913
1015.788913
1015.788913
1015.788913
1015.788913
718.454719
280.198455
123.933554
34.413934
14.921427
11.385679
##ZVALUE=395
0.961423
0.976920
0.885725
1.029968
1.024604
1.149774
1.034737
0.889897
0.906587
1.045465
0.991821
1.049638
1.020432
0.956655
1.100898
1.152754
0.988841
1.034737
1.041889
1.085997
1.147985
1.030564
1.051426
1.029968
1.040697
1.093745
1.147985
1.176000
1.054406
1.280904
1.224875
1.160502
1.131892
1.358986
1.147985
1.342893
1.365542
1.121759
1.278520
1.295805
1.290441
1.399517
1.271963
1.220703
1.323819
1.300573
1.148582
1.296997
1.484752
1.434684
1.404881
1.367927
1.472831
1.543760
1.559854
1.538992
1.586676
1.546741
1.609921
1.751781
1.754761
1.780987
1.951456
1.943707
1.963973
2.225637
2.277493
2.700686
2.950430
3.122687
3.381968
3.617406
3.664494
3.567934
3.695488
3.877878
4.061460
4.533529
6.066561
33.790469
120.362639
402.413011
770.334005
1015.788913
1015.788913
1015.788913
1015.788913
1015.788913
1015.788913
1015.788913
1015.788913
1015.788913
957.786441
454.308391
207.946897
60.693622
##ZVALUE=400
0.942945
0.910759
0.991821
0.955462
1.086593
0.883937
0.891685
0.930429
0.801682
0.896454
1.062751
1.059771
1.023412
1.074672
0.904799
1.058578
1.021624
1.043677
1.052618
1.000762
1.110435
1.002550
1.077652
1.147985
1.080632
1.111627
1.177788
1.178980
1.144409
1.222491
1.123548
1.143813
1.129508
1.119971
1.158714
1.092553
1.114607
1.134872
1.252890
1.124740
1.227856
1.089573
1.283884
1.227856
1.262426
1.350641
1.362562
1.379848
1.383424
1.362562
1.485944
1.510978
1.483560
1.527667
1.366735
1.526475
1.530647
1.693964
1.701713
1.532435
1.640916
1.810789
1.720786
1.697540
2.078414
2.237558
2.410412
2.430677
2.834797
3.078580
3.138781
3.359914
3.151894
3.268719
3.352761
3.357530
3.641844
3.755689
4.196763
4.612803
5.330443
19.464493
71.700811
255.490541
540.184975
1015.788913
1015.788913
1015.788913
1015.788913
1015.788913
1015.788913
1015.788913
1015.788913
1015.788913
1015.788913
627.852678
##END
