##TITLE=KDZ0152
##FORMAT=SPECTACLE-ASCII V-1.2
##DATA TYPE=ULTRAVIOLET SPECTRUM
##SECOND TYPE=ULTRAVIOLET SPECTRUM
##DATE=11/28/17
##TIME=16:02:15
##SPECTROMETER/DATA SYSTEM=SPECTACLE
##XUNITS=NM EM
##YUNITS=ENERGY
##YFACTOR=1
##FIRSTX=220
##LASTX=410
##NPOINTS=96
##3DDATA=Equidistant
##ZUNITS=NM EX
##FIRSTZ=210
##LASTZ=400
##ZPOINTS=39
##XYDATA=(Y..Y)
##ZVALUE=210
6.176829
5.327463
5.493760
4.809499
4.755855
5.389452
5.465746
5.420446
4.628897
5.107522
5.352497
4.789829
4.721880
4.897714
5.045533
5.736947
4.444718
6.008744
6.028414
6.297827
6.158948
7.742643
7.848740
7.322431
8.074641
7.882714
8.849502
9.419918
10.135770
9.569526
10.533929
11.045933
10.829568
11.994839
10.830760
12.045503
12.148619
14.671683
13.521910
15.196800
15.013814
13.769865
14.144778
16.200542
15.477538
16.626716
16.133785
17.339587
17.943978
18.926859
17.710924
17.518997
18.633604
19.018650
18.304586
19.474626
20.128489
19.036531
19.584894
21.079779
21.045804
20.617843
21.431446
22.186637
22.302866
22.383928
24.225712
28.377771
31.775832
37.931800
43.762922
51.325560
61.722994
65.373778
75.892806
83.265901
84.820986
81.942677
81.215501
80.008507
71.899891
65.606833
56.460500
49.414635
38.116574
34.207702
25.988817
24.297833
21.149516
19.331574
19.665956
21.729469
20.132661
21.182895
23.020506
22.893548
##ZVALUE=215
22.683740
20.827651
19.239783
15.070438
13.620853
9.157658
10.607839
8.140802
10.222793
9.199977
9.231567
7.988811
6.837845
6.393790
5.957484
5.548596
5.624890
6.025434
6.202459
6.663799
6.713867
7.027984
7.274747
7.693768
8.828640
8.855462
9.061694
9.699464
10.104775
10.582805
10.635853
10.562539
12.971759
11.475682
13.017654
13.616681
14.274716
13.084412
14.618635
14.420748
14.101863
14.255643
14.333725
16.456842
14.763474
15.682578
16.500950
16.522408
16.299486
16.736984
17.812848
18.491745
17.628670
18.574595
19.638538
19.288659
20.396709
20.762682
20.353794
21.012425
20.838976
20.753741
20.831823
21.524429
20.847917
23.058653
24.810433
28.271675
31.333566
36.555529
42.608976
52.239895
56.399703
63.021779
67.260861
74.141622
74.661970
72.293878
70.599914
67.095757
61.141849
55.587888
48.833489
44.210553
36.265850
31.031966
25.248528
24.533868
21.509528
19.652843
20.005703
19.895434
17.977953
18.716455
19.688606
19.014478
##ZVALUE=220
48.568845
49.531460
53.638816
54.884553
50.093532
42.904615
32.601953
24.254918
19.640923
17.440915
15.638471
16.476512
16.859770
15.939474
12.745857
10.972619
8.305907
7.182956
6.241798
6.076694
6.256700
7.103682
7.698536
7.125735
7.297993
8.273721
9.031892
9.210706
9.695888
10.352731
10.544658
12.636781
11.987686
10.694861
12.268424
13.660789
13.059974
14.635921
13.328791
14.401674
14.801621
14.337897
14.205575
15.527606
16.002655
15.130639
17.614961
18.528700
17.072558
18.299818
18.788576
17.675757
18.230677
19.310713
19.835830
20.136833
19.497871
19.794703
19.161701
19.257665
18.830895
19.067526
21.316409
19.973516
21.310449
22.368431
22.546649
24.999976
25.414824
31.354427
36.745667
45.604706
52.549839
58.531761
65.081716
64.254999
65.928698
66.097975
64.015985
58.108568
55.653453
48.365593
44.975877
37.580729
33.104420
27.699471
25.021434
22.242665
20.316839
18.233657
19.520521
18.244982
18.017888
18.506646
17.813444
16.155839
##ZVALUE=225
75.812936
79.183578
105.093718
140.945911
150.075555
152.677894
138.676763
106.717944
82.833767
60.203671
37.329793
30.241609
29.351711
30.208826
31.408668
29.802918
24.999976
21.155477
16.709566
12.593865
9.719729
7.485747
8.098483
8.228421
8.359551
8.722544
9.328723
10.294914
11.045933
11.719465
12.176633
11.891723
13.473630
12.371540
14.420748
13.975501
13.918877
14.070868
14.229417
14.969707
15.216470
14.265776
15.633702
16.262531
15.522838
16.748905
16.454458
16.398430
18.376708
16.308427
18.649697
19.563437
19.795895
19.781590
19.312501
20.484924
20.921826
21.853447
20.903945
21.866560
21.204948
22.509694
22.754669
22.049546
23.578405
23.769736
24.529696
26.261806
30.513406
33.534765
35.734773
41.781664
45.424700
54.275990
56.334734
59.762001
56.743622
56.526661
52.464604
46.629906
44.408441
38.347840
35.267472
29.292703
30.660629
24.947524
24.028420
22.795796
20.337701
21.302700
20.642877
20.293593
20.515919
18.666983
21.043420
19.592643
##ZVALUE=230
55.866838
61.815977
100.196600
174.286962
234.907866
298.645496
326.894522
332.936645
300.955772
252.285600
167.731643
113.401413
70.553422
57.906508
49.635768
51.536560
51.565766
53.726435
43.730736
39.028525
30.176640
22.429824
15.920997
13.406873
11.332631
10.756850
10.874867
11.037588
11.894703
11.722445
11.028647
14.555454
13.904572
13.677478
15.206933
14.975667
15.181899
15.417933
16.640425
15.288591
15.648603
16.159415
17.977953
17.423630
16.889572
17.975569
17.104745
19.234419
18.454790
18.833876
19.217730
20.748973
21.360517
21.757483
22.331476
21.632910
21.429658
22.481680
23.325682
23.976564
24.499893
23.944974
25.273561
25.238991
24.068952
26.404858
27.779937
30.400753
30.397773
35.172701
40.437579
45.519471
48.461556
53.597689
57.137609
58.895946
59.324503
57.096481
52.337646
49.825907
44.756532
40.097833
36.514997
31.086802
29.455423
26.308894
26.502609
24.213791
23.305416
23.368001
23.582578
21.965504
21.272898
21.232963
20.085573
19.719601
##ZVALUE=235
18.214583
21.290779
45.069456
113.326907
193.586946
324.702859
441.830754
580.819845
661.693811
683.075786
620.419979
505.325794
343.642831
238.713622
148.964524
104.661584
76.039433
78.158975
81.273913
85.228682
78.166723
65.137744
58.698654
37.147999
30.288696
21.584630
16.833544
14.656782
14.409423
14.256835
13.495684
13.577938
16.610622
14.809966
16.118884
16.461611
16.913414
17.133951
17.299652
17.746687
17.011762
18.507838
18.116832
17.775893
18.019676
18.047690
19.368529
19.629598
20.796657
20.012856
20.951629
21.612644
23.459792
22.361875
24.739504
21.867752
21.625757
25.852919
25.596619
26.552677
25.845766
26.078820
26.516914
26.888847
25.339723
28.062463
26.826859
31.668544
36.170483
38.391948
42.644739
46.649575
53.473711
58.563948
59.158802
60.673952
59.998631
58.127642
55.095553
50.161481
48.215985
43.292642
39.713979
36.644936
30.784607
30.606985
27.927756
26.366711
26.653409
26.379824
24.875998
24.021864
23.795962
22.797585
23.019910
23.634434
##ZVALUE=240
3.590584
3.223419
8.992553
22.384524
72.975755
135.208964
296.450853
473.792553
746.428967
930.045843
1015.805602
1015.805602
999.701619
794.921517
612.311959
370.903611
250.904560
150.913000
112.148523
99.994540
105.353594
112.365484
113.925934
103.364587
86.166859
67.938566
51.059723
37.815571
26.031733
20.062923
16.262531
15.723705
15.727878
16.504526
15.413761
16.387701
15.463829
16.522408
16.015768
17.791986
16.547441
15.482903
17.988682
17.939806
17.030835
17.895699
18.984675
19.799471
19.797683
22.391677
20.897985
20.812750
22.602677
22.904873
24.599433
23.748875
23.352504
25.249720
24.379492
24.517775
26.905537
26.731491
26.699901
28.245449
26.837587
28.945804
29.813647
32.422543
34.633875
39.130449
45.990944
47.571659
53.256750
58.102608
60.933828
60.489774
58.527589
57.087541
53.255558
50.822496
48.050880
39.818883
38.820505
36.008954
32.426715
28.254986
30.165911
27.578473
25.415421
26.402473
25.134683
25.130510
25.252700
24.580956
24.779439
23.080707
##ZVALUE=245
2.689958
2.888441
2.997518
3.286600
5.304813
20.650625
51.064491
145.844817
281.460881
531.988740
758.071542
1015.788913
1015.788913
1015.788913
1015.788913
1015.788913
835.739970
606.172681
345.207453
216.064453
136.588812
105.127692
113.515854
119.495988
125.581622
122.373700
112.627745
96.477866
77.504516
57.711601
41.353703
26.966929
20.407438
16.754866
15.289783
14.940500
15.459657
14.936924
15.028715
14.666915
14.923811
15.423894
14.419556
15.429854
15.232563
16.421676
16.797781
16.977787
17.236471
17.979741
18.632412
19.801855
18.902421
20.527840
19.807816
21.085739
21.427870
20.868778
20.776987
22.295713
20.284653
22.401810
24.153590
22.350550
23.210645
24.634600
26.168823
27.937889
27.702451
32.963753
35.985708
40.938854
44.612885
47.007799
49.695969
49.292445
49.442649
48.651695
46.340823
41.846633
37.939548
34.354925
32.074451
28.975606
26.795864
25.214553
24.002790
24.363995
23.357868
21.970868
21.381974
23.159981
21.248460
21.403432
22.624731
20.351410
##ZVALUE=250
2.439618
2.278686
2.598763
2.283454
2.552867
2.862811
4.466772
11.343956
52.015781
112.763643
296.956897
504.300594
761.399865
1015.792489
1015.792489
1015.792489
1015.792489
1015.792489
1015.792489
840.205550
561.912656
343.501568
167.946815
114.866495
106.960535
120.615959
130.261779
134.822726
130.879879
121.552944
107.620955
80.831647
63.162446
42.216778
28.208494
20.123720
16.472936
15.041828
14.597774
13.628602
14.065504
14.763474
14.160872
14.493465
15.173554
15.541911
15.641451
15.564561
15.661716
15.616417
16.548634
15.667677
16.342998
17.896891
18.948913
17.937422
18.211603
18.489957
18.677711
18.745661
19.234419
19.728541
19.188523
19.308925
20.803809
21.467805
22.120476
22.224784
24.530888
28.068423
33.799410
34.998655
39.649606
40.315986
43.737888
44.562817
42.758584
43.389797
39.869547
36.568642
33.037663
29.728413
28.142929
26.867986
24.405718
23.287535
20.866990
21.311641
20.468831
21.066666
20.819902
20.608902
19.952655
20.460486
19.222498
20.417571
##ZVALUE=255
2.011657
1.843572
2.190471
2.171993
2.304912
1.891851
2.572536
2.395511
3.198981
6.176829
36.627650
94.267726
201.209784
456.531644
724.632740
1015.425920
1015.425920
1015.425920
1015.425920
1015.425920
1015.425920
1015.425920
803.777575
495.559573
239.998698
147.556663
97.895861
102.006793
122.175813
135.790706
141.461492
138.209462
127.062798
102.544427
84.271431
58.206916
42.933822
27.618408
20.409822
15.328526
12.760758
12.675524
12.418628
13.093948
13.075471
12.956858
13.440847
13.293624
13.504624
14.197826
14.283657
14.645457
14.811754
14.908910
15.003681
15.299916
15.297532
15.321970
15.123487
15.863776
16.159415
17.457604
17.403960
16.672611
16.978979
17.568469
17.834902
19.260645
19.652843
24.951696
26.142597
31.099916
33.390522
35.683513
35.611987
35.681725
36.022663
33.030510
31.503439
29.976964
25.393963
24.074912
23.672581
20.804405
19.641519
18.313527
17.304420
17.665625
16.671419
17.970800
17.558932
17.219782
17.231703
17.416477
17.911792
17.389655
##ZVALUE=260
1.932979
2.111793
2.198815
2.134442
2.406836
2.481937
2.216697
2.495646
2.820492
2.770424
3.019571
4.318953
19.326806
58.596730
167.521834
333.463550
700.759888
1001.611948
1015.788913
1015.788913
1015.788913
1015.788913
1015.788913
1015.788913
1015.788913
647.967458
407.364964
199.213624
119.928718
87.924004
99.046826
121.482611
136.909485
146.353841
142.717957
129.183531
108.940601
83.404779
63.407421
42.616725
29.553771
19.126534
14.670491
12.821555
11.942983
12.188554
11.723638
11.989474
12.800694
12.447834
13.650656
14.106631
13.429523
13.428926
13.429523
14.246702
13.748407
14.453530
14.650822
15.031695
14.214516
14.277697
13.873577
14.062524
14.024973
15.742779
16.115904
16.707778
17.258525
19.289851
22.150874
23.438931
25.666952
28.131604
29.353499
27.748942
28.351545
25.963783
25.324821
22.537708
22.199750
19.482970
19.259453
17.368793
15.936494
15.404820
15.363693
15.097857
15.173554
14.851689
15.187860
15.242696
16.110539
15.631914
15.813708
16.615987
##ZVALUE=265
2.096891
2.024770
1.844764
1.817942
1.981854
2.000928
2.098680
2.199411
2.289414
2.577901
2.470613
2.607703
3.077984
3.328919
8.325577
44.404864
115.621686
304.283500
555.529594
997.862816
1015.651822
1015.651822
1015.651822
1015.651822
1015.651822
1015.651822
1015.651822
977.944732
544.233918
313.134789
144.609809
89.251995
81.839561
105.797648
122.736692
142.255425
148.494840
144.817829
129.673481
105.682611
85.411668
60.565472
42.439699
25.977492
19.026995
13.219714
12.374520
11.923909
11.970997
11.939406
12.580752
12.534857
12.906790
13.437867
13.239980
13.794899
13.332963
12.927651
13.705492
13.911724
13.501644
13.019443
13.123751
13.619661
13.794899
13.417602
14.890432
15.337467
16.692877
17.452836
18.441677
21.508932
22.918582
24.546981
24.775863
24.148822
24.821758
22.834539
21.255612
19.396544
18.238425
17.102957
16.359687
14.509559
14.059544
14.069676
14.127493
14.003515
12.791753
13.648868
13.671517
13.407469
13.525486
12.861490
13.001561
13.497472
##ZVALUE=270
2.031922
1.989603
1.867414
2.000928
2.298951
1.987815
2.175570
2.075434
2.009869
2.202988
2.495646
2.613664
2.793670
2.825856
3.389716
3.282428
5.667806
17.459989
14.711618
204.358697
430.772901
923.668742
1015.788913
1015.788913
1015.788913
1015.788913
1015.788913
1015.788913
1015.788913
1015.788913
891.184807
441.804528
238.648653
98.594427
70.096850
81.727505
101.348758
126.716495
141.533613
148.684978
145.282745
129.909515
109.563470
82.328916
63.070655
41.563511
28.408766
18.831491
14.516711
12.318492
12.086630
12.759566
12.754798
12.778640
12.898445
13.135672
13.268590
13.449788
13.240576
13.442636
13.159513
13.303757
13.561845
13.370514
13.188720
13.509989
13.643503
14.503598
15.746951
16.150475
17.878413
20.239949
21.824837
21.938682
23.052692
22.029877
21.806955
21.209717
18.765926
17.505884
16.025901
14.965534
14.103651
13.659000
12.420416
12.000799
12.712479
11.992455
11.609793
11.812449
12.032986
12.304783
12.075901
11.810660
11.850595
12.319684
##ZVALUE=275
1.982450
1.961589
2.036691
1.908541
1.792908
1.802444
2.114773
1.954436
2.235770
2.380610
2.074838
2.385974
2.333522
2.823472
2.655983
2.976656
3.216863
3.288984
4.022717
10.291934
44.943690
133.537054
400.012732
751.001835
1015.786529
1015.786529
1015.786529
1015.786529
1015.786529
1015.786529
1015.786529
1015.786529
1015.786529
717.187524
404.115915
158.551931
77.717900
61.068535
76.676607
104.572773
120.983720
141.703486
146.288872
145.272613
129.492879
105.068684
85.021853
60.530901
44.940710
27.277470
21.281838
15.672445
14.549494
12.981892
12.899637
12.690425
12.420416
12.980700
12.766719
13.201833
12.943745
13.054609
13.455749
12.916923
12.812614
13.118982
13.235807
13.732910
14.706850
15.787482
17.189980
18.478632
20.418763
21.346807
22.378564
21.772981
21.186471
20.231605
18.693805
17.215610
16.233921
13.868809
13.322830
12.698770
12.031794
11.575818
10.905862
10.905862
10.949969
10.679960
11.018515
10.946989
11.000633
10.652542
10.560751
10.817647
##ZVALUE=280
1.670718
1.884699
1.921654
1.720786
1.993775
1.899600
1.988411
1.973510
1.823902
2.163649
2.104640
2.237558
2.285838
2.441406
2.526641
2.747774
3.006458
2.774596
3.139973
3.560781
4.070997
5.337596
31.009912
110.058784
349.359512
646.376610
1015.788913
1015.788913
1015.788913
1015.788913
1015.788913
1015.788913
1015.788913
1015.788913
1015.788913
970.227718
595.595837
254.710913
116.050839
52.579641
55.782795
79.904795
98.200440
124.592781
138.576627
146.479607
140.084624
128.187537
109.447837
81.454515
63.980818
42.775869
31.147599
20.560622
16.163588
14.332533
14.075637
12.603998
13.639927
13.431907
13.268590
13.768673
12.920499
12.675524
12.728572
13.335943
13.585687
14.010668
15.028715
15.661716
16.596913
18.179417
19.428730
20.702481
21.007657
20.333529
19.462705
17.631650
17.695427
15.722513
14.986992
13.267994
12.747645
11.951923
11.898875
11.026859
10.315776
10.826588
10.583997
10.339618
11.239648
10.478497
11.027455
11.240840
10.514855
10.313988
##ZVALUE=285
1.645684
1.685619
1.799464
1.714826
1.850724
1.803637
1.883507
1.929998
1.829863
1.747608
2.175570
2.304912
2.138615
2.173781
2.325773
2.441406
2.505779
2.800822
2.688766
3.106594
3.123879
3.362894
4.290938
5.096793
18.210411
68.417788
220.721364
454.760790
949.897766
1015.788913
1015.788913
1015.788913
1015.788913
1015.788913
1015.788913
1015.788913
1015.788913
1015.788913
880.371928
395.357013
188.405514
63.943863
41.243434
52.323937
71.681738
100.475550
116.869807
132.762790
139.953494
139.349699
127.965808
107.784867
88.415742
63.373446
46.727657
30.643940
22.334456
17.837882
15.039444
14.133453
13.696551
13.516545
14.598966
13.330579
13.045669
13.639927
13.542771
13.734698
14.742613
15.389919
16.381741
17.549992
18.118620
19.018650
18.450618
18.463731
17.911792
16.896725
16.068816
14.956594
13.892651
12.755990
12.324452
11.286736
11.160970
10.701418
10.367632
10.800958
10.642409
10.437965
10.377765
10.088682
9.864569
10.568500
10.425448
10.657907
##ZVALUE=290
1.789927
1.465678
1.626611
1.611710
1.735687
1.842976
1.680851
1.777411
1.715422
1.926422
1.863837
1.987815
2.043843
2.139807
2.241731
2.428889
2.437830
2.306700
2.588630
2.583861
2.997518
2.874732
3.527999
3.498793
4.322529
4.489422
6.626844
23.012757
119.271874
289.895535
575.562716
1015.805602
1015.805602
1015.805602
1015.805602
1015.805602
1015.805602
1015.805602
1015.805602
1015.805602
1015.805602
618.982911
315.313935
104.812980
45.277476
37.691593
49.133897
70.004463
89.413524
112.979412
126.803517
138.660669
139.124990
124.269724
107.567906
81.661940
64.007640
45.385957
33.711791
22.884607
18.883944
15.898943
14.494658
14.006495
13.465881
13.835430
14.253855
14.754534
14.929771
15.885830
16.551614
17.372966
17.609596
17.965436
17.603636
17.200708
16.657710
15.309453
14.611483
13.181567
13.156533
11.704564
11.622906
11.334419
11.000633
10.845661
10.419488
10.998845
10.218620
10.521412
10.146499
10.536909
10.402799
10.501742
10.413527
11.223555
##ZVALUE=295
1.536608
1.674891
1.674891
1.641512
1.709461
1.619458
1.575947
1.756549
1.893640
1.728535
1.845956
1.905560
1.885891
1.880527
1.847744
2.151728
2.145767
2.105832
2.136827
2.197623
2.248883
2.553463
2.852678
3.112555
3.315806
3.786683
3.761649
4.549623
4.919767
12.745857
48.677921
211.746693
464.791656
986.983776
1015.788913
1015.788913
1015.788913
1015.788913
1015.788913
1015.788913
1015.788913
1015.788913
1015.788913
862.476826
467.715859
162.389874
64.438581
28.765798
34.026504
49.233437
65.031648
88.530779
105.683804
124.011636
133.236647
130.965710
121.530890
103.393793
85.556507
62.573552
47.539473
31.987429
24.154782
18.310547
15.963912
14.912486
14.674664
14.371872
14.976859
15.183687
16.416907
16.835928
16.630888
17.247796
17.102957
16.584992
15.814900
14.614463
14.394522
13.030767
12.075901
11.748672
11.197925
11.008978
11.033416
10.412931
10.657907
10.100603
10.133982
10.041595
10.450482
10.191798
10.628700
10.068417
10.571480
10.475516
##ZVALUE=300
1.538992
1.594424
1.543760
1.584888
1.564622
1.832843
1.743436
1.626611
1.752973
1.846552
1.581907
1.763701
1.751781
1.814961
1.868606
1.944900
2.195835
2.184510
2.100468
2.500415
2.241731
2.282858
2.703667
2.658963
2.590418
3.088713
3.480911
3.669858
3.957748
4.414916
4.752874
6.306767
27.621984
104.778409
370.720029
727.545619
1015.788913
1015.788913
1015.788913
1015.788913
1015.788913
1015.788913
1015.788913
1015.788913
1015.788913
1015.788913
684.154034
355.416536
110.628605
42.885542
27.472973
32.078624
46.664476
60.342550
81.374645
98.996758
118.094683
125.925541
128.175616
119.551420
101.396441
84.652901
62.580705
48.892498
33.218861
25.212765
18.743873
16.405582
15.921593
16.435981
16.326904
16.740561
17.163754
17.431974
17.262697
16.532540
15.656948
14.759898
13.750792
13.174415
12.276769
11.745691
11.591911
11.621714
10.557771
10.535717
10.688901
10.914803
10.320544
10.185838
10.206699
9.833574
10.048747
10.032654
9.834766
9.476542
##ZVALUE=305
1.617670
1.481771
1.446605
1.556873
1.512766
1.477599
1.717806
1.607537
1.768470
1.565814
1.851916
1.674891
1.785755
1.818538
1.902580
1.871586
1.798868
1.912713
1.969934
2.313852
2.105832
2.298951
2.430677
2.461672
2.605915
2.754927
2.841949
3.053546
3.215671
3.734827
3.803968
4.674792
5.042553
5.729795
11.062622
76.109767
219.205618
641.102791
1015.788913
1015.788913
1015.788913
1015.788913
1015.788913
1015.788913
1015.788913
1015.788913
1015.788913
1015.788913
945.872664
411.976576
193.061829
58.382750
27.561784
25.359988
31.213760
45.222640
58.551431
80.244541
97.095966
113.149881
119.914412
119.212866
112.611651
96.189976
81.150532
59.667826
44.975877
31.332970
24.185777
19.523501
17.412901
16.907454
16.714931
16.615987
15.974641
15.443563
14.543533
14.026761
12.811422
11.947751
11.478662
11.814833
11.083484
10.517836
10.500550
10.283589
9.893775
9.830594
9.682775
9.629726
9.324551
9.177923
9.087920
9.377599
8.966923
8.995533
##ZVALUE=310
1.546741
1.490712
1.434684
1.768470
1.620650
1.519918
1.521707
1.613498
1.746416
1.584888
1.653433
1.580715
1.639724
1.810789
1.813769
1.722574
2.104640
1.956820
1.836419
1.939535
1.908541
2.028942
2.152920
2.254844
2.470613
2.556443
2.623796
2.660751
3.082752
3.072619
3.173947
3.693700
3.653765
4.188418
4.654527
5.297661
6.545782
32.665730
118.536949
409.122705
808.798671
1015.788913
1015.788913
1015.788913
1015.788913
1015.788913
1015.788913
1015.788913
1015.788913
1015.788913
1015.788913
712.030530
364.708900
116.726756
42.976737
21.578670
23.109913
30.221939
38.367510
54.525733
69.741607
89.722872
101.934671
111.246705
111.970901
105.953813
94.820857
76.108575
61.282516
43.689609
32.840967
25.107861
20.976663
17.542839
15.975833
14.771819
14.015436
12.573600
12.438893
11.061430
10.906458
10.557771
10.004640
10.381937
10.090470
10.064840
9.861588
9.334683
9.926558
9.264946
9.143949
9.118915
8.773804
8.775592
8.598566
8.459687
##ZVALUE=315
1.463890
1.604557
1.558661
1.706481
1.505613
1.448989
1.603961
1.514554
1.563430
1.464486
1.498461
1.947880
1.635551
1.825690
1.667738
1.737475
1.607537
1.767874
1.753569
1.924634
1.940727
1.919866
2.228618
1.932979
2.224445
2.218485
2.350807
2.601743
2.685785
2.737641
2.958775
3.210902
3.462434
3.482699
3.803968
4.280806
4.956722
5.420446
5.976558
15.130639
62.723756
271.956921
592.891574
1015.788913
1015.788913
1015.788913
1015.788913
1015.788913
1015.788913
1015.788913
1015.788913
1015.788913
1015.788913
972.082019
535.763502
177.639723
65.369606
22.389889
19.701719
22.380948
26.053786
36.600828
47.220588
65.155625
78.838468
96.238852
102.436543
105.537772
101.177692
87.963939
74.491501
57.745576
44.550896
30.649900
23.456812
17.735958
14.873743
12.559891
11.646748
10.547638
10.257959
9.884834
9.974837
9.656549
9.783506
9.727478
9.367466
9.224415
8.967519
8.924603
8.985996
8.809566
8.645654
8.276701
8.105636
8.166432
##ZVALUE=320
1.598597
1.414418
1.423955
1.452565
1.302958
1.598597
1.401901
1.566410
1.598597
1.594424
1.580715
1.509786
1.637936
1.564622
1.682639
1.852512
1.777411
1.738667
1.708865
1.685619
1.772642
2.078414
1.924634
1.852512
2.298951
2.320409
2.284646
2.442598
2.442598
2.516508
2.666712
2.752542
3.017783
3.177524
3.313422
3.813505
3.922582
4.456639
4.362464
5.350709
5.880594
8.639693
30.165911
172.378421
436.519980
1009.227633
1015.788913
1015.788913
1015.788913
1015.788913
1015.788913
1015.788913
1015.788913
1015.788913
1015.788913
1015.788913
817.847848
324.293971
130.180717
33.384562
18.561482
17.764568
18.743873
23.560524
30.102730
44.536591
57.487488
75.778961
88.397861
98.524690
99.247694
96.242428
86.619854
69.727898
56.342483
39.122701
29.411912
20.364523
15.534759
12.213588
10.978580
10.075569
9.474754
9.288788
9.454489
9.176731
8.907914
9.010434
8.951426
8.811951
7.956624
8.609891
8.323789
8.125901
8.047819
8.221865
##ZVALUE=325
1.408458
1.577735
1.438856
1.551509
1.465678
1.562834
1.419783
1.481771
1.640916
1.570582
1.550913
1.732707
1.733899
1.632571
1.667738
1.869798
1.558661
1.760721
1.730919
1.716614
1.901984
1.925826
1.948476
2.088547
2.222657
2.067685
2.323985
2.291799
2.162457
2.502799
2.541542
2.442598
2.943873
2.871752
2.966523
3.274679
3.523827
3.652573
3.668666
4.469752
4.804730
5.488992
6.086826
7.069707
17.434955
132.336020
355.404615
915.208459
1015.788913
1015.788913
1015.788913
1015.788913
1015.788913
1015.788913
1015.788913
1015.788913
1015.788913
1015.788913
1015.788317
483.761430
214.387774
56.750774
21.768808
16.004443
15.644431
18.256903
22.191405
30.329823
40.798783
58.589578
71.136951
86.269975
93.474984
95.294714
90.198517
76.699853
63.943863
48.129559
36.542416
24.227500
17.557740
12.771487
11.077523
9.892583
9.450912
9.216666
8.977652
8.654594
8.634925
8.502603
8.476973
8.115768
8.216500
8.027554
7.773638
7.448792
##ZVALUE=330
1.573563
1.485944
1.548529
1.480579
1.388788
1.363754
1.603961
1.566410
1.624823
1.559854
1.566410
1.545548
1.435876
1.659989
1.706481
1.649857
1.683831
1.813769
1.991987
1.824498
1.791716
1.662970
1.767874
1.898408
1.945496
2.128482
2.250671
2.271533
2.266765
2.154708
2.379417
2.583861
2.432466
2.700686
2.627969
2.857447
2.887845
3.144741
3.547668
3.623962
4.008412
4.219413
4.772544
5.195737
5.626678
6.814599
9.511709
53.141713
181.919932
619.061589
1015.787721
1015.787721
1015.787721
1015.787721
1015.787721
1015.787721
1015.787721
1015.787721
1015.787721
1015.787721
1015.787721
722.934008
348.063707
104.848742
34.348965
15.463829
14.968514
14.925599
17.043948
22.469759
29.314756
40.720701
53.063631
69.451928
79.070926
88.100433
87.531805
80.501437
72.663426
58.199763
45.907497
31.825900
23.951530
16.841888
13.208985
10.656714
9.714961
8.932948
8.700490
8.643866
8.128881
8.164644
7.920861
7.577538
7.818937
7.527471
##ZVALUE=335
1.492500
1.518726
1.594424
1.389980
1.331568
1.282692
1.523495
1.536608
1.577735
1.545548
1.460910
1.522899
1.532435
1.649857
1.602769
1.572967
1.558661
1.700521
1.618862
1.726747
1.865625
1.757741
1.765490
1.711845
2.155900
1.825690
1.965761
2.028942
2.064705
1.939535
2.188683
2.086759
2.258420
2.331734
2.516508
2.563000
2.724528
2.944469
2.962947
3.142953
3.367662
3.612638
3.743768
4.271865
4.742742
5.303621
5.728602
6.863475
7.358789
22.606850
96.555948
398.902893
837.852955
1015.788913
1015.788913
1015.788913
1015.788913
1015.788913
1015.788913
1015.788913
1015.788913
1015.788913
1015.788913
989.437699
556.227565
184.980631
61.213970
18.038750
15.716553
15.177727
16.052723
18.156767
21.836758
30.004978
37.704706
50.626993
61.376691
73.179603
77.602863
79.287887
75.665712
65.086484
54.788589
41.153431
32.862425
22.929907
17.714500
12.846589
10.838509
9.241700
8.626580
7.871985
7.879734
7.788539
7.527471
7.322431
##ZVALUE=340
1.373887
1.426935
1.319647
1.318455
1.405478
1.265407
1.347661
1.452565
1.381636
1.503825
1.645684
1.451969
1.547933
1.543760
1.545548
1.689792
1.690984
1.556873
1.468658
1.905560
1.648664
1.799464
1.812577
1.934767
2.019405
1.904964
1.887679
2.031922
1.984835
1.969934
2.190471
2.043843
2.184510
2.068877
2.248883
2.367496
2.479553
2.734661
2.808571
2.764463
2.966523
3.272891
3.144741
3.617406
3.686547
4.183650
4.562736
5.040765
5.705953
6.289482
6.714463
11.682510
42.323470
231.764913
571.720600
1015.788913
1015.788913
1015.788913
1015.788913
1015.788913
1015.788913
1015.788913
1015.788913
1015.788913
1015.788913
1015.788913
720.687509
271.005630
95.807910
23.332834
16.746521
16.136765
15.633702
15.789866
16.893744
20.621419
25.215745
35.282969
44.571757
58.032870
66.852570
73.579550
74.276924
69.826841
63.678622
52.003860
42.582750
30.725598
23.489594
16.640425
12.524724
9.570718
8.659959
8.191466
7.834435
7.579923
##ZVALUE=345
1.321435
1.561642
1.514554
1.421571
1.392961
1.416802
1.386404
1.342893
1.492500
1.365542
1.351833
1.498461
1.521707
1.440644
1.413822
1.528859
1.601577
1.610518
1.734495
1.648664
1.591444
1.668930
1.677871
1.706481
1.719594
1.673698
1.882911
1.879930
1.963973
1.879930
1.941919
1.879930
2.143979
2.043843
2.342463
2.263784
2.461672
2.471805
2.635717
2.791882
2.632737
2.611876
3.032684
3.077984
3.208518
3.740788
3.727674
4.077554
4.382730
4.884601
5.228519
5.852580
6.340742
7.836819
18.183589
120.956898
341.380835
908.393860
1015.787721
1015.787721
1015.787721
1015.787721
1015.787721
1015.787721
1015.787721
1015.787721
1015.787721
1015.787721
973.293781
365.488529
147.320628
38.309693
19.441843
16.822815
15.543699
14.295578
13.421774
14.758706
16.993880
23.271441
30.195713
42.179823
50.992966
60.481429
66.420436
68.523884
66.258907
59.368610
51.912665
40.339828
31.310916
21.922588
16.765594
12.237430
10.014772
8.506775
##ZVALUE=350
1.571774
1.557469
1.426935
1.438856
1.388788
1.677871
1.494884
1.705885
1.588464
1.492500
1.507998
1.754761
1.594424
1.495481
1.652837
1.768470
1.538992
1.566410
1.660585
1.659989
1.572967
1.656413
1.641512
1.731515
1.754761
1.719594
1.926422
1.843572
1.931787
1.836419
1.805425
1.824498
1.975894
2.018809
2.300739
2.212524
2.175570
2.222657
2.330542
2.514720
2.443790
2.568960
2.704859
3.044605
2.918839
3.157854
3.263950
3.533959
3.670454
3.855824
4.480481
4.617572
4.930496
5.435944
6.396770
7.070899
12.056828
45.662522
229.377747
539.291501
1015.788913
1015.788913
1015.788913
1015.788913
1015.788913
1015.788913
1015.788913
1015.788913
1015.788913
1015.788913
1015.788913
587.243438
176.738501
60.569644
20.535588
15.823841
13.547540
12.523532
11.279583
11.479855
12.826920
15.553832
20.465851
26.880503
36.751628
44.776797
54.557920
60.044527
62.848926
60.858727
55.204630
48.272610
38.094521
29.871464
21.523833
16.321540
##ZVALUE=355
1.547933
1.336932
1.458526
1.654625
1.486540
1.475811
1.680851
1.599789
1.638532
1.448989
1.614690
1.699924
1.605749
1.611710
1.627803
1.822710
1.597404
1.832843
1.740456
1.665950
1.690984
1.767874
1.647472
1.770854
1.897812
1.846552
1.939535
2.025962
1.954436
2.003908
1.909733
2.095699
2.134442
2.076626
2.189875
2.156496
2.292991
2.512932
2.284646
2.494454
2.600551
2.664924
2.836585
2.715588
2.900958
3.082752
3.158450
3.281832
3.451705
3.769994
3.680587
4.209876
4.479885
4.611611
4.836917
5.448461
5.831718
6.825924
7.869601
29.446483
111.110806
427.425504
886.186957
1015.788913
1015.788913
1015.788913
1015.788913
1015.788913
1015.788913
1015.788913
1015.788913
1015.788913
1015.788913
672.690868
295.957923
75.156689
25.948882
14.648438
12.977719
11.749864
11.025667
10.585785
10.652542
11.595488
13.563633
18.385649
23.379922
32.100677
38.873553
48.031807
53.424835
56.541562
56.153536
50.860643
44.856668
36.383867
##ZVALUE=360
1.502633
1.445413
1.695752
1.589656
1.570582
1.544952
1.796484
1.565814
1.639724
1.637936
1.759529
1.634955
1.649857
1.709461
1.766682
1.669526
1.795888
1.857877
1.844764
1.863837
1.712441
1.820922
2.020597
1.918674
1.947880
1.833439
1.917481
2.086759
1.992583
2.139807
1.967549
2.065897
2.203584
2.052784
2.108812
2.155900
2.275705
2.384782
2.367496
2.437830
2.522469
2.571940
2.717972
2.757907
2.745986
2.850890
3.030896
3.165603
3.261566
3.579855
3.543496
3.852844
4.056692
4.162788
4.389882
4.724860
4.954934
5.463958
6.044507
6.785989
7.702708
13.485551
47.357678
212.736130
516.207814
1015.788913
1015.788913
1015.788913
1015.788913
1015.788913
1015.788913
1015.788913
1015.788913
1015.788913
1015.788913
928.876996
466.706753
147.417784
46.833754
15.205741
12.816787
11.480451
10.611415
10.029674
9.783506
9.701848
10.091662
11.947751
14.304519
20.304918
25.707483
34.695864
40.743947
47.533512
50.096512
50.820708
##ZVALUE=365
1.529455
1.474619
1.596808
1.559854
1.659989
1.459718
1.657605
1.672506
1.501441
1.483560
1.565814
1.596808
1.503825
1.745820
1.708865
1.522899
1.712441
1.656413
1.687407
1.840591
1.609921
1.874566
1.852512
1.924634
1.772642
1.766682
1.823902
1.808405
1.989603
1.828671
1.976490
1.933575
1.871586
2.144575
2.101660
1.994967
2.262592
2.279878
2.239943
2.329946
2.314448
2.425909
2.696514
2.600551
2.823472
2.685785
2.740622
2.846718
2.933741
2.862811
3.060699
3.349781
3.421903
3.471971
3.691912
3.923774
4.217625
4.678965
4.828572
5.305409
5.905628
6.577969
7.269979
8.842945
19.142628
113.632679
321.987867
914.060473
1015.790701
1015.790701
1015.790701
1015.790701
1015.790701
1015.790701
1015.790701
1015.790701
1015.790701
1015.790701
690.748692
236.637592
82.633495
18.350482
12.437701
10.273457
10.272861
9.156466
8.670688
8.486509
8.182526
8.891821
9.464622
12.647510
16.209483
21.905899
27.640462
35.244823
##ZVALUE=370
1.395941
1.401901
1.402497
1.518726
1.420975
1.500845
1.408458
1.453757
1.391768
1.441836
1.466870
1.474619
1.385808
1.470447
1.486540
1.577735
1.578927
1.496673
1.537800
1.568794
1.527667
1.652837
1.662970
1.698732
1.596808
1.719594
1.822710
1.786947
1.690984
1.488924
1.947880
1.645684
1.848936
1.791716
1.893640
2.018809
2.001524
1.876950
2.052784
1.937747
2.048612
2.082586
2.229810
2.359748
2.343655
2.342463
2.289414
2.401471
2.550483
2.579689
2.725720
2.762675
2.779961
3.186464
3.105998
3.457665
3.353953
3.623962
3.762841
4.147887
4.457831
5.002618
5.286932
5.845428
6.550550
7.485747
10.810494
62.617660
205.995440
642.718673
1015.788913
1015.788913
1015.788913
1015.788913
1015.788913
1015.788913
1015.788913
1015.788913
1015.788913
1015.788913
902.400017
343.631506
138.705969
31.202435
13.648868
10.283589
9.654760
8.894801
8.348823
7.687807
7.409453
7.346869
7.458925
8.335710
10.225773
13.750792
##ZVALUE=375
1.402497
1.346469
1.457930
1.370907
1.389980
1.352429
1.311898
1.304746
1.288652
1.369715
1.475811
1.499653
1.489520
1.545548
1.241565
1.510978
1.516938
1.513958
1.416802
1.339912
1.446605
1.628995
1.579523
1.790524
1.648664
1.646876
1.540780
1.563430
1.587868
1.714826
1.685619
1.850724
1.593828
1.607537
1.746416
1.826882
1.839995
1.797676
1.853704
2.026558
1.874566
1.917481
1.920462
2.199411
2.060533
2.188683
2.248883
2.207756
2.248883
2.403855
2.540946
2.549887
2.454519
2.613664
2.705455
2.783537
2.861619
3.088713
3.221631
3.362894
3.737807
4.012585
4.182458
4.396439
4.561543
5.767941
6.094575
7.296801
8.899570
32.280684
120.450854
449.217558
934.800506
1015.788913
1015.788913
1015.788913
1015.788913
1015.788913
1015.788913
1015.788913
1015.788913
1015.788913
1015.788913
648.719668
311.205983
83.673000
24.988651
10.924935
10.057688
8.830428
8.763671
7.897615
7.423759
7.022619
7.030964
6.999969
##ZVALUE=380
1.274943
1.298785
1.288652
1.316667
1.365542
1.350641
1.266599
1.233816
1.422763
1.264811
1.461506
1.237988
1.439452
1.361966
1.255870
1.415610
1.362562
1.369715
1.208782
1.461506
1.291633
1.554489
1.633763
1.348853
1.457930
1.630783
1.532435
1.455545
1.485944
1.536608
1.540780
1.412630
1.577735
1.683831
1.599789
1.623631
1.683831
1.796484
1.679659
1.770854
1.801848
1.890659
1.980662
2.068877
1.874566
1.960993
1.994967
2.138615
2.202988
2.014637
2.142787
2.324581
2.218485
2.616644
2.706647
2.489686
2.621412
2.797842
2.910495
2.925992
3.103614
3.519654
3.523827
3.897548
4.001856
4.567504
4.885793
5.848408
6.386638
7.877946
8.777976
17.576814
73.856711
362.387896
830.989480
1015.785933
1015.785933
1015.785933
1015.785933
1015.785933
1015.785933
1015.785933
1015.785933
1015.785933
1015.785933
896.988511
449.777842
145.722628
49.726963
13.577938
9.817481
8.812547
8.122921
7.311702
7.101893
6.559491
##ZVALUE=385
1.221895
1.338720
1.304746
1.384616
1.319647
1.260638
1.153946
1.378655
1.362562
1.267791
1.378655
1.324415
1.314878
1.410842
1.407862
1.422763
1.314878
1.326799
1.372695
1.399517
1.505613
1.357794
1.386404
1.559854
1.371503
1.439452
1.287460
1.524687
1.502633
1.471639
1.629591
1.498461
1.646876
1.696944
1.783967
1.517534
1.693964
1.791716
1.662970
1.774430
1.702905
1.684427
1.702905
1.848936
1.818538
1.951456
1.940727
1.952648
2.072453
2.115965
2.031922
2.228618
2.194643
2.278686
2.164841
2.360940
2.486706
2.759695
2.836585
2.706647
2.871752
2.942681
3.132820
3.213882
3.460646
3.729463
4.119873
4.594922
4.972816
5.848408
6.471872
7.251501
7.952452
9.745955
29.592514
174.083710
457.321405
1015.885472
1015.885472
1015.885472
1015.885472
1015.885472
1015.885472
1015.885472
1015.885472
1015.885472
1015.885472
1015.885472
717.551708
275.581479
97.502470
18.962622
10.153651
8.504987
7.900000
7.418990
##ZVALUE=390
1.223683
1.066923
1.153946
1.249909
1.152754
1.242757
1.177788
1.216531
1.134872
1.211762
1.060963
1.071692
1.246929
1.118779
1.184940
1.318455
1.232624
1.273751
1.316667
1.341701
1.218915
1.104474
1.288652
1.258850
1.204610
1.317859
1.262426
1.305938
1.406670
1.491904
1.516938
1.436472
1.368523
1.594424
1.622438
1.357794
1.498461
1.600981
1.350641
1.553893
1.685619
1.514554
1.706481
1.731515
1.681447
1.729727
1.814961
1.825690
1.846552
1.853704
1.907945
2.007484
1.969934
2.091527
2.085567
2.190471
2.283454
2.424717
2.251863
2.478957
2.613664
2.762675
2.810955
3.056526
3.064871
3.377795
3.551841
4.216433
4.638433
5.210638
5.383492
5.908608
6.323457
6.660819
7.013679
7.784963
14.294982
89.223981
282.300711
878.854990
1015.819907
1015.819907
1015.819907
1015.819907
1015.819907
1015.819907
1015.819907
1015.819907
1015.819907
1015.819907
990.850329
416.962504
177.151561
43.205619
13.587475
8.566976
##ZVALUE=395
1.232624
1.171827
1.165867
1.087785
1.187921
1.098514
1.054406
1.044869
1.259446
1.095533
1.387596
1.143813
1.167655
0.994802
1.149774
1.254678
1.181960
1.193881
1.110435
1.067519
1.304746
1.206994
1.279712
1.359582
1.225471
1.349449
1.278520
1.243949
1.310706
1.332760
1.344681
1.382828
1.233816
1.574755
1.454949
1.476407
1.484752
1.494884
1.611710
1.553893
1.476407
1.611710
1.439452
1.453757
1.768470
1.548529
1.779795
1.806617
1.812577
1.731515
1.839995
1.884699
2.047420
1.848936
2.042651
2.050996
2.169609
2.190471
2.542734
2.431870
2.457500
2.479553
2.523661
2.864599
3.075600
3.150702
3.329515
3.708601
4.109740
4.513860
4.833937
5.107522
5.550981
5.442500
5.367994
5.917549
6.152987
6.857514
8.626580
45.177937
169.066787
595.539808
1015.788913
1015.788913
1015.788913
1015.788913
1015.788913
1015.788913
1015.788913
1015.788913
1015.788913
1015.788913
1015.788913
647.721887
295.065641
80.117583
##ZVALUE=400
1.123548
1.051426
1.238585
1.239777
1.238585
1.140833
1.102686
1.023412
1.051426
1.035929
0.968575
1.171827
1.119971
1.181960
1.170635
1.042485
1.147985
1.333952
1.114607
1.278520
1.237988
1.143813
1.195669
1.446605
1.226664
1.200438
1.255870
1.279712
1.272559
1.310706
1.379848
1.337528
1.337528
1.358986
1.503825
1.338720
1.378655
1.537800
1.432896
1.565814
1.553893
1.625419
1.706481
1.495481
1.605749
1.621842
1.663566
1.775622
1.763701
1.915693
1.696944
1.975894
1.948476
1.747608
1.875758
2.001524
2.132654
2.165437
2.241731
2.402663
2.177954
2.543926
2.422929
2.484918
2.710819
2.904534
3.177524
3.766418
4.080534
4.465580
4.596710
4.916787
4.936457
4.931688
4.751682
5.073547
4.932880
5.465746
5.963445
6.955862
7.803440
25.345683
95.096827
350.718498
769.246817
1015.788913
1015.788913
1015.788913
1015.788913
1015.788913
1015.788913
1015.788913
1015.788913
1015.788913
1015.788913
856.948495
##END
