##TITLE=KDZ015
##FORMAT=SPECTACLE-ASCII V-1.2
##DATA TYPE=ULTRAVIOLET SPECTRUM
##SECOND TYPE=ULTRAVIOLET SPECTRUM
##DATE=11/28/17
##TIME=15:56:08
##SPECTROMETER/DATA SYSTEM=SPECTACLE
##XUNITS=NM EM
##YUNITS=ENERGY
##YFACTOR=1
##FIRSTX=220
##LASTX=410
##NPOINTS=96
##3DDATA=Equidistant
##ZUNITS=NM EX
##FIRSTZ=210
##LASTZ=400
##ZPOINTS=39
##XYDATA=(Y..Y)
##ZVALUE=210
5.268455
4.716516
5.049706
5.323887
5.075932
5.236864
4.410744
5.203485
4.667640
3.876686
4.032850
3.486872
3.645420
3.097653
3.818870
3.734827
4.264712
3.823638
4.331470
4.771948
4.705787
5.364418
5.035996
4.801750
5.870461
6.552935
5.496740
6.509423
5.730987
6.526709
6.490946
6.440878
7.048845
7.554889
7.605553
7.438660
9.335876
8.782744
9.315610
8.621812
8.488894
9.998679
8.670688
9.395480
9.116530
9.824634
9.598732
9.967685
9.932518
10.631680
9.501576
10.682940
9.514689
11.070967
11.102557
11.316538
11.741519
11.633635
11.512637
11.062622
12.330413
12.126565
11.488795
11.844635
13.038516
12.416840
14.635921
15.242696
18.142462
19.951463
24.573803
29.679537
32.482743
36.785603
37.663579
42.107701
40.745735
39.556623
38.941503
38.684607
34.281611
31.436682
26.593804
24.028420
21.342635
17.576814
14.399886
13.537407
12.466908
11.360645
12.151599
12.641549
12.024641
12.392998
13.131499
14.722943
##ZVALUE=215
14.624000
13.848543
14.127493
11.090636
10.496974
9.287000
7.837415
8.466840
9.056926
9.326935
8.708835
7.282495
5.918741
5.277991
5.306602
4.864931
4.090667
4.046559
4.139543
5.108714
5.219579
4.838705
4.884601
5.588531
5.679727
6.222725
6.845593
6.488562
6.618500
7.356405
7.499456
7.995963
7.735491
8.823872
8.924603
8.183718
9.098649
9.697676
8.594990
8.254647
9.563565
9.808540
9.112954
10.789633
9.917617
11.540651
10.926723
10.427833
10.841489
10.957718
11.008978
12.278557
11.498928
11.782646
10.440946
11.783838
12.447834
12.759566
12.333989
11.694431
12.675524
12.801886
12.868643
12.927651
13.268590
13.689995
14.520884
15.325546
17.957687
19.844770
24.171472
27.654767
31.346679
35.046935
36.506653
41.343570
38.250685
37.881732
39.614439
35.253763
33.571720
28.727651
27.291775
23.941994
18.531680
17.126799
15.919805
12.909770
12.942553
11.719465
11.961460
11.432767
10.516644
11.023879
10.510683
11.093616
##ZVALUE=220
35.907626
37.580729
38.919449
41.721463
40.856600
33.034682
27.850866
18.967986
17.400980
15.779734
16.558766
16.146898
16.372800
12.810826
12.183785
10.800958
7.950664
6.422997
5.440712
5.352497
5.488992
5.938411
5.929470
5.976558
7.094741
7.501841
6.891489
7.659793
7.530451
6.987453
8.080602
9.731650
9.752512
9.208918
9.189844
10.466576
10.534525
10.897517
10.294914
10.421872
10.721684
11.264682
10.634661
11.906624
10.724664
11.130571
11.891723
11.153817
11.809468
11.669993
11.103749
11.570454
12.497902
11.626482
12.960434
14.096498
13.683438
12.773871
12.627840
13.614893
12.801886
14.760494
13.266802
15.024543
14.554858
14.666915
14.865994
16.424656
18.285513
21.100640
24.817586
24.456978
29.603839
37.381649
36.991835
38.907528
38.490891
36.554933
38.929582
36.763549
32.772422
29.277802
28.036833
23.115873
20.875931
17.967820
14.436841
14.043450
13.847947
12.643933
12.615919
12.924671
12.183785
12.754798
11.208653
11.574626
##ZVALUE=225
59.461594
59.747696
74.535608
101.915002
110.549927
112.693906
103.931427
84.096789
62.697530
48.909783
35.867691
29.707551
30.695796
32.919645
31.436682
28.981566
24.596453
19.519925
16.360879
11.408925
8.243918
7.690787
6.128550
6.191730
7.298589
8.022785
8.751750
8.283854
8.467436
8.275509
9.309649
10.155439
9.918809
10.408759
10.548830
12.001991
10.963678
10.914803
11.267662
11.097789
11.823773
10.994673
10.848641
12.636781
13.320446
13.122559
12.447834
12.044907
12.701750
13.587475
14.606714
13.888478
14.069676
15.007854
15.208721
15.067458
14.769435
14.613867
14.434457
14.161468
14.730692
15.803576
16.006827
15.030503
15.278459
15.500784
17.421842
17.432570
19.699931
21.200776
24.602413
26.492476
33.930540
32.407641
35.813451
36.050677
36.626458
34.910440
34.049749
33.159852
28.771758
25.760531
23.090839
22.834539
19.476414
17.606616
15.272498
15.402436
14.129877
14.182925
13.423562
15.507936
13.013482
13.055801
13.515949
13.530850
##ZVALUE=230
44.279695
46.722889
90.057850
128.593445
179.573894
232.839584
254.279971
255.440474
229.402781
181.295872
138.984919
92.733502
65.738559
50.122738
48.496723
50.529838
53.898692
52.970648
47.784448
37.080646
27.949810
19.650459
14.807582
10.755658
9.598732
8.092523
8.126497
9.235740
9.580851
10.789633
9.672642
10.642409
10.969639
11.154413
11.456609
11.987686
12.731552
12.441874
12.231469
12.044907
12.208819
13.842583
12.537837
11.652708
12.752414
13.303757
13.251901
13.306737
13.355613
13.914704
13.841987
14.783740
14.548898
14.574528
14.932752
16.149879
17.167926
17.068982
16.706586
16.819835
17.191768
17.047524
17.191768
16.896725
17.244816
18.730760
18.113852
19.703507
23.336411
24.028420
27.265549
30.554533
35.654902
35.264492
36.943555
37.505627
36.396980
34.885406
34.858584
31.214952
28.881431
26.176572
24.086833
23.454428
20.699501
18.734932
17.201900
16.891956
17.572641
15.172958
15.067458
14.732480
14.900565
14.367700
14.398694
13.851523
##ZVALUE=235
13.798475
13.980865
33.545494
87.786913
151.552558
253.797770
336.086750
440.139771
501.364470
501.792431
457.394719
369.780660
256.919861
185.981989
118.986964
83.514452
74.051619
77.270865
80.032945
84.356666
75.455904
63.441992
53.070784
37.346482
27.037859
18.573999
14.399886
12.723804
11.491776
11.989474
11.098981
11.666417
11.632442
12.832880
11.328459
12.515783
14.071465
12.123585
12.469888
12.927651
13.384819
12.133718
12.608767
14.028549
13.056993
13.079643
14.316440
14.429688
14.648438
15.130639
16.628504
14.908910
15.870929
15.750527
16.917586
17.382503
17.804503
19.005537
19.071698
18.786788
16.157627
19.539595
20.134449
19.993782
19.859672
20.656586
22.421479
22.111535
25.164485
27.341843
29.055476
33.687949
34.876466
38.010478
39.481521
41.820407
39.568543
40.359497
37.326813
34.177899
32.177567
30.246973
27.509928
25.852919
23.285747
19.937754
19.774437
20.383596
19.908547
18.488765
18.575788
17.768741
17.254949
16.537905
17.331839
16.632676
##ZVALUE=240
2.671480
2.712607
7.118583
18.531680
47.925711
118.921995
213.563442
387.179852
526.328683
701.792836
778.767467
805.033445
750.402808
589.319468
470.267534
290.621519
202.297568
128.441453
97.364783
97.469687
106.612444
107.829571
110.272765
100.267529
84.887743
62.799454
50.032735
34.278631
25.638938
18.084645
14.057755
13.478994
13.701916
13.335943
12.686849
12.756586
13.120770
13.793707
11.911988
13.770461
12.928843
14.210939
12.845993
13.351440
13.599992
14.421940
14.146566
13.898611
13.632774
15.074611
14.841557
17.112494
15.729666
17.219782
16.525984
17.451644
17.861724
18.398762
19.625425
17.093420
17.939806
17.971992
19.118786
20.812750
19.451976
22.211671
21.287799
22.946596
24.108887
27.058721
29.335618
33.124685
36.295652
39.826632
40.498972
42.707920
41.617751
41.716695
38.551688
35.643578
32.227635
29.649734
27.715564
25.013685
24.363995
22.973418
21.119714
20.648837
19.780993
17.376542
17.943978
17.770529
17.620921
19.388795
17.060637
16.541481
##ZVALUE=245
2.564788
2.756715
2.564788
2.749562
5.411506
14.415979
49.477816
104.952455
249.994993
398.603678
640.247464
824.007988
958.555937
1015.788913
988.340974
811.404586
668.480992
455.716848
314.306617
177.941918
124.479532
100.694895
110.159516
118.452907
120.785832
127.228498
109.702945
95.512867
73.823929
56.108832
43.364763
27.420521
17.526746
14.972687
12.673736
12.764931
12.538433
12.439489
12.882948
11.344552
12.124777
11.748672
12.279749
12.226701
13.079643
13.096929
13.192892
12.798905
13.457537
12.525916
13.003945
14.081597
14.209747
14.850497
16.019940
15.426874
16.013980
15.580654
15.996695
16.680956
16.244650
17.269850
16.465783
17.849803
17.108917
18.745661
18.054843
19.063950
20.541549
23.507476
26.140809
28.454661
29.616952
34.261942
35.656691
36.579967
34.829974
33.715963
34.739971
28.303862
28.784871
25.790930
23.774505
22.826791
20.613670
20.211935
17.759800
16.367435
18.029809
18.094778
17.156601
16.869903
15.715957
15.677810
16.339421
15.289783
##ZVALUE=250
2.392530
2.404451
2.264977
1.889467
2.582669
2.816916
4.128814
9.491444
42.348504
92.131495
236.686468
405.682921
604.114532
882.635713
1015.788913
1015.788913
1015.788913
1015.788913
934.738517
651.647449
442.505479
284.833908
147.607923
107.255578
101.545453
111.032724
129.811764
133.829713
129.786730
120.241642
108.761787
78.871846
61.574578
39.189458
27.043819
17.846823
13.513565
12.651682
10.959506
11.056662
10.288954
11.236668
10.402799
10.722876
11.570454
11.462569
10.904670
11.917949
11.787415
12.356639
12.260675
13.206601
12.448430
13.686419
13.846755
12.759566
13.946891
14.293790
14.351606
14.824867
13.350844
13.924837
14.265776
14.683604
15.576482
16.070604
15.601516
17.835498
18.237829
20.906925
21.120906
24.565458
25.761724
26.935935
29.432774
29.350519
31.040907
28.671622
26.586652
25.507808
23.244619
22.021532
19.836426
18.562675
18.026829
17.609000
15.152693
15.243888
14.613867
14.255643
14.944673
15.312433
14.786720
14.032722
13.710856
13.742447
##ZVALUE=255
2.345443
2.322793
2.018809
2.064705
1.978874
2.109408
2.188683
3.111959
3.346801
5.833507
29.302835
79.004765
167.272687
377.869606
588.591695
926.629901
1015.788913
1015.788913
1015.788913
1015.788913
1015.788913
957.837701
597.374439
390.586853
201.638937
125.841498
94.896555
99.247694
119.588971
130.370855
137.250423
137.459636
127.391815
105.480552
83.095431
56.287646
42.395592
25.065541
18.155575
12.577772
11.439919
10.289550
10.376573
9.553432
10.466576
10.607839
10.402799
9.687543
10.802746
11.379719
11.066794
11.068583
11.491776
11.661649
10.931492
11.249781
11.151433
11.647940
12.033582
12.293458
12.344718
12.239814
12.288690
11.989474
12.250543
13.479590
13.533831
14.098883
16.247630
15.508533
18.193722
19.909739
20.684600
23.957491
23.585558
24.199486
23.268461
22.366643
21.075606
18.908978
18.231869
16.845465
15.273690
15.260577
14.519691
13.775826
12.861490
12.925863
13.197660
12.272596
12.319684
13.015866
11.870861
11.956692
12.104511
12.499690
##ZVALUE=260
1.959801
2.106428
1.963973
1.992583
2.266765
2.252460
2.178550
2.154708
2.677441
2.627969
2.659559
4.026890
11.143684
52.994490
126.645565
312.297940
513.291955
855.018497
1015.788913
1015.788913
1015.788913
1015.788913
1015.788913
1015.788913
844.987035
583.668947
333.836675
198.193789
107.126832
87.486506
95.566511
118.902922
135.583878
143.491626
141.295791
125.014782
107.643604
82.213879
62.441826
38.787723
26.588440
16.561747
12.486577
10.132790
10.083914
10.146499
9.815693
9.256601
9.727478
10.408759
9.819865
11.085868
10.108948
10.318756
10.886788
10.781884
10.582805
10.832548
10.490417
10.630488
10.384917
10.681748
11.096597
10.885596
11.137724
11.941791
12.323856
12.797713
14.205575
14.902949
16.480684
17.124414
18.774867
20.066500
20.165443
21.158457
19.239783
18.971562
18.479824
16.817451
15.891790
15.334487
14.215708
13.494492
13.051629
12.527704
11.747479
11.740923
11.861920
10.653734
11.390448
11.305809
11.852980
11.299849
10.856986
11.834502
##ZVALUE=265
1.769662
1.614690
1.816750
1.728535
1.726747
2.004504
1.831651
2.226830
2.184510
2.152920
2.260804
2.235770
2.703667
3.302693
7.905960
39.009452
98.629594
257.454515
455.350876
858.618617
1015.605927
1015.605927
1015.605927
1015.605927
1015.605927
1015.605927
1015.605927
831.421018
459.100604
275.702477
139.469504
89.687705
79.401731
102.788806
122.620463
143.315792
147.198439
142.425895
130.767822
104.780793
84.172487
55.713654
38.841963
22.873878
16.092658
10.839701
10.190606
8.854866
9.690523
9.985566
8.946657
9.959936
9.808540
10.348558
9.518862
9.524822
10.075569
9.991527
9.972453
10.796785
10.375977
10.911822
10.933876
10.950565
10.554790
11.019707
10.873675
11.207461
11.377931
13.812780
14.539957
15.896559
16.235709
17.434955
17.351508
17.055869
17.290711
16.879439
16.047955
14.495850
13.297796
13.240576
11.200905
11.551976
11.023879
9.626746
10.323524
10.577440
10.000467
9.714961
9.843707
10.272861
9.128451
9.212494
9.107590
9.585619
##ZVALUE=270
1.687407
1.719594
1.834631
1.849532
2.053976
1.818538
1.747608
2.010465
2.017617
1.969934
2.238750
2.357960
2.425909
2.689958
2.780557
3.180504
3.830791
19.322634
59.250593
196.228623
377.237797
637.283921
1015.788913
1015.788913
1015.788913
1015.788913
1015.788913
1015.788913
1015.788913
1015.788913
690.287948
430.459976
200.635791
109.034777
69.510937
77.336431
103.101730
121.631622
141.014457
147.919655
141.582489
129.387975
106.566548
85.974932
58.319569
40.656924
25.671721
18.503666
12.425780
10.610819
9.668469
10.075569
9.883642
9.691715
10.283589
9.964705
10.361671
10.494590
9.984970
10.474920
10.383725
10.321736
11.124611
10.568500
10.943413
11.181831
10.716915
11.132956
12.090802
12.382865
13.721585
15.302896
15.753508
16.448498
17.075539
16.422868
15.650988
15.195608
14.503598
13.241768
12.184978
11.574626
10.580420
10.697842
9.565949
9.993911
9.729862
9.660721
9.628534
9.153485
8.413792
8.754730
9.198785
8.834600
9.310842
8.661747
##ZVALUE=275
1.630783
1.543760
1.721978
1.637936
1.508594
1.662970
1.936555
1.880527
1.772642
1.923442
1.938939
2.044439
2.008677
2.487898
2.217889
2.531409
2.737641
2.683997
3.400445
6.617904
40.243864
118.810534
352.931023
619.232655
950.253010
1015.788913
1015.788913
1015.788913
1015.788913
1015.788913
1015.788913
1015.788913
970.848799
530.827641
303.912759
128.240585
70.450902
58.124661
74.926615
102.197528
118.968487
140.713453
148.804784
142.618418
131.655931
105.283856
83.400607
58.713555
43.022633
27.093887
19.187927
12.677908
11.199713
10.613799
9.808540
10.284781
10.055900
10.368824
10.465980
9.964705
10.738969
10.592937
10.039806
10.035634
10.023713
10.104775
10.709763
11.222959
11.906624
12.594461
13.008714
14.105439
15.392900
15.428662
15.944839
15.855432
15.639663
14.445782
13.602972
13.040900
12.424588
10.390878
10.250807
9.962916
9.196997
8.938909
8.472800
8.333921
8.392930
8.828640
8.485913
8.516908
8.300543
7.940531
7.575750
8.102655
##ZVALUE=280
1.551509
1.707673
1.481771
1.669526
1.580715
1.719594
1.581907
1.655817
1.523495
1.781583
1.902580
1.753569
1.907945
2.125502
2.247691
2.038479
2.357960
2.266765
2.655983
3.180504
3.084540
3.817677
23.783445
86.572766
275.618434
499.358773
903.164744
1015.788913
1015.788913
1015.788913
1015.788913
1015.788913
1015.788913
1015.788913
1015.788913
701.134801
410.344601
172.643661
83.700418
45.727491
53.185821
75.979829
94.705820
120.808482
136.752725
142.894983
138.087869
124.365687
107.868910
80.495477
61.883926
38.888454
28.257966
17.969608
13.702512
10.831952
10.139942
10.037422
10.326505
10.728836
10.685921
10.802746
10.638833
10.729432
10.541677
10.722876
10.507703
10.889769
11.411905
11.669993
12.375712
13.024807
14.060736
14.762878
14.470816
14.357567
13.685822
13.000965
12.806654
11.012554
11.319518
10.091662
9.642839
9.439588
8.531809
8.281469
8.481741
7.963777
8.093715
8.177757
7.743835
7.714629
8.207560
7.860661
7.471442
7.731915
##ZVALUE=285
1.491904
1.331568
1.625419
1.762509
1.405478
1.433492
1.505613
1.652837
1.751781
1.942515
1.668930
1.606941
1.883507
1.879930
2.026558
2.072453
2.207756
2.117753
2.476573
2.610683
2.567768
2.710819
3.543496
3.974438
12.362599
44.762492
158.887506
334.088802
1015.778780
1015.778780
1015.778780
1015.778780
1015.778780
1015.778780
1015.778780
1015.778780
1015.778780
1007.612944
572.427511
320.467949
123.745799
56.413412
38.943887
48.871636
73.452592
91.234446
116.587877
130.122900
139.322877
136.780739
124.036670
108.574629
81.066489
63.744783
42.104721
30.304790
19.539595
15.175939
12.355447
12.094975
11.363626
11.346936
11.321902
10.929704
11.579990
11.328459
11.176467
11.680722
12.063980
12.508631
13.459921
13.764501
15.066862
15.129447
14.763474
15.029907
13.822913
12.777448
12.414455
11.423826
10.829568
10.227561
9.770989
9.275675
8.594990
9.098649
8.379817
8.532405
8.145571
7.993579
7.730722
7.861853
7.451773
7.345676
7.250905
7.619858
##ZVALUE=290
1.428723
1.546741
1.423955
1.391768
1.626611
1.406670
1.513958
1.658797
1.612902
1.575947
1.863837
1.646876
1.754761
1.890659
1.784563
1.948476
1.930594
2.071857
2.167821
2.213717
2.276897
2.589822
2.660751
2.899766
3.285408
3.776550
5.531907
18.609762
93.777776
222.079754
439.112782
905.246735
1015.796661
1015.796661
1015.796661
1015.796661
1015.796661
1015.796661
1015.796661
1015.796661
896.769762
438.603759
221.230984
74.229836
36.546588
35.516620
46.912432
66.424608
84.920526
112.531781
126.479864
135.886669
133.424997
120.683908
105.492473
81.429482
63.159466
43.224692
31.162500
20.732880
15.918612
13.455749
11.894703
11.912584
11.888742
11.425614
11.831522
11.523962
11.865497
12.644529
12.794733
13.191700
13.593435
14.331937
13.488531
12.804866
12.988448
12.097955
11.489987
10.397434
9.920597
9.086728
8.671880
8.749962
8.686781
8.473992
8.041859
7.750988
7.840991
7.812977
7.564425
7.509589
7.340908
7.275939
7.219911
7.134676
##ZVALUE=295
1.613498
1.285672
1.461506
1.453757
1.470447
1.447797
1.536608
1.572967
1.456738
1.575947
1.506805
1.646876
1.795888
1.573563
1.520514
1.700521
1.724958
1.855493
1.865625
2.165437
2.362728
2.215505
2.207756
2.570748
2.645850
2.675653
3.218651
3.482699
3.793836
10.241866
38.773417
164.547563
351.934433
776.208639
1015.788913
1015.788913
1015.788913
1015.788913
1015.788913
1015.788913
1015.788913
1015.788913
1015.788913
603.460670
331.061482
120.751858
49.292445
25.608540
30.827522
45.704842
62.468648
86.055994
101.963878
121.951699
130.820870
128.837824
120.469928
100.454688
83.218813
59.768558
44.122934
29.336810
22.429824
16.042590
13.448596
11.958480
11.871457
11.479855
12.248755
12.338758
12.593865
13.284683
13.809800
13.156533
13.230443
12.792945
11.998415
12.083650
10.800958
10.187626
9.819865
9.187460
8.805990
8.751750
8.163452
8.157492
8.259416
7.898808
8.002520
7.917881
7.518530
7.315874
6.970763
7.185936
7.005930
7.063746
##ZVALUE=300
1.397729
1.348853
1.345873
1.391768
1.333952
1.555681
1.464486
1.383424
1.610518
1.470447
1.431704
1.493692
1.701713
1.706481
1.693964
1.545548
1.739860
1.408458
1.691580
1.952648
2.052784
1.912713
2.015829
2.336502
2.262592
2.488494
2.818704
2.716780
2.936721
3.309846
3.647804
4.623532
21.849871
81.279874
274.816751
535.113811
1000.398993
1015.788913
1015.788913
1015.788913
1015.788913
1015.788913
1015.788913
1015.788913
1015.788913
953.513980
489.847660
263.184905
89.592934
34.632683
22.770762
28.307438
42.979717
57.564974
80.286860
96.652508
115.314722
122.547746
123.818517
116.473436
99.418759
82.476735
61.347485
46.475530
30.361414
22.544861
16.446710
14.138818
12.694597
13.099909
12.849569
13.229847
13.174415
13.091564
12.882948
12.416840
11.587739
11.549592
10.548830
9.924769
9.793639
9.334683
9.437799
8.867979
8.424520
8.219481
8.100867
8.066893
7.719994
7.702708
7.309914
7.309914
7.149577
7.135868
6.967783
7.203817
##ZVALUE=305
1.294613
1.296997
1.320839
1.412630
1.207590
1.312494
1.223683
1.261830
1.338720
1.466870
1.543760
1.701713
1.514554
1.564622
1.643896
1.673698
1.567602
1.687407
1.664758
1.695752
1.684427
2.019405
1.843572
2.117753
2.167821
2.457500
2.395511
2.639890
2.646446
2.753735
3.076792
3.269911
3.633499
4.392862
8.555651
60.500503
169.714689
471.138358
829.371810
1015.788913
1015.788913
1015.788913
1015.788913
1015.788913
1015.788913
1015.788913
1015.788913
1015.788913
750.355721
338.334441
159.837008
48.654675
22.981763
21.946430
28.358698
41.823983
55.635571
76.933503
92.948675
109.896660
117.070675
116.377473
110.761523
95.019937
78.967810
56.657791
43.200850
28.533936
21.378994
16.440749
14.070868
13.126731
13.480783
12.764931
12.955666
12.027621
11.203885
10.944605
10.379553
9.350777
9.361506
9.176731
8.883476
8.396506
8.240938
7.986426
7.756948
7.722974
7.694960
7.714629
7.095933
7.522702
7.004738
6.892681
6.864667
6.912947
##ZVALUE=310
1.348853
1.257658
1.280904
1.366735
1.256466
1.222491
1.294613
1.408458
1.486540
1.495481
1.212955
1.507998
1.486540
1.440644
1.505613
1.404881
1.526475
1.491904
1.500845
1.763701
1.808405
1.807809
1.658797
1.867414
1.806617
2.094507
2.174973
2.134442
2.148747
2.391934
2.536774
2.705455
2.875924
3.370643
3.343821
4.015565
4.868507
24.588704
88.673830
295.602679
574.947000
1015.788913
1015.788913
1015.788913
1015.788913
1015.788913
1015.788913
1015.788913
1015.788913
1015.788913
977.133512
509.190559
269.633532
89.275837
33.204556
17.606616
19.720793
26.453733
34.784675
51.947832
66.048503
85.661411
98.913908
108.953714
110.673904
103.705525
91.993809
74.157715
59.254766
40.293932
30.211806
21.007657
16.544461
13.217926
12.250543
11.207461
10.894537
10.253787
9.339452
8.950830
8.597970
8.473992
8.372664
8.010864
7.836819
7.701516
7.672906
7.620454
7.752776
7.724762
7.022619
6.906986
6.767511
6.736517
6.730556
6.762743
##ZVALUE=315
1.395941
1.290441
1.471639
1.312494
1.279712
1.267791
1.199841
1.352429
1.333952
1.391768
1.461506
1.255870
1.480579
1.467466
1.505613
1.480579
1.351833
1.535416
1.443624
1.616478
1.689792
1.539588
1.852512
1.832843
1.846552
1.971722
2.046824
2.169609
2.101660
2.201796
2.299547
2.378821
2.537966
2.895594
3.136992
3.229976
3.538728
3.877878
4.372597
11.256933
46.409965
199.393630
426.415801
939.541459
1015.788913
1015.788913
1015.788913
1015.788913
1015.788913
1015.788913
1015.788913
1015.788913
1015.788913
710.432529
380.944610
133.241415
50.719976
18.454790
16.276836
18.522739
23.513436
33.838749
45.416951
63.808560
77.682734
94.217658
101.374984
103.560686
98.885894
84.452629
71.811676
54.295659
41.126609
27.261972
20.577908
14.522672
11.861920
9.924769
9.070635
8.269548
8.336902
7.950664
7.630587
7.483959
7.930994
7.345676
7.310510
7.150769
7.065535
7.271767
6.915927
6.964803
6.924868
6.389618
6.664991
6.523728
##ZVALUE=320
1.435876
1.214743
1.068711
1.127720
1.327991
1.272559
1.427531
1.244545
1.442432
1.513958
1.276731
1.365542
1.549721
1.524687
1.392961
1.388788
1.406670
1.512766
1.478791
1.439452
1.582503
1.643896
1.556873
1.534820
1.596808
1.746416
1.775622
1.918674
1.931787
2.096891
2.094507
2.333522
2.248883
2.281666
2.440810
2.843738
2.880692
3.118515
3.399849
3.872514
4.312396
6.285906
22.229552
118.743777
295.768976
755.295753
1015.789509
1015.789509
1015.789509
1015.789509
1015.789509
1015.789509
1015.789509
1015.789509
1015.789509
962.833762
562.335849
231.866837
96.200705
24.858713
14.910698
14.340878
15.947819
20.641685
27.318597
41.576624
54.882765
72.578788
84.925890
95.520616
98.045468
93.354583
83.239675
66.566467
52.163601
36.394596
26.633739
17.561913
12.936592
9.709597
8.439422
7.918477
7.642508
7.096529
7.318854
7.126927
6.922483
6.992817
6.989837
6.724000
6.474853
6.650686
6.560683
6.527901
6.602407
6.135702
##ZVALUE=325
1.254678
1.147985
1.137853
1.184940
1.329780
1.154542
1.176596
1.307726
1.312494
1.388788
1.240969
1.389980
1.294613
1.396537
1.213551
1.486540
1.473427
1.530647
1.302958
1.425743
1.310706
1.559854
1.433492
1.532435
1.611710
1.596808
1.691580
1.679659
1.841784
1.775622
1.990795
2.004504
1.910925
2.039671
2.295971
2.353787
2.500415
2.695918
2.733469
2.861619
3.233552
3.655553
3.845692
4.662871
11.276603
79.906583
206.741691
517.863631
913.353562
1015.788913
1015.788913
1015.788913
1015.788913
1015.788913
1015.788913
1015.788913
1015.788913
1015.788913
705.497861
323.006511
145.048499
36.990643
14.758706
11.652708
11.699796
14.213920
18.024445
27.183890
38.005710
53.975582
66.908598
81.197619
88.632703
91.526508
86.438656
73.190928
61.932802
44.894814
33.041835
21.296740
15.061498
10.315776
9.029508
7.623434
7.300973
6.984472
6.715655
6.643534
6.595850
6.546974
6.625652
6.486773
6.215572
6.284714
6.134510
6.291866
##ZVALUE=330
1.124740
1.163483
1.263618
1.307726
1.114607
1.287460
1.239777
1.215935
1.332760
1.280904
1.235604
1.279712
1.263618
1.261830
1.271963
1.420975
1.346469
1.460910
1.319647
1.335740
1.374483
1.466870
1.577735
1.451969
1.578927
1.539588
1.504421
1.596808
1.612902
1.861453
1.831651
1.839995
1.919866
2.085567
2.117753
2.188683
2.170801
2.369881
2.336502
2.535582
2.833605
3.024936
3.425479
3.482699
4.010797
4.469752
6.340742
34.489632
114.161372
366.453528
693.007708
1015.786529
1015.786529
1015.786529
1015.786529
1015.786529
1015.786529
1015.786529
1015.786529
1015.786529
990.887880
489.628911
240.271688
73.437691
24.258494
11.034608
10.812879
11.108518
13.191700
18.462539
24.784803
36.606789
47.906637
65.289736
74.900985
82.643628
84.252954
78.035593
69.816709
55.369735
43.332577
29.568672
21.647811
14.425516
10.901690
8.365512
7.277727
6.772876
6.528497
6.361604
6.212592
6.208420
6.087422
6.017685
5.777478
5.928874
##ZVALUE=335
1.249909
1.280904
1.206994
1.093745
1.078844
1.142621
1.110435
1.262426
1.156926
1.307726
1.218915
1.216531
1.318455
1.280904
1.291633
1.351833
1.386404
1.242757
1.382828
1.309514
1.257658
1.421571
1.370907
1.446605
1.436472
1.612902
1.634955
1.509786
1.630783
1.694560
1.769662
1.714826
1.816750
1.732707
1.895428
2.001524
2.036691
2.044439
2.130866
2.321601
2.350807
2.648830
2.535582
2.682805
3.067851
3.394485
3.595948
4.142523
4.867911
14.990568
60.438514
234.624743
482.815504
985.403657
1015.788913
1015.788913
1015.788913
1015.788913
1015.788913
1015.788913
1015.788913
1015.788913
1015.788913
685.503483
349.603891
107.471943
37.073493
13.003945
10.859966
10.990500
11.721849
13.458729
17.125607
25.468469
33.468604
46.882629
57.245493
69.353580
75.855851
76.771975
72.098970
62.224865
52.592754
40.339828
31.526685
21.485686
15.819669
10.755658
8.734465
7.455945
6.581545
6.166697
6.088614
5.703568
5.951524
5.802512
##ZVALUE=340
1.252890
1.154542
1.171827
1.102686
1.211762
1.118779
1.137853
1.217723
1.231432
1.064539
1.174808
1.184940
1.275539
1.071692
1.152754
1.188517
1.371503
1.228452
1.354814
1.456738
1.376867
1.220703
1.397729
1.432896
1.354814
1.418591
1.487732
1.420975
1.548529
1.649857
1.648664
1.650453
1.742840
1.702905
1.677871
1.726747
1.862645
2.121925
1.986623
1.973510
2.222657
2.284646
2.243519
2.688766
2.795458
2.738833
2.953410
3.378987
3.466606
4.088879
4.492998
8.046627
30.418634
154.207945
366.733670
873.793960
1015.788913
1015.788913
1015.788913
1015.788913
1015.788913
1015.788913
1015.788913
1015.788913
1015.788913
791.857839
431.419015
169.004798
61.820745
15.814900
11.780858
10.787845
10.744929
11.163950
12.872815
16.649961
21.444559
32.274723
41.222572
55.110455
63.730478
70.413947
71.698427
68.314672
61.005950
50.410628
41.013956
28.732419
21.421909
14.692545
10.943413
7.906556
6.762743
6.224513
5.968809
5.821586
##ZVALUE=345
1.146793
1.182556
1.136661
1.111627
1.176596
0.960827
1.291633
1.077652
1.274943
1.095533
1.154542
1.149774
1.273751
1.153946
1.134872
1.111627
1.243949
1.153946
1.216531
1.439452
1.329780
1.242757
1.395941
1.371503
1.141429
1.135468
1.392961
1.412630
1.418591
1.448989
1.330972
1.456738
1.520514
1.620650
1.624823
1.828671
1.734495
1.827478
1.824498
1.602769
2.020597
2.006888
2.149940
2.154708
2.234578
2.496839
2.502799
2.795458
2.815723
3.027916
3.323555
3.785491
4.148483
5.193949
13.423562
88.922381
239.939690
591.128469
982.354879
1015.781760
1015.781760
1015.781760
1015.781760
1015.781760
1015.781760
1015.781760
1015.781760
985.112786
583.792925
222.494602
93.500614
24.862885
13.493896
11.134744
10.353923
9.536743
9.640455
11.266470
13.911724
20.824671
28.344989
40.067434
49.267411
58.097839
64.581633
66.147447
63.852668
56.832433
49.446821
38.924813
30.298829
20.067692
14.979839
10.393858
8.126497
6.635785
##ZVALUE=350
1.287460
1.178980
1.127720
1.321435
1.177788
1.267791
1.182556
1.166463
1.077652
1.155734
1.208782
1.159906
1.372695
1.213551
1.304746
1.275539
1.093745
1.121759
1.086593
1.289845
1.370907
1.466870
1.329780
1.311898
1.425743
1.549721
1.259446
1.410842
1.451969
1.658797
1.431704
1.557469
1.578927
1.714826
1.735687
1.662970
1.742840
1.792908
1.752973
1.808405
1.876950
1.854897
1.843572
2.113581
2.150536
2.089739
2.302527
2.407432
2.452731
2.851486
2.838969
3.274679
3.418922
3.743768
3.856421
4.662871
6.925464
43.315887
138.462782
412.681699
763.482451
1015.788913
1015.788913
1015.788913
1015.788913
1015.788913
1015.788913
1015.788913
1015.788913
1015.788913
764.842629
340.832472
151.795745
36.506653
14.524460
10.486841
9.546876
8.452535
8.138418
8.474588
9.621978
13.903975
17.911792
25.328994
32.859445
43.295622
51.512718
57.926774
60.779452
59.240460
54.569840
45.473576
37.243962
27.015805
20.433664
14.335513
##ZVALUE=355
1.183748
1.168847
1.297593
1.241565
1.172423
1.145601
1.154542
1.244545
1.375675
1.266599
1.233816
1.206994
1.210570
1.319647
1.311898
1.148582
1.306534
1.380444
1.395941
1.433492
1.402497
1.307726
1.360774
1.521707
1.315475
1.517534
1.482964
1.391768
1.482964
1.566410
1.622438
1.632571
1.669526
1.545548
1.642704
1.614690
1.786947
1.828671
1.857877
1.728535
1.893640
1.939535
1.954436
2.131462
2.007484
2.217889
2.302527
2.397895
2.444983
2.564788
2.432466
2.728701
2.878904
3.028512
3.234744
3.626943
3.865957
4.346967
5.168915
20.731688
76.738000
279.379487
554.018617
1015.795469
1015.795469
1015.795469
1015.795469
1015.795469
1015.795469
1015.795469
1015.795469
1015.795469
965.592861
442.757010
209.114552
57.787895
19.097924
10.400414
9.546876
8.806586
8.314848
8.142591
8.347631
9.489655
11.688471
16.507506
21.562576
30.465722
36.701560
46.477914
51.856637
55.073500
54.525733
50.148964
44.574738
35.634637
##ZVALUE=360
1.220703
1.183748
1.241565
1.158714
1.151562
1.139641
1.194477
1.270771
1.298785
1.269579
1.202822
1.404881
1.283884
1.359582
1.361966
1.343489
1.281500
1.286864
1.363754
1.376867
1.427531
1.451969
1.392961
1.449585
1.440644
1.479983
1.472831
1.475811
1.385808
1.384616
1.672506
1.529455
1.497865
1.784563
1.805425
1.677871
1.796484
1.723766
1.929998
1.863837
1.793504
1.983643
1.832843
1.973510
2.071857
2.246499
2.112985
2.138615
2.284646
2.632737
2.384782
2.721548
2.557635
2.920628
3.070831
3.325939
3.400445
3.807545
4.111528
4.608631
5.259514
9.111762
32.751560
151.640773
357.054472
852.394700
1015.787721
1015.787721
1015.787721
1015.787721
1015.787721
1015.787721
1015.787721
1015.787721
1015.787721
586.853623
296.203494
98.630786
33.048987
10.903478
9.327531
8.080602
7.736683
7.574558
7.386804
7.308722
8.059740
9.896755
12.726784
18.224716
23.579597
32.660961
39.258599
46.187639
49.170852
49.014688
##ZVALUE=365
1.198649
1.319647
1.270771
1.192689
1.213551
1.231432
1.308918
1.286864
1.342893
1.258850
1.282692
1.357794
1.225471
1.329780
1.315475
1.273751
1.471639
1.353621
1.234412
1.409650
1.375675
1.408458
1.491904
1.507998
1.595616
1.394749
1.398921
1.411438
1.392961
1.467466
1.525879
1.433492
1.548529
1.647472
1.661777
1.683831
1.517534
1.653433
1.755953
1.948476
1.749992
1.778603
1.804829
1.928806
2.052784
2.093911
2.132654
2.038479
2.223849
2.419949
2.349615
2.441406
2.538562
2.826452
2.763867
2.758503
2.882481
3.258586
3.312826
3.720522
3.977418
4.584789
5.174875
6.218553
13.799667
81.456900
226.162672
607.668757
1003.000736
1015.797853
1015.797853
1015.797853
1015.797853
1015.797853
1015.797853
1015.797853
1015.797853
836.798549
448.295474
155.008435
56.412816
13.601780
9.441972
8.162856
7.539988
6.932616
7.118583
6.671548
6.881952
7.071495
8.234978
11.144876
14.848709
20.839572
26.406646
34.071803
##ZVALUE=370
1.004934
1.002550
1.023412
1.003742
0.919700
0.874996
0.911951
0.997782
0.929832
1.080632
1.197457
0.942945
1.202822
1.173615
1.029968
0.911951
1.171827
1.024604
1.141429
0.958443
1.034737
0.954866
1.110435
1.189709
1.072884
1.145601
1.003742
1.117587
1.297593
1.336932
1.309514
1.313686
1.257658
1.418591
1.343489
1.331568
1.336932
1.347661
1.373887
1.384616
1.554489
1.444817
1.503825
1.360774
1.481771
1.663566
1.686811
1.545548
1.646876
1.701713
1.783967
1.916885
2.055764
1.837611
1.975894
2.307892
2.279878
2.248883
2.341866
2.519488
2.941489
3.280640
3.677607
3.980994
4.121661
4.922748
7.523894
44.266582
145.746469
455.547571
839.264989
1015.556455
1015.556455
1015.556455
1015.556455
1015.556455
1015.556455
1015.556455
1015.557051
974.590778
570.066571
214.119554
89.759827
24.863482
10.591745
7.694960
7.032752
6.558895
6.189942
5.571842
5.572438
5.194545
5.779862
6.736517
8.999705
12.879968
##ZVALUE=375
0.959635
1.036525
1.010895
0.915527
0.947714
0.837445
0.933409
1.069903
1.116991
0.913739
1.111627
1.081824
0.927448
1.056790
0.976920
0.912547
1.079440
1.153946
1.039505
0.903606
1.059771
0.920892
1.033545
0.967979
1.084805
1.126528
1.161695
1.093745
0.918508
0.944734
1.129508
1.250505
1.126528
0.963807
1.154542
1.124740
1.060963
1.254678
1.289845
1.358986
1.412630
1.446605
1.370907
1.393557
1.450777
1.435876
1.272559
1.455545
1.396537
1.519918
1.609921
1.477599
1.747608
1.566410
1.749992
1.766682
1.908541
2.079606
1.971722
2.152920
2.560616
2.533793
2.524853
2.875924
3.153682
3.438592
4.020929
4.295707
5.543828
21.761656
79.976916
287.506580
602.786541
1015.605927
1015.605927
1015.605927
1015.605927
1015.605927
1015.605927
1015.605927
1015.605927
1015.605927
867.412686
408.239961
191.825628
51.581860
16.457438
7.680655
7.079840
6.552935
6.037951
5.665421
5.413890
5.028844
5.030632
5.307794
##ZVALUE=380
0.974536
0.947714
1.004934
1.036525
1.152754
1.038909
1.076460
1.085997
1.053810
1.148582
0.980496
1.133680
1.049638
1.055598
1.124740
1.035929
1.059771
1.214743
1.088977
1.031756
1.107454
1.049638
1.081824
1.326799
1.139641
1.186728
1.227856
1.214743
1.137853
1.309514
1.316667
1.313686
1.103878
1.209974
1.258850
1.215935
1.249909
1.374483
1.263618
1.254678
1.346469
1.325607
1.363754
1.554489
1.466870
1.492500
1.495481
1.608729
1.570582
1.597404
1.582503
1.703501
1.641512
1.768470
1.816750
1.835823
1.813769
1.790524
2.070665
2.123713
2.208948
2.301931
2.474785
2.561808
2.589822
2.907515
3.220439
3.548861
4.008412
4.786849
5.316734
10.973811
43.513775
203.073621
460.504889
984.007716
1015.788913
1015.788913
1015.788913
1015.788913
1015.788913
1015.788913
1015.788913
1015.788913
1015.788913
538.764596
268.734694
84.158778
29.140711
9.329915
7.025599
6.375909
6.045699
5.530715
5.379915
5.179644
##ZVALUE=385
1.045465
1.050830
1.111627
1.069903
1.170635
0.983477
0.970960
0.887513
0.947714
0.960827
0.971556
1.029968
1.152754
1.037717
1.158714
0.990629
1.066923
1.036525
1.088977
0.930429
1.082420
0.943542
1.100898
1.193881
1.051426
1.109838
1.126528
1.257658
1.085997
1.067519
1.071692
1.194477
1.355410
1.218915
1.334548
1.197457
1.295805
1.115799
1.293421
1.352429
1.310706
1.492500
1.313686
1.445413
1.461506
1.416802
1.479983
1.511574
1.524687
1.622438
1.433492
1.506805
1.508594
1.778603
1.690984
1.652837
1.832843
1.930594
1.819730
1.961589
2.060533
2.119541
2.092719
2.175570
2.411604
2.721548
2.942681
3.200769
3.349781
4.166961
4.458427
5.058646
5.127788
6.816983
21.578670
123.104453
308.772922
771.417618
1015.791893
1015.791893
1015.791893
1015.791893
1015.791893
1015.791893
1015.791893
1015.791893
1015.791893
846.341848
473.005772
183.934569
67.712665
13.795495
7.646680
6.220937
6.069541
5.721450
##ZVALUE=390
1.026988
0.993609
0.950694
1.021624
1.120567
1.039505
0.959635
1.004934
1.047850
0.957847
1.069903
1.000762
1.059771
1.134872
1.016855
0.961423
1.020432
1.073480
0.978708
1.158714
0.994802
1.029968
1.199841
1.076460
1.267791
1.017451
1.195669
1.090765
1.151562
1.222491
1.063943
1.214743
1.203418
1.122952
1.143813
1.220703
1.271963
1.202822
1.236796
1.257658
1.421571
1.260638
1.254678
1.288652
1.365542
1.325607
1.517534
1.421571
1.378655
1.467466
1.567602
1.475811
1.574755
1.749992
1.532435
1.706481
1.702905
1.715422
1.856685
1.846552
1.968741
1.981854
2.089739
2.149940
2.271533
2.427697
2.465844
2.838969
3.221631
3.923774
4.047751
4.247427
4.249811
4.620552
4.848838
5.382895
10.299683
65.740943
200.907588
608.243942
1015.768647
1015.768647
1015.768647
1015.768647
1015.768647
1015.768647
1015.768647
1015.768647
1015.768647
1015.768647
685.093999
272.033811
121.799707
30.887723
10.243654
6.404519
##ZVALUE=395
0.975728
1.037717
0.922680
1.092553
1.134872
0.987649
1.087785
0.885725
0.793934
1.026988
0.914931
0.872612
0.892878
0.981688
0.951886
1.183748
1.080632
1.022816
0.784993
1.047850
1.032948
1.270771
1.140833
1.121759
1.059771
1.159906
1.080632
1.058578
1.258850
1.153946
1.119971
1.297593
1.246929
1.151562
1.205802
1.297593
1.126528
1.273751
1.218915
1.362562
1.337528
1.237988
1.446605
1.235604
1.405478
1.612902
1.554489
1.398921
1.377463
1.397729
1.304746
1.604557
1.518726
1.603961
1.433492
1.616478
1.601577
1.754761
1.757741
1.692772
1.891851
1.875758
1.936555
1.922846
2.187490
2.250671
2.582669
2.790689
3.110766
3.454685
3.526807
3.559589
3.913641
3.708601
3.762841
4.159808
4.433990
4.770756
6.171465
35.487413
131.270885
444.185734
846.744776
1015.788913
1015.788913
1015.788913
1015.788913
1015.788913
1015.788913
1015.788913
1015.788913
1015.788913
920.550823
428.476930
198.974609
55.986643
##ZVALUE=400
0.997782
0.895858
1.035929
0.826716
0.908971
0.957847
0.891685
1.076460
1.031756
0.873804
0.914931
1.077652
0.944734
1.084805
0.946522
1.081824
0.969768
1.148582
0.895858
0.863671
0.974536
1.077652
0.937581
0.982881
0.987649
1.099706
1.130700
1.160502
1.088977
1.076460
1.157522
1.224875
1.195669
1.061559
1.095533
1.218915
1.301765
1.133680
1.224875
1.316667
1.452565
1.345873
1.374483
1.340508
1.448989
1.433492
1.374483
1.380444
1.439452
1.447797
1.358986
1.444817
1.450777
1.450777
1.610518
1.447797
1.638532
1.609921
1.636744
1.825690
1.737475
1.813769
1.810789
1.956820
2.066493
2.206564
2.314448
2.679825
2.990961
3.286600
3.410578
3.479719
3.417730
3.450513
3.432631
3.533959
3.700852
3.992915
4.333854
5.002618
5.335808
19.766688
72.389841
255.521536
541.712642
1015.744805
1015.744805
1015.744805
1015.744805
1015.744805
1015.744805
1015.744805
1015.744805
1015.744805
1015.744805
666.736960
##END
