##TITLE=KDZ0102
##FORMAT=SPECTACLE-ASCII V-1.2
##DATA TYPE=ULTRAVIOLET SPECTRUM
##SECOND TYPE=ULTRAVIOLET SPECTRUM
##DATE=11/28/17
##TIME=15:39:33
##SPECTROMETER/DATA SYSTEM=SPECTACLE
##XUNITS=NM EM
##YUNITS=ENERGY
##YFACTOR=1
##FIRSTX=220
##LASTX=410
##NPOINTS=96
##3DDATA=Equidistant
##ZUNITS=NM EX
##FIRSTZ=210
##LASTZ=400
##ZPOINTS=39
##XYDATA=(Y..Y)
##ZVALUE=210
5.596876
5.122423
5.024672
5.282760
5.294681
5.351901
4.991889
5.002618
5.159974
4.606843
4.201531
3.834963
3.919601
4.174709
3.647804
3.630519
4.324913
4.177690
4.325509
4.467964
5.167723
5.375743
6.029606
6.274581
6.470680
6.429553
5.888939
7.972717
6.967783
6.880760
7.014871
7.337928
8.208752
7.693768
7.762909
8.222461
9.910464
8.313656
9.492636
8.490682
9.001493
10.456443
9.440780
9.975433
9.277463
11.357665
10.626912
11.521578
10.591745
10.949969
11.482835
11.704564
11.816621
12.294650
11.649728
12.370944
13.663769
12.573600
13.222694
13.067722
13.413429
12.845993
13.454556
13.263822
12.925863
12.694597
13.585687
15.520453
19.845963
23.430586
27.284622
30.779839
36.996603
40.805936
46.765804
50.060749
51.939487
55.361986
54.190755
57.818890
50.967932
47.468543
40.964484
35.346746
25.961995
20.766854
17.948747
15.629530
13.970733
12.423992
12.696981
13.176799
14.563799
12.879968
12.872815
13.772845
##ZVALUE=215
14.674664
14.985800
13.374686
12.005568
10.138750
9.648800
8.463860
8.294582
8.876920
9.036660
7.969737
7.243752
6.305575
6.166697
4.809499
5.019903
4.545450
5.121827
5.301833
5.087852
5.723834
5.158782
5.609989
6.470680
5.718470
6.464720
7.016659
7.052422
8.367896
7.018447
7.694960
8.006692
7.496476
8.705854
8.525848
9.159446
9.329915
9.595752
10.243654
8.825660
9.317994
9.789467
9.716749
10.677576
9.248853
10.898709
10.096431
10.604858
12.358427
11.072755
11.713505
11.217594
10.674000
11.852980
11.396408
12.138486
11.710525
12.613535
13.262630
12.144446
12.953877
12.023449
13.847947
12.944937
12.052655
13.200641
13.864636
14.881492
18.466711
20.157695
23.826957
27.432442
31.515956
35.682917
39.168596
42.507648
44.371486
44.196844
46.138763
42.173862
39.287806
35.200715
29.912591
28.221607
23.596883
19.054413
16.518831
15.364885
12.634993
11.646748
12.432933
11.807680
10.860562
12.451410
12.166500
12.023449
##ZVALUE=220
36.471486
38.679838
41.349530
40.735602
37.937760
33.305883
26.136637
20.029545
16.926527
16.561747
17.109513
16.832948
15.642643
14.810562
12.528896
9.978414
8.010864
6.708503
5.548596
5.469918
5.625486
5.320907
5.762577
6.760955
6.875992
6.726980
7.227659
6.784797
7.116795
8.225441
8.371472
7.913709
9.030700
8.947849
8.391738
9.495616
9.209514
8.741617
9.977818
10.035634
9.966493
10.301471
10.777712
10.722876
10.378957
12.807846
11.293888
11.208653
11.344552
11.962652
12.405515
11.827946
10.886788
12.423992
13.116598
11.716485
13.130903
14.093518
13.107657
12.817979
14.145970
13.330579
15.749931
14.177561
13.616681
14.536977
14.675856
16.901493
17.469525
19.869804
24.001598
29.597878
31.185746
38.031936
39.283633
41.721463
43.659806
43.535829
42.157769
40.973425
36.704540
32.815933
28.045774
24.916530
21.044612
19.311905
18.055439
16.089678
14.577508
14.192462
13.519526
13.485551
13.507605
13.484955
14.135838
13.512969
##ZVALUE=225
55.156946
58.605671
75.169802
99.105835
111.907721
114.654899
111.125708
85.169673
68.189502
47.349930
38.529634
29.883981
28.370619
32.754540
31.317472
29.276609
24.223924
21.023750
14.881492
11.472702
8.694530
6.387830
6.844997
6.843805
6.749630
7.221699
6.668568
8.045435
7.250905
7.990599
8.531809
8.373857
9.016991
8.561611
8.924603
9.840727
10.119677
9.924769
9.425879
9.840727
11.368990
10.596514
10.857582
10.380745
11.271834
11.800528
12.182593
11.524558
11.891723
13.246536
12.286901
13.946891
13.459921
13.884902
14.526844
14.193654
13.201833
13.683438
15.071630
14.819503
15.632510
16.623735
15.415549
14.689565
15.258789
16.929507
17.305613
18.007755
19.369721
24.539828
25.893450
28.415918
31.413436
33.965707
37.645698
39.042830
38.942695
36.900640
35.577416
34.766793
32.338500
27.445555
26.362538
23.649931
21.793842
19.813776
18.459558
16.293526
16.161799
15.533566
15.179515
14.180541
15.260577
13.382435
13.917685
12.889504
##ZVALUE=230
42.943954
47.682524
80.653429
136.884451
182.001591
241.301656
262.902975
274.970531
252.497792
215.507746
149.366856
103.662610
66.537857
52.039623
48.013926
53.178668
55.529475
53.207874
45.529604
38.314462
31.501651
22.866726
14.420748
11.197925
8.537769
8.910894
7.983446
7.301569
7.876754
8.587837
8.849502
9.620786
9.332895
8.976460
9.634495
10.367632
10.236502
10.614991
10.483861
11.653900
11.740923
11.649728
11.454821
10.918975
11.393428
13.678670
14.061928
13.446808
12.844801
12.046695
13.749599
14.110804
15.152693
14.510751
15.919805
16.274452
14.707446
14.593601
15.451908
17.297864
16.701818
16.381741
16.768575
17.469525
18.535852
17.229915
16.721487
17.825961
20.013452
22.482872
23.751855
27.370453
31.061769
34.006834
36.234856
35.706758
38.744807
35.857558
32.882690
31.566620
28.561950
27.104616
25.787950
24.768710
23.352504
19.891858
17.065406
16.255975
16.020536
14.951825
15.465617
16.097426
13.912916
14.749765
14.395714
16.179681
##ZVALUE=235
13.207793
15.986562
33.392906
81.811547
139.809847
233.422518
323.036909
433.752537
497.594476
515.059829
468.505621
380.342007
262.066722
185.758471
115.996599
82.601905
76.436996
73.382854
80.945492
83.170533
77.077746
65.671802
52.626729
37.990808
27.451515
18.477440
13.817549
9.102821
8.868575
9.101629
8.800626
8.917451
10.207891
9.882450
9.263754
11.166930
10.354519
11.278987
11.218786
10.338426
10.422468
10.853410
12.355447
12.585521
12.306571
12.474656
11.627674
12.704730
12.668967
12.446642
13.600588
14.677644
13.976693
14.937520
14.398694
15.832782
15.952587
15.757680
15.819669
16.137958
17.241836
16.597509
14.639497
16.713738
16.288757
19.002557
19.092560
18.790960
20.030737
22.181869
23.106933
27.920604
29.869676
32.533407
34.783483
33.833981
34.008622
34.613609
32.350421
31.404495
28.856993
24.815798
24.252534
22.029877
21.560788
19.983649
19.335747
17.313957
18.565655
16.630888
16.988516
16.762614
15.553832
16.152859
16.566515
15.939474
##ZVALUE=240
2.868772
2.885461
6.656647
15.377998
42.734742
84.194541
182.455778
283.155441
443.576574
555.658937
658.524632
676.214695
639.820695
516.733527
391.047001
246.802568
172.185898
112.480521
93.842745
94.195604
105.017424
111.894608
107.261539
103.008747
80.545545
64.631701
46.472549
31.532645
20.438433
15.867949
10.667443
10.173917
8.491874
9.872913
9.835958
10.747910
9.187460
9.625554
10.055900
10.524988
10.096431
10.525584
10.088682
10.885000
11.262894
11.217594
10.465980
11.706948
11.628866
12.065768
12.256503
13.389587
14.520884
13.538599
13.517737
13.706684
14.787912
14.643669
14.411807
15.053749
16.288757
15.779734
15.497804
17.393827
16.804934
16.481876
17.657876
18.602610
19.875765
21.579862
25.199652
26.389956
28.592944
32.346845
33.841729
35.677552
34.567714
34.293532
31.664968
29.873848
28.304458
27.745962
26.688576
23.744702
23.576617
20.460486
21.205544
18.557906
19.482970
18.280745
17.283559
18.232465
17.577410
17.864704
18.467903
17.426610
##ZVALUE=245
2.521873
2.505779
2.278686
3.050566
3.921986
13.423562
32.039881
87.572932
167.823434
278.983712
475.475788
614.848733
770.919919
818.898678
789.395571
688.002706
507.057905
372.044444
259.181857
147.054791
105.197430
93.988776
105.518699
117.250681
123.549700
118.281841
105.086565
86.841583
70.889592
49.276948
36.396980
21.737814
16.566515
10.967851
10.596514
8.846521
9.414554
7.789731
8.937716
9.678602
9.870529
9.935498
10.624528
9.764433
10.179877
10.587573
9.433627
10.030866
10.312796
9.838939
9.892583
10.004640
10.976791
11.488795
11.602640
13.101697
13.202429
11.344552
12.367964
12.459755
12.588501
13.028979
13.918877
14.689565
14.021993
14.530420
14.250875
16.341805
16.962886
20.721555
20.321608
23.033619
24.397969
26.803613
28.156638
29.182434
29.287934
27.004480
27.371645
25.748610
24.903417
23.470521
22.469759
21.496415
19.443631
18.721819
17.084479
16.576648
17.147660
17.566681
16.869903
17.110705
15.225410
17.350912
15.826821
17.182827
##ZVALUE=250
2.065897
2.143979
2.260804
2.069473
2.502799
2.858639
3.229976
9.131432
60.284734
63.320994
264.414549
308.038592
462.714434
687.448978
950.396657
948.743820
895.573497
877.093673
712.846518
535.399914
319.653749
205.148458
96.250772
92.195868
94.738603
116.813779
130.774975
128.899813
115.401745
115.377903
99.023581
76.961517
54.657459
39.383769
22.337437
15.373826
9.938478
9.546876
8.443594
8.130670
8.519888
9.374619
9.261966
9.766817
9.742975
9.097457
9.625554
9.143949
9.283423
8.889437
9.635687
10.611415
10.412931
10.733604
10.406971
10.541677
10.400414
11.135936
11.118650
12.065768
11.612773
10.629892
11.856556
11.693835
12.370944
12.431741
13.908744
13.809800
15.340447
17.542839
18.107891
19.643903
22.181869
24.326444
25.017858
24.874806
25.243759
23.837686
24.182796
22.575855
19.710660
20.488501
19.821525
18.714666
18.167496
17.070770
15.952587
15.906692
15.256405
14.747977
14.954805
14.372468
15.376806
14.673471
15.021563
14.876723
##ZVALUE=255
1.914501
1.896620
1.978874
1.957417
2.174973
2.233982
2.184510
2.213717
2.501607
4.493594
21.228790
48.863888
109.037757
240.268707
398.162603
643.122792
825.022459
1010.499597
1015.788913
1015.788913
945.922732
761.118531
482.137799
300.999880
152.844787
101.394653
85.101724
94.154477
117.108822
128.757954
138.388872
134.788752
124.292970
99.135637
79.194903
54.093599
37.513971
22.602677
16.161799
10.490417
9.121895
8.308887
8.019805
7.761717
8.498430
8.273721
8.623600
9.352565
9.026527
9.274483
8.789897
8.487701
8.924603
9.263754
8.848906
9.379983
9.062886
10.260940
10.185838
10.165572
9.517670
10.053515
10.515451
10.125637
10.587573
10.939837
10.687709
11.413693
12.100935
13.949871
13.300776
15.976429
17.506480
18.057823
18.891692
20.089746
20.678639
19.092560
19.325614
17.372966
18.177629
15.711784
15.445948
15.226603
14.176965
13.964772
13.738871
12.824535
13.567805
13.414621
12.997985
13.108850
12.916923
13.002753
12.523532
12.871623
##ZVALUE=260
1.607537
1.583695
1.738667
1.577735
1.775622
1.966953
1.880527
1.776814
1.853704
1.960993
2.383590
3.061891
7.784963
33.899546
77.154636
195.481777
339.279771
566.810966
769.643784
1015.381813
1015.641689
1015.641689
1015.641689
991.933942
704.981685
505.390763
292.137861
179.945827
94.892979
81.302524
91.681480
115.726590
132.949948
144.460797
139.070749
123.325586
107.670426
79.477429
60.702562
38.424730
24.796724
15.523434
10.986924
8.764863
7.361770
8.358955
8.115768
8.136630
8.026958
7.926822
8.410811
8.789897
8.521676
8.854866
9.044409
8.602738
8.826852
9.204745
9.166598
9.382963
9.158850
8.795857
10.025501
9.435415
9.625554
10.246634
9.727478
10.369420
11.205673
12.668967
13.419986
14.122725
16.144514
16.363859
15.737414
17.309785
16.494989
16.097426
16.274452
14.729500
14.819503
13.637543
13.401508
13.043880
12.460947
12.122989
12.663603
11.939406
11.899471
12.470484
12.061596
11.586547
11.357665
11.742711
12.105703
11.783838
##ZVALUE=265
1.836419
1.450777
1.639724
1.916885
1.812577
1.682639
1.766682
1.854897
1.829863
2.202988
2.051592
2.233982
2.739429
2.842546
5.249977
23.900867
62.455535
163.230896
289.652944
550.038815
785.158873
994.915962
1015.787721
1015.787721
1015.787721
1015.787721
833.544731
606.889725
347.457528
212.303996
127.060413
75.316429
76.489449
100.663900
121.846795
141.582489
143.734813
140.416622
129.313469
104.118586
82.407594
55.362582
38.297772
23.143888
15.627742
10.330677
9.668469
8.635521
8.547902
8.005500
8.671880
8.576512
8.795857
8.680820
8.996725
9.139776
8.590817
8.919835
9.324551
8.891821
9.394884
8.957982
9.092689
9.344816
9.600520
9.337664
9.947419
10.101795
9.955764
11.403561
12.004972
13.642907
13.451576
14.400482
14.036894
15.030503
14.747977
14.132857
13.759732
12.599826
12.476444
11.855960
10.790825
11.977553
10.439754
11.243820
10.752678
11.285543
11.088848
11.170506
10.194778
10.705590
9.775758
10.817647
10.718703
10.548830
##ZVALUE=270
1.523495
1.583695
1.684427
1.654625
1.531839
1.519918
1.664758
1.622438
1.938939
1.772642
1.799464
1.868606
1.904964
2.053976
2.187490
2.339482
3.176928
10.526776
33.709407
117.271543
226.281881
461.491942
716.610551
966.761708
1015.788913
1015.788913
1015.788913
1015.788913
933.928490
707.293749
428.033471
259.928703
122.512579
71.974993
60.531497
74.504614
101.226568
121.301413
143.586993
146.915913
142.055750
130.772591
106.224418
83.716512
57.623982
40.411949
25.334954
17.020702
11.479855
10.281801
9.802580
9.142756
9.581447
9.654760
9.398460
8.948445
9.745955
9.930730
9.734631
9.945631
9.303689
9.948611
9.295940
9.488463
9.153485
9.683967
10.027885
10.164976
11.240840
11.343956
12.732744
12.898445
13.417602
13.699532
14.391541
14.746785
13.973713
13.176799
13.338923
12.451410
11.804700
11.665821
11.284947
11.200905
10.866523
10.619760
10.687709
10.396838
10.220408
10.036826
10.054708
9.676814
10.064840
10.554790
9.264946
9.953976
##ZVALUE=275
1.499653
1.374483
1.475811
1.525879
1.619458
1.698732
1.779795
1.676679
1.628995
1.568794
1.664758
1.614690
1.900792
1.835823
1.914501
2.000928
2.058744
2.336502
2.272725
5.668402
20.086765
13.861656
181.934834
345.594883
658.828020
905.480981
1015.788913
1015.788913
1015.788913
1015.788913
1015.788913
930.074453
589.733720
364.453793
169.053674
92.380643
52.212477
54.681897
78.597665
98.983645
122.024417
137.812495
145.563483
143.574476
129.195452
109.201670
83.120465
61.602592
40.358901
27.796626
17.485619
13.760924
10.975599
10.112524
10.317564
10.165572
10.221601
9.833574
10.199547
10.201931
10.155439
10.428429
10.225773
10.167956
10.388494
10.655522
10.472536
10.322928
10.558963
11.361837
12.142658
12.556911
13.617873
13.712645
13.468862
13.638735
13.645887
13.250709
12.549758
12.627840
11.068583
11.624694
10.972619
11.059642
10.973811
10.452867
10.497570
9.829998
10.393858
9.936690
10.005832
9.907484
9.602904
9.423494
9.762645
9.616613
##ZVALUE=280
1.403689
1.418591
1.306534
1.539588
1.639724
1.443624
1.422763
1.414418
1.332760
1.637936
1.626611
1.602769
1.429915
1.717806
1.959801
1.919866
2.019405
2.090931
1.927614
2.519488
2.318621
3.132820
16.004443
51.951408
167.117715
308.536887
560.112596
819.409490
1015.784740
1015.784740
1015.784740
1015.784740
1015.784740
1015.784740
824.219584
479.212999
283.967853
127.597451
65.000653
44.037700
51.513910
77.112913
97.330809
122.651458
136.100650
144.211650
139.632821
125.464797
107.703805
80.393553
61.343908
40.402412
28.550625
18.064976
14.389753
11.077523
10.508895
10.716915
10.187626
10.957718
10.369420
10.701418
11.026859
10.982752
10.830760
11.071563
10.902882
11.143684
11.475682
12.038946
11.821985
12.632608
14.031529
13.667941
13.728738
13.867617
13.618469
12.483597
12.516975
11.605620
11.944771
10.965466
10.706782
10.170937
9.852648
10.082722
10.172725
10.419488
9.977818
9.926558
10.027885
9.185672
9.815693
9.412766
9.595752
9.379983
##ZVALUE=285
1.212955
1.291633
1.224875
1.277924
1.404881
1.330972
1.369715
1.325607
1.364946
1.305938
1.481771
1.528859
1.605749
1.768470
1.766682
1.455545
1.687407
1.763701
1.825690
2.111793
1.947880
1.974702
2.464652
2.936721
8.211732
28.406978
96.534491
201.940536
424.853563
667.304993
939.975977
1015.794873
1015.794873
1015.794873
1015.794873
1015.794873
1012.116075
680.349469
436.005592
210.701823
110.800862
44.467449
36.207438
50.966740
69.299936
97.138882
113.983750
130.983591
137.832761
137.100816
126.483440
106.546879
85.942745
60.452819
43.873787
27.533770
19.715428
14.355779
11.888742
10.894537
10.815859
10.841489
10.499954
10.600686
10.615587
10.829568
10.853410
11.339784
11.404753
11.420846
12.092590
12.191534
12.980700
13.308525
13.575554
12.931824
12.628436
12.495518
12.033582
11.478662
11.408925
10.841489
10.636449
10.372996
10.397434
9.931922
10.014772
10.071993
10.076761
9.845495
9.358525
9.596944
9.464622
9.312630
9.015799
9.498000
##ZVALUE=290
1.410842
1.546741
1.404881
1.502633
1.357794
1.504421
1.480579
1.426935
1.562834
1.435876
1.552701
1.525879
1.558661
1.615882
1.566410
1.928806
1.727939
1.781583
1.854897
1.773834
2.067685
2.127886
2.275705
2.567768
2.347827
2.664924
3.701448
10.956526
54.516792
133.152008
265.392661
551.400781
838.828683
1015.916467
1015.916467
1015.916467
1015.916467
1015.916467
1015.916467
859.230757
575.276017
292.556882
155.991912
57.047606
30.802488
33.317804
46.127439
66.299438
86.629987
112.142563
125.899911
134.509802
133.416653
121.138692
106.962919
79.786777
61.030984
41.731000
29.282570
19.081831
14.904737
11.749864
10.366440
10.061860
10.418892
10.245442
10.638833
10.426641
10.819435
11.157990
11.493564
12.412667
12.334585
12.376904
12.324452
11.929870
12.112856
11.638999
11.543632
10.869503
10.377765
10.817647
10.200739
10.369420
10.282993
9.684563
10.215640
10.286570
9.481907
9.116530
9.326935
9.510517
8.997917
9.048581
9.159446
9.044409
##ZVALUE=295
1.159906
1.282692
1.222491
1.132488
1.174808
1.389980
1.267791
1.145601
1.318455
1.138449
1.301765
1.424551
1.421571
1.367927
1.567602
1.607537
1.605749
1.675487
1.396537
1.754761
1.727939
1.720786
1.916885
2.048612
1.998544
2.329946
2.553463
2.364516
2.788901
5.323887
19.775629
85.467696
193.335414
457.027555
728.227496
1015.792489
1015.792489
1015.792489
1015.792489
1015.792489
1015.792489
1002.441645
733.969808
396.772623
216.744542
78.853965
36.125779
22.866726
28.529763
44.948459
60.995817
83.305836
100.866556
120.048523
128.137469
127.131939
117.551684
99.718571
81.610680
57.212710
42.376518
27.145743
19.364953
13.882518
11.171699
10.061860
9.770989
10.024905
10.042787
10.221601
10.501742
11.029840
11.247993
11.867881
11.544824
11.143684
11.345744
11.296868
10.332465
10.239482
10.280609
9.911656
9.755492
9.959936
9.710789
9.965897
9.738803
9.300709
9.640455
9.302497
9.124875
9.472966
9.143949
8.803606
8.869767
8.601546
##ZVALUE=300
1.153946
1.187921
1.213551
1.133680
1.158714
1.128912
1.280904
1.155734
1.356602
1.246929
1.180768
1.326799
1.277924
1.333952
1.495481
1.412630
1.480579
1.277924
1.481771
1.335740
1.618862
1.647472
1.557469
1.768470
1.826882
1.886487
1.840591
2.046824
2.376437
2.347827
2.780557
3.241897
13.555884
47.891736
162.220597
319.318771
655.089617
970.621705
1015.788913
1015.788913
1015.788913
1015.788913
1015.788913
1015.788913
843.623877
550.329685
277.299881
150.308609
54.701567
24.363995
19.809604
26.378632
40.243864
54.042935
76.974630
94.580650
115.170479
121.383667
121.306777
114.846826
96.713901
79.114437
57.293773
42.539835
27.046800
19.298792
14.097691
11.270642
9.979606
10.281801
10.418892
10.641813
11.223555
11.140704
11.609793
10.968447
10.493994
10.622740
10.231733
10.057688
9.543896
9.461641
9.617805
9.190440
9.352565
9.129643
9.224415
9.402633
9.630919
9.188652
8.736849
8.905530
8.876920
8.838773
8.596778
8.552670
##ZVALUE=305
1.238585
1.161695
1.158714
1.121759
1.463890
1.239777
1.381636
1.374483
1.313686
1.383424
1.410842
1.423955
1.423955
1.320839
1.310706
1.433492
1.332760
1.413822
1.390576
1.599789
1.597404
1.565814
1.747608
1.761913
1.874566
1.883507
1.784563
1.928806
2.098680
2.005696
2.512932
2.556443
2.711415
2.968907
7.239580
28.008819
116.026998
253.844857
555.662513
851.458907
1015.888453
1015.888453
1015.888453
1015.888453
1015.888453
1015.888453
1008.683443
745.180845
395.849943
211.232901
76.028705
33.135414
16.416907
17.855763
25.472641
36.619902
55.456758
70.525408
92.175603
104.527473
115.566850
115.297437
106.130838
94.547868
72.883964
57.397485
39.358735
27.819872
17.633438
13.446808
11.040568
10.864735
10.592937
10.645986
10.911822
10.145903
10.144711
9.927750
9.419918
10.048747
9.734631
9.678602
9.756684
9.398460
9.290576
9.316802
9.520650
9.316802
8.922815
9.088516
8.959770
8.926988
8.633733
8.616447
8.430481
8.287430
##ZVALUE=310
1.139641
1.165867
1.106858
1.089573
0.985861
1.183748
1.038909
1.191497
1.095533
1.123548
1.156926
1.199841
1.321435
1.238585
1.193881
1.241565
1.205802
1.438856
1.476407
1.576543
1.536608
1.480579
1.409650
1.368523
1.608729
1.546741
1.536608
1.795888
1.757741
1.898408
1.986623
2.034903
2.138615
2.508759
2.379417
2.968907
3.518462
15.192628
52.699447
179.624557
352.007747
717.730522
1012.405753
1015.788913
1015.788913
1015.788913
1015.788913
1015.788913
1015.788913
961.384773
637.264848
312.736630
160.745978
54.702759
22.081733
13.866425
16.149879
23.113489
32.095909
48.828721
63.680410
84.372759
95.618963
106.323957
107.718706
100.318789
90.740919
71.228743
56.284666
38.380623
27.868748
18.828511
14.474988
11.439919
10.423660
9.999871
9.408593
9.218454
9.416938
9.110570
8.890629
9.135604
8.855462
9.137988
8.992553
8.924603
8.995533
9.139776
8.922815
8.804798
8.830428
8.556843
8.594990
8.584857
8.550882
8.294582
##ZVALUE=315
1.126528
1.092553
1.058578
1.096725
1.171827
1.267791
1.172423
1.174808
1.215935
1.134872
1.339912
1.264811
1.393557
1.099706
1.323819
1.110435
1.212955
1.247525
1.339912
1.389980
1.295805
1.276731
1.393557
1.399517
1.378655
1.521707
1.575947
1.589656
1.665950
1.623631
1.797676
1.865625
2.133846
2.001524
2.194643
2.213717
2.645850
3.067851
3.519654
5.742908
37.981868
118.763447
351.520777
633.077025
1015.785933
1015.785933
1015.785933
1015.785933
1015.785933
1015.785933
1015.785933
1015.785933
758.658648
467.560887
211.088657
97.752810
27.612448
13.991594
12.706518
14.582872
21.070838
29.093623
43.551922
57.453513
77.939630
89.504719
99.710822
103.242993
94.399452
84.667802
66.958666
54.014921
36.791563
27.709603
18.132925
13.972521
10.642409
9.602904
8.931756
8.779764
8.710623
8.518696
8.602738
8.432865
8.524656
8.607507
8.749962
8.792877
8.677840
8.425713
8.472800
8.195639
8.203983
8.179545
8.325577
7.856488
##ZVALUE=320
0.942945
0.908971
1.045465
0.983477
1.115799
1.077652
1.011491
1.200438
1.240969
1.099706
1.143813
1.133680
0.981688
1.096725
1.007915
1.134872
1.112819
1.183748
1.181960
1.318455
1.397729
1.383424
1.310706
1.292825
1.539588
1.392961
1.494884
1.290441
1.262426
1.563430
1.284480
1.672506
1.511574
1.833439
1.961589
1.811981
2.164841
2.318621
2.450943
2.622604
2.844930
3.897548
12.807846
66.990852
167.449713
429.124832
708.571672
1015.788913
1015.788913
1015.788913
1015.788913
1015.788913
1015.788913
1015.788913
970.055461
530.615449
296.369791
124.071836
54.059625
16.612411
10.812879
11.097789
13.117790
18.163919
25.359988
40.676594
52.579641
70.510507
82.574487
94.164610
95.987916
90.067983
81.755519
64.511895
50.878525
35.233498
25.511980
17.166734
12.940764
9.926558
8.740425
8.587837
8.571744
8.310676
8.385777
8.345842
8.205771
8.352995
8.392930
8.168817
8.313656
8.150935
8.193851
8.231997
8.084774
7.922649
##ZVALUE=325
1.097918
1.142621
1.147985
1.030564
1.006722
1.145601
1.025796
1.018643
1.112819
1.212955
1.070499
1.268983
1.102686
1.136661
1.326799
1.148582
1.184940
1.271963
1.121759
1.126528
1.227856
1.333952
1.161695
1.369715
1.257658
1.281500
1.377463
1.397729
1.355410
1.457930
1.654625
1.515746
1.707673
1.677871
1.669526
1.811981
1.687407
1.775622
1.958609
2.063513
2.196431
2.492666
2.647638
3.252625
6.883740
43.975711
115.825534
300.400853
535.770655
967.774987
1015.814543
1015.814543
1015.814543
1015.814543
1015.814543
1015.814543
1015.814543
694.247484
407.539606
170.901418
77.406764
23.744702
11.447668
9.514689
9.947419
12.715459
16.581416
25.469661
36.076903
53.331852
66.240430
80.119967
87.258816
89.974999
86.021423
72.965622
61.125755
45.470595
33.987761
21.925569
15.911460
11.414886
9.826422
8.675456
8.122921
8.221865
7.993579
7.963777
7.861853
7.799864
7.907748
7.946491
7.787943
7.989407
7.734895
7.647872
##ZVALUE=330
1.008511
1.261830
1.096725
0.768900
1.031756
1.055598
1.020432
1.183748
1.148582
0.897646
1.016855
1.084805
1.273751
1.066923
1.068711
1.051426
0.949502
1.199841
1.112819
1.156926
1.086593
1.237988
1.155734
1.215935
1.145601
1.371503
1.357794
1.286864
1.320839
1.358986
1.482964
1.325607
1.571774
1.526475
1.585484
1.533628
1.816750
1.616478
1.749992
1.793504
1.906753
1.962781
2.271533
2.288818
2.714992
3.108978
4.204512
19.660592
62.724948
207.173824
397.931933
792.976022
1015.788913
1015.788913
1015.788913
1015.788913
1015.788913
1015.788913
1015.788913
878.807902
563.680530
262.614489
129.205585
42.076707
16.040802
9.211898
9.168983
9.899735
11.577606
17.150640
23.416877
35.492778
47.556758
64.060688
74.854493
83.210468
84.023476
78.674555
70.470572
54.639578
43.732524
29.751658
22.823811
15.940666
12.254715
9.651780
8.488894
8.248687
7.939935
7.624626
7.707477
7.553697
7.614493
7.667542
7.313490
7.399917
##ZVALUE=335
0.899434
0.935793
0.930429
0.880957
1.013875
0.965595
0.851750
1.063943
1.030564
0.989437
0.940561
0.945926
1.074672
1.027584
1.021624
0.820756
0.872612
0.825524
1.081824
1.202822
1.204610
1.194477
1.228452
1.199841
1.206994
1.110435
1.242757
1.313686
1.198649
1.229644
1.400709
1.345873
1.245737
1.358986
1.405478
1.348853
1.540780
1.588464
1.765490
1.713634
1.889467
1.952648
1.787543
1.966953
2.121925
2.343655
2.484918
2.458692
3.117919
9.234548
32.944679
122.196674
254.829526
564.290881
903.162956
1015.788913
1015.788913
1015.788913
1015.788913
1015.788913
1015.788913
1010.871530
723.575950
370.733738
192.221999
61.874986
23.943782
10.125637
8.692741
8.874536
9.508729
11.711717
15.581846
23.765564
32.666922
46.926737
57.650805
70.117712
75.369477
77.108741
73.787570
63.211918
54.076910
40.866733
31.823516
22.081733
16.665459
11.878610
9.823442
7.905960
7.799864
7.234812
7.427931
7.221699
6.952882
7.017851
##ZVALUE=340
0.925660
0.905991
1.072884
1.077652
1.105666
1.054406
1.037717
0.948906
0.981688
1.006722
0.986457
1.000762
1.147985
1.029968
1.028776
0.913739
1.135468
1.154542
1.014471
1.079440
1.259446
1.125932
1.116991
1.125932
1.025796
1.137853
1.164675
1.176000
1.331568
1.214743
1.051426
1.293421
1.208782
1.350641
1.346469
1.317859
1.498461
1.329780
1.423955
1.549721
1.558661
1.722574
1.594424
1.737475
1.683831
2.016425
2.107620
2.211928
2.321601
2.846718
2.999902
4.977584
16.583800
77.311993
184.108615
454.373956
756.834745
1015.788913
1015.788913
1015.788913
1015.788913
1015.788913
1015.788913
1015.788913
903.468728
474.458933
256.567001
91.344714
34.892559
11.724830
9.130836
8.875728
8.685589
9.610653
11.298656
15.612841
21.456480
31.846762
41.995645
55.412650
63.388944
72.044730
72.336793
68.651438
61.890483
50.626993
41.185617
29.481649
22.515655
15.705824
12.090802
9.040833
8.072853
7.452965
7.136464
7.198453
##ZVALUE=345
0.924468
0.989437
1.018643
0.908971
1.019835
0.890493
1.026988
0.969768
1.091957
0.951886
1.077652
0.894666
0.806451
1.132488
0.909567
0.971556
1.023412
1.011491
1.088977
1.014471
1.171827
0.934601
1.107454
1.157522
1.159906
1.151562
1.152754
1.118779
1.262426
1.268983
1.249909
1.229644
1.288652
1.149774
1.199841
1.230836
1.295805
1.308918
1.413822
1.534820
1.598597
1.595616
1.455545
1.629591
1.679659
1.698732
1.850724
2.050996
2.096891
2.362728
2.317429
2.479553
2.832413
3.180504
7.859468
47.073960
123.286843
315.992832
569.526553
996.074677
1015.788913
1015.788913
1015.788913
1015.788913
1015.788913
1015.788913
1015.788913
659.248829
374.155641
141.437650
59.843659
18.177629
10.508895
9.232759
8.698702
8.548498
8.637905
10.731816
13.695955
20.217896
28.317571
40.211678
49.118996
59.441924
64.515471
67.175627
65.047741
58.326721
51.142573
39.645433
30.720830
21.306872
15.995502
11.044741
9.430647
7.664561
##ZVALUE=350
0.970960
0.991821
1.120567
1.110435
0.973940
1.004934
0.938773
0.985861
0.853539
0.997782
0.899434
1.079440
1.095533
0.992417
1.079440
1.156926
1.111627
0.935793
1.110435
1.082420
1.058578
1.221895
1.205802
1.089573
1.207590
1.119971
1.213551
1.131892
1.183748
1.260638
1.207590
1.207590
1.241565
1.148582
1.378655
1.335740
1.264811
1.433492
1.296997
1.472831
1.293421
1.476407
1.485944
1.463890
1.468658
1.684427
1.658797
1.663566
1.818538
1.916885
1.948476
2.173781
2.217889
2.456903
2.738833
3.035665
4.649758
24.626851
75.252652
216.770768
405.208468
800.719857
1015.788913
1015.788913
1015.788913
1015.788913
1015.788913
1015.788913
1015.788913
813.650489
489.013791
207.908750
90.528727
23.394823
11.058450
8.661747
8.086562
7.793903
7.543564
8.114576
9.400845
13.340712
17.927885
25.165677
32.775998
43.609738
51.356554
58.400631
60.574412
58.987737
55.272579
45.419931
37.545562
27.703643
21.661520
15.108585
##ZVALUE=355
1.009703
1.009703
0.989437
1.010895
1.137853
1.048446
0.985861
1.021624
1.104474
1.103878
0.855923
0.967979
0.886917
1.004934
0.977516
1.048446
1.070499
1.007915
1.205802
1.119971
1.114607
1.091957
0.962615
1.091957
1.148582
1.276731
1.096725
1.185536
1.163483
1.305938
1.092553
1.363754
1.271963
1.017451
1.230836
1.183748
1.344681
1.298785
1.343489
1.303554
1.370907
1.531839
1.427531
1.382828
1.417994
1.471639
1.571774
1.475811
1.593828
1.777411
1.823902
1.791716
2.046824
2.099872
2.228618
2.351999
2.473593
2.659559
3.113747
12.278557
43.975711
154.487491
303.208828
616.894960
945.962667
1015.788913
1015.788913
1015.788913
1015.788913
1015.788913
1015.788913
895.959735
563.002825
235.104561
106.263757
29.912591
12.279749
7.659793
7.439852
7.039905
7.020831
6.902814
7.324815
8.895993
11.018515
15.946627
21.519661
30.312538
37.937760
46.309829
51.759481
55.617690
54.347515
49.441457
44.675469
35.013556
##ZVALUE=360
0.959635
0.884533
1.113415
1.010895
1.034737
1.010895
0.942945
1.056790
1.040697
1.026988
1.109838
1.087785
1.137853
1.112819
0.976920
1.025796
0.923872
1.055598
1.132488
1.104474
1.042485
1.084805
1.047850
1.066923
1.206994
1.173615
1.095533
1.102686
1.216531
1.144409
1.162887
1.182556
1.220703
1.372695
1.302958
1.345873
1.325607
1.190901
1.341701
1.138449
1.538992
1.440644
1.396537
1.517534
1.388788
1.498461
1.764894
1.614690
1.535416
1.607537
1.703501
1.776814
2.008677
2.048612
1.968741
2.039671
2.250671
2.559423
2.579689
3.135800
3.193617
5.762577
21.011829
90.106726
204.110742
477.745533
778.743625
1015.785933
1015.785933
1015.785933
1015.785933
1015.785933
1015.785933
1015.785933
728.263855
338.509679
165.695548
53.663850
19.920468
8.520484
7.361770
6.821752
6.583929
6.522536
6.523728
6.793737
7.632971
9.619594
12.296438
17.892718
24.025440
33.039451
39.449930
45.620799
49.202442
49.369931
##ZVALUE=365
1.000762
1.009703
0.959635
0.915527
0.836849
0.968575
0.905991
0.994802
1.009703
0.865459
1.004934
1.096725
1.094937
0.990629
0.826716
1.075864
0.854731
0.989437
0.933409
1.181960
1.068711
1.009703
1.096725
1.068711
1.142621
1.373887
1.123548
1.048446
1.166463
1.143813
1.173615
1.217723
1.199841
1.085997
1.310706
1.241565
1.349449
1.291633
1.224875
1.294613
1.259446
1.263618
1.369715
1.431704
1.248717
1.314878
1.581907
1.415610
1.494884
1.633763
1.627803
1.662970
1.742840
1.712441
1.738667
1.979470
2.109408
2.197623
2.188683
2.555847
2.599955
2.966523
3.302693
3.823638
9.160638
55.211782
142.429471
360.891819
617.879629
1003.336906
1015.788913
1015.788913
1015.788913
1015.788913
1015.788913
1015.788913
853.867531
452.116728
235.659480
80.989599
29.750466
9.257793
7.092953
6.437898
6.290674
6.078482
5.847812
5.841851
5.814433
6.685853
8.034706
10.994673
14.735460
21.141768
26.584864
34.292936
##ZVALUE=370
1.019835
0.853539
1.032948
0.951886
0.886917
0.903606
1.013875
0.997782
1.056790
1.002550
0.923872
0.941753
0.989437
1.006722
1.013875
0.997782
0.979900
1.044869
0.950694
1.107454
0.908971
0.868440
1.172423
1.069903
1.113415
1.084805
1.137853
1.021624
1.049638
1.000762
1.108646
1.112819
1.143813
1.236796
1.092553
1.039505
1.171827
1.208782
1.201630
1.197457
1.274943
1.264811
1.259446
1.345873
1.283884
1.337528
1.256466
1.427531
1.426935
1.436472
1.427531
1.460910
1.599789
1.457930
1.641512
1.751781
1.791716
1.932979
1.865625
1.960993
1.894832
2.227426
2.333522
2.667904
2.817512
3.380775
5.109906
37.675500
121.270418
329.297781
557.593703
959.841609
1015.771031
1015.771031
1015.771031
1015.771031
1015.771031
1015.771031
994.559526
558.992028
299.100876
111.049414
47.111511
14.656782
7.723570
6.562471
6.143451
5.953908
5.669594
5.503893
5.330443
5.423427
5.744696
7.012486
8.956790
12.727976
##ZVALUE=375
0.877976
1.012683
0.835657
0.931621
1.048446
0.956655
0.969768
1.050830
0.822544
0.883937
0.921488
1.009703
0.819564
0.941753
0.952482
0.971556
0.987649
0.910759
1.093745
1.077652
0.974536
1.053810
1.002550
0.883937
1.004934
1.057982
0.916719
1.117587
0.983477
0.978708
1.067519
1.230836
1.071692
1.136661
1.051426
1.072884
1.120567
1.246929
1.159906
1.059771
1.153946
1.159906
1.184940
1.222491
1.208782
1.425743
1.324415
1.277924
1.355410
1.326799
1.335740
1.437664
1.446605
1.396537
1.453757
1.457930
1.530647
1.539588
1.693964
1.811981
1.804829
2.006888
1.828671
2.195835
2.220869
2.534986
2.728701
3.277659
3.936887
18.575788
87.584853
291.448832
530.064702
967.932940
1015.788913
1015.788913
1015.788913
1015.788913
1015.788913
1015.788913
1015.788913
808.311701
492.154956
219.790936
105.881691
31.287670
11.398792
6.559491
6.091595
5.750656
5.461574
5.135536
5.044937
4.979968
4.810691
5.252957
##ZVALUE=380
0.680685
0.813603
0.713468
0.743866
0.771880
0.803471
0.773668
0.712872
0.703931
0.733733
0.774860
0.772476
0.762939
0.772476
0.627637
0.729561
0.706911
0.684857
0.689626
0.804663
0.772476
0.861883
0.803471
0.934601
0.808835
0.772476
0.862479
0.895858
0.590682
0.941753
0.756979
0.670552
0.863671
0.862479
0.939965
0.970960
0.872612
0.838637
0.888705
0.840425
0.911951
0.997782
0.917912
0.996590
0.937581
1.001954
1.049638
0.884533
1.088977
0.979900
1.157522
1.161695
1.165867
1.158714
1.100898
1.256466
1.263618
1.431704
1.414418
1.433492
1.515746
1.503825
1.513958
1.764894
1.672506
1.884699
2.104640
2.418756
2.444983
2.837777
3.380775
6.544590
30.639768
157.700777
338.092446
712.482929
1012.857556
1015.643477
1015.643477
1015.643477
1015.643477
1015.643477
1015.643477
990.604758
691.114664
343.612432
173.744559
56.007504
19.100904
7.055998
5.583763
5.174875
4.968643
4.793406
4.583597
4.389882
##ZVALUE=385
0.851750
0.923872
0.822544
0.793934
0.873804
0.783801
0.799894
0.856519
0.853539
0.959635
0.843406
0.963807
0.852942
0.817776
0.871420
0.817776
0.822544
0.931621
0.990629
0.811815
0.872612
0.753999
1.000762
1.004934
0.973940
0.868440
1.005530
1.053810
0.893474
1.054406
0.964999
0.866652
1.119971
0.993609
0.799894
0.976920
1.018643
0.982881
0.956655
1.118779
1.123548
0.991821
1.182556
1.147985
1.032948
1.149774
1.141429
1.079440
1.325607
1.176000
1.266599
1.188517
1.142621
1.240969
1.138449
1.376867
1.131892
1.509786
1.411438
1.571774
1.722574
1.485944
1.527667
1.701713
1.904964
1.789927
1.964569
1.979470
2.300739
2.640486
2.774596
2.890825
3.188848
3.976822
11.548996
76.618791
198.687911
482.226610
809.174776
1015.785933
1015.785933
1015.785933
1015.785933
1015.785933
1015.785933
1015.785933
854.235888
462.761521
262.642503
107.194781
40.138960
9.331703
5.744696
5.168915
4.888773
4.665852
##ZVALUE=390
0.953674
0.945926
0.773668
0.822544
0.934601
0.846982
0.839829
0.852942
0.817776
0.956655
0.881553
0.899434
0.805855
0.953674
0.968575
0.945926
0.848770
0.943542
0.969768
0.923872
0.964999
0.818968
0.872612
0.834465
0.983477
0.997782
0.927448
0.922680
1.013875
1.018643
1.033545
1.036525
0.964999
1.026988
1.011491
1.159906
1.007915
0.920892
1.122952
0.966787
1.182556
1.065731
1.029968
1.128912
1.124740
1.082420
1.084805
1.215935
1.137853
1.181960
1.263618
1.295805
1.154542
1.261830
1.243949
1.297593
1.253486
1.398921
1.212955
1.192689
1.410842
1.541972
1.578927
1.583695
1.556873
1.721978
1.868606
2.030730
2.222657
2.219677
2.535582
2.849698
2.804995
2.905726
3.335476
3.377795
6.174445
36.658645
120.928884
363.727808
667.657852
1015.788913
1015.788913
1015.788913
1015.788913
1015.788913
1015.788913
1015.788913
1015.788913
672.293901
375.577807
146.890879
65.120459
18.093586
7.475615
5.344748
##ZVALUE=395
0.908971
0.853539
0.717640
0.683665
0.787973
0.949502
0.837445
0.799894
0.810623
0.753999
0.800490
0.671744
0.909567
0.691414
0.797510
0.956655
0.851750
0.927448
0.739694
0.946522
0.920892
0.909567
0.959635
0.991821
0.908971
0.840425
0.976920
0.970960
0.994802
0.965595
0.861883
1.004934
0.933409
1.152754
1.054406
0.958443
0.966787
1.129508
1.021624
1.097918
1.016855
1.037717
1.063943
1.079440
1.004934
1.071692
1.088977
1.157522
1.089573
1.312494
1.198649
1.137853
1.058578
1.177788
1.334548
1.314878
1.340508
1.351833
1.305938
1.378655
1.259446
1.416802
1.586676
1.525879
1.509786
1.655817
1.685619
2.008677
2.142787
2.426505
2.438426
2.558827
2.492666
2.804995
2.990961
2.789497
2.843738
3.379583
3.983974
19.244552
74.248910
269.218683
521.370769
973.337889
1015.768647
1015.768647
1015.768647
1015.768647
1015.768647
1015.768647
1015.768647
953.233838
593.813658
263.536572
118.216872
34.465790
##ZVALUE=400
0.925660
0.876784
0.725985
0.857711
0.905991
0.887513
0.921488
0.810623
0.765920
0.811815
0.909567
0.881553
0.954866
0.882745
0.873804
0.826716
0.951886
0.857711
0.871420
0.843406
0.861883
0.983477
0.969768
0.858903
0.856519
0.986457
1.008511
0.910759
0.953674
0.788569
0.943542
0.944734
0.881553
0.984669
0.991821
1.035929
1.053810
0.930429
0.859499
0.875592
1.048446
1.069903
0.981688
1.010895
1.088977
1.097918
0.992417
1.165867
1.105666
1.002550
1.217723
1.201630
1.303554
1.425743
1.112819
1.176596
1.341701
1.248717
1.266599
1.250505
1.445413
1.351833
1.387596
1.505613
1.494884
1.698732
1.641512
1.827478
2.095699
2.194643
2.197623
2.503991
2.298951
2.485514
2.341866
2.318621
2.438426
2.432466
2.673864
3.029704
3.632903
10.268688
40.632486
161.167979
345.208645
738.850832
1015.788913
1015.788913
1015.788913
1015.788913
1015.788913
1015.788913
1015.788913
1014.181972
704.649687
344.071984
##END
