##TITLE=QP00601
##FORMAT=SPECTACLE-ASCII V-1.2
##DATA TYPE=ULTRAVIOLET SPECTRUM
##SECOND TYPE=ULTRAVIOLET SPECTRUM
##DATE=11/28/17
##TIME=14:01:23
##SPECTROMETER/DATA SYSTEM=SPECTACLE
##XUNITS=NM EM
##YUNITS=ENERGY
##YFACTOR=1
##FIRSTX=220
##LASTX=410
##NPOINTS=96
##3DDATA=Equidistant
##ZUNITS=NM EX
##FIRSTZ=210
##LASTZ=400
##ZPOINTS=39
##XYDATA=(Y..Y)
##ZVALUE=210
3.748536
4.181862
4.109740
3.866553
3.693700
4.957914
4.434586
4.268885
4.189610
4.018545
3.917813
3.762841
3.144741
2.806783
3.046989
3.515482
3.189445
3.369451
3.318787
3.594756
4.060864
3.384948
3.465414
3.933907
4.281998
4.871488
3.808737
3.573895
4.955530
4.759431
3.728867
4.658699
4.666448
4.912615
4.881620
5.303621
5.546808
5.433559
5.423427
5.709529
5.224943
5.570650
6.285906
5.461574
5.731583
5.773902
6.239414
5.555749
6.278753
6.270409
6.166697
5.829930
5.584955
6.116629
6.365776
6.466508
6.005764
6.494522
6.635785
5.373955
6.058812
6.404519
6.770492
6.678700
7.660985
7.795691
7.769465
8.352995
8.649826
10.334849
12.253523
13.111830
15.235543
16.179681
17.876625
18.138885
18.732548
18.142462
16.493797
17.226934
15.972853
14.065504
13.440847
11.239648
9.083748
9.388924
7.798672
7.770658
6.977916
7.009506
6.202459
7.383823
7.505417
7.923841
7.784963
8.794665
##ZVALUE=215
10.337830
9.519458
9.206533
7.395744
7.023811
7.131696
7.240772
7.690787
8.517504
7.411838
7.525682
6.803870
6.067753
4.751682
4.108548
3.879666
3.553629
3.144741
3.768802
3.327727
4.330873
4.878640
4.057884
4.412532
3.994703
4.334450
3.868937
4.741549
4.772544
5.250573
4.753470
5.326867
4.913807
5.669594
5.239844
4.990697
5.722642
5.539656
5.249977
5.721450
5.585551
5.337596
5.674958
6.221533
6.121993
6.474853
6.307960
7.125735
6.178617
6.148815
6.040931
7.178783
7.858872
6.276965
7.078648
6.394982
7.455945
7.263422
7.284880
7.708669
7.460713
7.004738
7.516742
7.371902
7.379651
7.196665
7.374883
8.250475
9.147525
9.429455
11.849999
14.681816
13.725758
15.814900
17.449856
17.950535
18.996000
18.126965
15.661716
15.723705
15.015602
12.915730
11.735559
10.287762
9.475946
8.968711
8.487701
8.228421
7.525682
7.957816
7.854700
7.007718
7.050633
7.575750
7.016659
7.248521
##ZVALUE=220
23.299456
23.185611
25.929809
24.889708
25.121570
21.123886
19.117594
16.063452
13.722777
13.487935
15.166998
15.385747
14.161468
13.449788
10.260940
8.899570
6.581545
5.437732
4.242659
4.185438
4.202724
3.747940
4.428625
4.199743
4.613996
4.354715
4.664660
4.897714
5.005598
5.236864
5.276799
5.488992
5.119443
5.491972
5.337596
5.707741
5.639791
5.913973
5.828738
6.044507
5.692840
6.209612
6.479621
6.743670
7.305741
6.856918
6.442666
6.928444
7.266998
7.020831
7.026792
7.288456
6.739497
6.966591
7.668734
6.993413
8.246899
6.754994
8.130670
8.379817
7.727742
7.824898
8.001924
7.489920
8.182526
8.343458
9.603500
9.888411
9.781718
13.613701
13.263822
14.815927
17.517805
19.015670
19.227862
20.258427
20.262599
20.103455
18.805861
18.289685
16.374588
15.162826
13.503432
12.102723
11.613965
11.639595
11.342764
9.802580
9.455681
9.227991
9.224415
8.996725
9.043813
8.419752
8.857846
9.152889
##ZVALUE=225
35.680532
38.111806
49.420595
64.658523
69.213510
69.487691
64.350963
54.274797
42.719841
32.066703
27.165413
24.889708
29.131770
29.010773
30.224919
27.749538
22.783875
17.817616
13.331771
9.747744
6.782413
5.304813
4.503727
5.152822
5.260706
5.386472
5.901456
5.347729
5.186796
5.642772
6.007552
6.000996
5.817413
6.112456
6.163716
6.894469
6.655455
6.930828
6.814599
7.200837
7.273555
7.253885
6.328821
7.687807
7.525682
7.806420
8.194447
7.761717
7.748604
7.553697
8.972883
8.553863
8.089542
9.108782
8.335710
9.241700
9.119511
8.573532
9.911656
8.825660
9.312630
10.330677
10.810494
9.827614
10.798573
10.164976
10.968447
12.038946
12.399554
16.080737
14.804602
17.545819
18.843412
20.733476
21.119714
20.824671
19.604564
19.989610
19.373894
18.406510
18.157959
16.175508
15.179515
15.761852
14.857650
13.924837
14.063716
13.928413
13.736486
12.387633
12.352467
11.228919
11.863708
12.391806
12.153983
12.039542
##ZVALUE=230
25.932789
31.006932
48.119426
86.823702
112.297535
149.031878
162.448883
165.141821
152.160525
132.244825
91.714859
69.593787
49.787760
43.329000
46.595931
50.131679
53.747892
49.157739
47.492981
36.576986
29.459596
19.050837
13.199449
8.915663
6.202459
6.149411
5.518794
5.716681
5.113482
5.425811
5.531907
7.262826
6.998777
6.696582
7.366538
6.651878
7.158518
7.362962
7.761717
6.436706
7.711649
6.895661
8.115768
7.133484
9.085536
7.894635
8.125901
8.016825
8.341670
7.849932
8.059740
8.741617
9.032488
8.952618
9.701848
9.582639
9.799600
9.660721
10.091662
10.526776
10.835528
11.001825
11.209846
11.661649
12.300611
12.870431
14.121532
13.736486
14.639497
17.136931
18.555522
19.906759
20.503998
22.539496
23.029447
23.292899
23.628473
22.247434
23.021698
21.028519
20.627975
19.891858
19.994974
18.957853
18.432736
18.317699
18.064976
18.022656
16.164780
16.534925
15.529990
16.580820
14.972687
16.667843
16.648769
16.045570
##ZVALUE=235
8.906722
10.505915
24.811625
47.693849
95.708966
143.687725
217.623711
270.539522
311.576724
315.070748
276.199579
228.441954
176.368952
117.151737
87.505579
73.025823
65.001845
68.740845
79.208612
77.434778
74.671507
65.221786
48.681498
36.179423
22.173524
16.576648
10.194778
7.527471
6.878972
6.963611
6.554723
7.080436
6.733537
7.514954
7.285476
7.944703
7.039905
8.182526
8.522868
9.127855
8.283854
8.100867
7.880926
8.144975
8.674860
8.927584
8.252859
9.660721
8.384585
9.078979
8.193851
10.218620
9.234548
10.102987
9.153485
11.306405
10.425448
12.474656
12.556911
12.109876
11.422634
13.411641
11.659861
14.547706
13.721585
14.966726
13.715625
16.077757
16.173720
18.527508
19.042492
23.520589
24.325848
24.835467
27.656555
29.538870
27.290583
26.954412
25.942922
27.452707
25.351644
24.496913
24.317503
23.956895
22.557974
22.202730
22.201538
21.960735
21.469593
22.938848
21.924973
22.190809
21.012425
20.915866
20.878911
21.931529
##ZVALUE=240
3.071427
3.060699
4.496574
14.071465
28.688908
73.445439
124.096870
224.545002
320.371985
400.226712
475.525856
484.474897
438.924432
383.803844
285.445452
203.291774
127.061605
101.878643
88.127851
90.651512
100.915432
110.147595
104.206800
91.539621
79.254508
57.679415
44.720769
28.642416
19.161701
12.636781
9.713769
7.500648
8.303523
7.559657
7.613897
8.133650
8.042455
7.977486
7.892847
7.718801
7.976890
8.123517
8.165836
8.460879
9.693503
8.445978
8.586645
9.442568
8.712411
9.852648
9.476542
8.796453
10.765791
9.882450
10.843873
11.742711
11.197925
12.153983
12.629628
12.565851
12.991428
13.775826
15.629530
15.848875
16.301870
16.074777
16.748905
19.723773
20.966530
21.961927
24.631619
25.240779
28.405786
31.450987
32.195449
33.154488
33.095479
32.165647
34.022927
31.639934
32.021999
29.683709
29.886961
28.475523
28.649569
27.841926
26.974678
27.921796
26.224852
27.316809
27.867556
27.783513
27.190447
26.625991
25.596619
28.049946
##ZVALUE=245
2.671480
2.759695
2.481937
2.433658
4.042983
8.673668
28.789639
61.007738
140.648484
226.306915
374.310613
480.678678
556.592941
598.851442
580.531955
483.389497
394.404531
267.735720
188.538432
119.969845
92.310905
90.031624
104.372501
113.914609
117.554665
116.263628
105.084777
88.296533
65.436959
49.992800
34.765601
20.913482
14.428496
9.821653
7.169843
6.897449
7.277727
6.778836
7.526875
7.382631
7.428527
7.025599
7.857680
7.756948
7.487535
7.389784
7.361770
7.656813
7.261634
8.537769
8.532405
9.096861
8.758903
9.312630
8.868575
8.882880
9.464622
10.831952
10.346770
11.256933
11.450648
12.417436
12.240410
13.980865
13.445616
15.285611
16.407967
15.738606
17.575622
18.218756
20.310879
22.358894
26.454926
27.579665
27.415752
29.098988
29.019713
28.627515
28.164983
29.198527
28.491616
27.499795
26.864409
27.479529
27.432442
25.193691
26.136637
27.218461
26.616454
24.262667
25.650859
28.224587
26.100874
26.228428
25.259852
26.734471
##ZVALUE=250
1.942515
1.855493
2.026558
2.258420
1.964569
2.425909
2.788901
6.001592
23.569465
50.994754
130.624771
221.862793
336.870551
495.683551
599.882603
683.152676
685.119033
611.905456
523.232818
371.374488
248.260498
163.199902
98.874569
84.895492
95.923543
105.367899
123.881698
130.209923
124.927759
112.910867
97.544789
72.388649
52.947998
32.636523
21.980405
12.725592
9.305477
6.999969
6.760955
5.822778
6.876588
6.929636
6.595850
6.829500
6.649494
6.732941
7.276535
6.576777
6.446838
7.086992
7.236600
7.753968
7.393956
7.256866
8.327961
8.524656
8.187890
7.900000
8.654594
8.994937
9.820461
9.434819
10.027885
11.016726
10.840893
12.219548
12.838840
13.895631
14.430881
16.795993
17.399788
20.284653
21.106601
22.387505
22.665858
23.165941
24.716854
25.176406
24.166703
24.962425
26.596785
26.247501
24.829507
24.564862
26.119947
24.328828
24.361610
26.175976
24.913549
24.159551
24.662614
24.907589
25.065541
24.922490
25.202632
23.829937
##ZVALUE=255
1.847744
1.749992
1.987815
1.954436
2.224445
2.192855
2.133846
2.255440
2.249479
4.006624
17.093420
41.010976
89.208484
197.714567
304.885507
493.230820
628.292561
749.638677
782.861710
745.626688
640.175939
508.682728
318.796635
203.371644
112.673640
85.052848
82.117915
90.776682
116.007924
125.155449
131.576657
130.460858
120.840669
94.928741
79.039931
50.195456
35.550594
20.204782
12.784600
7.853508
6.542802
5.961657
6.161928
6.128550
5.841851
6.272793
5.745888
6.899834
6.812811
6.308556
7.136464
6.852746
6.756783
6.784797
6.775856
6.598830
7.149577
7.102489
7.717609
8.543730
8.940697
8.853674
9.042621
9.457469
10.237694
10.384917
11.386871
12.155771
12.852550
14.417768
15.527606
15.120506
17.834902
19.018650
19.066930
20.291805
21.138787
22.724867
21.458864
21.488667
22.356510
21.244884
22.147894
21.821856
22.153854
21.307468
21.545887
21.631718
22.520423
22.127628
23.894906
23.072958
21.811724
22.297502
23.091435
23.227930
##ZVALUE=260
1.832843
1.895428
1.831651
1.772642
2.189875
2.102852
2.131462
2.072453
2.242923
2.338886
2.057552
2.911687
7.529855
29.377937
63.119531
155.332685
269.650817
418.089628
632.187724
779.269934
893.743634
902.903676
797.265768
646.896958
447.217822
311.846733
178.119540
111.672878
72.713494
74.948668
93.957782
112.617612
125.657916
142.367482
135.067701
123.146772
103.642941
77.901483
55.327415
35.345554
23.166537
13.113618
9.160638
7.347465
7.078648
6.210804
6.677508
5.987883
6.590486
5.951524
6.911755
6.851554
7.291436
7.135868
6.785989
7.275939
7.712841
7.100701
7.389784
8.188486
8.660555
9.000897
8.852482
8.650422
8.723736
9.651780
10.113716
11.181831
10.873675
12.881756
14.160872
14.668703
15.775561
16.655922
17.672777
18.625855
18.951893
19.210577
19.887686
19.479990
19.322634
20.892620
21.140575
20.560622
19.701719
21.187663
19.800663
21.202564
19.726753
20.245910
21.058917
21.388531
21.068454
21.634698
20.608902
22.096634
##ZVALUE=265
1.456738
1.391768
1.480579
1.520514
1.785755
2.067685
1.946688
1.639724
1.905560
2.004504
1.997948
2.017617
2.222657
2.410412
3.870726
17.545819
44.618845
114.489794
210.660696
414.081812
599.039793
771.964788
953.733921
987.082720
903.718472
769.823790
571.219921
401.013494
219.055414
135.870576
75.378418
60.675740
71.534514
98.838806
116.726756
137.365460
140.917897
139.187574
125.122666
101.501942
77.797771
54.233670
36.798716
21.928549
12.874603
7.939935
6.973743
6.391406
6.064773
6.034970
6.647706
6.457567
6.503463
6.516576
6.958842
6.880760
6.510615
6.879568
7.182956
7.304549
7.332563
8.343458
8.159876
8.902550
8.569956
9.428859
9.227991
10.188818
10.810494
11.470914
12.519956
13.845563
14.859438
15.954971
15.558600
16.167760
16.712546
16.662478
16.937852
17.358661
16.792417
18.087626
18.077493
18.483996
17.812848
18.843412
19.222498
19.029975
19.009709
19.309521
19.249916
19.604564
19.947886
20.383000
19.397736
20.190477
##ZVALUE=270
1.646876
1.582503
1.324415
1.379848
1.479983
1.784563
1.638532
1.458526
1.625419
1.670718
1.622438
1.777411
1.826882
1.922846
1.921654
2.024770
3.146529
7.307529
30.770898
74.968934
188.226700
330.550671
578.198433
775.532722
924.773812
1015.788913
1015.788913
919.042826
762.746930
534.605980
359.902978
184.096694
106.072426
58.435798
55.699944
74.393749
94.971657
120.250583
134.654641
143.719912
137.519836
122.888684
105.037689
78.215003
57.155490
34.329891
23.344755
13.758540
9.239912
7.543564
6.668568
6.525517
7.027984
6.872416
6.967783
7.251501
7.369518
6.984472
7.615685
7.952452
7.354617
8.010864
8.003712
9.058714
9.188652
8.844733
9.453893
10.258555
11.068583
11.641979
12.190938
14.001727
14.288425
14.712811
15.052557
15.554428
15.976429
16.435981
16.507506
16.613603
16.390681
17.132759
16.242862
18.170476
17.135739
17.271638
17.628670
17.290711
17.284751
17.771721
17.546415
18.727779
18.463731
17.854571
18.936992
19.563437
##ZVALUE=275
1.680851
1.464486
1.572967
1.440644
1.671910
1.396537
1.273751
1.487732
1.300573
1.684427
1.421571
1.683831
1.718998
1.812577
1.744628
1.839995
2.075434
2.098680
2.198815
4.897714
16.610622
46.530962
142.302513
271.614790
515.624881
713.368654
931.438804
1015.788913
1015.788913
1015.788913
935.396552
681.309700
479.401946
251.065493
143.071413
65.538883
45.038462
52.686930
68.586469
95.568895
115.365982
134.560466
139.071941
137.292743
124.419928
102.254748
82.210898
54.888725
39.683580
23.258924
15.765429
9.549856
8.421540
6.970763
7.018447
7.205606
7.352829
7.571578
8.047819
8.400679
8.485913
8.266568
8.575916
9.125471
9.578466
9.071827
10.006428
10.403991
10.681748
11.550784
12.487769
13.272762
12.543797
14.827847
15.015602
15.236735
16.045570
15.788674
15.922785
16.339421
17.111897
15.646815
16.497970
16.154647
16.456842
17.221570
16.086698
16.924739
17.559528
16.814470
17.607808
17.682910
17.691851
17.240644
17.127991
17.254949
##ZVALUE=280
1.239777
1.436472
1.577735
1.471639
1.261830
1.498461
1.281500
1.407862
1.423955
1.299977
1.464486
1.624823
1.671910
1.475811
1.700521
1.785755
1.822710
1.773834
1.914501
2.024770
1.987815
2.560616
10.751486
36.367774
114.965439
214.379430
408.723950
600.480437
861.755013
1013.780832
1015.788913
1015.788913
1009.455919
783.122778
576.552749
322.149992
193.398595
86.941719
48.667789
37.698746
48.170686
72.219968
90.775490
117.214918
128.603578
138.693452
134.159923
120.987892
104.078650
76.358914
55.971742
35.018921
25.531650
15.440583
11.057854
8.257627
7.512569
8.094907
8.202791
8.405447
8.542538
8.972883
9.357929
9.564757
9.143949
10.117888
10.336637
10.582805
11.620522
12.321472
12.442470
13.932586
14.006495
14.599562
15.617609
15.479922
15.333891
15.513897
16.055703
15.741587
16.051531
16.343594
15.973449
16.410947
16.482472
16.301870
16.403794
16.783476
17.014742
16.964674
16.976595
16.813874
16.959906
17.123818
17.373562
17.509460
##ZVALUE=285
1.254678
1.385808
1.228452
1.246929
1.228452
1.282692
1.315475
1.398921
1.448989
1.390576
1.381636
1.348853
1.428723
1.403689
1.371503
1.377463
1.555681
1.698732
1.624823
1.671910
1.954436
1.965761
2.389550
2.244711
5.787611
19.518733
66.137910
140.788555
314.202905
488.120914
756.203532
959.129930
1015.788913
1015.788913
1015.788913
930.823684
731.436610
454.674959
286.299586
132.975578
69.057941
32.530427
32.235980
47.836900
64.717531
91.049671
109.876990
126.290917
133.271813
132.286549
120.820999
100.524426
81.785917
56.352615
40.531754
24.914742
16.837716
11.482835
10.378957
9.027719
8.950830
8.745790
9.016991
10.238886
9.758472
10.331869
11.026859
10.759830
11.083484
12.016892
13.177991
14.064908
13.761520
14.927983
15.019774
15.956759
15.037656
14.879704
15.657544
16.304851
16.361475
16.503930
16.423464
15.991926
16.265512
16.431808
16.852617
16.553998
16.454458
17.207861
16.411543
16.490817
16.348958
16.121864
16.691685
16.378760
##ZVALUE=290
1.140833
1.275539
1.149774
1.339912
1.325607
1.317859
1.446605
1.351833
1.143813
1.295805
1.510978
1.272559
1.602769
1.486540
1.501441
1.361966
1.483560
1.512766
1.595616
1.594424
1.773834
1.647472
2.071857
1.937747
2.096891
2.201796
2.994537
7.767677
39.209723
90.406537
153.619647
379.472971
593.547821
903.659463
1015.833020
1015.833020
1015.833020
1015.833020
883.230567
601.880550
400.874615
201.333761
105.256438
39.612651
24.550557
30.445457
42.752624
62.275529
81.668496
106.687546
119.964480
129.542947
131.315589
116.383433
102.175474
76.886415
58.698654
38.282871
27.887821
17.678738
13.312697
10.927916
10.043979
9.886622
10.175705
10.767579
11.103749
12.001991
11.832714
12.578964
12.890697
13.966560
14.688969
14.757514
15.628934
16.022921
15.730858
16.065836
16.492605
16.181469
16.311407
16.229749
16.397834
16.255975
16.415715
16.983747
16.813874
16.415715
17.143488
17.145872
16.786456
16.288757
16.660690
16.369820
16.579628
16.559958
##ZVALUE=295
1.171827
1.192689
1.284480
1.009703
1.165867
1.028776
1.195669
1.259446
1.273751
1.333952
1.246929
1.325607
1.320839
1.313686
1.398921
1.132488
1.428723
1.302958
1.545548
1.496673
1.445413
1.750588
1.642704
1.690984
1.818538
1.826882
2.086759
2.184510
2.432466
4.084706
19.094944
52.282810
149.936676
283.798575
539.439917
763.666630
1015.788913
1015.788913
1015.788913
1015.788913
992.071629
792.384744
502.741933
315.685868
146.052837
71.225762
27.250648
19.633770
26.824474
38.878918
60.731769
77.405572
99.566579
114.377737
124.425888
125.427842
110.931993
97.754598
76.378584
59.175491
40.000677
28.516650
19.453764
14.490485
11.876822
11.845827
11.984706
12.548566
12.434721
12.990832
13.795495
14.206767
15.407801
15.801787
15.694499
16.332865
16.213655
16.865730
16.540885
17.032623
16.708970
16.974807
16.536713
16.860962
17.002821
16.740561
16.534925
17.036796
17.416477
16.997457
17.047524
16.926527
17.016530
16.346574
16.269684
16.536713
##ZVALUE=300
1.139641
1.181960
0.995994
1.261830
1.224875
1.137853
1.178980
1.167655
1.279712
1.290441
1.317859
1.266599
1.219511
1.213551
1.510978
1.155734
1.157522
1.308918
1.251698
1.410842
1.432896
1.434684
1.644492
1.571774
1.699924
1.651645
1.742840
1.862645
1.944900
2.096891
2.316833
2.563596
9.744763
34.824610
110.615492
214.167833
435.810685
655.623674
967.893004
1015.788913
1015.788913
1015.788913
1015.788913
958.592892
643.590689
428.707004
222.581625
122.606754
45.851469
22.268891
17.845631
23.728609
37.293434
51.738620
73.460937
91.014504
110.241771
117.329955
116.823912
110.983849
94.726682
78.207850
57.569742
44.181943
28.693676
21.448731
16.041994
14.229417
13.220906
13.317466
14.241934
14.462471
14.864802
15.331507
15.324950
16.218424
16.215444
16.554594
16.838908
17.096996
16.925931
16.928911
17.675757
18.215775
17.788410
17.097592
17.554760
17.522573
17.616749
17.203689
16.885996
16.896725
16.545653
16.736984
16.667843
16.551614
##ZVALUE=305
0.938773
0.951886
0.964999
1.001954
0.958443
0.936985
0.955462
0.897646
0.946522
1.016855
0.984669
1.056790
0.847578
1.083612
1.138449
1.062751
1.007915
1.139641
1.130700
1.160502
1.077652
1.180768
1.323819
1.315475
1.406670
1.460910
1.407862
1.364946
1.575947
1.595616
2.041459
1.811981
1.919866
2.214909
3.816485
22.381544
63.247681
175.488591
323.888063
606.590509
842.119455
1015.623808
1015.623808
1015.623808
1015.623808
991.099477
775.699615
482.919812
296.430588
128.905773
61.296821
22.005439
13.864636
16.087890
22.478700
36.746860
51.170588
70.111752
86.427927
104.479790
111.268759
111.809969
105.583668
90.398788
75.535774
54.891706
41.805506
29.430985
22.161603
16.623735
15.728474
14.981627
15.163422
16.234517
15.674829
16.514659
16.810894
16.791821
17.221570
17.611980
17.357469
17.578602
17.778873
17.841458
18.103719
17.964840
18.025637
18.320680
18.020868
17.548800
17.157793
17.850995
17.571449
16.992688
16.918778
16.833544
##ZVALUE=310
1.020432
1.094937
1.085997
1.009703
1.132488
1.056790
1.087785
1.167655
1.162887
1.237988
1.183748
1.029968
1.171827
1.201630
1.210570
0.998974
1.168847
1.239777
1.272559
1.189709
1.276731
1.293421
1.351833
1.299977
1.462698
1.374483
1.514554
1.442432
1.412630
1.573563
1.594424
1.588464
1.822710
1.769662
2.015829
2.291799
2.644658
9.839535
33.092499
106.541514
210.205913
443.043709
674.197674
991.237760
1015.788913
1015.788913
1015.788913
1015.788913
1005.754471
700.737834
470.124483
231.475830
119.062662
39.685965
16.816854
12.425780
15.275478
21.711588
30.847788
47.479868
62.417984
82.904696
94.981790
105.537772
107.382536
100.888610
91.170669
73.811412
58.468580
41.701794
31.818748
23.723841
19.823909
17.508864
16.851425
16.768575
16.468763
17.632842
17.323494
17.802715
17.779469
17.817616
18.676519
18.341541
18.388629
18.295646
18.234849
18.363595
18.288493
18.758774
18.214583
17.891526
17.508864
17.768741
17.773509
17.290711
##ZVALUE=315
0.891685
0.906587
0.835657
0.854731
0.906587
0.932813
0.860691
0.915527
1.157522
1.093745
1.060963
1.050830
0.988841
0.958443
1.078844
1.144409
1.061559
0.957847
1.003742
1.089573
1.137853
1.112819
0.935793
1.166463
1.287460
1.259446
1.199841
1.242757
1.241565
1.406670
1.518726
1.515746
1.524687
1.600981
1.768470
1.876950
1.772642
1.938939
2.473593
5.067587
18.769503
76.409578
165.126920
372.529626
603.474975
952.848792
1015.664935
1015.664935
1015.664935
1015.664935
1015.664935
811.700821
571.509600
306.044817
167.699456
58.920979
23.892522
11.877418
11.663437
14.849901
19.280910
30.544996
41.908622
59.631467
74.449778
91.346502
100.487471
102.502704
98.347664
84.798932
72.898865
55.504441
44.239759
31.064749
24.187565
20.035505
18.351674
17.388463
16.984940
17.516613
18.227696
17.615557
18.436909
18.289685
18.572807
18.752813
19.068718
18.692613
18.620491
18.733740
18.844604
18.619895
18.460751
18.421412
17.564893
17.391443
##ZVALUE=320
1.033545
0.998974
1.176596
0.989437
0.977516
1.156926
1.037717
1.108646
1.100898
1.062751
1.046658
1.156926
1.173615
1.214743
1.070499
1.162887
1.041889
1.263618
1.095533
1.232624
1.186728
1.195669
1.149774
1.225471
1.224875
1.397729
1.312494
1.357794
1.316667
1.309514
1.520514
1.354814
1.704693
1.471639
1.780987
1.661777
1.678467
2.071857
2.123713
2.336502
2.375841
3.177524
8.682609
43.447614
108.017921
276.605487
459.632874
755.030513
990.164876
1015.788913
1015.788913
1015.788913
1015.788913
971.944928
709.764957
393.297672
226.160884
98.655820
43.259859
14.983416
10.243654
11.551976
13.841987
19.108653
26.782751
40.708780
53.950548
70.561767
83.634853
95.235705
96.769929
93.620420
85.397959
69.511533
56.478977
41.439533
32.450557
25.294423
21.669865
19.086599
18.437505
18.243790
18.196702
18.718839
18.702745
18.707514
18.996000
19.042492
19.197464
18.566847
18.377900
18.888712
19.130707
18.099546
18.146634
17.990470
##ZVALUE=325
1.042485
1.084805
1.024604
1.019835
0.922680
0.998974
0.969768
0.825524
0.976920
1.011491
1.052618
1.065731
1.127720
1.095533
1.041889
1.136661
1.035929
1.031756
1.158714
1.228452
1.203418
1.181960
1.207590
1.229644
1.206994
1.156926
1.236796
1.161695
1.330972
1.324415
1.208782
1.311898
1.262426
1.425743
1.563430
1.511574
1.602769
1.629591
1.764894
1.867414
1.920462
2.099872
2.018809
2.499819
5.127788
30.889511
75.365901
188.782811
340.904593
639.885664
894.533992
1015.785933
1015.785933
1015.785933
1015.785933
994.522572
773.457885
474.179983
285.494924
124.480724
59.899688
20.006895
11.421442
10.277629
11.211634
13.965964
18.368959
27.993917
37.727952
55.561662
68.447590
83.194971
90.263486
94.012618
88.757873
77.751875
66.835880
51.908493
41.796565
30.505657
24.656653
20.932555
19.814968
19.070506
18.692613
18.749833
18.836856
18.588901
19.140840
18.615723
18.628836
18.097758
18.098950
17.961860
18.198490
17.903447
##ZVALUE=330
0.921488
0.858903
1.025796
1.005530
0.941753
0.878572
0.907779
0.915527
1.097918
1.070499
0.798702
0.906587
0.989437
1.073480
0.978708
0.982881
0.932813
1.073480
1.137853
0.944734
1.087785
1.124740
1.043677
1.198649
1.168847
1.240969
1.187921
1.179576
1.142621
1.249909
1.417994
1.265407
1.147985
1.387596
1.390576
1.403689
1.455545
1.401901
1.580715
1.587868
1.677871
1.612902
1.723766
1.977682
2.167821
2.468824
3.098845
14.555454
42.963624
128.839612
240.779519
484.082699
726.714730
1015.788913
1015.788913
1015.788913
1015.788913
1015.788913
928.254724
592.900515
376.334786
173.004866
89.129806
33.903718
15.094876
9.935498
10.259748
11.648536
14.020801
19.356608
26.406646
38.028955
50.111413
67.367554
77.665448
86.523890
87.130666
83.158612
75.874925
61.409473
51.184893
39.246678
31.826496
25.544763
22.144914
19.769669
18.987656
18.920898
18.418431
18.441677
18.053651
17.919540
18.298626
17.938614
17.480850
17.846823
##ZVALUE=335
1.164675
1.118779
1.186728
1.258850
1.257658
1.295805
1.200438
1.125932
1.249909
1.223683
1.067519
1.338720
1.202822
1.354814
1.282692
1.222491
1.296997
1.192689
1.185536
1.245737
1.235604
1.239777
1.244545
1.281500
1.429915
1.308918
1.244545
1.397729
1.349449
1.318455
1.292825
1.364946
1.385808
1.379848
1.563430
1.495481
1.496673
1.597404
1.700521
1.658797
1.716614
1.785755
1.735687
1.881719
1.962781
1.942515
2.118945
2.451539
2.604723
7.136464
23.016930
83.826780
169.205666
364.413857
580.821037
913.015604
1016.005874
1016.005874
1016.005874
1016.005874
1008.345485
698.933601
466.920733
246.185660
128.996968
44.061542
19.312501
11.006594
10.622740
11.370778
12.456775
14.716983
19.077659
27.759671
36.561489
50.018430
61.920881
73.612928
80.771446
82.848668
79.130530
69.346428
61.122775
49.918890
41.522980
31.949878
26.609898
21.751523
20.029545
19.005537
17.985702
17.582774
17.883778
17.535686
17.400980
17.356873
##ZVALUE=340
0.847578
0.905991
0.816584
0.962615
0.910759
0.839829
0.909567
0.916719
0.900626
1.008511
1.021624
0.924468
0.986457
1.025796
0.895858
0.958443
1.014471
1.114607
0.970960
1.068711
1.045465
1.002550
1.122952
0.994802
1.254678
0.999570
0.704527
0.831485
1.135468
1.106858
1.189709
1.179576
1.051426
1.119971
1.189709
1.208782
1.122952
1.219511
1.443624
1.254678
1.460910
1.409650
1.619458
1.496673
1.603961
1.541972
1.742840
1.831651
1.730919
1.983643
2.168417
3.275871
15.933514
46.914816
140.018463
267.430544
538.341999
758.006573
1015.788913
1015.788913
1015.788913
1015.788913
1015.788913
861.821771
534.462929
331.116915
153.894424
73.377490
22.468567
12.226701
10.805726
10.909438
11.340976
12.277961
15.181899
18.789768
26.445985
34.386516
48.348904
59.020519
70.479512
75.938702
77.993870
74.961782
67.875981
59.697628
47.514439
38.964748
30.297637
25.630593
20.759702
18.527508
17.635822
17.006993
16.753674
16.784668
##ZVALUE=345
1.027584
0.937581
0.932813
0.923872
1.043677
0.906587
1.022816
1.036525
0.971556
1.070499
0.989437
0.954866
0.833869
0.979900
0.971556
0.995994
1.010895
0.822544
1.061559
0.981688
0.871420
1.028776
1.041889
1.070499
1.050830
1.070499
1.159906
1.035929
1.059771
1.071692
1.141429
1.042485
1.058578
1.047850
1.193881
1.333952
1.144409
1.192689
1.484752
1.154542
1.410842
1.424551
1.241565
1.429915
1.300573
1.466870
1.542568
1.564622
1.716614
1.781583
1.917481
1.804829
2.130866
2.664924
6.257892
37.000775
95.069408
233.058929
408.259034
710.080862
943.082571
1015.788913
1015.788913
1015.788913
1015.788913
960.737467
706.771016
396.881700
223.265886
92.443824
40.433407
15.169978
11.341572
10.952950
10.944605
11.827946
12.054443
14.600754
17.806888
25.438666
32.901764
44.615865
53.637624
63.929558
69.465637
72.322488
70.266724
64.177513
57.167411
46.377778
38.793683
29.360652
24.433732
20.613670
18.606782
16.796589
##ZVALUE=350
0.753999
0.800490
0.644922
0.604987
0.695586
0.840425
0.686646
0.877976
0.711679
0.720620
0.702739
0.807643
0.821948
0.768900
0.912547
0.748634
0.782609
0.681877
0.857711
0.874996
0.672936
0.686646
0.764728
0.828505
0.852942
0.726581
0.752807
0.865459
0.837445
0.874996
0.934601
0.918508
0.938773
0.869632
0.944734
0.981688
1.076460
1.049638
1.030564
1.056790
1.035929
0.947714
1.128912
1.117587
0.933409
1.095533
1.353621
1.274943
1.262426
1.260638
1.475811
1.483560
1.634955
1.624823
1.907945
2.144575
3.539920
18.384457
55.573583
157.467723
292.700529
582.242608
857.464671
1015.577912
1015.577912
1015.577912
1015.577912
1015.577912
807.641745
460.294485
274.774432
120.724440
56.462884
18.549562
11.528730
10.041595
10.372996
10.797977
10.665655
11.814833
14.095902
18.324852
22.581816
30.211806
38.167834
48.354864
56.869984
63.870549
66.837668
64.893961
60.910583
52.272677
44.766665
35.695434
29.437542
23.558736
##ZVALUE=355
0.906587
0.925660
0.985861
0.956655
0.864863
0.903606
0.987649
1.085997
1.003742
0.965595
0.843406
0.912547
1.014471
0.965595
1.051426
1.030564
0.904799
0.989437
0.937581
0.980496
0.881553
0.884533
1.028776
1.005530
1.059771
1.189709
1.045465
1.148582
1.133680
1.016855
1.155734
1.036525
1.064539
0.993609
1.060963
1.084805
1.269579
1.258850
1.363754
1.301765
1.415610
1.244545
1.379848
1.342893
1.405478
1.261830
1.315475
1.487732
1.512766
1.419783
1.554489
1.564622
1.786947
1.717806
1.779795
1.957417
2.176762
2.254844
2.690554
8.834600
31.677485
112.255812
218.461752
433.338881
660.777688
983.240008
1015.788913
1015.788913
1015.788913
1015.788913
892.603993
575.740933
357.871056
154.721737
72.179437
23.966432
12.112856
9.784698
9.653568
10.113716
10.051727
11.033416
11.152625
13.085604
16.152859
20.945668
26.264787
34.254789
42.264462
51.324964
56.462884
60.360432
59.042573
55.636764
50.167441
42.012930
##ZVALUE=360
1.100898
1.026988
0.935793
0.904799
1.140833
0.979900
0.943542
0.972748
0.965595
1.071692
0.920892
0.951886
0.982881
1.177788
1.094937
0.967979
1.019835
1.122952
0.967979
0.969768
1.084805
1.123548
1.112819
1.159906
1.147985
1.061559
1.095533
1.141429
1.130700
1.226664
1.079440
1.084805
1.229644
1.219511
1.046658
1.164675
1.126528
1.281500
1.257658
1.239777
1.166463
1.198649
1.246929
1.254678
1.343489
1.478791
1.332760
1.450777
1.598597
1.560450
1.452565
1.671910
1.628995
1.678467
1.727939
1.919866
1.919866
2.135634
2.060533
2.398491
2.608895
4.284978
14.605522
64.607859
152.183771
355.740786
559.495687
852.527022
1015.851498
1015.851498
1015.851498
1015.851498
995.687842
678.329468
444.725752
210.151672
106.332898
38.726926
16.850829
9.856820
9.495616
9.426475
9.400845
9.838939
9.844899
10.464787
11.545420
14.043450
16.838908
22.250414
28.050542
37.400723
44.030547
51.184893
54.376721
54.239631
##ZVALUE=365
0.961423
0.940561
0.827909
0.878572
1.003742
0.892878
0.914931
1.039505
0.990629
1.010895
0.949502
0.934601
1.025796
0.947714
0.888705
0.953674
0.876784
1.085997
0.915527
1.075864
1.181960
0.957847
1.137853
1.150966
1.053810
1.114607
1.166463
0.904799
1.002550
0.898838
1.070499
1.130700
1.031756
1.166463
1.057982
1.282692
1.197457
1.140833
1.172423
1.183748
1.120567
1.272559
1.256466
1.259446
1.283884
1.398921
1.315475
1.267791
1.236796
1.444817
1.307726
1.444817
1.470447
1.584888
1.642704
1.786947
1.626611
1.664758
2.037883
1.995564
2.059937
2.513528
2.730489
3.184676
6.646514
36.592484
95.287561
242.016912
437.986851
776.494741
1006.731987
1015.788913
1015.788913
1015.788913
1015.788913
812.814832
565.283895
302.816629
163.328648
58.977604
23.995638
9.907484
9.033680
8.572936
8.474588
8.801818
8.713603
9.142756
9.141564
10.191798
11.752844
15.071630
18.512607
24.947524
30.404925
38.764477
##ZVALUE=370
0.949502
0.968575
0.955462
1.072884
0.870824
0.733733
0.920892
0.887513
0.958443
0.901818
0.907779
0.848770
0.924468
0.970960
1.025796
0.894666
1.005530
0.998974
1.015663
0.977516
1.014471
1.036525
1.065731
0.886917
0.928640
1.088977
0.948906
0.973940
1.199841
1.026988
1.037717
1.115799
1.049638
1.079440
1.190901
1.089573
1.043677
1.245737
1.158714
1.197457
1.110435
1.195669
1.091957
1.202822
1.084805
1.213551
1.124740
1.167655
1.151562
1.253486
1.452565
1.319647
1.392961
1.320839
1.474619
1.474619
1.314878
1.605749
1.535416
1.706481
1.693964
1.842976
2.051592
2.213717
2.320409
2.573729
3.747940
17.580986
56.058764
176.388621
335.128903
643.734932
926.268697
1015.788913
1015.788913
1015.788913
1015.788913
983.958840
729.332566
396.217704
217.189789
81.144571
35.295486
13.435483
8.477569
8.059740
7.958412
7.941723
7.962584
8.042455
8.336902
8.477569
9.253621
11.084676
12.917519
17.009974
##ZVALUE=375
0.791550
0.944734
0.824928
0.829697
1.043677
0.966787
0.930429
0.901818
0.755787
0.906587
0.871420
1.034737
0.920892
0.827909
0.975728
0.951886
0.937581
0.900626
0.833869
0.968575
0.843406
0.915527
0.968575
1.054406
1.056790
1.030564
1.029968
1.000762
0.980496
0.933409
0.920892
0.983477
1.024604
1.251698
1.049638
1.045465
1.062751
1.064539
0.907779
0.926852
1.104474
0.977516
1.056790
1.099706
1.109838
0.995994
1.163483
1.223683
1.301765
1.030564
1.236796
1.219511
1.176000
1.110435
1.214743
1.193881
1.249909
1.368523
1.338720
1.530647
1.431704
1.571774
1.758933
1.624823
1.742840
1.826882
2.030730
2.182722
2.803802
8.379817
29.268861
100.401640
207.669735
447.651744
679.876804
998.912454
1015.788913
1015.788913
1015.788913
1015.788913
891.662836
543.536544
330.262780
144.081712
68.932772
20.695925
10.005832
7.680655
7.339716
7.317662
7.395744
7.375479
7.443428
7.712841
8.032918
8.443594
##ZVALUE=380
0.977516
0.901818
0.845790
0.801682
0.732541
0.769496
0.805855
0.840425
0.949502
0.831485
0.901818
0.892878
0.902414
0.962615
0.911951
1.030564
1.001954
0.983477
0.847578
0.905991
0.921488
0.834465
1.086593
0.854731
1.023412
0.813603
0.781417
0.886917
0.974536
1.025796
0.984669
0.916719
0.870824
0.898838
1.008511
0.979900
1.015663
1.074672
0.995994
1.122952
0.965595
0.916719
1.069903
1.048446
1.027584
1.070499
1.090765
1.012683
1.219511
1.270771
0.947714
1.191497
1.187921
1.289845
1.125932
1.165867
1.149774
1.176000
1.240969
1.325607
1.420975
1.301765
1.222491
1.361966
1.558661
1.581907
1.865625
1.905560
2.003908
2.378821
2.584457
4.773736
16.707778
77.330470
176.544785
398.997664
621.994734
946.202874
1015.788913
1015.788913
1015.788913
1015.788913
1014.719009
715.955496
479.885936
230.068564
114.648938
36.441684
14.473796
7.555485
7.079840
6.828904
6.900430
7.063746
6.952882
7.018447
##ZVALUE=385
0.747442
0.804663
0.989437
0.626445
0.744462
0.927448
0.831485
0.879765
0.793934
0.862479
0.843406
0.809431
0.820756
0.731945
0.877976
0.809431
0.880957
0.953674
0.826716
0.957847
0.879765
0.857711
0.860691
0.786781
0.932813
0.881553
0.868440
0.935793
0.909567
0.898838
0.894666
0.892878
0.942945
1.047850
0.975728
0.924468
1.054406
0.954866
1.002550
0.913739
1.001954
0.954866
1.073480
0.962615
1.023412
1.034737
1.035929
0.947714
1.043677
0.992417
1.069903
1.054406
1.152754
1.243949
1.153946
1.258850
1.058578
1.129508
1.191497
1.295805
1.162887
1.350641
1.189709
1.331568
1.375675
1.311898
1.526475
1.719594
1.912713
2.011657
2.153516
2.431870
2.593994
2.824664
8.015633
42.290688
107.544661
266.731977
473.890901
825.763941
1015.780568
1015.780568
1015.780568
1015.780568
1015.780568
911.051631
662.016869
369.602442
208.251476
82.477927
30.690432
8.867979
6.527901
6.313920
6.157756
6.424785
##ZVALUE=390
0.904799
0.788569
0.877976
0.933409
0.888705
0.777841
0.976920
0.911951
0.919700
0.800490
0.912547
0.699759
0.735521
0.712872
0.830889
0.742674
0.885725
0.906587
0.726581
0.859499
0.887513
0.938773
0.947714
0.953674
0.792742
0.952482
0.911951
0.815988
0.826716
0.844598
0.834465
0.928640
0.858903
0.935793
0.905991
0.835657
0.977516
0.868440
0.941753
0.994802
1.047850
0.956655
1.110435
0.929832
1.036525
0.985861
1.003742
0.952482
0.978708
0.973940
1.017451
1.096725
1.139641
0.976920
1.103878
0.999570
1.061559
1.117587
1.251698
1.176000
1.314878
1.235604
1.254678
1.348853
1.399517
1.342893
1.552701
1.494884
1.741648
1.806617
1.901984
1.973510
2.052784
2.306700
2.252460
2.556443
4.225969
22.515655
68.495870
212.063789
400.522947
743.589997
988.091826
1015.782952
1015.782952
1015.782952
1015.782952
1015.782952
825.693011
509.562492
298.112631
120.208859
51.223636
12.816787
6.964803
6.054640
##ZVALUE=395
0.871420
0.789762
0.793934
0.837445
0.875592
0.835657
0.719428
0.888705
0.953674
0.821948
0.688434
0.917912
0.781417
0.807643
0.855923
0.874996
0.845790
0.838637
0.826716
0.833869
0.841618
0.858903
0.825524
0.924468
0.969768
0.817776
0.853539
0.875592
0.872612
0.942945
0.825524
0.979900
0.954866
1.086593
0.989437
0.845790
0.992417
1.052618
0.883937
1.088977
1.070499
1.125932
1.155734
1.135468
0.919700
0.982881
0.970960
0.942945
0.933409
1.038909
0.937581
1.129508
1.126528
1.160502
1.167655
1.152754
1.050830
1.154542
1.131892
1.225471
1.308918
1.114607
1.212955
1.082420
1.385808
1.326799
1.448989
1.531839
1.620650
1.656413
1.758933
1.764894
1.792908
1.897812
1.950860
1.922846
2.053976
2.257824
2.734661
12.961626
43.856502
150.724649
290.460587
554.739833
811.088681
1015.788913
1015.788913
1015.788913
1015.788913
1015.788913
961.439610
598.711967
379.212499
167.597532
78.145862
23.483634
##ZVALUE=400
0.879765
0.808835
0.851750
0.874996
0.920892
0.754595
0.931621
0.840425
0.797510
0.831485
0.803471
0.757575
0.825524
0.830889
0.673532
0.770688
0.759959
0.824928
0.846982
0.945926
0.873804
0.794530
0.847578
0.959635
0.938773
0.952482
0.970960
0.836849
0.870824
1.033545
0.896454
0.863671
0.931621
0.975728
0.985861
0.813603
0.934601
0.862479
0.870824
1.006722
0.890493
0.824928
0.872612
0.788569
0.942945
1.061559
1.013875
0.965595
1.061559
1.005530
1.015663
1.087785
0.955462
0.913739
1.134872
1.077652
1.106858
1.379848
1.147985
1.115799
1.143813
1.206994
1.207590
1.198649
1.209974
1.413822
1.282692
1.387596
1.506805
1.606941
1.664758
1.751781
1.820922
1.778603
1.716614
1.857877
1.750588
1.789927
1.751781
2.125502
2.370477
6.700754
22.571683
77.455640
168.642998
376.115441
598.271489
930.001736
1015.788913
1015.788913
1015.788913
1015.788913
977.512598
658.178926
438.284874
223.884583
##END
