##TITLE=QP00602
##FORMAT=SPECTACLE-ASCII V-1.2
##DATA TYPE=ULTRAVIOLET SPECTRUM
##SECOND TYPE=ULTRAVIOLET SPECTRUM
##DATE=11/28/17
##TIME=14:09:45
##SPECTROMETER/DATA SYSTEM=SPECTACLE
##XUNITS=NM EM
##YUNITS=ENERGY
##YFACTOR=1
##FIRSTX=220
##LASTX=410
##NPOINTS=96
##3DDATA=Equidistant
##ZUNITS=NM EX
##FIRSTZ=210
##LASTZ=400
##ZPOINTS=39
##XYDATA=(Y..Y)
##ZVALUE=210
3.713965
4.051924
3.349781
4.092455
4.223585
4.905462
4.944801
3.926754
3.775954
4.076958
3.493428
3.839731
2.790689
3.169775
3.375411
3.177524
3.203750
3.344417
4.250407
3.808737
4.320741
3.811717
3.918409
3.820658
3.970861
4.212856
4.286766
4.548430
4.775524
4.476905
4.587770
4.372597
4.987717
5.257726
5.245805
5.386472
5.575418
5.436540
6.055832
6.614923
6.058812
6.889701
6.255507
6.177425
6.358624
6.012917
5.694628
7.086992
7.076859
7.851720
7.023811
7.006526
7.003546
7.612705
7.930994
7.947683
8.754730
7.876754
8.056760
7.236600
7.888675
8.775592
8.324981
8.504987
9.051561
8.362532
8.676648
10.149479
12.730956
14.778972
16.615987
18.920898
20.128489
22.330880
23.863912
24.768710
25.891662
25.486946
25.365949
21.379590
21.835566
18.142462
16.782880
14.738441
12.224913
11.686683
11.118650
9.739995
8.745790
8.577704
9.101629
8.334517
8.963943
9.171963
9.834766
10.672808
##ZVALUE=215
9.099841
9.877682
8.989573
8.845925
8.299947
7.599592
7.780790
6.817579
7.699728
7.374883
6.729960
6.334782
5.712509
4.487634
3.602505
3.778934
3.430843
4.495978
3.327727
4.077554
4.368424
3.907681
4.717708
5.337596
4.453659
4.227757
4.880428
5.375743
4.798770
4.961491
5.397797
5.186796
6.299615
6.258488
6.094575
5.993843
6.140471
6.704926
6.469488
6.212592
7.127523
7.625818
6.803870
6.809831
7.021427
7.298589
6.429553
7.410645
8.114576
7.633567
7.800460
8.790493
8.056760
8.191466
7.875562
7.682443
8.590817
8.560419
8.311868
9.270906
7.993579
9.057522
9.667873
9.485483
8.997917
9.922981
11.051893
10.598898
13.099909
14.817715
16.317964
19.615889
22.056699
23.080707
24.539828
26.686788
26.713610
25.798678
24.944544
22.638440
21.284819
19.347668
19.499660
15.990734
14.819503
12.994409
12.564659
9.819865
10.337830
10.203719
10.154843
9.490848
9.426475
9.924769
8.704662
10.009408
##ZVALUE=220
25.505424
25.957823
27.899742
28.111935
26.263595
23.416877
19.707680
16.967654
13.804436
13.530850
15.278459
14.769435
15.061498
12.770891
11.423826
9.681582
7.140636
5.970597
5.029440
4.008412
4.812479
5.030632
4.636645
4.714727
4.733801
4.502535
5.364418
4.726648
5.469918
5.609989
6.074905
6.577969
5.713701
5.803704
7.090569
6.975532
7.960796
6.672740
7.462502
8.103848
6.854534
7.019639
7.039905
7.755756
7.961988
7.394552
8.257627
7.739663
8.137822
9.180903
9.438992
9.028912
10.568500
9.648800
11.050701
10.074973
9.302497
11.042953
10.245442
10.526776
10.978580
10.996461
10.791421
11.489987
10.596514
11.483431
12.729764
13.984442
13.783574
17.304420
18.943548
22.508502
26.549697
27.164817
32.667518
31.323433
31.910539
32.494664
29.715896
28.376579
26.706457
23.105741
23.659468
21.759868
18.265843
17.077923
15.118718
14.029741
13.426542
12.217760
13.039708
12.120605
11.768937
11.559725
12.319684
12.375712
##ZVALUE=225
38.743615
42.170882
55.727959
69.863796
79.025626
82.466602
73.313713
61.602592
46.536922
36.678910
28.780699
26.044846
27.866960
29.031634
27.856827
25.829673
23.103952
19.331574
13.790727
10.974407
7.542968
5.726814
5.177855
5.438924
4.913807
6.002784
5.956888
5.294681
5.719662
5.928874
5.879998
5.913973
6.739497
6.800890
7.416606
7.335544
6.880760
8.198619
8.457899
8.071661
8.423924
8.926988
9.002686
9.300709
9.329915
10.292530
9.220839
10.619760
9.600520
10.289550
10.617971
12.097955
11.621714
11.865497
12.355447
11.281967
12.721419
13.725758
12.364984
13.467669
14.454722
12.667775
14.812946
13.896823
14.115572
14.474988
15.056729
17.471910
19.052625
21.006465
23.144484
25.342703
28.046966
30.420423
35.124421
35.789609
34.039617
32.617450
32.034516
30.940771
27.302504
25.123954
23.987889
25.054812
21.761656
19.388795
18.139482
17.337799
17.210841
16.478896
16.133785
15.594959
16.442537
15.491843
17.210841
15.760660
##ZVALUE=230
30.488968
34.470558
57.961941
99.276900
132.851601
169.253945
186.293721
191.793442
175.544620
144.899487
101.096630
75.215697
49.379468
44.833422
44.893622
49.475431
51.562786
47.819614
46.895742
36.242604
27.930737
19.788742
13.763905
8.438826
6.768703
5.906820
6.513000
6.155968
6.525517
6.203651
6.586909
7.017851
6.731749
7.774830
7.421970
8.531809
8.642673
8.125901
9.105802
8.185506
9.444952
10.034442
9.312630
9.746552
10.126829
10.470748
9.097457
9.820461
8.816719
9.688735
10.957718
10.534525
11.453629
11.567473
12.673736
13.273954
12.642741
12.776852
13.440847
13.616681
14.512539
15.000701
14.447570
14.744997
16.572475
15.720725
15.057921
15.547872
19.888878
20.572543
22.054911
24.187565
27.560592
28.216839
30.762553
33.631921
33.568740
31.295419
31.174421
27.038455
28.849840
27.604699
26.566982
24.555922
22.110939
20.536780
20.320415
20.389557
20.474792
19.264817
19.839406
18.993616
20.997524
18.060803
18.958449
18.667579
##ZVALUE=235
9.402633
12.025833
24.594665
59.788823
100.121498
171.649456
229.205489
305.879712
345.975757
341.096520
316.939950
251.194835
190.739632
129.444599
95.667839
73.097944
70.319772
72.569847
77.145696
81.529617
74.137449
67.710876
50.271749
35.520792
23.643970
15.772581
11.854768
8.648634
7.626414
7.877946
7.438660
7.520914
6.410480
9.080768
7.431507
7.860661
8.228421
8.304715
9.386539
8.697510
8.957982
9.283423
11.075735
10.878444
9.016991
10.076761
9.956956
10.584593
9.843707
10.872483
10.917783
10.754466
11.722445
12.097955
11.527538
12.564659
14.185905
13.698936
15.134811
14.186502
14.545918
15.832782
15.610456
16.130805
16.741753
20.142794
21.044612
21.670461
21.609664
25.319457
23.962855
31.508803
31.024814
33.681989
40.169954
37.597418
39.327741
40.152669
36.829710
38.366914
34.977794
32.683611
33.601522
30.323863
29.847622
28.647780
28.698444
29.216409
27.927756
28.512478
27.428865
26.937723
26.164651
27.443767
26.080608
24.762750
##ZVALUE=240
2.915859
2.473593
5.327463
13.563633
38.403869
75.535774
154.802799
237.200856
372.240543
461.663008
528.417826
534.604788
506.169796
404.680967
320.930481
211.423635
152.276754
108.787417
94.173551
92.156529
102.669001
108.350515
105.250478
97.865462
81.568956
63.554645
43.299794
31.961799
19.243956
14.627576
10.492802
7.686615
8.415580
8.743405
8.735657
8.673668
8.778572
9.099841
8.989573
8.323789
8.351803
9.370446
9.318590
9.362698
10.332465
9.952784
9.475946
9.892583
10.558963
10.771751
10.587573
11.507869
12.285709
12.093782
12.276769
11.588931
12.124777
13.624430
14.411807
15.353560
14.777780
16.417503
15.757680
16.119480
16.905665
18.126965
18.725991
20.026565
22.135973
24.307966
26.038885
29.595494
31.716824
35.189986
34.965873
34.160614
35.163760
35.480857
37.987828
35.765767
34.201741
35.011768
31.572580
29.893517
30.880570
30.040741
27.964711
27.316809
28.838515
29.579997
30.129552
29.358864
30.231476
30.486584
29.459000
30.287504
##ZVALUE=245
2.375841
2.163649
2.207756
2.729893
4.356503
10.361671
31.245947
71.251988
161.358714
252.136588
415.052772
530.307889
607.714653
660.643578
629.532933
530.756712
422.073603
283.195972
194.040537
121.910572
92.097521
92.657804
103.649497
115.786791
123.216510
116.500854
105.239749
89.875460
64.857602
49.960613
30.630827
22.752881
15.488863
9.821653
7.753968
8.399487
8.125901
7.654428
8.230805
7.851720
8.038878
7.552505
7.904768
7.604957
8.992553
8.249879
7.607937
7.888675
8.141994
7.522702
9.516478
8.834600
9.178519
9.308457
10.450482
10.350943
10.159612
10.864735
11.810660
11.652708
12.090802
13.002753
13.123751
14.229417
14.468431
16.057491
15.261769
15.868545
18.448830
19.990802
22.469759
24.371743
25.443435
28.482676
30.805469
30.961633
31.256676
30.335784
30.578971
32.418966
30.239820
29.792786
29.824972
29.609799
29.350519
29.788613
26.200414
30.090809
27.296543
27.865767
29.971600
28.554797
28.210878
28.649569
28.510690
29.637814
##ZVALUE=250
1.951456
2.265573
2.138615
2.206564
2.175570
2.096891
2.869964
7.864833
21.575689
47.972798
134.694576
237.915516
403.392911
529.703498
680.364966
749.696493
755.831599
692.742467
607.372522
419.634581
283.314586
161.353946
108.566880
88.791847
92.424750
111.865997
121.224523
127.918720
127.363801
114.535689
98.399520
70.470572
56.743622
32.583475
22.547841
13.999939
9.640455
7.311702
7.139444
7.008910
7.472634
7.122755
7.049441
7.654428
6.976724
7.501841
7.266998
8.130670
8.693933
8.103848
8.191466
8.058548
9.116530
8.598566
8.544922
8.716583
8.791685
9.199977
10.071993
10.220408
10.111928
11.052489
11.117458
12.482405
11.861920
13.062954
14.410615
15.805960
17.109513
17.625690
20.325780
21.351576
23.441911
25.299788
27.201772
28.013587
28.088689
27.735829
28.072596
26.654601
26.590824
26.976466
26.590824
26.830435
26.515722
26.154518
26.252866
24.691820
27.057528
25.990605
25.117993
27.773976
26.908517
25.996566
27.054548
27.306676
##ZVALUE=255
2.096891
1.664758
1.791716
1.847744
2.085567
2.322793
2.196431
2.211928
2.635717
4.216433
18.355846
47.244430
98.374486
218.683481
349.307656
551.997423
706.995726
843.728781
897.485614
847.744942
735.675693
588.546991
365.460515
232.992768
121.148825
85.941553
81.100464
93.163848
115.384459
123.659968
133.699775
132.243633
120.601654
97.398758
78.863502
51.034689
36.270618
21.468997
14.221668
9.125471
7.400513
7.047653
6.778836
7.285476
6.721616
7.181764
7.673502
7.900000
7.893443
7.859468
7.712841
7.632971
8.240938
8.788705
8.833408
8.595586
8.559823
9.092689
8.675456
9.091496
10.249615
10.433793
10.607839
10.582805
11.741519
11.281967
12.816787
13.338923
14.953613
15.950799
17.012954
17.710924
20.348430
21.555424
23.358464
23.869872
25.006533
24.484992
24.461746
22.966862
23.963451
23.763776
23.736954
24.153590
24.402738
24.259686
24.096966
24.166703
24.823546
24.575591
23.879409
25.063753
24.816990
24.315715
23.905635
25.343895
##ZVALUE=260
1.605749
1.524687
1.753569
1.569986
1.867414
1.496673
2.002716
2.010465
2.042651
2.044439
2.302527
2.766848
10.019541
27.118921
78.674555
154.934525
326.464772
471.977592
626.781583
861.038566
969.800949
991.098881
897.480845
705.274940
520.136952
303.763747
191.695690
104.811788
77.785850
76.799989
90.828538
119.138956
133.522749
139.429569
139.560699
123.981833
105.466843
81.708431
57.012439
36.011934
23.296475
13.863444
9.282827
7.615685
7.664561
6.899834
7.508993
7.028580
7.456541
6.983876
7.426739
8.129478
7.154942
7.811785
7.941723
8.244514
8.003712
8.763671
8.613467
8.605719
9.048581
9.419918
9.674430
9.973645
10.061860
11.136532
11.388659
12.218952
13.285875
13.465881
15.142560
17.330647
18.176436
20.562410
20.283461
21.406412
22.353530
21.412969
21.355748
22.197962
20.738840
21.644831
21.973848
22.575855
21.387935
21.973848
21.958947
22.184849
22.898912
22.483468
22.178888
22.327900
22.640824
22.577643
23.848414
23.213625
##ZVALUE=265
1.543760
1.627803
1.611710
1.789927
1.922846
1.699924
1.635551
1.772642
1.986623
1.999736
1.970530
2.052784
2.468824
2.529621
5.498528
18.426776
65.930486
133.015513
234.006643
458.161831
666.044950
955.281854
1015.788913
1015.788913
1015.788913
949.140787
766.602755
495.642424
327.797532
163.858533
95.076561
65.479875
76.346993
103.363991
119.167566
138.048530
145.678520
138.295889
128.173828
100.681782
80.951452
54.783821
38.504601
22.251606
14.399886
9.802580
8.360744
7.382631
7.645488
7.391572
7.680655
8.091927
8.199811
8.188486
8.593798
8.229613
8.173585
8.420944
8.708835
8.845925
8.980632
9.355545
9.188652
9.873509
10.368824
10.460615
11.304617
12.058616
12.493730
13.989806
14.142990
15.773773
18.015504
19.233823
19.106865
19.110441
20.654798
19.825697
19.817948
19.603968
20.764470
21.363497
20.500422
20.423532
20.324588
20.772815
21.447539
20.768642
20.910501
21.427870
21.081567
21.334887
22.423863
22.014976
21.458864
22.086501
##ZVALUE=270
1.624823
1.617670
1.591444
1.638532
1.654625
1.661777
1.674891
1.752973
1.691580
1.800656
1.785755
1.823902
2.368689
2.121925
2.134442
2.333522
3.392696
10.686517
30.920506
100.196600
207.865834
369.533896
654.041767
902.858973
1015.854478
1015.854478
1015.854478
1015.854478
912.958980
684.148669
466.415882
237.270594
130.471587
62.749982
55.680871
76.448917
98.091960
121.602416
137.736797
145.383477
142.443776
124.767423
108.194947
79.150796
60.711503
35.691857
24.306774
15.681982
11.155605
9.515882
8.543730
8.187890
7.639527
8.035898
8.090734
8.413792
8.824468
8.774996
9.520650
8.945465
9.512901
9.808540
9.651780
10.667443
10.783672
11.377931
11.802912
12.433529
12.768507
13.606548
14.096498
15.186667
15.801787
17.383695
18.170476
19.505620
19.140840
18.971562
19.211769
19.570589
18.996000
19.002557
18.680692
19.204617
19.261837
19.879937
19.152761
19.829869
20.065904
20.056963
19.675493
19.827485
19.605756
20.583868
20.097494
21.032691
##ZVALUE=275
1.426935
1.561642
1.287460
1.461506
1.455545
1.580715
1.485944
1.448989
1.435876
1.464486
1.442432
1.709461
1.518726
1.623631
1.740456
1.821518
1.868606
2.294779
2.664924
4.896522
17.437935
70.306659
152.945518
339.343548
543.967485
837.717652
1008.824706
1015.788913
1015.788913
1015.788913
1013.234854
764.190555
542.739630
298.303962
170.982480
79.947710
50.091743
53.655505
71.909428
100.062490
118.788481
136.897564
142.667890
138.666630
126.796961
102.066994
82.710981
56.171417
41.014552
25.612712
18.219948
11.496544
9.478927
8.486509
8.271933
8.871555
8.849502
9.268522
9.518862
10.075569
10.086894
9.841919
10.230541
11.102557
11.039972
11.540651
11.202693
12.672544
12.844801
14.269948
14.257431
15.426874
16.447902
16.733408
17.508864
18.788576
18.016696
19.223690
19.020438
19.215941
19.049644
19.019842
18.178821
18.444657
18.860698
19.125938
19.262433
19.521713
18.692613
18.648505
19.122958
19.235611
18.906593
18.507838
19.031763
19.295812
##ZVALUE=280
1.313686
1.310706
1.376867
1.417994
1.443624
1.380444
1.502633
1.310706
1.498461
1.503825
1.328588
1.470447
1.380444
1.667738
1.740456
1.632571
1.602769
1.767874
1.832843
2.171993
2.448559
2.797842
14.799833
47.218800
139.101744
260.333419
489.479899
719.879866
1004.655957
1015.788913
1015.788913
1015.788913
1015.788913
957.349539
692.680478
381.577611
219.437480
96.984506
52.103996
39.304495
50.371885
73.605776
93.911886
120.035410
133.285522
142.416954
136.715770
124.162436
106.163621
78.494549
60.222745
37.606955
26.777983
16.730428
12.604594
9.739995
9.494424
9.191632
9.520650
10.203719
10.035634
10.723472
11.279583
10.888577
11.358857
11.283755
12.280941
12.490749
13.277531
14.103651
14.813542
15.395880
16.339421
17.834902
17.342567
17.722845
18.168688
18.521547
17.929673
17.614961
17.706752
18.324852
17.436743
18.105507
18.497705
17.550588
17.896891
17.893910
17.882586
18.346906
18.375516
18.522739
18.149614
18.572807
18.250942
19.004941
##ZVALUE=285
1.500845
1.363754
1.347661
1.212955
1.586676
1.287460
1.212955
1.367927
1.423955
1.445413
1.388788
1.382828
1.368523
1.696944
1.664758
1.619458
1.573563
1.670718
1.669526
1.814961
2.038479
2.035499
2.489686
2.558827
7.661581
25.609732
82.680583
172.251463
366.809964
573.254824
810.343027
1015.788913
1015.788913
1015.788913
1015.788913
1015.788913
907.264948
577.554703
360.850692
167.325735
83.943605
34.941435
33.054948
49.137473
65.765977
94.892979
111.024976
129.907727
135.808587
133.466721
123.080611
102.209449
83.473921
59.467554
42.951703
26.700497
19.356608
13.627410
11.640787
10.474920
10.803938
10.859966
11.079907
11.164546
11.415482
11.870861
12.917519
13.224483
14.113784
13.985634
14.747977
15.845895
16.058683
17.584562
17.292500
17.680526
17.339587
17.867684
17.771721
18.155575
18.080473
18.102527
17.937422
18.410683
17.616749
17.921925
18.199682
18.036962
18.846989
18.413663
18.156767
18.062592
18.618703
18.177629
18.240809
18.294454
##ZVALUE=290
1.265407
1.410842
1.224875
1.352429
1.528859
1.382828
1.451969
1.333952
1.405478
1.255870
1.485944
1.261830
1.339912
1.378655
1.485944
1.581907
1.667738
1.726747
1.555681
1.823902
1.638532
1.847744
2.064705
2.128482
2.281666
2.702475
3.580451
11.940598
61.238408
136.931539
305.577517
512.703657
771.322846
1015.788913
1015.788913
1015.788913
1015.788913
1015.788913
1012.712717
708.394647
479.707718
238.713622
123.835802
45.237541
26.411414
32.518506
44.309497
65.826774
83.542466
107.901692
121.622682
133.384466
131.912827
119.353533
104.194880
78.754425
58.628917
39.646626
28.506517
19.102693
14.928579
12.417436
11.510849
11.535883
12.371540
12.638569
12.878776
12.740493
13.666749
14.416575
15.504956
16.234517
16.780496
16.887784
17.544627
17.791986
17.923713
17.774701
17.793775
18.092990
17.812848
18.104911
18.030405
18.467903
18.410683
18.069744
18.231869
19.169450
18.861890
18.467903
17.821789
17.970800
18.302798
18.028617
17.558932
18.021464
##ZVALUE=295
1.213551
1.315475
1.202822
1.143813
1.360774
1.293421
1.376867
1.452565
1.532435
1.253486
1.494884
1.495481
1.398921
1.236796
1.390576
1.302958
1.194477
1.447797
1.349449
1.685619
1.626611
1.747608
1.821518
1.829863
2.038479
2.197623
2.532601
2.548695
2.945662
5.567670
20.536780
97.978711
228.443742
518.855453
808.537006
1015.788913
1015.788913
1015.788913
1015.788913
1015.788913
1015.788913
843.529701
571.771860
290.773511
155.922771
54.757595
27.825832
21.496415
27.225614
42.620897
59.301853
81.754923
97.791553
117.905736
125.409961
125.250816
116.095543
96.050501
79.033971
55.698752
42.914748
28.084517
20.795465
16.001463
13.855696
13.037920
12.933612
13.741851
14.082789
14.509559
15.427470
16.118884
16.528964
17.420650
17.585754
17.947555
18.283725
17.544627
18.480420
17.571449
17.754436
18.068552
18.162727
18.342733
18.951893
18.443465
18.201470
18.124580
19.018650
18.347502
18.404722
18.507838
17.565489
17.815828
17.859936
18.229485
##ZVALUE=300
1.220703
1.239777
1.176000
1.165867
1.178980
1.156926
1.223683
1.319647
1.224875
1.420975
1.434684
1.291633
1.235604
1.372695
1.154542
1.250505
1.478791
1.285672
1.422763
1.795888
1.585484
1.385808
1.891851
1.910925
1.720786
2.147555
2.029538
2.220869
2.194643
2.574921
2.898574
3.295541
13.499856
49.292445
176.151395
365.515947
767.197013
1015.788913
1015.788913
1015.788913
1015.788913
1015.788913
1015.788913
1015.788913
754.464865
475.834608
227.872729
118.930936
41.927695
21.053553
19.079447
24.867654
38.763881
52.922964
75.968504
94.257593
112.632513
119.368434
119.028687
112.762451
95.462799
79.181790
59.002638
44.022799
30.021667
22.292733
17.501712
15.242696
14.835596
15.084743
15.694499
16.365647
17.453432
17.533898
18.000603
18.332601
17.999411
18.234849
18.434525
18.537641
19.004941
19.050837
19.271970
19.439459
19.423962
19.298792
19.218922
19.190907
18.975735
19.086599
18.755794
18.343925
18.729568
18.136501
18.315911
18.003583
##ZVALUE=305
1.269579
1.272559
1.356602
1.185536
1.287460
1.089573
1.186728
1.174808
1.122952
1.032948
1.260638
1.346469
1.359582
1.415610
1.274943
1.403689
1.282692
1.453757
1.353621
1.398921
1.473427
1.625419
1.617670
1.665950
1.894832
1.809597
1.849532
1.844764
2.144575
2.076626
2.140999
2.553463
2.880692
3.013611
7.082820
26.125908
106.227994
235.506892
542.657971
864.008665
1015.788913
1015.788913
1015.788913
1015.788913
1015.788913
1015.788913
978.623033
675.784945
337.276459
183.662772
72.572827
32.325983
15.892982
17.415881
25.723577
36.092997
55.684447
71.542859
91.181993
105.036497
115.319490
114.756823
106.367469
94.396472
75.025558
58.376789
43.450594
32.790899
22.880435
19.098520
16.911626
16.741753
17.779469
18.137693
17.941594
18.075705
18.727779
18.535852
18.806458
19.163489
19.461513
19.043684
19.125938
19.930601
19.457936
19.888878
20.245910
19.873977
19.423962
19.590855
19.140840
19.293427
19.295812
18.817782
18.574595
18.341541
##ZVALUE=310
1.318455
1.430511
1.434684
1.166463
1.266599
1.260638
1.351833
1.183748
1.295805
1.297593
1.290441
1.547933
1.307726
1.273751
1.256466
1.464486
1.300573
1.454949
1.498461
1.615882
1.567602
1.637936
1.651645
1.661777
1.688600
1.647472
1.783967
1.853704
2.028942
2.039671
1.791716
2.262592
2.168417
2.455711
2.528429
2.877712
3.428459
14.094710
48.344731
159.063935
305.215716
629.181862
938.968658
1015.952826
1015.952826
1015.952826
1015.952826
1015.952826
1015.952826
801.476836
534.205437
263.239741
138.777494
48.203468
21.148920
13.393760
16.299486
23.688674
32.502413
48.998594
64.311624
84.272623
96.895695
108.388662
109.500885
102.792978
92.264414
75.423717
60.750842
43.138862
33.682585
25.452971
21.797419
19.018650
17.943978
18.434525
18.238425
18.447638
18.613935
18.477440
19.613504
18.819571
19.286871
19.671917
19.895434
20.491481
19.743443
20.297766
20.605922
19.450784
19.193888
19.828677
19.688606
19.101501
19.056797
19.142628
##ZVALUE=315
0.998974
1.060963
1.059771
0.927448
0.978708
0.987649
1.058578
1.048446
1.232624
1.186728
1.236796
1.250505
1.136661
1.071692
1.220703
1.077652
1.158714
1.289845
1.090765
1.280904
1.375675
1.456738
1.301765
1.323819
1.302958
1.438856
1.482964
1.357794
1.536608
1.436472
1.634955
1.738667
1.695752
1.964569
1.902580
2.085567
2.256632
2.403855
2.670884
6.120801
23.930669
99.282861
214.232802
480.831861
763.807893
1015.788913
1015.788913
1015.788913
1015.788913
1015.788913
1015.788913
993.238688
717.290640
373.486876
202.849507
73.892474
29.438734
12.993813
12.334585
16.201735
20.586848
32.451749
43.231845
61.325431
75.978637
92.656612
100.924969
104.398727
99.853873
86.593628
73.700547
57.452917
45.657754
33.123493
26.552677
21.313429
19.342899
18.721819
18.787980
19.246936
19.184947
18.818974
19.286871
19.755960
19.756556
19.830465
20.276904
20.386577
20.410419
19.664764
19.401908
19.371510
20.054579
19.293427
19.225478
19.310713
##ZVALUE=320
0.994802
0.927448
1.095533
1.128912
1.017451
1.055598
1.043677
1.113415
0.998974
1.139641
1.184940
1.195669
1.207590
1.156926
1.161695
1.225471
1.231432
1.184940
1.296997
1.161695
1.156926
1.251698
1.324415
1.249909
1.271963
1.437664
1.435876
1.566410
1.585484
1.696944
1.650453
1.657605
1.555681
1.647472
1.696944
1.882911
1.950860
2.216697
2.237558
2.461672
2.644658
3.873706
13.095737
66.381693
152.715445
365.514755
608.566403
996.790528
1015.788913
1015.788913
1015.788913
1015.788913
1015.788913
1015.788913
987.980962
547.237992
305.843949
129.938722
58.069825
18.247962
12.398958
13.010502
14.891624
20.877719
28.049946
42.160749
55.231452
73.050857
86.152554
97.111464
99.323988
96.566677
87.666512
71.695447
57.712793
42.932630
34.050941
26.635528
22.530556
20.009875
19.392967
19.209981
19.555688
19.190907
20.018816
19.909739
20.680428
19.951463
19.669533
19.759536
19.525886
19.358993
19.562840
19.361973
19.593835
19.287467
##ZVALUE=325
1.064539
1.198649
1.118779
1.047850
1.150966
0.986457
1.026988
1.254678
1.197457
1.020432
1.064539
1.167655
1.026988
1.046658
1.065731
1.150966
1.058578
1.223683
1.060963
1.173615
1.155734
1.138449
1.176000
1.275539
1.311898
1.432896
1.398921
1.402497
1.528859
1.305938
1.282692
1.469851
1.416802
1.624823
1.652837
1.700521
1.853704
1.654625
2.021790
1.986623
2.292991
2.169609
2.672672
3.291965
7.043481
42.368770
108.159781
270.847678
478.980541
874.710679
1015.788913
1015.788913
1015.788913
1015.788913
1015.788913
1015.788913
1015.788913
672.878027
394.037962
164.254904
74.146986
23.527741
12.819767
11.338592
12.023449
15.458465
19.551516
28.945804
39.901733
57.535768
69.827437
84.390640
91.686845
95.207691
91.177821
78.964829
68.330765
53.360462
42.988658
32.071471
26.488900
22.324920
20.559430
19.262433
19.332767
19.748807
19.584894
19.803643
19.777417
19.640923
19.471645
19.471645
19.098520
19.215941
19.080639
19.112825
##ZVALUE=330
1.030564
1.060963
1.017451
0.904799
1.038909
1.153946
1.151562
1.121759
1.001954
1.167655
1.003742
0.875592
1.140833
1.139641
1.046658
1.047850
1.063943
1.205802
1.174808
1.059771
1.125932
1.070499
1.155734
1.201630
1.250505
1.079440
1.114607
1.297593
1.141429
1.282692
1.366735
1.368523
1.272559
1.342893
1.494884
1.490712
1.703501
1.720786
1.591444
1.849532
1.841784
2.065897
2.070665
2.305508
2.366900
2.823472
3.786683
18.170476
57.150722
182.039738
343.524814
672.951937
970.248580
1015.788913
1015.788913
1015.788913
1015.788913
1015.788913
1015.788913
794.415474
501.521826
229.057670
112.027526
37.866831
16.761422
11.108518
10.959506
12.376904
14.886856
20.927787
27.872920
39.651990
51.821470
68.803430
78.853965
87.820888
90.115666
84.668994
77.462792
63.608885
52.136779
39.050579
32.019615
26.179552
22.665858
20.535588
19.936562
19.572973
19.173622
19.096732
18.568635
18.624663
19.349456
18.736720
18.850565
18.875599
##ZVALUE=335
0.925660
1.016855
0.907779
1.112819
1.085997
0.963807
1.063943
1.047850
1.037717
1.161695
1.009703
1.116991
1.018643
1.065731
0.921488
0.963807
1.040697
0.979900
0.961423
1.113415
1.184940
1.068711
1.158714
1.148582
1.254678
1.199841
1.144409
1.231432
1.027584
1.114607
1.132488
1.068711
1.165867
1.200438
1.333952
1.389980
1.315475
1.380444
1.481771
1.645684
1.718998
1.519918
1.816750
1.874566
1.906753
2.106428
2.209544
2.554655
2.808571
8.946657
31.500459
118.282437
240.529776
515.412688
803.417563
1015.786529
1015.786529
1015.786529
1015.786529
1015.786529
1015.786529
905.814767
616.377592
320.962667
169.479847
59.047937
23.505688
11.673570
11.344552
11.671782
12.839437
15.575886
19.821525
28.238893
37.541986
52.092671
63.040853
75.962543
81.715584
83.579421
81.091523
71.292520
62.039495
49.507618
41.102767
31.768680
26.320815
22.083521
20.487905
19.222498
18.468499
18.293858
18.315911
18.619895
18.308759
18.127561
##ZVALUE=340
0.892878
0.953674
0.874996
0.908971
0.942945
0.941753
0.891685
0.915527
1.103878
1.032948
0.992417
0.974536
1.131892
0.994802
1.068711
1.051426
1.013875
1.190901
1.161695
1.086593
1.114607
0.968575
1.031756
1.121759
0.987649
1.151562
1.111627
1.224875
1.067519
1.086593
1.210570
1.167655
1.087785
1.230836
1.249909
1.270771
1.200438
1.395941
1.521707
1.568794
1.420975
1.499653
1.572967
1.608729
1.782775
1.745820
1.965761
2.114773
2.289414
2.653599
2.649426
4.619956
16.723871
81.626773
189.984441
451.132655
732.457638
1015.788913
1015.788913
1015.788913
1015.788913
1015.788913
1015.788913
1015.788913
765.994787
404.999852
229.293704
93.550682
36.618710
13.584495
11.719465
11.909604
12.025833
13.668537
15.751719
20.777583
26.585460
37.105680
47.529936
61.998963
71.138740
78.518987
78.660846
75.128675
70.562959
58.672428
49.591660
38.563609
32.394528
25.704503
21.836758
19.247532
18.017888
17.540455
17.409921
17.380714
##ZVALUE=345
0.898838
0.855923
1.044869
0.815988
0.875592
0.972748
0.913739
0.955462
0.855923
0.956655
0.962615
1.059771
0.977516
1.080632
0.997782
0.943542
1.017451
1.020432
1.039505
1.144409
1.143813
1.231432
1.033545
1.242757
1.144409
1.248717
1.111627
1.122952
1.079440
1.188517
0.968575
0.976920
1.253486
1.197457
1.185536
1.372695
1.388788
1.180768
1.356602
1.293421
1.262426
1.498461
1.545548
1.526475
1.575947
1.733899
1.644492
1.876950
1.865625
2.019405
2.253652
2.354980
2.490878
3.154874
7.041693
44.671893
123.771429
318.184495
552.279949
949.672461
1015.788913
1015.788913
1015.788913
1015.788913
1015.788913
1015.788913
867.381692
514.237881
292.881727
115.267634
50.699711
17.917752
12.344718
11.781454
11.635423
11.805892
12.911558
15.287995
18.730760
26.397705
33.923984
46.229959
55.038929
64.826608
71.073771
73.029995
72.098970
64.884424
58.092475
48.264861
39.088726
29.683709
25.224686
20.945668
18.471479
17.263889
##ZVALUE=350
1.054406
0.989437
0.914931
0.896454
0.924468
0.971556
0.966787
0.961423
1.019835
0.820756
1.068711
1.055598
0.805855
0.928640
1.112819
0.964999
1.119971
0.886917
1.016855
0.960827
1.008511
0.910759
1.020432
1.106858
1.014471
1.016855
1.061559
1.145601
1.098514
1.113415
1.203418
1.156926
1.224875
1.078844
1.194477
1.038909
1.186728
1.302958
1.374483
1.229644
1.307726
1.159906
1.393557
1.481771
1.354814
1.522899
1.503825
1.633763
1.581907
1.803637
1.824498
1.768470
2.041459
2.186894
2.353787
2.722740
3.955960
21.251440
67.513585
209.314823
401.295424
780.788660
1015.788913
1015.788913
1015.788913
1015.788913
1015.788913
1015.788913
955.839753
573.874712
343.218446
156.023502
73.371530
21.780729
12.393594
10.941625
10.939837
11.025667
11.689663
12.147427
14.030933
18.572807
23.049712
31.477809
39.380789
50.276518
57.431459
64.467788
67.267418
65.780878
61.650872
53.189993
45.469999
36.655664
30.255914
23.526549
##ZVALUE=355
0.863671
1.066923
0.980496
1.017451
0.912547
0.951886
0.936985
1.000762
1.053810
0.899434
1.003742
1.163483
0.944734
1.008511
0.968575
0.828505
1.039505
1.153946
1.096725
1.053810
1.174808
0.984669
0.860691
1.112819
1.109838
1.121759
1.151562
1.054406
1.172423
1.048446
1.029968
1.032948
1.197457
1.133680
1.277924
1.124740
1.166463
1.148582
1.298785
1.207590
1.217723
1.275539
1.179576
1.435876
1.380444
1.444817
1.469851
1.552701
1.692772
1.488924
1.544952
1.648664
1.697540
1.855493
1.961589
2.183914
2.339482
2.394915
3.001690
10.968447
39.557815
141.622424
278.724432
562.285781
841.484666
1015.788913
1015.788913
1015.788913
1015.788913
1015.788913
997.520685
665.052533
424.297452
189.635754
91.643929
28.404593
13.468862
10.356903
10.138750
10.376573
10.666847
11.237860
11.488795
13.616681
15.533566
21.236539
26.719570
35.981536
43.402910
52.081943
57.504773
61.466694
60.953498
56.865811
50.606728
42.166710
##ZVALUE=360
0.984669
1.005530
0.951886
0.932813
0.922680
1.041889
0.968575
1.102686
0.913739
0.987649
1.060963
1.029968
0.911951
1.062751
0.982881
0.997782
1.006722
1.025796
0.980496
0.996590
1.168847
1.017451
1.103878
1.188517
1.038909
1.146793
1.108646
1.079440
1.131892
1.148582
1.082420
1.207590
1.002550
1.220703
1.108646
1.326799
1.242757
1.408458
1.377463
1.275539
1.301765
1.191497
1.311898
1.338720
1.465678
1.323819
1.369715
1.286864
1.604557
1.458526
1.432896
1.560450
1.731515
1.703501
1.840591
2.051592
1.956820
2.244711
2.477765
2.654791
2.912879
4.967451
16.864538
79.640746
182.556510
415.774584
662.104487
1005.995870
1015.788913
1015.788913
1015.788913
1015.788913
1015.788913
827.216506
539.961457
260.832906
135.287642
49.368739
20.240545
10.140538
9.893775
9.629726
9.731650
10.121465
10.432601
10.987520
11.894703
14.238954
17.281771
23.066998
29.085875
37.905574
44.638515
51.612854
54.068565
55.547953
##ZVALUE=365
0.824928
0.931621
0.897646
0.877976
1.078844
0.897646
0.947714
0.925660
1.069903
0.945926
0.961423
0.963807
1.060963
1.024604
0.960827
0.960827
0.964999
1.086593
1.083612
1.106858
1.080632
1.163483
1.103878
0.987649
0.965595
1.162887
1.003742
1.039505
0.973940
1.109838
0.959635
1.016855
1.067519
1.214743
1.177788
1.181960
1.227856
1.176000
1.226664
1.231432
1.311898
1.176596
1.201630
1.177788
1.251698
1.307726
1.200438
1.287460
1.294613
1.498461
1.488924
1.421571
1.489520
1.621842
1.685619
1.743436
1.824498
1.837611
1.802444
2.187490
2.375841
2.443790
2.684593
3.263950
7.707477
46.078563
116.700530
284.490585
496.302843
854.332447
1015.788913
1015.788913
1015.788913
1015.788913
1015.788913
905.515552
630.375743
336.622000
179.883838
63.701868
26.167631
10.272861
9.103417
8.734465
8.886456
8.994937
8.978844
9.516478
9.436607
10.463595
11.856556
15.680790
19.335747
25.377870
31.685829
39.705634
##ZVALUE=370
0.899434
0.862479
0.950694
0.908971
1.025796
0.982881
1.023412
0.969768
0.927448
1.008511
0.970960
1.157522
0.926852
1.011491
0.950694
1.049638
0.993609
0.945926
0.980496
1.096725
1.071692
0.745654
0.893474
0.944734
0.844598
0.938773
1.081824
1.088977
1.119971
0.990629
1.118779
1.179576
1.085997
1.193881
1.153946
1.146793
1.252890
1.133680
1.052618
1.227856
1.021624
1.269579
1.255870
1.168847
1.048446
1.206994
1.212955
1.293421
1.479983
1.293421
1.396537
1.447797
1.338720
1.271963
1.496673
1.639724
1.690984
1.494884
1.663566
1.847744
1.833439
1.979470
2.239943
2.271533
2.515912
2.937913
4.654527
27.101636
88.742971
265.002847
472.548604
843.719840
1015.785933
1015.785933
1015.785933
1015.785933
1015.785933
1007.081866
748.594999
397.245884
217.750669
83.942413
38.464665
14.594793
9.082556
8.476973
8.620620
8.261800
8.285642
8.534789
8.471608
8.797646
9.652972
11.123419
12.839437
17.238855
##ZVALUE=375
1.045465
0.780821
0.812411
0.821948
0.935793
0.907779
0.928640
0.960827
1.022816
0.916719
0.888705
0.863671
0.911951
0.920892
0.974536
0.902414
0.851750
0.960827
0.995994
1.098514
0.994802
1.062751
0.999570
0.867844
1.061559
1.046658
0.947714
0.912547
0.960827
0.838637
1.036525
1.075864
1.012683
1.046658
1.002550
1.032948
1.022816
1.115799
0.971556
1.043677
1.207590
1.148582
1.195669
1.041889
1.135468
1.006722
1.160502
1.246929
1.216531
1.294613
1.252890
1.204610
1.386404
1.373887
1.351833
1.340508
1.409650
1.334548
1.578927
1.542568
1.617670
1.623631
1.690984
1.914501
1.996756
2.035499
2.479553
2.737641
3.175735
11.917949
45.482516
162.134767
328.552723
681.264997
975.887775
1015.788913
1015.788913
1015.788913
1015.788913
1015.788913
942.496657
561.159849
339.158773
148.271918
72.063804
23.207664
10.979772
8.026958
7.751584
7.507801
7.770658
7.539988
7.700920
7.890463
8.147955
8.715987
##ZVALUE=380
0.918508
0.865459
0.816584
0.926852
0.824928
0.877976
0.910759
0.849962
0.873804
0.892878
0.879765
0.967979
0.926852
0.969768
0.794530
0.799894
0.847578
0.816584
0.864863
0.937581
0.944734
0.896454
0.927448
0.988841
0.944734
0.840425
0.920892
0.891685
0.898838
0.906587
0.878572
1.021624
1.024604
0.987649
1.081824
1.105666
0.897646
1.043677
1.021624
0.969768
1.043677
0.966787
1.082420
0.852942
1.073480
1.165867
1.073480
1.209974
1.119971
1.274943
1.334548
1.228452
1.201630
1.318455
1.101494
1.429915
1.293421
1.400709
1.387596
1.469851
1.465678
1.381636
1.533628
1.614690
1.673698
1.790524
1.941919
2.280474
2.595782
2.987981
3.137589
6.114841
23.296475
109.989643
246.387720
547.654629
854.219794
1015.798450
1015.798450
1015.798450
1015.798450
1015.798450
1015.798450
742.865801
476.974845
222.382545
109.136701
36.055446
15.208721
7.955432
7.034540
7.068515
6.915927
7.112622
7.152557
7.013679
##ZVALUE=385
0.861883
0.944734
0.964999
0.718832
0.813603
0.889897
0.749826
0.851750
0.830889
0.780821
0.808835
0.907779
0.903606
0.962615
0.894666
0.841618
0.898838
0.914931
0.909567
0.902414
0.812411
0.907779
0.924468
0.949502
0.899434
0.897646
0.970960
1.122952
0.927448
0.961423
0.949502
0.953674
0.901818
0.949502
0.864863
0.899434
0.982881
0.859499
0.942945
1.030564
1.104474
0.874996
0.885725
0.890493
1.069903
1.026988
1.113415
1.012683
1.096725
1.094937
1.116991
0.986457
1.057982
1.231432
1.182556
1.270771
1.220703
1.271963
1.337528
1.296997
1.470447
1.479983
1.550913
1.523495
1.439452
1.726747
1.813769
1.756549
1.912713
2.422929
2.408624
2.699494
2.683997
3.723502
11.761785
66.198707
165.224671
400.847793
673.801899
1015.788913
1015.788913
1015.788913
1015.788913
1015.788913
1015.788913
889.538527
615.609884
340.885520
182.893872
63.403845
24.305582
8.815527
6.664991
6.507635
6.625652
6.252527
##ZVALUE=390
0.872612
0.937581
0.754595
0.862479
0.969768
0.612736
0.714660
0.763535
0.961423
0.784993
0.856519
0.871420
0.870824
0.763535
0.812411
0.762939
0.911951
0.802875
0.722408
0.895858
0.946522
0.917912
0.997782
0.810623
0.955462
0.843406
0.945926
0.986457
0.959635
0.957847
0.899434
0.679493
0.903606
0.995994
0.909567
0.946522
1.070499
0.990629
1.043677
1.172423
0.926852
1.039505
1.022816
1.136661
1.092553
1.056790
0.998974
1.000762
1.158714
0.942945
1.137853
0.943542
1.114607
1.141429
1.128912
1.109838
1.163483
1.233816
1.284480
1.228452
1.319647
1.313686
1.315475
1.437664
1.493692
1.494884
1.591444
1.913905
1.893640
2.177954
2.297759
2.204776
2.302527
2.578497
2.531409
2.801418
5.435944
32.570958
95.803738
284.582973
522.087812
934.410691
1015.788913
1015.788913
1015.788913
1015.788913
1015.788913
1015.788913
826.645494
480.170846
268.344879
102.202892
44.126511
12.379885
6.931424
6.163716
##ZVALUE=395
0.876784
0.994802
0.874996
0.942945
0.833869
0.962615
0.866652
0.750422
0.969768
0.731945
0.698566
0.921488
0.882745
0.790954
0.823736
0.936985
0.655651
0.908971
0.945926
0.877976
0.856519
0.839829
0.817776
0.932813
1.052618
1.032948
0.986457
0.921488
0.823736
0.776649
0.796914
0.923872
0.793934
0.893474
0.870824
1.044869
1.023412
1.002550
1.107454
1.007915
1.097918
0.924468
1.099706
0.993609
0.952482
0.927448
1.089573
1.034737
1.102686
1.102686
1.198649
0.986457
1.030564
1.154542
1.157522
1.193881
1.153946
1.188517
1.201630
1.400709
1.313686
1.297593
1.218915
1.396537
1.544952
1.529455
1.508594
1.725554
1.781583
2.021790
2.051592
2.238750
2.255440
2.123713
2.287626
2.373457
2.490878
2.764463
3.511906
19.611716
65.312982
206.288695
392.785668
757.995844
1015.788913
1015.788913
1015.788913
1015.788913
1015.788913
1015.788913
1004.623771
618.915558
377.113819
168.512464
76.682568
23.400784
##ZVALUE=400
0.886917
0.814795
0.765920
0.771880
0.805855
0.864863
0.757575
0.862479
0.873804
0.832677
0.838637
0.878572
0.851750
0.935793
0.836849
0.820756
0.854731
0.906587
0.858903
0.781417
0.851750
0.837445
0.889897
0.743866
0.971556
0.700951
0.984669
0.874996
0.912547
1.021624
0.942945
0.803471
1.047850
0.958443
0.834465
1.080632
1.108646
1.042485
1.001954
1.000762
1.006722
1.055598
1.131892
1.074672
1.074672
1.037717
1.047850
1.052618
1.060963
1.072884
1.014471
1.128912
1.092553
1.146793
1.049638
1.184940
1.308918
1.243949
1.159906
1.324415
1.317859
1.345873
1.318455
1.338720
1.379848
1.456738
1.552701
1.590848
1.822710
2.101660
2.212524
2.103448
2.303720
2.085567
2.126694
2.163649
2.294779
2.233982
2.385974
2.843738
3.225803
11.330843
44.036508
149.298906
304.072499
649.175644
970.026851
1015.788913
1015.788913
1015.788913
1015.788913
1015.788913
1015.788913
828.486681
538.192987
258.015990
##END
