##TITLE=QP00652
##FORMAT=SPECTACLE-ASCII V-1.2
##DATA TYPE=ULTRAVIOLET SPECTRUM
##SECOND TYPE=ULTRAVIOLET SPECTRUM
##DATE=11/28/17
##TIME=14:27:24
##SPECTROMETER/DATA SYSTEM=SPECTACLE
##XUNITS=NM EM
##YUNITS=ENERGY
##YFACTOR=1
##FIRSTX=220
##LASTX=410
##NPOINTS=96
##3DDATA=Equidistant
##ZUNITS=NM EX
##FIRSTZ=210
##LASTZ=400
##ZPOINTS=39
##XYDATA=(Y..Y)
##ZVALUE=210
3.475547
3.672838
3.816485
4.502535
4.071593
4.161596
4.101992
3.608465
4.237890
4.005432
3.703833
3.076792
3.121495
3.130436
3.547668
3.742576
4.268885
3.609657
4.297495
4.323721
4.019737
5.066991
4.826784
5.502701
4.846454
5.054474
5.803704
5.774498
5.287528
6.394982
5.160570
5.690455
6.498694
6.140471
6.014705
6.986856
6.996989
7.044673
7.277727
7.045865
7.944703
7.194877
7.435679
7.934570
8.934736
8.068681
7.592440
8.025765
9.230971
8.886456
8.079410
8.433461
7.857680
9.837747
8.604527
9.124875
8.803606
9.914637
9.487867
8.913875
8.543730
8.644462
10.061860
9.833574
9.302497
9.296536
10.986924
12.301803
13.218522
15.218854
18.318892
19.486547
24.865866
24.934411
29.061437
29.442906
31.160712
31.465888
32.352805
29.908419
30.122995
28.110743
23.346543
20.739436
17.144680
13.389587
10.937452
10.393858
9.457469
9.167790
10.120869
8.682609
9.639859
9.322762
10.687709
11.099577
##ZVALUE=215
11.303425
10.513663
10.256767
8.886456
8.192658
8.035898
7.269979
7.232428
8.160472
8.127689
7.011890
6.646514
5.220771
4.914999
3.990531
3.950000
3.663898
4.073977
4.461408
4.277825
4.692674
4.458427
5.144477
4.913807
4.846454
5.783439
5.517602
5.380511
5.220771
6.181598
6.048679
5.694628
6.791949
6.621480
6.782413
6.862879
8.108616
7.021427
7.664561
7.280707
7.948875
6.805658
7.774830
7.657409
7.920861
7.662773
8.881688
8.292794
8.546710
8.367896
7.926822
8.140802
8.489490
8.104444
8.738637
9.054542
8.501410
8.584857
9.965897
8.766651
9.134412
9.042621
9.398460
9.052753
9.126663
8.953810
9.424686
10.667443
11.617541
13.652444
15.460849
18.473864
19.149780
21.934509
23.652911
25.905967
26.521683
25.513768
25.664568
24.804473
22.494793
20.627975
19.566417
16.429424
13.250709
11.096597
10.435581
9.735823
9.519458
8.783937
8.881688
7.993579
9.052753
7.712841
9.544492
8.656979
##ZVALUE=220
27.234554
28.911829
29.896498
32.506585
27.123690
24.111867
21.254420
17.850995
16.143918
15.104413
14.629960
16.575456
13.382435
14.968514
11.080503
8.851886
6.822944
6.606579
4.385710
5.057454
5.098581
5.289912
5.367994
5.016923
5.466938
5.934834
5.708933
5.833507
6.198883
6.531477
6.706715
6.530881
7.213950
6.825924
7.938743
8.366704
7.538795
8.383989
8.463860
7.799864
8.280873
7.673502
9.257793
7.880926
9.040833
9.465814
9.375811
8.785725
9.845495
8.575916
9.157658
10.222793
9.519458
8.720756
8.895993
10.079741
10.578632
9.940863
9.455681
10.131598
10.412931
11.450648
10.335445
10.279417
11.326671
11.656880
11.635423
12.369752
13.365746
14.256835
17.035604
17.328858
20.699501
24.671555
25.650859
29.039979
28.421879
29.771924
27.583838
27.130842
24.870634
23.281574
20.748973
19.658804
17.136931
14.415979
12.801886
11.926889
10.158420
10.890961
10.795593
10.450482
10.559559
10.011792
8.567572
10.649562
##ZVALUE=225
40.769577
41.167736
59.631467
73.934793
86.258650
93.246698
87.661743
69.172978
57.030916
39.115548
31.575561
28.954744
29.064417
29.705763
29.587746
26.258826
24.884939
17.742515
14.797449
10.828972
8.130670
6.768703
5.899668
6.008744
5.911589
5.988479
7.069707
7.594824
7.148981
6.961823
7.855892
7.846951
8.069873
7.545948
8.280873
8.021593
8.838773
7.870793
7.645488
8.921623
9.165406
9.235740
9.022951
9.483695
9.476542
9.721518
10.999441
10.223985
10.322928
10.140538
10.842681
11.223555
11.127591
11.471510
10.761619
12.231469
11.096597
11.698604
12.410879
12.245774
13.501644
12.197495
11.609793
13.010502
13.433695
13.149977
13.019443
13.414621
15.705824
17.410517
18.840432
21.329522
24.809837
26.338696
27.136803
30.919909
30.069947
31.363964
29.484630
26.747584
25.868416
25.101900
23.194551
22.182465
19.216537
16.427636
14.880896
12.883544
12.382865
12.059808
13.253689
12.178421
12.450814
11.686683
12.310743
11.695623
##ZVALUE=230
34.260750
37.423968
61.661601
107.565522
146.521926
186.294913
213.075876
223.638415
212.765932
178.631544
125.850439
85.042715
59.548616
45.778751
48.118830
53.403974
52.266717
53.218603
46.757460
36.699772
28.132796
20.142794
15.091896
9.991527
7.658601
6.745458
7.830858
6.749630
7.900596
7.651448
9.178519
9.733438
9.086728
8.792877
9.698868
9.197593
9.314418
9.868741
10.184646
10.911822
10.849833
10.568500
10.158420
10.281801
10.731816
11.518598
11.400580
11.813641
12.129545
11.089444
12.354851
12.209415
12.860894
13.324618
13.174415
12.753606
13.716817
13.899803
13.012886
15.077591
15.461445
14.773607
15.173554
13.992786
13.715625
16.206503
16.586781
16.260743
18.814802
19.934773
22.777915
25.927424
29.404759
34.776926
35.919547
36.314726
33.569932
34.441948
35.227537
34.003854
31.678677
31.474829
31.115413
25.120974
23.476481
20.585656
20.299554
18.244982
16.080737
16.113520
14.273524
16.544461
15.820861
15.725493
15.533566
15.095472
##ZVALUE=235
13.228655
12.591481
31.285882
62.304735
106.750727
188.312531
256.717801
349.274874
383.789539
391.329527
370.965600
299.949646
224.111676
148.594975
106.197000
76.416731
69.781542
74.299574
79.308748
80.998540
74.672699
70.037842
48.506856
38.477778
25.098920
16.918778
12.209415
8.793473
8.702874
7.839799
8.479953
9.351969
9.439588
8.451939
8.319616
8.643866
9.332895
9.458661
9.814501
8.638501
9.890795
10.735989
10.069609
10.477901
10.424852
10.865927
10.409951
10.992885
11.476874
12.536645
10.350943
12.851954
11.608601
12.031794
12.149811
13.316870
12.987852
13.267994
12.300611
13.595819
13.448596
14.723539
14.212728
15.130639
16.222000
16.594529
15.882850
16.801953
18.846989
20.105839
22.202730
26.725531
27.600527
30.897856
34.144521
31.093955
30.473471
31.774640
31.232834
30.448437
28.819442
27.852654
26.818514
26.380420
24.745464
21.549463
20.175576
19.205809
18.299818
19.414425
18.428564
18.532872
18.478632
18.391609
16.595721
17.923713
##ZVALUE=240
2.874732
3.140569
6.071925
15.603900
41.284561
80.708861
166.532993
259.264708
397.355556
503.048897
594.366789
585.747957
553.384423
443.549752
345.346928
225.161910
155.847669
106.150508
90.777874
95.311999
106.549859
113.297701
103.753805
101.058483
79.795718
64.568520
46.792626
31.020641
21.003485
15.346408
11.724830
9.307861
9.118915
9.508729
9.122491
9.455681
7.945895
8.842945
9.622574
9.346604
8.682609
10.332465
9.537935
10.200739
9.520650
9.429455
10.348558
9.380579
10.972619
10.455847
11.131763
11.398792
11.247993
11.916757
11.799932
12.893677
13.166666
12.097955
13.122559
13.731718
14.156699
13.427734
13.356805
14.917850
15.224814
16.557574
17.416477
17.368793
18.914938
20.430684
23.791790
25.033951
27.957559
30.644536
32.139421
31.772852
32.658577
32.495856
31.055808
29.641986
30.204654
27.614832
25.657415
27.032495
24.919510
23.019910
23.535490
22.984743
22.452474
22.192597
21.512508
21.814704
23.128986
22.912621
23.697615
22.399426
##ZVALUE=245
2.254844
2.634525
2.264977
2.551675
4.814863
10.911822
37.129521
79.397559
181.919932
285.445452
470.010638
600.131750
710.682869
761.833787
735.880733
619.158745
509.954691
357.236862
247.804523
150.012970
113.056898
98.799467
106.236935
115.536451
123.625994
117.063522
106.874704
90.311766
68.646669
51.120520
37.596822
23.393631
16.568899
11.389852
9.928942
9.170771
9.660721
8.545518
8.806586
8.433461
8.924603
8.986592
9.128451
8.861423
8.854866
8.953810
9.026527
10.367632
10.704994
10.077953
9.962916
9.560585
10.791421
10.404587
9.388924
11.470914
10.541677
11.360645
11.618733
11.519790
12.747645
13.266802
12.437701
13.896823
12.506843
14.533997
14.917850
15.971661
16.367435
19.368529
20.302534
23.997426
26.001930
27.344823
29.328465
30.047894
30.846000
29.943585
28.861761
27.587414
26.644468
28.224587
27.215481
25.504827
23.074746
23.519993
21.622777
22.544861
22.120476
21.827817
22.147894
22.962689
23.769736
23.277998
22.867918
23.118854
##ZVALUE=250
2.396703
2.387762
2.453923
2.790689
2.292991
2.715588
3.444552
7.356405
27.460456
62.763691
168.859959
287.853479
428.602695
654.152036
797.265768
907.006860
904.859900
825.271606
691.965818
475.076437
325.495005
212.072730
118.603706
94.361901
98.619461
110.760927
123.455524
132.192969
124.887824
114.208460
97.118616
75.261593
59.539676
35.146475
23.653507
13.505816
10.889769
8.827448
8.413792
8.059740
8.801818
7.492900
8.545518
8.525848
9.352565
9.192824
9.001493
8.665919
9.106994
10.075569
9.659529
9.085536
10.511875
9.424686
9.910464
9.856820
10.154843
10.563731
10.165572
11.419654
10.799766
11.070967
11.210442
11.267662
12.254715
12.652874
12.932420
13.503432
16.178489
17.687678
18.312931
19.767880
22.167563
23.023486
25.413632
26.751757
24.954677
27.309656
27.149916
23.926497
23.996830
22.578835
24.184585
20.639896
20.497441
20.517707
19.918680
19.778609
19.298792
19.720793
18.881559
19.028783
18.815994
18.025637
19.034743
17.114878
##ZVALUE=255
1.908541
1.899600
1.972914
2.150536
2.197623
2.177954
2.415776
2.421737
2.715588
4.803538
18.981695
50.070882
115.767717
271.878839
455.077887
736.811757
927.988887
1015.788913
1015.788913
1015.788913
944.148898
739.488602
449.488759
279.424787
145.935416
96.846819
87.078810
95.286965
118.442774
132.168531
136.449933
134.193897
125.354528
101.832747
81.716776
53.715706
36.771894
21.673441
15.224814
9.751916
8.140802
7.273555
7.078648
8.597970
7.079840
8.066893
8.696914
8.565784
7.800460
8.606911
8.241534
7.988811
9.074807
8.213520
9.109974
8.493662
8.824468
8.838773
9.899735
8.789897
8.806586
9.744763
9.673834
10.198951
10.584593
11.161566
10.705590
12.362599
12.019873
15.259981
16.053915
17.867684
19.397736
20.706654
22.023916
21.644831
23.587942
22.018552
21.437407
21.256804
20.590425
19.946694
18.754601
18.337965
18.050671
17.787814
18.049479
16.366839
16.285777
17.484426
17.103553
16.439557
15.905499
16.896725
16.487837
16.173720
##ZVALUE=260
1.620650
1.602769
1.995564
1.887679
1.876950
1.898408
2.145767
2.183914
2.231598
2.407432
2.274513
3.529787
8.791685
33.807755
75.333714
198.527575
356.263518
652.141571
907.490849
1015.785933
1015.785933
1015.785933
1015.785933
970.090628
634.011626
420.783758
229.376554
129.417777
80.493689
78.480840
96.328855
117.934942
133.721828
144.450665
140.080452
122.078657
106.498003
80.170631
59.445500
36.605000
24.100542
15.131831
9.411573
8.097887
7.532835
7.408857
7.734895
7.572770
8.011460
7.761717
7.521510
7.175803
8.059740
8.030534
8.038878
7.982850
7.887483
8.702874
7.953644
8.224845
8.615851
8.719563
8.884668
8.965731
8.584857
8.974671
10.076761
10.269880
11.985898
12.713671
12.816787
14.565587
16.239882
16.762614
17.744899
18.048882
19.312501
19.314885
17.936826
18.893480
18.633604
17.449856
17.801523
16.248822
15.795827
15.348792
15.171766
14.668703
15.132427
15.128851
14.898777
15.053749
15.619993
14.662743
15.302896
15.930533
##ZVALUE=265
1.827478
1.478791
1.633763
1.822710
1.905560
1.884699
1.896620
1.922846
1.770854
1.975894
2.098680
2.422929
2.571940
2.848506
4.887581
21.557808
51.795840
137.776732
257.892013
527.125597
784.083009
1015.788913
1015.788913
1015.788913
1015.788913
1015.788913
933.251977
656.526685
351.919532
202.524662
98.737478
70.132613
79.591870
97.640753
125.814676
140.311718
149.511695
143.373609
126.682520
107.334852
78.569651
59.014559
35.337806
23.274422
13.684630
9.623766
7.894635
7.237792
7.306933
7.249713
7.004738
7.286668
7.886887
7.911921
7.896423
7.648468
7.598996
7.760525
7.500648
8.134842
7.466674
7.484555
7.673502
8.265972
7.990599
9.073615
9.323955
9.682775
9.829998
10.497570
11.877418
12.136698
12.883544
13.625622
14.477968
15.100837
14.428496
14.217496
14.806986
14.270544
13.810992
14.167428
14.007688
13.693571
13.135672
13.032556
13.025999
12.993813
13.260841
13.664961
14.125705
14.300942
14.221668
14.189482
14.856458
15.065670
##ZVALUE=270
1.481771
1.464486
1.557469
1.641512
1.923442
1.912713
1.559854
1.762509
1.861453
1.814961
1.922846
1.910925
1.908541
1.958609
2.198815
2.415776
2.929568
10.024905
30.402541
99.666715
204.502940
363.223553
656.466484
920.426846
1015.798450
1015.798450
1015.798450
1015.798450
1015.798450
856.678486
595.017672
312.854648
175.107718
77.814460
60.188770
78.054667
98.807812
123.511553
136.899948
145.894885
141.956806
124.105811
106.141567
79.000592
57.222843
35.032630
23.829937
14.584661
10.358691
7.348657
6.962419
6.732941
6.757975
6.693602
6.910563
7.232428
7.371902
7.330775
7.420778
7.560849
7.546544
7.855892
7.368922
7.488728
8.309484
8.128881
8.384585
8.712411
9.334683
10.479689
10.705590
10.871887
12.061000
12.512803
13.022423
13.300776
13.102889
13.639927
13.069510
13.066530
12.544990
12.831688
13.031960
12.275577
12.263656
12.122989
11.954904
12.540817
12.985468
13.289452
13.639927
13.271570
14.121532
14.710426
15.499592
15.733838
##ZVALUE=275
1.503825
1.664758
1.283884
1.516938
1.659989
1.551509
1.494884
1.513958
1.582503
1.681447
1.692772
1.643896
1.876950
2.021790
2.205968
2.105832
2.311468
2.674460
2.873540
5.960464
25.546551
103.951693
212.612748
456.392765
735.047460
1015.788913
1015.788913
1015.788913
1015.788913
1015.788913
1015.788913
1012.644768
751.162767
409.500599
236.803889
106.641650
61.650872
56.582689
71.819425
99.224448
119.992495
137.035847
142.924786
139.937997
127.414465
102.719665
80.789924
55.103898
40.217638
24.324656
16.655922
10.966659
8.749962
7.623434
7.647872
7.326603
7.207990
7.817745
7.534623
7.724762
7.527471
8.126497
8.332729
7.963777
8.428693
8.398890
8.706450
9.134412
9.968877
10.335445
10.909438
11.649728
12.804866
13.489723
13.666749
14.332533
14.019608
13.469458
13.485551
13.443828
12.463927
12.216568
12.448430
11.864901
12.010932
11.864901
12.293458
12.173653
12.592673
13.734698
13.666749
15.391707
15.271902
15.586615
16.812682
17.283559
##ZVALUE=280
1.527667
1.702905
1.659989
1.618862
1.630783
1.723766
1.723766
1.869798
1.813769
1.523495
1.731515
1.745820
1.892447
1.835823
2.078414
2.029538
2.307892
2.383590
2.420545
2.931952
3.166795
3.633499
21.502972
89.097619
269.921422
453.823805
793.468952
1015.864611
1015.864611
1015.864611
1015.864611
1015.864611
1015.864611
1015.864611
895.859599
473.208427
270.409584
113.231540
58.792830
41.747689
51.669478
76.305866
96.623898
121.132731
135.248899
140.614510
137.891769
119.842887
103.636980
77.626705
59.617758
37.566423
25.626421
15.380979
11.681914
8.168817
8.080602
7.665753
7.957816
7.922649
7.681847
8.026958
8.170605
8.195639
8.361936
8.683801
9.077787
8.995533
9.848475
10.337830
10.786653
11.945963
12.763739
13.428926
13.621449
13.822913
13.538599
13.871789
13.480783
12.912750
13.035536
12.243986
12.347698
11.797547
11.666417
11.957884
11.879802
12.474656
13.007522
12.971759
13.443828
15.004873
15.274882
16.758442
17.410517
17.996430
##ZVALUE=285
1.453757
1.513958
1.299977
1.520514
1.442432
1.520514
1.315475
1.497865
1.424551
1.642704
1.564622
1.563430
1.484752
1.680851
1.732707
1.764894
1.758933
2.002716
1.882911
2.089739
2.208948
2.755523
2.725720
3.047585
6.383657
34.888983
92.954636
251.816511
434.597731
797.613859
1015.788913
1015.788913
1015.788913
1015.788913
1015.788913
1015.788913
1015.788913
737.488866
441.191792
189.527869
91.342926
37.981868
34.174919
49.951673
68.600774
94.777942
111.775994
132.259727
137.615800
132.701993
122.813582
101.255774
84.253550
57.677627
41.448474
24.062991
16.184449
10.984540
9.308457
8.082986
8.276701
8.114576
7.852912
7.771850
8.168817
8.263588
8.554459
8.879900
9.390712
9.830594
10.328889
11.360645
11.927485
11.649728
12.264848
11.861920
11.545420
11.441708
11.210442
11.802912
11.385679
11.388659
11.338592
11.078715
10.624528
11.553764
11.396408
12.031794
12.432933
12.868643
13.494492
14.986992
15.477538
16.270876
16.636848
17.432570
##ZVALUE=290
1.182556
1.243949
1.318455
1.381636
1.335740
1.429915
1.370907
1.523495
1.389980
1.309514
1.418591
1.318455
1.625419
1.491904
1.218915
1.543760
1.543760
1.623631
1.712441
1.730919
2.036691
1.897812
2.181530
2.261996
2.665520
2.593994
4.118681
10.145903
51.811934
131.185651
261.194706
553.355813
870.190859
1015.788913
1015.788913
1015.788913
1015.788913
1015.788913
1015.788913
989.026427
706.293583
362.527966
197.997689
77.269673
35.303831
33.245683
44.731498
65.641999
83.701611
110.347867
121.705532
130.866766
130.300522
117.709637
101.512671
76.235533
57.540536
37.986636
26.864409
16.121864
11.567473
8.859634
8.198619
8.178949
8.134842
8.052588
8.506775
8.675456
9.113550
9.648800
10.093451
10.669827
10.943413
11.735559
11.846423
11.822581
11.671782
11.528730
11.015534
10.919571
10.810494
10.745525
11.210442
10.970831
11.189580
11.175871
11.218786
11.946559
12.443662
12.703538
13.433695
14.324784
14.856458
15.723705
16.761422
16.980767
##ZVALUE=295
1.288652
1.271963
1.105666
1.277924
1.275539
1.401901
1.376867
1.323819
1.286864
1.376867
1.381636
1.500845
1.611710
1.400709
1.297593
1.651645
1.604557
1.619458
1.661777
1.531839
1.787543
1.907945
1.891851
1.955628
2.205968
2.253652
2.406836
2.709627
2.914667
5.176663
18.245578
79.439878
177.922845
426.895618
704.067945
1015.788913
1015.788913
1015.788913
1015.788913
1015.788913
1015.788913
1015.788913
790.126920
415.335894
225.068927
82.136989
37.964582
22.449493
27.670860
42.809844
58.679581
82.597733
99.581480
117.915869
126.285553
124.195814
113.704801
96.734762
77.995658
54.092407
39.350986
24.122596
17.558932
11.521578
9.637475
8.443594
8.477569
8.856654
9.125471
9.983778
9.783506
11.035800
11.121631
11.093616
11.021495
11.219978
11.238456
11.406541
11.090636
10.819435
10.584593
10.923743
11.005998
10.921955
10.773540
10.822415
11.096597
11.686683
11.615753
12.436509
12.823939
13.313890
13.755560
14.527440
14.778972
15.706420
##ZVALUE=300
1.268983
1.305938
1.164675
1.098514
0.997782
1.266599
1.367927
1.181960
1.212955
1.341701
1.439452
1.378655
1.364946
1.222491
1.271963
1.538992
1.336932
1.317859
1.398921
1.628995
1.488924
1.395941
1.603961
1.738667
1.888871
1.999736
2.112985
2.130866
2.203584
2.653599
2.607703
3.215671
11.744499
41.275620
139.848590
278.181434
575.428009
891.645551
1015.788913
1015.788913
1015.788913
1015.788913
1015.788913
1015.788913
895.148516
573.251843
282.685757
147.332549
49.583912
22.466779
18.517971
23.792982
38.907528
51.779747
73.058605
90.860724
108.146667
118.820667
117.659569
109.769702
93.922615
77.573657
55.467486
41.470528
26.365519
18.089414
12.995601
10.502934
9.583831
9.621978
9.853840
10.188818
10.378957
10.763407
11.129975
10.777712
11.058450
10.709763
10.789633
10.811687
11.126995
11.123419
10.703802
10.966659
10.646582
10.768771
10.555983
10.921955
11.289716
11.624694
11.809468
11.935830
11.996627
12.062788
12.899637
12.821555
##ZVALUE=305
1.221895
1.220703
1.136661
1.105666
1.355410
1.104474
1.002550
1.108646
1.131892
1.131892
1.208782
1.363754
1.211762
1.260638
1.253486
1.286864
1.315475
1.284480
1.439452
1.520514
1.538992
1.443624
1.413822
1.669526
1.405478
1.755953
1.824498
1.804829
2.119541
2.059937
2.115965
2.500415
2.797842
2.955794
6.527901
23.984909
93.933940
201.272964
455.747843
717.844963
1015.788913
1015.788913
1015.788913
1015.788913
1015.788913
1015.788913
1005.071998
737.105608
389.956832
205.898881
73.597431
31.142831
15.047789
16.220808
24.314523
34.175515
53.945780
69.062710
88.303685
102.735758
111.455917
111.564994
102.864504
91.157556
70.475936
56.802630
38.546920
27.194619
17.357469
13.065934
11.092424
10.312796
10.503531
10.772943
10.694861
10.756850
10.946989
10.584593
10.462999
10.982752
10.692477
10.869503
10.715723
10.671616
10.871887
10.720491
10.707974
10.735989
10.590553
10.623932
10.727644
10.592937
10.633469
10.813475
10.748506
10.948777
##ZVALUE=310
1.016855
0.814795
0.927448
1.009703
1.008511
0.772476
0.936985
0.952482
0.784993
0.880957
0.910759
0.962615
1.003742
0.901818
1.071692
0.998974
1.104474
1.114607
1.097918
1.127720
1.108646
1.255870
1.267791
1.260638
1.194477
1.308918
1.470447
1.573563
1.500845
1.607537
1.533628
1.954436
1.677871
2.139807
2.341866
2.743602
3.020763
13.450980
45.542717
147.308707
284.872651
585.368872
885.801911
1015.598774
1015.598774
1015.598774
1015.598774
1015.598774
1015.598774
904.457569
606.072545
302.047729
158.413649
54.544806
22.124648
12.685657
14.946461
21.389723
30.345917
46.266913
61.510801
82.007647
93.279481
105.021000
106.469989
99.195838
87.879896
70.721507
54.294467
38.243532
27.706623
19.042492
14.905930
12.006760
11.121631
10.441542
10.419488
10.230541
10.467768
9.860992
9.746552
10.331869
10.420680
10.335445
10.336637
10.503531
10.478497
10.443926
10.370612
10.447502
10.479689
10.294914
9.479523
9.811521
9.746552
9.949803
##ZVALUE=315
0.786781
0.974536
0.892878
1.081824
0.949502
0.885725
0.995994
1.050830
0.970960
1.107454
0.868440
1.037717
1.123548
0.889897
1.058578
1.006722
1.034737
1.062751
0.949502
1.235604
1.190901
1.195669
1.143813
1.192689
1.117587
1.263618
1.389980
1.386404
1.641512
1.594424
1.560450
1.572967
1.539588
1.695752
1.904964
1.976490
2.129674
2.295971
2.727509
5.927682
22.689700
92.673898
198.029876
442.898870
721.800923
1015.660763
1015.660763
1015.660763
1015.660763
1015.660763
1015.660763
1015.660763
773.177743
408.099890
218.999982
75.881481
29.509664
11.980534
11.027455
13.951659
18.806458
29.413700
41.039586
58.360696
72.884560
90.166926
98.274946
100.647807
95.206499
82.247853
70.136786
51.900744
40.073991
25.908947
19.861460
13.877749
11.852980
10.885596
10.306835
10.467768
10.408759
10.156631
10.156631
10.233521
10.456443
10.333657
10.787845
10.473728
10.424852
10.579824
10.571480
10.291934
10.258555
10.015965
9.747744
10.196567
##ZVALUE=320
1.064539
1.061559
1.027584
1.071692
1.313686
1.082420
1.119971
1.105666
1.091957
0.993609
1.062751
1.182556
1.092553
1.068711
1.062751
1.116991
1.142621
1.228452
1.316667
1.283884
1.305938
1.397729
1.309514
1.304746
1.404881
1.251698
1.323819
1.307726
1.339912
1.376867
1.529455
1.577735
1.522899
1.714826
1.772642
1.990795
1.866817
2.391934
2.318621
2.245903
2.487898
3.452897
10.620952
54.022670
132.516623
340.821743
566.116571
939.546824
1015.788913
1015.788913
1015.788913
1015.788913
1015.788913
1015.788913
964.969993
533.379912
298.774838
122.639537
52.740574
15.739799
10.360479
10.746717
12.855530
18.122792
24.757981
38.975477
51.775575
69.395900
82.117915
94.352961
96.157789
91.124773
81.805587
65.163970
52.154660
35.974979
26.691556
18.490553
14.773607
12.034774
10.999441
10.215640
10.298491
10.481477
10.800958
10.549426
10.591745
10.664463
10.315776
10.362864
10.066628
10.103583
10.252595
10.086894
9.945631
10.398626
##ZVALUE=325
0.923872
1.042485
0.919700
0.954866
1.041889
1.329780
1.002550
1.104474
1.053810
1.070499
1.039505
1.145601
1.004934
0.960827
1.047850
1.114607
1.199841
1.291633
1.191497
1.128912
1.125932
1.282692
1.361966
1.217723
1.345873
1.292825
1.328588
1.355410
1.522899
1.475811
1.530647
1.372695
1.631975
1.473427
1.467466
1.673698
1.758933
1.706481
1.860857
2.093911
2.081990
2.443790
2.611876
3.151894
6.471872
37.505627
93.703866
239.654779
434.571505
826.349854
1015.788913
1015.788913
1015.788913
1015.788913
1015.788913
1015.788913
1015.788913
804.052949
493.464470
212.639570
96.010566
26.965737
12.432933
9.613633
10.418892
12.886524
16.983747
26.028752
36.566854
52.994490
66.421628
80.205798
88.382959
90.046525
86.447597
73.788762
62.492490
46.589971
35.822988
24.444461
18.251538
13.539791
12.039542
10.915995
10.930896
10.745525
10.294914
10.393858
10.552406
10.235906
10.498762
10.085702
10.188818
10.136962
10.090470
9.784698
##ZVALUE=330
0.899434
0.881553
0.980496
1.049638
1.054406
0.988841
1.091957
1.035929
1.019835
1.105666
0.969768
1.123548
1.068711
1.077652
1.092553
1.041889
0.973940
1.266599
1.140833
1.117587
1.117587
1.180768
1.017451
1.315475
1.382828
1.320839
1.225471
1.294613
1.338720
1.395941
1.413822
1.339912
1.324415
1.393557
1.367927
1.436472
1.574755
1.663566
1.563430
1.682639
1.956820
2.005696
2.213717
2.247691
2.539754
2.876520
3.791451
17.760992
53.932667
168.843865
320.044756
655.469894
967.762470
1015.788913
1015.788913
1015.788913
1015.788913
1015.788913
1015.788913
918.672681
595.745444
283.952951
139.714479
43.882728
16.774535
9.810925
9.610653
10.066628
12.415648
17.161965
24.015903
36.017895
47.009587
64.401627
74.499846
83.647966
83.984733
79.436898
71.132779
56.678653
44.740438
31.688809
24.768710
18.394589
14.924407
12.259483
11.030436
10.311604
10.228753
10.402799
10.120869
10.184646
9.800792
9.744763
9.729862
9.758472
##ZVALUE=335
1.070499
0.973940
0.914931
0.755787
0.968575
1.006722
1.013875
0.965595
1.045465
1.029968
0.965595
1.059771
0.951886
1.083612
1.061559
1.094937
0.948906
1.029968
1.121759
1.058578
1.096725
1.114607
1.292825
1.153946
1.219511
1.131892
1.307726
1.238585
1.171827
1.273751
1.262426
1.305938
1.318455
1.423955
1.431704
1.347661
1.347661
1.460910
1.664758
1.658797
1.655817
1.771450
1.726747
1.917481
2.070665
2.392530
2.453923
2.570748
3.018975
8.544922
30.374527
113.510489
235.572457
518.525839
832.749009
1015.788913
1015.788913
1015.788913
1015.788913
1015.788913
1015.788913
980.179906
658.455491
333.721638
173.590779
60.181618
23.501515
10.283589
9.515882
9.614825
10.616779
13.009906
16.226768
25.311708
33.718944
47.725439
57.719946
70.183873
76.160431
78.030825
74.659586
64.695477
55.246949
42.365789
33.740997
24.276972
18.672943
14.175773
12.268424
10.824800
10.094643
9.961724
9.839535
9.376407
9.659529
9.522438
##ZVALUE=340
0.968575
0.796914
1.044869
1.040697
0.909567
1.077652
0.901818
0.963807
0.944734
1.031756
0.976920
1.036525
1.087785
1.110435
0.964999
1.146793
1.138449
1.077652
1.114607
1.097918
1.315475
1.004934
1.094937
1.155734
1.233816
1.273751
1.284480
1.154542
1.094937
1.033545
1.216531
1.233816
1.415610
1.264811
1.246929
1.360774
1.428723
1.425743
1.344681
1.546741
1.385808
1.458526
1.600981
1.599789
1.740456
1.791716
1.907945
2.216697
2.286434
2.686977
2.663732
4.470944
15.605688
73.157549
167.165995
393.565893
648.368001
1006.127596
1015.788913
1015.788913
1015.788913
1015.788913
1015.788913
1015.788913
794.496536
413.101912
226.987004
89.797974
35.339594
11.712909
9.943843
9.369850
9.428859
10.269880
12.159944
16.743541
22.321939
32.261610
41.853786
56.090951
65.675974
71.741939
72.792768
70.037842
63.228607
51.935911
43.087602
31.694770
24.455786
18.213987
14.327765
11.208653
10.221601
9.533763
9.174943
8.939505
##ZVALUE=345
1.036525
0.950694
0.850558
1.035929
1.119971
1.029968
0.906587
0.960827
0.913739
1.043677
1.019835
1.084805
0.994802
1.074672
0.924468
1.020432
1.005530
1.031756
1.052618
1.061559
1.027584
1.174808
0.965595
1.067519
1.042485
1.101494
1.230836
1.130700
1.308918
1.125932
1.193881
1.137853
1.164675
1.089573
1.312494
1.197457
1.388788
1.243949
1.311898
1.334548
1.548529
1.468658
1.630783
1.622438
1.652837
1.722574
1.692772
1.821518
1.959801
1.977682
2.120733
2.476573
2.499819
3.033876
7.336736
48.057437
131.206512
324.358940
560.259819
962.430835
1015.784740
1015.784740
1015.784740
1015.784740
1015.784740
1015.784740
973.581672
573.809743
323.000550
124.118924
53.508878
16.991496
10.635853
9.851456
9.083748
9.068847
9.733438
11.328459
14.453530
21.229982
29.295683
41.106939
49.777627
59.057474
64.831972
67.394972
66.038966
58.916807
52.327514
41.586757
32.594800
23.369789
17.911792
13.217926
11.304617
9.796619
##ZVALUE=350
0.948906
1.012683
0.978708
0.947714
0.956655
1.005530
1.096725
1.102686
1.070499
1.215935
0.975728
0.926852
1.045465
1.031756
1.145601
0.982881
1.074672
0.971556
1.143813
1.103878
0.943542
1.154542
0.978708
1.150966
1.074672
1.235604
1.146793
1.154542
1.168847
1.090765
1.195669
1.241565
1.216531
1.135468
1.315475
1.337528
1.365542
1.246929
1.205802
1.324415
1.344681
1.462698
1.359582
1.503825
1.608729
1.711845
1.728535
1.822710
1.793504
1.867414
1.809597
2.039671
2.118945
2.260804
2.486706
2.755523
4.904866
18.797517
86.821914
190.673470
427.619815
704.426765
1015.788913
1015.788913
1015.788913
1015.788913
1015.788913
1015.788913
1015.788913
742.232800
400.334597
211.331844
68.699718
26.420951
10.993481
9.350777
8.750558
8.399487
8.724928
9.041429
10.806918
13.777614
19.170642
25.431514
35.690665
43.802857
53.181648
58.923960
62.036514
60.550570
54.735541
48.868656
37.768483
30.622482
22.140741
17.490983
##ZVALUE=355
0.936985
0.998974
0.843406
0.840425
0.907779
1.106858
1.069903
0.957847
0.984669
0.992417
1.059771
1.027584
0.969768
1.039505
1.064539
1.009703
1.064539
1.157522
1.040697
1.012683
1.017451
1.156926
0.977516
1.108646
1.113415
1.217723
1.190901
1.101494
1.154542
1.352429
1.179576
1.217723
1.149774
1.110435
1.116991
1.211762
1.265407
1.308918
1.324415
1.291633
1.278520
1.375675
1.376867
1.550913
1.386404
1.628995
1.607537
1.618862
1.671910
1.672506
1.780987
1.847744
1.775622
2.027750
1.961589
2.203584
2.422929
2.720952
2.936721
10.893941
40.347576
150.025487
297.282934
581.774712
874.698758
1015.788913
1015.788913
1015.788913
1015.788913
1015.788913
1015.788913
838.951468
536.629558
237.874985
110.842586
31.852722
13.074875
8.353591
8.345842
7.836819
7.806420
8.032918
8.613467
9.899735
12.287498
17.083883
22.381544
30.224919
37.786961
47.718883
53.046942
55.981874
54.953694
51.647425
45.570731
37.329793
##ZVALUE=360
0.982881
1.026988
0.994802
1.002550
0.954866
0.980496
1.059771
0.967979
1.021624
0.955462
1.026988
1.064539
0.995994
0.994802
1.065731
1.049638
1.054406
1.268983
1.077652
1.243949
1.112819
0.910759
1.077652
1.189709
1.062751
1.013875
0.959635
1.125932
1.101494
1.194477
1.120567
1.188517
1.286864
1.231432
1.174808
1.225471
1.245737
1.298785
1.436472
1.143813
1.325607
1.366735
1.404881
1.420975
1.416802
1.367927
1.353621
1.369715
1.546741
1.636744
1.585484
1.665950
1.794696
1.907945
2.079606
1.973510
2.314448
2.156496
2.490878
2.646446
2.890825
4.807711
15.976429
71.537495
169.966817
414.748788
677.106977
1015.788913
1015.788913
1015.788913
1015.788913
1015.788913
1015.788913
963.279009
647.536516
319.840908
166.956782
58.307648
21.198988
8.634925
7.808805
7.544756
7.348657
7.309914
7.467866
7.404685
8.261800
10.735989
13.312697
18.899441
25.178790
33.707619
39.675832
47.228932
49.807429
51.249862
##ZVALUE=365
1.043677
1.119971
1.151562
0.954866
0.902414
0.970960
1.058578
0.869632
1.072884
0.947714
1.041889
1.126528
1.035929
1.059771
1.103878
1.095533
1.166463
1.066923
1.106858
0.931621
0.973940
0.942945
1.277924
1.086593
1.170635
0.974536
1.204610
1.087785
1.206994
1.072884
1.160502
1.234412
1.206994
1.191497
1.227856
1.319647
1.406670
1.336932
1.283884
1.340508
1.055598
1.357794
1.516938
1.193881
1.331568
1.457930
1.447797
1.441836
1.640916
1.368523
1.551509
1.582503
1.810789
1.607537
1.687407
1.610518
1.788735
2.072453
2.133846
2.353787
2.533793
2.643466
2.802610
3.530979
7.463694
40.623546
111.002922
298.793912
527.334809
911.679864
1015.788913
1015.788913
1015.788913
1015.788913
1015.788913
1015.788913
784.592032
434.527993
242.094994
90.599656
34.729838
10.481477
7.585883
7.143617
7.074475
6.796718
6.706715
6.778836
6.961823
7.518530
8.690953
11.855960
15.856624
21.762848
27.367473
34.910440
##ZVALUE=370
1.000762
0.987649
0.913739
0.951886
0.815988
0.941753
0.973940
0.875592
0.976920
0.958443
1.086593
0.897646
1.042485
1.135468
0.961423
1.046658
1.085997
0.873804
1.015663
0.934601
0.967979
0.941753
0.996590
0.978708
0.965595
1.171827
0.958443
1.019835
1.156926
1.071692
1.186728
0.930429
0.961423
0.898838
1.078844
1.220703
1.182556
1.263618
1.233816
1.232624
1.219511
1.239777
1.160502
1.218915
1.251698
1.220703
1.353621
1.451969
1.384616
1.374483
1.395941
1.389980
1.430511
1.551509
1.480579
1.633763
1.595616
1.629591
1.739860
1.806617
1.797676
2.079606
2.350807
2.349615
2.553463
3.045797
4.205704
22.699833
71.793795
220.007896
407.823920
771.101713
1015.788913
1015.788913
1015.788913
1015.788913
1015.788913
1015.788913
880.372524
488.328934
275.491476
106.008649
46.705604
14.862418
8.054972
6.915927
6.548762
6.414652
6.146431
6.192923
6.010532
6.248951
6.625652
8.096695
9.735823
14.302731
##ZVALUE=375
0.882745
1.007915
0.941753
0.908971
0.970960
0.777841
0.918508
0.950694
0.937581
0.924468
0.911951
0.888705
1.093745
1.020432
0.904799
0.915527
1.033545
0.962615
0.946522
1.013875
0.982881
0.992417
0.843406
0.851750
0.964999
1.159906
0.921488
0.998974
1.004934
1.081824
1.019835
1.004934
1.096725
0.966787
1.102686
1.032948
1.108646
1.163483
1.250505
0.995994
1.018643
1.103878
1.105666
1.155734
1.220703
1.161695
1.193881
1.262426
1.196861
1.275539
1.311898
1.301765
1.296997
1.468658
1.271963
1.379848
1.239777
1.473427
1.520514
1.636744
1.685619
1.701713
1.910925
1.837611
2.012849
2.054572
2.340674
2.814531
3.374815
12.384653
45.721531
161.099434
329.194665
677.862763
977.909565
1015.788913
1015.788913
1015.788913
1015.788913
1015.788913
1002.161503
628.232956
385.876894
172.644854
81.190467
24.807453
10.217428
6.681681
6.382465
5.943775
5.750656
5.698800
5.767941
5.591512
5.762577
6.179810
##ZVALUE=380
0.784993
0.833869
0.872612
0.901818
0.936985
0.866652
0.884533
0.878572
0.911951
0.675917
0.903606
0.943542
0.987649
0.902414
0.979900
0.856519
0.918508
0.960827
0.809431
0.913739
0.894666
0.945926
0.884533
1.017451
0.953674
1.044869
1.082420
1.045465
0.944734
1.003742
0.947714
0.936985
1.021624
0.908971
0.924468
1.006722
1.069903
1.089573
1.014471
1.130700
1.040697
1.094937
1.007915
1.139641
1.136661
1.176596
1.154542
1.371503
1.158714
1.208782
1.227856
1.152754
1.299977
1.330972
1.179576
1.163483
1.228452
1.413822
1.361966
1.638532
1.579523
1.630783
1.618862
1.712441
1.653433
1.867414
2.120733
2.374649
2.468824
2.967715
3.377795
6.125569
24.444461
114.537477
255.673528
574.800968
903.312564
1015.788913
1015.788913
1015.788913
1015.788913
1015.788913
1015.788913
804.883838
537.228584
258.449912
129.496455
42.803884
15.995502
7.000566
6.030798
5.628467
5.506873
5.324483
5.162954
5.137920
##ZVALUE=385
0.874996
0.862479
0.844598
0.870824
0.783801
0.683665
0.967979
0.819564
0.968575
0.811815
0.890493
0.764728
0.723600
0.944734
0.901818
0.976920
0.820756
0.975728
0.998974
0.952482
1.024604
0.998974
0.906587
1.020432
0.884533
0.929832
0.918508
0.894666
0.989437
1.084805
0.986457
0.944734
1.038909
0.859499
0.667572
0.874996
0.926852
0.967979
0.788569
1.050830
1.191497
0.991821
0.966787
0.911951
1.069903
1.053810
1.003742
1.114607
1.136661
1.134872
1.040697
1.177788
1.159906
1.316667
1.252890
1.182556
1.123548
1.380444
1.315475
1.454949
1.380444
1.409650
1.456738
1.523495
1.543760
1.653433
1.899600
1.989603
2.079606
2.405643
2.617836
2.817512
3.054738
3.765821
11.181831
63.176751
163.044930
404.983759
707.800984
1015.767455
1015.767455
1015.767455
1015.767455
1015.767455
1015.767455
1015.768051
779.202580
397.599936
212.943554
79.717636
30.409694
8.488894
5.906820
5.520582
5.248785
5.184412
##ZVALUE=390
0.719428
0.980496
0.831485
0.854731
0.816584
0.702739
0.852942
0.893474
0.945926
0.892878
0.823736
0.859499
0.827909
0.799894
0.879765
0.860691
0.848770
0.835657
0.881553
0.817776
0.974536
0.996590
0.998974
1.021624
0.870824
0.896454
0.899434
0.986457
0.783801
0.929832
0.918508
0.905991
0.940561
0.993609
1.046658
0.883937
0.750422
0.969768
1.032948
1.029968
1.100898
1.021624
0.910759
0.899434
1.085997
0.927448
1.117587
1.081824
0.968575
1.131892
1.124740
1.207590
1.189709
1.281500
1.187921
1.067519
1.321435
1.286864
1.199841
1.371503
1.344681
1.427531
1.472831
1.468658
1.654625
1.628995
1.664758
1.943707
1.905560
2.277493
2.172589
2.530813
2.452731
2.528429
2.690554
2.978444
5.601645
30.143857
89.356899
268.006921
507.475734
954.807997
1015.788913
1015.788913
1015.788913
1015.788913
1015.788913
1015.788913
1015.788913
605.604053
332.892537
126.700997
55.104494
15.652776
6.891489
5.569458
##ZVALUE=395
0.858903
0.813603
0.774860
0.769496
0.888705
0.834465
0.822544
0.856519
0.919700
0.842810
0.780821
0.860691
0.783801
0.851750
0.846982
0.795722
1.018643
1.017451
0.937581
0.899434
0.916719
0.692606
0.972748
0.996590
0.797510
1.050830
0.874996
0.926852
0.854731
0.842810
0.866652
0.976920
0.838637
1.002550
0.986457
0.982881
0.962615
0.897646
0.907779
0.999570
1.079440
1.125932
1.010895
1.090765
1.002550
0.977516
1.015663
1.071692
1.109838
1.353621
1.061559
1.182556
1.151562
1.123548
1.184940
1.056790
1.167655
1.289845
1.291633
1.236796
1.273751
1.310706
1.308918
1.334548
1.377463
1.615882
1.699924
1.819730
1.975894
2.027750
2.159476
2.285838
2.469420
2.320409
2.413988
2.408624
2.575517
2.768636
3.804564
18.400550
62.512755
213.715434
412.804484
810.059905
1015.788913
1015.788913
1015.788913
1015.788913
1015.788913
1015.788913
1015.788913
786.200762
467.265844
190.210938
84.662437
25.247931
##ZVALUE=400
0.879765
0.886917
0.816584
0.721812
0.845790
0.865459
0.916719
0.817776
0.956655
0.860691
0.985861
0.855923
0.755787
0.913739
0.959635
0.899434
0.851750
0.779629
0.840425
0.870824
0.802875
0.905991
0.913739
0.914931
0.877976
0.786781
0.829697
0.877976
0.938773
0.970960
0.918508
1.004934
0.977516
0.966787
0.955462
1.040697
1.084805
1.093745
0.936985
0.953674
1.049638
0.992417
0.920892
1.158714
1.091957
1.065731
0.987649
1.034737
1.130700
1.090765
1.111627
1.171827
1.040697
1.122952
1.186728
1.189709
1.275539
1.057982
1.110435
1.193881
1.330972
1.212955
1.196861
1.480579
1.408458
1.444817
1.508594
1.646876
1.780987
1.970530
1.871586
2.128482
1.989603
2.032518
1.932979
1.997948
2.035499
2.029538
2.482533
2.516508
3.139973
8.985996
32.646656
114.272833
239.942670
516.996980
815.254450
1015.788913
1015.788913
1015.788913
1015.788913
1015.788913
1015.788913
925.245881
606.777668
300.865769
##END
