##TITLE=QP00302
##FORMAT=SPECTACLE-ASCII V-1.2
##DATA TYPE=ULTRAVIOLET SPECTRUM
##SECOND TYPE=ULTRAVIOLET SPECTRUM
##DATE=11/28/17
##TIME=16:19:24
##SPECTROMETER/DATA SYSTEM=SPECTACLE
##XUNITS=NM EM
##YUNITS=ENERGY
##YFACTOR=1
##FIRSTX=220
##LASTX=410
##NPOINTS=96
##3DDATA=Equidistant
##ZUNITS=NM EX
##FIRSTZ=210
##LASTZ=400
##ZPOINTS=39
##XYDATA=(Y..Y)
##ZVALUE=210
4.458427
4.645586
4.338622
3.437996
4.370809
4.473925
4.643798
4.847646
5.790591
4.247427
3.872514
3.732443
3.548861
4.474521
4.037619
4.351735
4.125834
3.771782
5.497932
4.814863
5.228519
4.921556
6.342530
5.252957
6.665587
6.848574
6.402731
7.440448
6.804466
7.604957
6.627440
6.862879
7.614493
8.584857
8.988976
8.645654
8.860826
9.000897
9.527802
8.834600
9.780526
9.520650
10.277629
11.849999
9.741783
10.849833
10.556579
10.540485
10.855794
10.521412
11.937618
10.918975
11.803508
11.866689
13.838410
13.968945
13.290644
13.790727
11.871457
13.711452
14.191866
14.384985
13.408661
13.793707
13.453960
16.776919
16.377568
16.909838
20.476580
24.293661
27.600527
31.940937
39.486885
45.123696
48.177838
54.602623
58.216453
59.563518
60.180426
56.623816
54.465532
48.806667
45.252442
38.960576
35.358667
27.382970
22.931695
19.704700
15.924573
15.887618
15.877485
14.595985
13.976693
15.499592
14.340878
14.756918
##ZVALUE=215
11.469722
11.662841
10.362864
9.186864
9.285808
8.334517
8.024573
8.267760
8.496642
7.871985
6.672740
6.977916
5.736947
5.022883
4.592538
4.820824
4.376769
4.791617
3.944635
5.117655
4.647970
5.682707
5.839467
6.549954
5.936623
6.387830
6.618500
7.955432
7.355809
8.785725
8.172989
8.773804
7.704496
9.794831
8.439422
8.502603
8.631945
8.733869
9.471774
9.166598
9.776950
10.240674
10.474920
9.445548
10.316968
11.048913
10.583997
11.121631
11.528730
12.085438
12.331605
11.913776
11.936426
13.707876
13.628602
12.140870
13.733506
13.419986
13.754964
12.650490
13.808608
13.944507
13.900995
14.080405
14.580488
15.191436
15.180707
16.209483
19.428730
22.989511
26.081800
30.965805
33.107996
38.016438
40.816665
43.807626
49.346685
43.749809
45.613647
46.855807
43.217540
39.355755
33.212900
30.775666
26.256442
23.983717
19.973516
17.064810
15.742779
15.001893
14.419556
13.764501
13.939738
13.454556
12.980700
13.481975
##ZVALUE=220
26.762486
28.812885
31.315684
32.542944
30.894876
25.268793
21.448731
16.598701
16.775727
14.588833
15.236735
15.265942
15.183687
13.577938
10.723472
8.245707
6.806850
6.087422
5.046725
4.502535
5.316734
5.356669
5.435944
6.306767
5.596876
7.025599
6.947517
6.162524
6.958842
7.330775
6.566644
7.907748
7.769465
8.579493
8.914471
8.949637
9.554625
10.484457
9.111762
8.887649
9.687543
9.270906
10.186434
10.041595
10.054708
10.693669
11.443496
11.215806
10.120869
11.955500
12.320876
12.288690
13.278723
12.757778
12.659431
13.827682
14.286637
13.219714
13.804436
13.920665
15.166998
14.739633
14.308691
15.360713
14.871955
14.120936
16.770959
17.312765
18.351674
21.362901
23.926497
24.934411
30.000806
32.995939
34.882426
38.514733
38.319826
38.913488
35.269856
36.407709
32.392740
29.379725
25.463700
25.201440
20.534992
19.599795
17.791986
14.989972
16.500950
16.007423
15.432835
14.858842
13.714433
13.812780
13.087988
14.082789
##ZVALUE=225
46.370625
49.158931
65.627694
80.560446
89.097619
91.742873
83.264709
68.962574
52.871704
38.482547
31.378865
27.318001
26.699901
29.090643
29.005408
27.831793
23.340583
17.259717
15.041828
10.175705
7.894635
6.413460
6.582737
6.805658
6.275773
5.810857
5.897880
6.742477
6.199479
6.675720
7.075667
7.764697
7.381439
8.057952
8.582473
8.847713
9.466410
11.005998
9.690523
10.397434
10.854602
10.803938
10.413527
11.200905
11.603832
11.019707
11.642575
11.413693
12.671947
12.168884
11.903644
11.990666
12.796521
12.540817
13.897419
14.162660
13.874769
15.148520
15.088916
16.184449
14.846921
14.829636
16.378760
15.990734
17.160773
16.721487
17.205477
18.120408
20.830631
23.276806
23.897886
28.600693
32.433867
35.898685
36.422610
40.973425
39.514899
34.964681
34.919977
32.048821
29.994845
28.696656
26.096702
24.669766
21.966696
20.404458
20.625591
21.803975
18.253922
16.950965
18.668771
17.472506
17.106533
19.399524
17.222762
15.553832
##ZVALUE=230
37.062764
38.070679
72.062612
112.089515
155.720711
201.992989
221.861005
222.975612
205.865502
166.773796
127.278566
79.538822
56.219697
45.687556
44.373870
48.305988
50.456524
45.864582
46.154857
35.727620
29.434562
20.682812
13.462901
10.339618
7.500648
7.959604
7.585883
7.164478
8.646846
8.264780
8.424520
8.840561
8.959770
9.735823
10.447502
10.976791
10.633469
11.212826
11.966825
12.325644
12.299418
11.112690
12.535453
12.702942
12.957454
13.827682
13.481975
14.166832
14.685988
13.095737
13.987422
14.985800
16.478896
17.214417
17.349720
18.123984
17.795563
18.192530
19.652843
19.735694
20.113587
19.973516
20.744801
21.428466
22.882819
21.680593
24.377704
24.588704
27.511716
27.765632
34.042597
37.786961
41.828752
45.866966
46.067834
48.001409
47.743917
46.028495
45.878887
43.246746
40.389895
37.281513
34.710765
32.409430
29.922724
30.728579
26.980639
25.840998
25.699735
26.149750
23.470521
25.232434
24.328828
23.556948
25.324821
24.101734
##ZVALUE=235
13.037920
14.472604
31.451583
78.183413
134.002566
221.650004
299.896598
399.627686
448.378921
463.281870
434.612632
359.924436
257.609487
187.587738
117.604733
89.686513
73.502660
73.934793
78.404546
78.167915
74.015856
63.948631
52.300692
39.588809
27.962923
18.963814
13.094544
11.308789
9.830594
9.729862
10.829568
10.680556
9.869933
11.370778
10.413527
11.207461
11.551976
11.545420
11.890531
12.734532
11.955500
12.947917
12.485981
13.576746
12.678504
13.448596
11.552572
13.504624
14.918447
14.654994
15.215874
14.957786
16.675591
17.936826
18.438697
18.917918
18.620491
20.994544
20.364523
20.557642
22.883415
22.120476
23.462772
22.005439
24.825931
23.800731
28.389692
28.268695
30.396581
33.446550
37.024617
39.639473
43.606758
48.703551
48.915744
50.025582
49.981475
50.024986
45.780540
49.647689
41.841865
42.452812
39.442778
38.789511
36.023855
33.472776
35.919547
31.342506
31.995773
32.202601
31.292439
31.673908
30.145645
30.256510
30.247569
29.840469
##ZVALUE=240
2.793670
2.948642
6.628633
15.423894
47.248602
95.548630
199.496746
318.970680
502.133965
621.765852
728.848577
747.653842
707.473755
591.318607
470.299721
297.557712
203.200579
130.756497
100.823641
98.072886
105.861425
111.305714
110.116601
103.614926
77.898502
66.684484
50.176978
38.431883
23.650527
18.351674
14.947653
12.265444
12.780428
11.144876
12.695789
12.764931
12.670755
13.483763
12.645721
13.574958
13.925433
13.062954
14.011860
13.369918
13.190508
15.127659
14.914870
13.865829
15.570521
14.782548
16.929507
18.268824
18.407702
18.284917
19.024611
19.671917
21.996498
20.784736
23.680925
23.531914
24.368763
23.942590
26.198626
25.665760
28.223991
30.508637
29.969811
32.132864
34.518838
38.965940
43.349862
44.797659
51.783919
54.179430
55.488944
58.362484
58.501959
57.273507
56.955814
54.404736
55.399537
49.684644
44.930577
45.561790
43.139458
41.391850
41.408539
38.577914
38.056970
35.127997
36.927462
38.543940
35.284758
37.238598
37.587881
36.448836
##ZVALUE=245
2.360940
2.711415
2.457500
2.844930
5.169511
14.007688
52.437782
111.769438
273.602605
431.562662
684.690475
863.709450
993.307829
1015.788913
1003.418565
812.317729
657.484531
435.673594
289.446712
157.871842
112.466812
97.870827
106.733441
119.258761
127.504468
120.175481
112.373829
97.387433
72.402954
56.774616
40.041804
26.535988
20.217896
14.554858
12.400746
12.332797
11.864901
11.098981
11.935830
12.119412
11.676550
11.799932
11.063814
11.313558
12.234449
12.338758
12.465715
13.278723
13.307929
13.736486
13.326406
15.337467
15.662909
15.872717
17.407537
17.624497
17.154813
19.572973
18.110871
19.848943
19.952655
21.745563
22.862554
22.958517
24.775863
24.492741
24.793744
26.923418
28.494000
32.920837
34.327507
39.301515
40.694475
44.737458
49.176812
50.297976
50.002933
48.960447
50.410628
47.924519
48.031807
44.736862
43.330789
39.500594
37.467480
37.356615
35.599470
36.330819
36.361814
34.967661
35.050511
33.827424
34.858584
33.903718
33.136606
33.316612
##ZVALUE=250
2.238750
2.012849
2.267957
2.579689
2.233982
2.686977
3.633499
8.455515
39.640665
90.208650
230.435729
389.548540
587.567687
849.993825
1010.114551
1015.594006
1015.594006
1000.539660
849.234462
578.984618
378.889441
239.484906
127.293468
99.499822
102.232695
117.422938
130.353570
132.030845
130.129457
120.361447
103.285909
76.067448
62.332749
37.601590
25.149584
16.357899
13.019443
10.534525
10.222793
10.460615
10.291934
11.027455
10.810494
10.379553
10.363460
10.255575
10.307431
10.773540
10.708570
10.739565
12.626648
12.135506
12.009740
12.853742
13.651848
14.453530
14.112592
14.777780
15.497804
15.695691
16.529560
16.562939
17.557740
17.928481
17.546415
18.743873
20.274520
20.197630
22.454858
25.583506
26.845932
29.855967
31.526685
35.289526
37.209988
36.035776
39.268732
37.670732
37.749410
38.192868
37.921667
34.493804
32.404661
33.802986
31.529665
29.178858
31.663775
30.013919
31.887889
30.435920
31.330585
30.866861
30.339956
31.036735
32.394528
29.983521
##ZVALUE=255
2.019405
2.054572
2.050996
2.245903
2.316833
2.155900
2.712607
2.920628
3.120899
7.381439
21.919608
75.109601
157.183409
344.848633
526.380539
740.522742
1000.198722
1015.788913
1015.788913
1015.788913
985.410810
772.743821
473.477840
298.826694
163.703561
109.191537
89.974999
99.847913
115.955472
132.586956
138.629675
133.420825
124.425888
99.769831
80.384612
55.739880
39.234757
23.370981
17.017722
11.406541
10.144711
9.309649
10.004640
9.885430
9.268522
9.772778
9.815693
9.406805
9.529591
10.033846
10.261536
10.922551
11.794567
11.933446
11.558533
12.388825
12.405515
12.558699
12.228489
13.822913
14.128685
14.259815
14.752746
14.690757
15.886426
16.686916
17.690659
19.476414
18.523932
20.667911
24.586916
25.229454
27.831793
29.482841
32.164454
31.317472
31.158924
32.074451
31.161904
30.807853
30.507445
30.860901
29.025674
27.864575
28.600693
26.891828
27.060509
27.209520
27.142763
27.501583
29.051900
29.293895
27.970672
28.085709
28.668642
27.617812
##ZVALUE=260
1.936555
2.025962
2.066493
1.926422
2.349615
2.112985
2.022982
2.358556
2.231598
2.621412
3.039837
3.240705
14.603734
41.079521
111.112595
232.506990
479.026437
711.776614
1003.238559
1015.788913
1015.788913
1015.788913
1015.788913
991.729498
747.788548
451.783538
281.067491
136.094689
92.444420
81.645846
94.008446
119.375587
138.486624
145.173669
142.462850
127.496719
108.228922
82.484484
60.535669
39.611459
26.809573
16.765594
12.538433
10.955930
10.770559
9.490848
9.488463
9.989738
9.798408
10.025501
10.829568
11.020899
10.918975
11.893511
12.396574
11.808872
11.466742
12.900829
12.858510
13.468862
13.288856
14.087558
13.137460
14.408827
14.363527
15.145540
17.110705
16.941428
18.159747
20.291805
21.337867
22.973418
25.680661
26.004910
26.446581
26.423931
26.908517
28.325915
26.667714
27.590990
26.899576
25.979877
25.276542
26.151538
25.852919
26.257634
25.802851
25.122762
26.478767
25.375485
26.168823
26.569963
25.893450
26.421547
27.058721
25.355816
##ZVALUE=265
1.575947
1.551509
1.512766
2.059937
2.006888
1.881719
2.032518
1.905560
1.940727
1.926422
2.044439
2.338886
2.389550
2.660751
6.172657
32.016635
81.293583
199.846029
353.297591
661.183596
934.938788
1015.788913
1015.788913
1015.788913
1015.788913
1015.788913
918.877721
648.124814
360.034704
209.007859
125.972629
75.124502
77.123642
104.317665
123.997927
142.525434
148.384571
142.048597
128.242970
104.390979
82.696676
58.102608
41.457415
24.677515
17.714500
12.296438
10.764599
9.991527
10.822415
11.100769
10.264516
11.369586
11.450648
11.457801
11.497736
11.990666
11.682510
12.570620
12.745857
13.328791
13.372898
13.008714
14.194846
13.961792
14.319420
14.335513
15.306473
16.361475
16.399622
18.022656
19.234419
20.811558
21.878481
23.950934
23.580790
25.147796
24.790764
25.773644
24.455786
23.727417
23.792982
23.855567
23.784637
23.738742
23.421645
24.695992
25.280714
23.487806
24.415851
23.953915
24.978518
24.186969
24.245977
24.454594
23.696423
24.876595
##ZVALUE=270
1.587868
1.471639
1.674891
1.797676
1.652837
1.529455
1.825690
1.717806
1.828671
1.769662
1.853704
2.186894
2.071857
2.286434
2.350807
2.558827
3.643632
15.051961
46.556592
149.765611
293.291807
515.427589
900.239944
1015.788913
1015.788913
1015.788913
1015.788913
1015.788913
1015.788913
889.934897
617.294908
311.614871
169.946551
76.341629
63.234568
78.374743
100.371838
126.249790
139.325857
149.092674
146.989822
128.964782
110.434890
81.716776
61.752796
38.330555
27.432442
18.318892
13.575554
12.118816
11.484623
11.913776
11.747479
12.136698
12.022853
12.639761
12.907982
12.970567
13.622642
13.608932
13.628602
14.922619
14.725924
14.464855
14.766455
14.901757
16.003847
16.689897
17.376542
18.954873
19.665956
21.333694
21.900535
23.265481
23.580790
23.902655
23.449659
24.114847
23.570657
22.638440
22.700429
22.438765
22.886992
22.451878
22.298694
23.072958
22.493601
22.067428
22.704601
23.378730
22.929907
23.138523
23.456812
23.536682
22.697449
23.459792
##ZVALUE=275
1.541972
1.591444
1.496673
1.523495
1.573563
1.548529
1.617670
1.749992
1.741648
1.584888
2.027750
1.751781
1.863837
2.167821
2.099872
2.376437
2.510548
2.457500
2.804995
6.966591
29.063821
82.697868
242.639780
455.046892
853.955746
1015.789509
1015.789509
1015.789509
1015.789509
1015.789509
1015.789509
1015.789509
846.633911
442.811847
247.403979
101.567507
61.798692
57.440996
75.300932
103.482604
120.687485
142.130852
149.328709
143.503547
129.831433
104.513764
85.068941
61.803460
44.188499
27.446747
20.622611
14.789701
13.414621
12.289882
12.725592
12.957454
13.320446
13.320446
14.552474
14.344454
14.593601
15.392900
15.345812
14.870763
15.724897
16.337633
17.385483
17.113686
17.829537
19.026995
19.823909
21.311641
23.162961
23.449659
24.199486
24.379492
24.522543
23.515821
23.569465
23.182631
22.726655
21.978617
22.051930
21.443963
22.651553
22.416711
22.127628
21.770597
21.529794
21.358728
21.568537
21.886826
22.159815
21.942854
21.341443
22.055507
##ZVALUE=280
1.379848
1.525879
1.580715
1.399517
1.574755
1.635551
1.745820
1.805425
1.642704
1.684427
1.708865
1.689792
1.784563
1.894832
1.877546
1.985431
2.026558
2.115965
2.474785
2.766848
2.945662
3.858805
20.112991
69.930553
225.985646
411.036611
749.527812
1015.792489
1015.792489
1015.792489
1015.792489
1015.792489
1015.792489
1015.792489
1004.241705
600.453615
357.487798
151.454806
72.641969
45.560598
53.392649
78.008771
98.186731
121.601820
136.322975
143.078566
141.139627
123.580694
106.146932
81.446767
63.225627
41.851997
30.690432
20.420551
16.091466
14.168620
14.145970
13.794899
15.285611
15.332699
15.066862
15.131831
15.850663
16.319752
16.659498
16.686916
17.284751
17.073750
18.591881
19.225478
20.032525
21.317601
22.303462
23.747683
23.678541
23.593903
23.118854
23.129582
22.946000
23.045540
22.025704
21.570921
21.723509
21.606684
20.980835
21.670461
20.916462
21.343827
20.755529
20.483732
21.088719
21.385550
21.594763
21.144748
22.087693
20.367503
##ZVALUE=285
1.403689
1.414418
1.272559
1.195669
1.138449
1.404881
1.390576
1.305938
1.371503
1.449585
1.589656
1.509786
1.634955
1.504421
1.642704
1.457930
1.729727
1.917481
1.934767
2.067685
2.386570
2.419949
3.060699
3.126860
9.319782
35.633445
128.660798
268.184543
574.159622
885.593891
1015.677452
1015.677452
1015.677452
1015.677452
1015.677452
1015.677452
1015.677452
795.166492
496.686697
234.855413
118.144751
45.964718
35.755634
51.040649
69.473982
95.488429
114.656687
132.473707
138.693452
136.630535
127.094984
107.581615
87.851882
62.559843
46.393871
31.166673
23.224950
18.360615
16.547441
16.106963
16.596913
16.951561
17.375946
16.999841
17.499924
17.489791
17.601848
18.415451
19.087791
20.446777
20.426512
21.983981
21.704435
22.812486
23.301840
23.571849
23.009777
22.672415
22.150874
22.441745
21.867752
21.770597
21.453500
21.324754
21.664500
20.913482
21.055937
20.990968
21.681786
20.980835
20.389557
20.418763
20.253658
20.107627
20.554662
20.439625
##ZVALUE=290
1.441836
1.293421
1.242757
1.336932
1.335740
1.388788
1.338720
1.364946
1.371503
1.427531
1.560450
1.432896
1.639724
1.482964
1.673698
1.675487
1.606941
1.693964
2.029538
1.964569
2.029538
2.228618
2.013445
2.366900
2.821684
3.071427
4.261732
14.647841
74.217916
175.517797
409.574509
683.379769
1015.788913
1015.788913
1015.788913
1015.788913
1015.788913
1015.788913
1015.788913
1015.788913
643.966794
389.070511
165.776610
73.787570
31.549931
31.942725
48.619509
64.771771
90.153813
107.842684
129.789710
137.494802
135.912895
126.155615
106.672645
88.450909
64.053535
48.118830
34.670830
27.066469
21.911860
19.131899
18.609762
18.664598
19.414425
18.369555
19.277930
19.365549
20.590425
20.707846
22.400618
22.466779
23.097992
22.805929
23.418665
23.267865
22.870898
23.040771
22.777915
22.353530
22.153854
21.761656
22.161603
21.991730
21.525621
21.073818
21.495819
21.619797
21.795630
21.384954
21.106601
21.079779
20.790696
20.043850
19.366741
20.318627
##ZVALUE=295
1.180768
1.307726
1.390576
1.498461
1.267791
1.346469
1.474619
1.337528
1.361966
1.311898
1.501441
1.338720
1.330972
1.572967
1.496673
1.563430
1.508594
1.439452
1.616478
1.611710
1.795888
1.750588
2.000928
2.056956
2.329946
2.468824
2.795458
3.161430
3.302693
6.682873
26.077628
115.899444
263.068676
596.600771
927.505493
1015.785933
1015.785933
1015.785933
1015.785933
1015.785933
1015.785933
1015.785933
942.841768
524.058938
290.670395
103.883743
43.591857
24.611950
29.924512
46.627522
62.519908
87.359548
105.068684
124.970675
132.289529
129.974484
122.284889
104.364753
88.075995
65.710545
50.852895
35.483837
28.559566
22.754669
21.235943
19.444823
19.591451
20.295978
20.956993
21.722913
21.738410
22.096634
23.436546
23.000836
23.716688
23.297668
23.626685
23.021698
22.881627
22.776723
22.352934
22.761822
22.208691
22.385716
22.247434
21.252632
21.620989
21.753907
21.414757
21.255612
21.718740
21.854639
20.676851
20.211935
20.355582
19.813776
##ZVALUE=300
1.272559
1.119971
1.106858
1.331568
1.250505
1.263618
1.316667
1.189709
1.349449
1.408458
1.337528
1.430511
1.480579
1.550913
1.586676
1.410842
1.291633
1.415610
1.672506
1.420975
1.643896
1.729727
1.618862
2.004504
2.161860
2.149940
2.253652
2.417564
3.021955
2.894998
3.237724
3.849864
18.529892
67.674518
221.711993
423.166752
816.057920
1015.788913
1015.788913
1015.788913
1015.788913
1015.788913
1015.788913
1015.788913
1015.788913
762.887001
402.188897
223.451853
78.752637
31.150579
23.302436
30.456781
44.030547
59.081912
82.319975
100.752711
120.582581
127.436519
126.698613
121.077895
104.948878
89.312792
67.728758
53.634644
37.752986
30.246973
24.291873
22.419691
21.592975
21.741986
22.308826
22.976995
23.159981
22.939444
23.579597
23.398995
23.523569
23.234487
23.425817
22.733808
22.451878
22.440553
22.595525
22.343993
22.668839
21.827817
21.586418
22.121668
22.282600
21.369457
21.386743
20.939708
20.824671
20.673871
20.284653
20.457506
##ZVALUE=305
1.158714
1.275539
1.253486
1.130700
1.156926
1.362562
1.222491
1.259446
1.449585
1.250505
1.216531
1.256466
1.326799
1.321435
1.316667
1.368523
1.448989
1.670718
1.590848
1.536608
1.506805
1.743436
1.686811
1.642704
1.660585
2.055764
1.881719
1.973510
2.145767
2.476573
2.619624
2.876520
3.106594
3.591776
7.071495
44.630766
129.083395
363.657475
642.616749
1015.788913
1015.788913
1015.788913
1015.788913
1015.788913
1015.788913
1015.788913
1015.788913
859.066844
536.847711
249.080658
122.048855
39.761662
22.183657
22.954941
29.259920
45.071840
59.332848
80.533624
96.695423
114.075541
122.672915
121.912956
115.120411
100.822449
84.561706
64.601898
50.641894
37.634969
30.532479
24.923682
23.465753
23.059845
22.536516
22.942424
23.347735
23.240447
23.080707
22.932887
22.668839
22.302866
22.787452
23.070574
22.794604
23.567677
22.186637
22.841692
22.245646
22.584796
22.023916
22.842884
21.228790
20.968914
20.852685
21.263957
20.789504
20.481944
##ZVALUE=310
1.191497
1.266599
1.210570
1.176596
1.239777
1.184940
1.276731
1.259446
1.166463
1.215935
1.533628
1.332760
1.428723
1.496673
1.477599
1.121759
1.192689
1.332760
1.284480
1.383424
1.295805
1.591444
1.506805
1.675487
1.842976
1.761913
1.775622
1.883507
2.029538
2.114773
2.342463
2.362728
2.502799
2.727509
2.999902
3.329515
4.207492
19.785762
70.500970
239.799619
467.225909
922.763944
1015.788913
1015.788913
1015.788913
1015.788913
1015.788913
1015.788913
1015.788913
1015.788913
758.846998
380.975604
200.240612
68.077445
28.940439
18.429756
21.137595
28.679967
38.342476
56.024790
70.886612
90.433955
104.556680
115.424991
116.408467
108.352900
99.155903
82.097650
66.766739
49.852729
40.084720
30.876994
26.798844
24.295449
23.067594
22.985935
22.679567
22.543669
22.511482
22.456646
22.212863
22.082925
22.501945
22.456646
22.491813
21.875501
22.300482
22.634864
22.340417
21.613836
21.515489
21.838546
20.991564
20.476580
20.688772
20.430684
##ZVALUE=315
1.161695
1.090765
1.108646
1.083612
1.231432
1.208782
1.198649
1.177788
1.143813
1.176000
1.115799
1.232624
1.283884
1.230836
1.232624
1.150966
1.264811
1.321435
1.351833
1.412630
1.384616
1.610518
1.508594
1.698732
1.538992
1.729727
1.668930
1.813769
1.779795
1.968741
1.933575
2.119541
2.093911
2.461672
2.591610
2.637506
2.837777
3.093481
3.728867
9.655952
38.219690
160.603523
350.852013
774.294734
1015.788913
1015.788913
1015.788913
1015.788913
1015.788913
1015.788913
1015.788913
1015.788913
928.601027
492.269993
267.241001
96.420646
39.877892
18.268824
18.115640
20.708442
25.250912
37.213564
47.989488
67.268610
82.778931
100.500584
106.748939
110.285878
105.001926
92.162490
79.155564
62.701702
50.216913
36.974549
30.068755
24.954677
23.314953
22.499561
21.543503
21.312833
21.975636
21.418929
21.528602
22.458434
22.738576
22.352934
22.580624
22.025704
22.394657
22.107959
21.934509
21.511912
20.837784
21.064878
21.321774
21.095872
##ZVALUE=320
1.060963
1.077652
1.086593
1.080632
1.238585
1.102686
1.168847
1.256466
1.041889
1.222491
1.363754
1.136661
1.311898
1.214743
1.315475
1.220703
1.155734
1.347661
1.280904
1.286864
1.311898
1.354814
1.462698
1.443624
1.619458
1.712441
1.756549
1.637936
1.751781
1.672506
1.922846
1.775622
1.807809
1.896620
2.123713
2.062917
2.496839
2.608895
2.692938
3.140569
3.425479
4.254580
20.327568
73.562860
258.199573
508.397818
967.296958
1015.788913
1015.788913
1015.788913
1015.788913
1015.788913
1015.788913
1015.788913
1015.788913
729.259849
339.267850
173.316598
61.108470
26.008487
15.242696
15.556812
18.035769
22.860765
32.566786
43.065548
59.916973
75.006485
93.022585
100.863576
104.561448
101.435781
88.814497
77.807903
59.786439
48.197508
35.894513
29.531717
24.143457
22.145510
21.537542
21.162629
21.485686
21.444559
21.773577
21.417737
22.033453
22.352934
21.561980
21.553636
21.055937
21.115541
20.980835
21.063685
20.443797
21.141768
##ZVALUE=325
1.222491
1.127720
1.134872
1.055598
1.105666
1.077652
1.128912
1.191497
1.083612
1.174808
1.193881
1.178980
1.040697
1.292825
1.159906
1.066923
1.222491
1.266599
1.228452
1.399517
1.187921
1.392961
1.486540
1.263618
1.405478
1.589656
1.638532
1.677871
1.563430
1.599789
1.641512
1.588464
1.764894
1.766682
1.950860
1.899600
2.070665
2.114773
2.303720
2.492666
2.741814
2.900958
3.369451
3.926754
8.779764
58.369637
151.939392
395.377874
705.220699
1015.788913
1015.788913
1015.788913
1015.788913
1015.788913
1015.788913
1015.788913
1015.788913
819.430947
494.974852
217.121840
102.105737
31.489730
15.269518
12.828708
14.019608
16.689897
21.188855
31.270981
42.482615
58.981776
73.144436
87.991953
95.756650
98.733902
94.603896
82.537532
70.869923
55.159926
45.244694
33.473969
27.416945
23.270845
22.182465
21.546483
21.239519
21.108985
21.178722
20.775795
21.064878
21.416545
21.049976
20.564795
20.723939
20.553470
20.677447
20.467639
##ZVALUE=330
0.989437
1.023412
1.120567
1.108646
1.248717
1.071692
1.067519
1.046658
1.017451
1.064539
1.113415
1.243949
1.075864
1.291633
1.206994
1.065731
1.298785
1.133680
1.057982
1.235604
1.196861
1.289845
1.351833
1.308918
1.281500
1.388788
1.642704
1.387596
1.418591
1.404881
1.299977
1.581907
1.599789
1.642704
1.650453
1.842976
1.909733
1.873970
1.931787
2.057552
2.095699
2.274513
2.610683
2.920628
3.060699
3.518462
5.682707
18.736720
93.509555
224.164724
550.753474
913.577676
1015.784740
1015.784740
1015.784740
1015.784740
1015.784740
1015.784740
1015.784740
1015.784740
653.631687
367.652774
149.474740
63.663721
18.721819
13.034940
13.018847
13.513565
17.143488
21.739602
30.274987
40.930510
57.538748
70.428848
83.285570
90.076923
92.171431
88.717937
77.751875
67.654848
52.920580
43.011904
34.171939
28.650761
24.715662
22.446513
21.198988
20.929575
20.765662
20.853877
20.530820
20.637512
20.166636
20.113587
20.118952
20.394921
##ZVALUE=335
1.059771
1.133680
1.047850
1.082420
0.990629
1.075864
1.051426
1.067519
1.097918
1.075864
0.985861
1.183748
1.119971
1.197457
1.176596
1.276731
1.328588
1.145601
1.147985
1.324415
1.401901
1.262426
1.346469
1.355410
1.423955
1.316667
1.173615
1.488924
1.448989
1.351833
1.468658
1.319647
1.504421
1.691580
1.667738
1.665950
1.709461
1.534820
1.833439
1.892447
2.082586
2.082586
2.362728
2.390742
2.581477
2.936721
3.265738
3.362894
4.022717
11.955500
43.017864
166.269541
343.930721
772.498846
1015.788913
1015.788913
1015.788913
1015.788913
1015.788913
1015.788913
1015.788913
1015.788913
869.376659
453.884602
236.321688
82.281828
32.384992
13.779998
12.824535
13.540983
15.022755
17.276406
21.945834
30.486584
39.959550
54.489970
65.708756
77.986717
84.368587
85.828900
82.972646
74.430704
64.652562
52.259564
43.636560
34.381747
28.713942
24.486780
22.463799
20.735860
20.395517
20.117760
20.158887
19.854903
19.303560
19.561648
##ZVALUE=340
1.056790
0.972748
1.026988
1.089573
1.000762
0.972748
1.103878
1.030564
1.104474
1.056790
1.090765
1.097918
1.106858
1.038909
1.146793
1.268983
1.246929
1.131892
1.176000
1.172423
1.232624
1.329780
1.187921
1.111627
1.244545
1.250505
1.261830
1.369715
1.364946
1.218915
1.364946
1.402497
1.497865
1.590848
1.612902
1.629591
1.609921
1.689792
1.749992
1.744628
1.747608
1.919866
2.041459
2.157688
2.247691
2.473593
2.620816
3.015995
3.054738
3.176928
3.530979
6.152987
21.827817
106.453896
250.237584
590.968728
960.846543
1015.788913
1015.788913
1015.788913
1015.788913
1015.788913
1015.788913
1015.788913
1015.788317
686.753988
369.961858
130.835772
49.528480
17.715693
14.513731
14.720559
14.873743
16.417503
18.216968
23.013949
28.806925
39.616823
49.452782
64.681768
72.947741
81.348419
82.619786
79.605579
72.981715
61.829686
51.835775
41.830540
34.840703
27.257800
23.766756
20.839572
19.934773
19.371510
19.175410
19.052625
##ZVALUE=345
0.999570
0.934601
1.026988
1.083612
1.181960
1.075864
1.194477
1.120567
1.160502
1.201630
1.090765
1.118779
0.965595
0.940561
1.070499
0.970960
1.097918
1.154542
1.085997
1.359582
1.145601
1.155734
1.268983
1.158714
1.255870
1.161695
1.317859
1.280904
1.374483
1.137853
1.289845
1.330972
1.354814
1.297593
1.314878
1.450777
1.473427
1.542568
1.641512
1.600981
1.670718
1.843572
1.934767
1.867414
1.915693
2.126694
2.243519
2.187490
2.558827
2.795458
2.919436
2.966523
3.422499
3.928542
12.368560
49.219728
192.202926
375.581980
768.900514
1015.788913
1015.788913
1015.788913
1015.788913
1015.788913
1015.788913
1015.788913
1015.788913
993.539691
485.612750
232.488513
71.053505
28.444529
15.448928
14.637709
14.645457
14.376640
15.329719
16.800761
21.198988
27.096868
38.035512
46.416521
57.918429
66.237450
73.495507
77.065825
73.964596
68.858862
58.541894
50.746799
40.128827
33.125877
26.254654
22.777915
20.111799
19.255877
##ZVALUE=350
1.067519
1.084805
1.068711
1.252890
1.195669
1.089573
1.130700
1.275539
1.115799
1.120567
1.058578
1.157522
1.140833
1.220703
1.143813
1.137853
1.178980
1.055598
1.142621
1.224875
1.229644
1.126528
1.130700
1.039505
1.290441
1.327991
1.356602
1.310706
1.314878
1.257658
1.402497
1.322627
1.447797
1.447797
1.430511
1.465678
1.540780
1.420975
1.543760
1.582503
1.567602
1.749992
1.848936
1.797676
1.815557
1.899600
2.011657
2.010465
2.228618
2.482533
2.476573
2.627969
2.795458
3.078580
3.401637
3.919601
6.819963
24.596453
110.720992
243.468881
555.906892
922.887921
1015.788913
1015.788913
1015.788913
1015.788913
1015.788913
1015.788913
1015.788913
1015.788913
751.422644
389.647484
124.627948
46.306849
17.802715
14.512539
14.127493
13.692975
13.958812
14.397502
16.799569
20.048618
25.784969
32.306910
42.962432
51.501989
61.621666
67.673922
70.279837
69.181919
63.919425
56.317449
47.091842
39.391518
30.725598
26.238561
##ZVALUE=355
1.096725
1.201630
1.031756
1.220703
1.122952
1.257658
1.177788
1.225471
1.146793
1.029968
1.161695
1.016855
1.225471
1.123548
1.137853
1.168847
1.246929
1.199841
1.131892
1.238585
1.368523
1.280904
1.244545
1.102686
1.335740
1.287460
1.315475
1.396537
1.482964
1.323819
1.465678
1.316667
1.308918
1.445413
1.425743
1.512766
1.516938
1.479983
1.547933
1.607537
1.603961
1.730919
1.698732
1.821518
1.898408
1.821518
1.870990
1.973510
2.083778
2.022982
2.250671
2.425909
2.560616
2.734661
3.095865
2.947450
3.521442
3.897548
4.222989
15.172958
56.986809
201.880932
390.861034
779.118538
1015.788913
1015.788913
1015.788913
1015.788913
1015.788913
1015.788913
1015.788913
1015.788913
951.872468
407.379866
180.887580
49.490929
20.166636
13.316870
13.269782
12.801886
13.051629
13.524890
14.074445
15.721917
18.184781
23.863912
29.146671
37.558675
45.220852
54.923892
60.744882
64.194798
63.465834
59.470534
53.241849
44.896603
##ZVALUE=360
1.155734
1.229644
1.183748
1.146793
1.124740
1.146793
1.174808
1.215935
1.074672
1.135468
1.229644
1.346469
1.102686
1.261830
1.104474
1.289845
1.273751
1.323819
1.337528
1.248717
1.404881
1.441836
1.358986
1.450777
1.300573
1.526475
1.463890
1.394749
1.490712
1.523495
1.430511
1.388788
1.386404
1.419783
1.450777
1.699924
1.518726
1.484752
1.513958
1.708865
1.690984
1.749992
1.786947
1.794696
1.859665
1.754761
1.901984
2.005696
2.097487
2.280474
2.097487
2.318621
2.564788
2.752542
2.923608
2.743602
3.116727
3.165603
3.470778
4.124641
4.368424
7.580519
25.767684
112.516880
259.668827
617.985725
975.748897
1015.788913
1015.788913
1015.788913
1015.788913
1015.788913
1015.788913
1015.788913
1015.788913
643.818974
318.715572
102.911592
35.659671
14.023781
12.750626
12.382865
12.015700
12.200475
12.587905
13.214946
13.718605
16.278625
19.322634
25.053620
31.227469
40.361881
47.247410
54.182410
57.649612
58.223605
##ZVALUE=365
1.241565
1.245737
1.061559
1.146793
1.054406
1.251698
1.292825
1.165867
1.304746
1.152754
1.232624
1.101494
1.123548
1.333952
1.267791
1.346469
1.146793
1.300573
1.238585
1.253486
1.157522
1.256466
1.355410
1.405478
1.365542
1.477599
1.361966
1.450777
1.407862
1.472831
1.466870
1.348853
1.626611
1.417994
1.449585
1.512766
1.490712
1.458526
1.633763
1.673698
1.751781
1.675487
1.810789
1.798868
1.779795
1.804829
1.860857
1.969934
2.122521
2.169609
2.247691
2.207756
2.250671
2.403855
2.450943
2.702475
2.713799
3.229976
3.360510
3.652573
3.798604
4.600883
4.791617
5.639791
12.099743
67.550540
176.041722
452.044010
827.001929
1015.788913
1015.788913
1015.788913
1015.788913
1015.788913
1015.788913
1015.788913
1015.788913
967.417955
526.873469
169.125795
57.029724
15.565753
12.368560
11.663437
11.437535
11.230707
11.410713
11.398792
11.661649
12.315512
14.029741
17.333627
21.165609
27.851462
33.541918
41.368604
##ZVALUE=370
1.108646
1.162887
1.200438
1.041889
1.120567
1.100898
1.264811
1.165867
1.124740
1.121759
1.203418
1.211762
1.134872
1.116991
1.080632
1.086593
1.339912
1.221895
1.291633
1.316667
1.114607
1.299977
1.147985
1.237988
1.302958
1.285672
1.332760
1.388788
1.348853
1.342893
1.344681
1.400709
1.343489
1.668930
1.268983
1.403689
1.419783
1.289845
1.469851
1.372695
1.343489
1.517534
1.653433
1.454949
1.620650
1.558661
1.563430
1.668930
1.665950
1.720786
1.858473
1.892447
1.910925
2.094507
2.187490
2.202988
2.144575
2.347827
2.327561
2.710819
2.776980
3.049970
3.167987
3.564954
3.979802
4.576445
6.638765
32.586455
103.510618
312.826633
581.899881
1015.814543
1015.814543
1015.814543
1015.814543
1015.814543
1015.814543
1015.814543
1015.814543
1015.814543
754.689574
273.975730
107.761621
27.257800
13.285875
11.259913
10.854602
10.592937
10.479689
10.229945
10.098815
10.534525
11.143684
12.854934
14.906526
18.872619
##ZVALUE=375
1.126528
1.081824
1.077652
1.070499
1.117587
1.105666
0.989437
1.186728
1.010895
1.045465
1.004934
1.058578
1.159906
1.127720
1.049638
1.067519
1.064539
1.173615
1.165867
1.115799
1.134872
1.051426
1.021624
1.086593
1.211762
1.262426
1.221895
1.188517
1.211762
1.343489
1.065731
1.285672
1.252890
1.299977
1.392961
1.275539
1.235604
1.334548
1.266599
1.242757
1.432896
1.399517
1.364946
1.490712
1.273751
1.234412
1.361966
1.497865
1.406670
1.454949
1.564622
1.587868
1.630783
1.775622
1.667738
1.726747
1.921654
2.050996
1.910925
2.189875
2.068877
2.346635
2.601743
2.854466
2.900958
3.141761
3.237724
3.871918
4.705787
15.507936
53.411722
179.911852
377.508998
830.736756
1015.788913
1015.788913
1015.788913
1015.788913
1015.788913
1015.788913
1015.788913
1015.788913
984.610915
496.397018
244.360566
63.651800
18.836856
10.030866
9.665489
9.293556
9.468794
9.099841
9.271502
9.220839
9.299517
10.008812
##ZVALUE=380
0.983477
1.014471
0.870824
0.895858
0.955462
0.992417
0.993609
1.025796
0.967979
1.010895
1.093745
1.084805
1.075864
1.023412
1.098514
1.276731
1.030564
1.111627
1.185536
1.192689
1.171827
1.069903
1.241565
1.080632
0.994802
0.980496
1.052618
1.051426
1.066923
1.227856
1.176596
1.031756
1.149774
1.154542
1.190901
1.083612
1.137853
1.226664
1.176596
1.272559
1.228452
1.157522
1.252890
1.253486
1.347661
1.367927
1.314878
1.425743
1.271963
1.145601
1.460910
1.356602
1.442432
1.546741
1.484752
1.603961
1.709461
1.607537
1.629591
1.730919
1.822710
1.785755
2.152920
2.254844
2.121925
2.369881
2.460480
2.821684
3.132820
3.748536
4.171729
8.387566
31.053424
133.677721
292.026997
665.787458
1015.334725
1015.823483
1015.823483
1015.823483
1015.823483
1015.823483
1015.823483
1015.823483
1015.823483
633.651018
332.376957
105.925798
35.227537
10.945797
8.639693
8.378625
8.329749
8.330941
8.472800
8.359551
##ZVALUE=385
0.896454
0.808835
0.968575
1.025796
0.889897
1.099706
0.899434
1.007915
0.991821
0.876784
1.015663
0.965595
0.875592
0.929832
0.909567
0.978708
0.878572
0.889897
1.063943
1.006722
0.979900
1.039505
0.907779
1.075864
1.080632
0.951886
0.996590
0.863671
1.054406
1.007915
0.919700
0.949502
1.216531
1.074672
1.184940
1.170635
1.106858
1.138449
1.197457
1.069903
1.096725
1.078844
1.104474
1.132488
1.071692
1.188517
1.165867
1.306534
1.248717
1.216531
1.176596
1.225471
1.298785
1.233816
1.452565
1.441836
1.526475
1.447797
1.485944
1.680851
1.562834
1.737475
1.695752
1.813769
1.874566
2.004504
2.138615
2.321601
2.686977
2.967715
3.339648
3.551841
3.738999
4.976988
16.170740
87.893605
209.488273
493.382812
837.060809
1015.788913
1015.788913
1015.788913
1015.788913
1015.788913
1015.788913
1015.788913
1015.788913
703.768730
389.621854
139.943957
50.917864
12.733936
8.331537
7.838607
7.540584
7.608533
##ZVALUE=390
0.874996
0.742674
0.866652
0.711679
0.853539
0.886917
0.840425
0.861883
1.063943
0.810623
0.763535
0.822544
0.877976
0.878572
0.805855
0.914931
0.976920
0.896454
0.948906
0.952482
0.947714
0.913739
0.936985
0.811815
0.917912
1.051426
0.998974
1.125932
1.215935
0.898838
0.823736
0.949502
0.843406
1.085997
1.000762
1.162887
1.046658
1.134872
1.031756
1.054406
1.105666
1.169443
1.010895
1.172423
1.199841
1.233816
0.993609
1.198649
1.334548
1.274943
1.243949
1.337528
1.266599
1.258850
1.263618
1.409650
1.380444
1.435876
1.389980
1.368523
1.540780
1.611710
1.616478
1.533628
1.857877
1.904964
2.102852
2.217889
2.356768
2.718568
2.896786
3.056526
3.234744
3.200769
3.287792
3.787875
7.571578
50.010681
145.610571
397.217870
697.512031
1015.788913
1015.788913
1015.788913
1015.788913
1015.788913
1015.788913
1015.788913
1015.788913
944.762826
549.720526
215.772986
89.017749
20.730495
8.824468
7.312894
##ZVALUE=395
0.904799
0.840425
0.958443
0.925660
0.918508
1.019835
0.979900
0.941753
1.014471
0.959635
1.026988
0.980496
0.961423
0.971556
0.952482
0.980496
0.941753
0.891685
1.081824
0.971556
1.055598
1.078844
1.062751
0.938773
0.964999
1.021624
1.153946
1.011491
1.095533
1.233816
1.032948
1.156926
1.089573
1.102686
1.004934
1.154542
0.972748
1.226664
1.194477
0.974536
1.152754
1.131892
1.280904
1.279712
1.193881
1.169443
1.208782
1.338720
1.280904
1.194477
1.261830
1.473427
1.248717
1.311898
1.439452
1.328588
1.355410
1.321435
1.457930
1.417994
1.523495
1.703501
1.592636
1.653433
1.883507
1.951456
1.949668
2.048612
2.433658
2.469420
2.656579
2.840757
2.972484
2.967715
3.078580
3.115535
3.336668
3.666878
4.972816
30.594468
112.621784
348.665714
614.119768
1004.564762
1015.831828
1015.831828
1015.831828
1015.831828
1015.831828
1015.831828
1015.831828
1015.831828
695.321560
291.166902
131.125450
37.345886
##ZVALUE=400
0.866652
0.797510
0.944734
0.952482
0.935793
0.950694
0.913739
0.958443
0.823736
0.947714
0.910759
0.809431
0.739694
0.788569
0.899434
0.908971
0.840425
1.041889
0.989437
0.977516
0.864863
0.874996
0.898838
1.025796
0.767708
0.990629
0.837445
0.893474
1.058578
0.897646
1.103878
1.135468
1.055598
1.157522
1.069903
1.201630
1.170635
1.035929
1.067519
1.204610
1.169443
0.966787
1.193881
1.218915
1.020432
1.163483
1.103878
1.222491
1.132488
1.176596
1.289845
1.284480
1.227856
1.255870
1.340508
1.227856
1.331568
1.497865
1.447797
1.376867
1.527667
1.526475
1.495481
1.394749
1.616478
1.683831
1.795888
2.018809
2.180934
2.314448
2.497435
2.550483
2.595782
2.701879
2.636909
2.626777
2.656579
2.779961
3.118515
3.356934
3.896952
13.306737
55.170655
215.744972
436.004996
885.813832
1015.788913
1015.788913
1015.788913
1015.788913
1015.788913
1015.788913
1015.788913
1015.788913
926.916599
463.037491
##END
