##TITLE=QP00352
##FORMAT=SPECTACLE-ASCII V-1.2
##DATA TYPE=ULTRAVIOLET SPECTRUM
##SECOND TYPE=ULTRAVIOLET SPECTRUM
##DATE=11/28/17
##TIME=16:41:31
##SPECTROMETER/DATA SYSTEM=SPECTACLE
##XUNITS=NM EM
##YUNITS=ENERGY
##YFACTOR=1
##FIRSTX=220
##LASTX=410
##NPOINTS=96
##3DDATA=Equidistant
##ZUNITS=NM EX
##FIRSTZ=210
##LASTZ=400
##ZPOINTS=39
##XYDATA=(Y..Y)
##ZVALUE=210
3.567934
4.389882
3.944635
3.666878
3.940463
4.341602
4.281998
4.979968
4.188418
3.986955
4.432797
4.419684
3.797412
3.642440
4.577637
4.287958
4.113913
4.487634
4.811883
5.146861
5.034804
5.026460
6.403923
6.168485
6.553531
6.800890
6.617904
6.892681
6.921887
7.018447
8.095503
8.407831
7.508993
7.858872
8.507967
8.458495
8.435845
9.101629
9.310842
9.312630
9.563565
10.501742
9.128451
9.800792
10.221601
10.655522
11.940598
10.559559
11.791587
11.799932
12.664795
11.484623
11.193752
11.710525
13.172626
11.253953
12.309551
13.203621
12.506843
12.717843
13.387799
11.702776
14.204979
12.578964
13.572574
12.857914
15.149713
16.058683
18.556714
21.116734
24.900436
27.710795
33.984780
39.100647
41.815639
45.690536
46.045780
47.681928
46.919584
45.228601
43.058991
35.298467
32.171607
28.792620
23.968816
20.754933
16.110539
14.410615
13.442636
13.468862
12.466908
12.452602
13.543963
13.738871
13.300776
14.500618
##ZVALUE=215
14.373660
14.105439
13.098717
11.631846
8.893609
8.812547
7.875562
7.027984
8.152723
7.929802
7.528663
7.082820
5.623698
5.796552
5.015731
4.185438
4.074574
5.258918
5.833507
5.498528
5.712509
6.304979
6.369948
6.295443
6.940961
6.429553
6.341934
7.565618
6.716847
7.856488
7.062554
7.583499
8.688569
8.855462
9.083748
8.671880
8.683801
9.251833
9.826422
10.228753
9.909868
9.695888
10.391474
10.180473
10.254979
10.872483
10.853410
11.946559
11.338592
11.677742
12.488961
11.389852
11.671782
13.967752
12.415648
12.297630
12.515783
13.096929
12.306571
12.914538
14.181733
13.560653
13.505816
12.860894
14.688969
15.529990
16.510487
16.664863
20.008683
21.596551
25.032759
30.577779
35.840869
39.020777
44.440627
47.769547
48.580766
50.310493
50.293803
49.540997
42.889714
39.133430
35.735965
30.966997
24.768710
20.996928
16.926527
16.127825
15.501976
15.241504
12.751818
13.489723
13.249516
13.507605
12.612939
12.556911
##ZVALUE=220
40.437579
41.535497
45.501590
47.376752
44.587851
39.316416
28.731823
20.375848
16.559958
14.514923
15.465617
16.622543
14.768839
14.469624
10.802746
9.843707
7.938743
6.513000
5.792975
5.339980
6.454587
6.029606
6.071925
6.463528
6.724000
7.157922
7.404685
8.451939
8.664727
8.796453
8.695722
8.557439
8.900762
10.021925
9.676814
9.415746
9.194613
11.038780
10.645986
9.591579
10.271668
10.643601
11.559725
10.457635
11.866689
12.533665
10.974407
10.626912
12.589693
11.933446
12.426972
12.738705
12.959838
13.945699
13.938546
13.620853
13.508797
14.103651
14.072657
14.284849
14.133453
14.083982
15.553832
15.300512
16.001463
15.033484
17.689466
17.409921
19.638538
22.536516
26.647449
32.269955
34.653544
41.450858
46.069622
48.191547
49.353838
51.501989
50.867796
47.208667
45.432448
42.551756
38.467646
31.020641
26.556849
23.042560
18.183589
17.184615
16.065836
15.984774
15.436411
14.344454
13.463497
12.680888
13.312697
14.325976
##ZVALUE=225
57.023764
64.410567
84.545612
106.443763
123.500824
128.182769
122.037530
99.287629
71.830750
55.324435
37.615895
28.373599
27.520657
29.549599
29.386878
26.670694
21.235943
21.095872
15.133619
10.992885
8.509755
6.581545
7.023811
6.417632
7.431507
8.102655
7.902980
8.146763
9.355545
9.313822
9.003878
9.030700
9.750724
8.501410
9.916425
10.319948
10.952950
10.896921
10.490417
10.768771
11.062622
10.679960
11.236668
12.779832
11.413693
11.994839
12.020469
11.614561
12.676716
13.001561
12.297630
13.211966
13.706684
13.770461
12.627840
13.518929
13.363957
14.693737
14.444590
14.055967
15.048981
14.664531
14.515519
15.237927
15.619993
14.868975
16.630888
18.184781
20.528436
22.485852
26.890635
30.739903
30.498505
37.142634
39.530993
41.971803
42.635798
44.036508
45.731664
40.088892
39.580464
33.640862
30.919909
27.169585
25.511980
19.852519
19.167662
17.674565
16.772747
17.394423
14.830828
14.652610
15.014410
14.878511
13.840795
13.643503
##ZVALUE=230
49.012899
54.591894
90.386868
150.116682
198.096633
269.908905
302.671790
317.736864
297.731757
253.659487
168.894529
113.194585
73.678493
52.653551
49.227476
52.349567
54.458976
51.285625
47.153831
38.463473
30.859709
20.043850
16.972423
11.100769
10.330677
9.156466
7.983446
8.922815
8.637905
9.097457
10.294914
10.208488
10.519624
10.202527
12.272000
11.549592
11.093616
11.097789
11.770725
11.262894
11.505485
11.616945
11.737943
12.772679
12.529492
13.419986
13.751984
12.950897
13.815761
13.537407
13.269782
14.673471
14.821887
15.274882
14.961958
14.700890
14.355779
14.848709
14.837980
16.031861
16.398430
15.739799
15.724897
16.535521
18.620491
18.905997
18.845797
21.678805
22.647977
23.162961
27.757883
30.673742
35.283566
38.553476
40.433407
43.199658
43.342710
43.412447
40.941834
42.529702
35.762787
34.371614
30.787587
27.540922
24.777651
22.001863
20.454526
19.132495
18.044710
17.987490
17.986894
16.962886
17.194748
17.576814
15.106797
17.607808
##ZVALUE=235
15.651584
17.575622
38.549900
96.232891
159.565806
259.052515
360.137820
469.842553
515.850782
542.895794
489.232540
398.064852
277.603865
201.867819
129.195452
93.112588
76.735616
75.796843
83.555579
82.728863
77.064633
66.867471
53.665638
37.326813
27.076602
18.650889
14.777780
10.551810
10.383725
10.553598
10.164976
9.255409
9.565949
9.585619
9.710789
9.569526
11.430979
10.935664
10.583997
10.667443
10.644794
11.433959
10.741949
10.598898
11.287928
13.261437
12.991428
11.500716
12.930632
12.991428
13.121963
12.987852
12.598634
14.819503
13.281703
13.422966
14.481544
14.429688
13.742447
15.366673
16.036630
15.773773
15.206933
16.560555
16.776919
18.240809
17.946959
19.264817
22.139549
23.220778
27.374625
30.043721
34.158826
36.971569
39.198995
37.485957
39.358735
38.026571
36.577582
33.964515
31.083822
29.604435
27.115941
24.850965
22.292733
21.062493
21.405816
19.948483
19.450784
20.106435
17.631650
17.705560
18.532872
18.373728
19.109845
19.143820
##ZVALUE=240
3.207922
2.986789
6.035566
16.042590
49.091578
91.587901
197.395682
315.233469
493.550897
623.636842
745.151639
762.442946
713.567734
589.222908
460.143685
289.284587
197.238922
132.659674
99.694729
97.274780
105.278492
111.062527
109.159946
99.387765
81.933737
66.822767
44.749975
33.247471
22.771955
15.200973
13.098717
10.258555
10.228753
11.420846
10.974407
11.903644
11.284947
11.895895
12.650490
9.994507
10.370612
10.612607
10.729432
11.516809
12.171865
11.775494
10.705590
11.316538
13.043880
12.046695
12.724996
12.317896
13.121963
12.746453
14.547706
13.157725
13.836622
13.451576
14.238954
14.443994
15.020967
15.806556
15.823841
15.913844
16.979575
17.682910
18.033981
18.743873
19.856691
22.894740
26.915669
27.415752
31.445622
36.363602
35.799742
38.132668
38.395524
37.666559
37.007928
33.590794
31.879544
30.374527
28.194785
25.789738
24.975538
22.668839
23.605824
20.880699
22.476912
21.079779
20.442605
20.952821
20.056963
20.194650
19.828677
19.868612
##ZVALUE=245
2.588630
1.987815
2.378821
2.976656
4.797578
12.747645
40.257573
95.760822
227.188468
362.533927
596.640706
762.254000
886.828899
949.929953
911.324024
768.003464
618.039966
415.942669
282.738805
159.513950
108.376741
98.338723
107.301474
117.559433
124.361515
122.334957
108.112693
91.020465
69.383979
53.915977
40.460825
24.727583
17.327666
11.098981
11.074543
10.098815
9.784698
9.783506
10.139942
9.979606
10.085702
9.883642
9.948611
10.488629
8.956790
10.091662
10.223985
9.472966
10.607839
10.424852
11.633635
10.297894
10.265708
10.735989
11.243820
11.364818
10.836720
12.191534
12.860894
12.792945
12.546778
12.618899
13.818741
13.884902
13.452768
15.051961
15.314817
16.390681
17.674565
19.473433
23.290515
25.497675
28.092861
29.876828
30.458570
30.049682
32.567978
29.986501
31.035542
29.027462
27.607679
24.813414
24.491549
22.774935
22.308826
20.711422
19.621849
19.805431
19.518733
18.757582
17.989874
20.097494
20.159483
17.882586
18.035769
17.313957
##ZVALUE=250
2.162457
2.421737
2.234578
2.245903
2.270937
2.362728
3.123879
9.759665
27.833581
68.531632
179.205537
321.863890
562.654734
748.486519
965.442657
1015.788913
1015.788913
1009.274721
868.510604
619.137883
416.834950
230.114460
145.998597
103.562474
97.001791
116.504431
122.652650
132.576823
125.297904
114.911795
100.639462
76.710582
54.291487
36.386847
24.774671
14.537573
11.695623
9.450912
8.598566
8.780956
8.401871
8.968711
8.585453
8.950830
9.082556
8.952618
8.847713
8.625984
9.533763
8.770823
9.382963
9.283423
10.300875
8.975863
9.059906
9.437799
9.846687
9.806752
9.777546
10.907650
10.610819
10.815859
10.070801
11.149645
11.501908
11.934638
12.128949
13.201833
14.098883
15.552640
18.664598
20.430684
22.066832
24.541616
26.380420
25.389791
27.243495
25.999546
24.081469
23.502707
22.563934
21.354556
20.875931
18.857718
18.885732
18.222928
18.675923
18.352866
18.217564
16.767979
18.130541
17.100573
17.766953
17.219782
17.573833
16.897917
##ZVALUE=255
2.394915
2.400875
2.151728
2.196431
2.578497
2.495646
2.717972
2.822876
3.486872
5.506873
25.482774
64.090490
138.618946
311.236978
502.068400
804.520845
997.653008
1016.151905
1016.151905
1016.151905
1016.151905
852.626562
533.263683
333.095789
168.042779
109.937787
87.571740
96.973777
118.424892
129.558444
138.460994
137.053728
124.985576
102.738738
81.046820
54.728985
37.913918
23.354888
16.116500
10.653734
9.638667
8.629560
8.048415
9.207726
8.621812
9.018779
8.643866
8.563995
8.860826
9.690523
8.901954
8.974671
8.960962
9.162426
9.366870
9.530783
9.135604
8.486509
9.891987
10.117888
10.129809
10.278821
10.315776
10.460615
11.355877
10.432601
11.732578
12.693405
13.613701
15.534759
16.409755
18.703938
20.565987
22.403598
22.870898
23.577809
22.938848
23.096800
22.764802
20.594001
20.084977
19.167662
18.292665
17.535686
16.691685
17.143488
16.558766
16.632676
16.229749
15.018582
16.234517
16.310811
16.678572
17.068982
15.551448
15.983582
##ZVALUE=260
1.888871
1.586676
1.929998
1.724958
2.053976
1.865625
2.328753
2.390742
2.159476
2.462864
2.673864
3.652573
13.672709
38.714409
115.614533
228.905678
485.528708
713.564754
964.514613
1015.788913
1015.788913
1015.788913
1015.788913
1015.788913
799.449086
466.120839
291.236639
145.852566
95.009804
82.801580
95.662475
121.407509
135.149956
144.451857
140.574574
126.527548
108.126402
79.702735
59.401989
36.909580
25.856495
14.805794
9.964705
8.060932
7.390976
7.498860
8.118749
7.319450
7.507801
7.904768
7.429719
8.318424
8.065701
8.426905
7.920861
7.380843
8.403659
8.302927
8.004904
8.461475
8.052588
9.074807
8.785725
8.503795
8.940697
8.942485
10.437965
11.561513
11.089444
12.150407
13.541579
15.571713
16.361475
18.125772
18.495917
19.037724
18.519759
18.107891
17.874837
17.146468
17.759800
16.214848
15.721917
14.679432
14.711618
14.383793
14.118552
14.621615
13.974905
14.242530
15.171766
14.230609
14.819503
14.624596
13.939738
14.434457
##ZVALUE=265
1.774430
1.683831
1.783967
1.778603
1.898408
1.680851
1.852512
1.941919
1.860857
1.941919
2.386570
2.532601
2.724528
2.814531
5.657673
28.996468
76.880455
193.243623
355.000496
676.144958
963.693857
1015.851498
1015.851498
1015.851498
1015.851498
1015.852094
949.158669
669.988990
373.399854
223.158598
130.857825
75.062513
78.286529
102.092624
122.243762
140.283704
145.691633
142.417550
127.426982
102.594495
81.376433
55.660605
37.016869
22.246838
14.406443
10.154843
7.791519
7.440448
6.904602
7.418990
7.336736
7.086992
7.892847
7.205606
7.467866
7.509589
7.731915
7.894635
8.034706
7.838607
8.312464
7.851720
8.014441
7.836819
8.571744
8.578897
9.120703
9.699464
10.648966
10.930896
11.808872
12.909770
13.903975
15.005469
15.428662
15.453696
15.837550
15.382767
14.474988
14.695525
13.043880
14.465451
13.393760
12.611747
12.629628
12.518764
13.237596
11.795759
13.328791
12.708902
13.016462
12.466908
13.344884
13.492703
13.678670
13.376474
##ZVALUE=270
1.627803
1.793504
1.792908
1.602769
1.643896
1.633763
1.580715
1.519918
1.725554
1.904964
1.953840
1.947880
2.041459
2.238750
2.514720
2.810955
3.431439
12.640953
41.656494
140.727758
285.228491
509.886742
908.247828
1015.790701
1015.790701
1015.790701
1015.790701
1015.790701
1015.790701
821.895599
561.912656
300.202966
164.372921
75.926781
60.643554
76.044798
98.884702
124.842525
140.954852
147.811770
144.169927
126.778483
108.111501
79.203844
59.097409
36.222935
24.222732
14.632940
10.331869
7.817745
6.768703
7.090569
6.484985
6.998777
7.171631
7.432699
7.368922
7.008910
7.195473
7.538795
7.270575
7.288456
7.346869
7.822514
7.966757
7.774830
8.137822
8.755922
9.294748
10.342598
11.345744
12.988448
13.482571
14.052987
14.408827
14.742613
14.279485
13.997555
13.472438
12.374520
12.286901
11.829734
11.677742
11.961460
11.481643
10.806918
11.131763
12.044907
11.568666
11.133552
11.666417
11.773705
11.580586
11.966825
11.720657
12.175441
##ZVALUE=275
1.308918
1.634955
1.513958
1.326799
1.508594
1.611710
1.654625
1.761913
1.590848
1.916885
1.499653
1.640916
1.800656
2.137423
2.036691
2.095699
2.205968
2.574921
2.561808
6.607771
25.859475
105.340481
226.897597
498.007536
791.060925
1015.788913
1015.788913
1015.788913
1015.788913
1015.788913
1015.788913
950.201750
664.994717
355.075598
199.567676
88.494420
54.580569
56.962967
73.549747
101.471543
120.734572
139.824748
145.610571
139.980912
128.425956
103.806853
81.258416
56.749582
40.438771
24.752617
17.223954
10.719895
8.511543
7.798672
7.771850
7.105470
7.672906
7.660985
7.353425
7.295609
7.426739
7.155538
7.863641
7.494688
7.738471
7.851720
7.996559
8.231997
8.885860
9.920597
10.724664
11.619925
12.339950
13.125539
13.347864
13.402700
13.930798
13.619661
12.098551
12.624860
11.977553
11.862516
11.062622
11.380911
10.822415
10.613799
10.760427
10.588765
10.498762
11.012554
10.737777
11.029840
11.056662
10.840893
11.189580
11.112690
##ZVALUE=280
1.123548
0.920892
1.123548
1.298785
1.499653
1.181960
1.326799
1.402497
1.260638
1.338720
1.424551
1.563430
1.247525
1.448989
1.464486
1.613498
1.827478
1.859665
1.986623
2.222657
2.816916
3.317595
17.997622
60.348511
199.419856
369.655490
696.089864
992.457867
1015.601754
1015.601754
1015.601754
1015.601754
1015.601754
1015.601754
905.064940
499.878526
288.307667
120.588541
62.392950
43.381453
51.958561
75.979829
96.252561
121.484995
136.370659
143.514872
138.512850
124.533772
105.891824
78.517795
59.472919
37.570596
26.386976
15.986562
11.310577
8.076429
7.691979
7.126927
7.526875
7.552505
7.315874
7.762909
7.742643
7.937551
7.827878
7.993579
8.519888
8.902550
8.857846
9.961724
10.405779
11.608601
11.816621
12.329817
13.234615
13.331771
13.244748
12.964606
12.190938
12.015700
11.755824
11.032820
10.946989
10.656714
10.081530
10.479689
10.203719
10.189414
10.194778
10.075569
10.528564
10.315776
9.871721
9.942651
10.244846
10.278821
##ZVALUE=285
1.350641
1.245737
1.410842
1.334548
1.306534
1.482964
1.404881
1.519918
1.532435
1.557469
1.632571
1.651645
1.714826
1.500845
1.723766
1.930594
1.898408
1.997948
2.010465
2.370477
2.469420
2.446771
2.983809
3.156662
9.097457
32.605529
110.384822
243.699551
540.878773
856.005549
1015.788913
1015.788913
1015.788913
1015.788913
1015.788913
1015.788913
1015.788913
779.425502
474.387407
213.582516
101.797581
40.551424
35.069585
50.067902
67.724586
96.643567
114.426613
131.499767
137.506723
136.145949
123.808980
103.315711
83.256960
57.970881
41.612983
25.651455
16.356707
11.024475
9.759665
8.134842
7.900596
7.885695
7.896423
7.966757
7.907748
8.507967
8.812547
8.710623
9.478927
10.377765
10.653734
12.148619
11.849999
12.341738
12.521744
12.202859
12.510419
12.239814
11.967421
11.940598
11.758804
10.788441
11.149645
10.179877
10.826588
10.059476
10.490417
10.620952
10.711551
10.447502
9.873509
10.425448
10.383725
10.137558
10.439754
10.047555
##ZVALUE=290
1.254678
1.330972
1.346469
1.348853
1.293421
1.317859
1.295805
1.403689
1.422763
1.422763
1.307726
1.435876
1.585484
1.450777
1.446605
1.604557
1.691580
1.745820
1.858473
2.014637
1.858473
2.347827
2.363920
2.360940
2.684593
2.959967
4.306436
13.520718
66.234469
156.649351
310.592651
661.634803
991.666913
1015.788913
1015.788913
1015.788913
1015.788913
1015.788913
1015.788913
971.701741
655.149817
324.307680
168.308616
58.854818
30.349493
33.417940
46.494603
65.547824
84.619522
109.268427
123.102665
134.528875
132.513642
120.923519
102.660656
76.999664
57.832599
38.690567
26.927590
16.645789
11.493564
8.566976
7.802844
7.645488
7.566810
8.084774
8.101463
8.738637
8.983612
9.816885
9.929538
10.687709
11.651516
11.671782
11.892915
11.952519
11.184812
11.030436
11.037588
10.374784
10.213852
10.334849
10.276437
10.232925
10.115504
9.680986
9.932518
10.050535
9.978414
9.348989
9.850860
9.595752
9.477735
9.447932
9.498000
9.430647
##ZVALUE=295
1.279712
1.232624
1.273751
1.200438
1.106858
1.266599
1.336932
1.320839
1.486540
1.280904
1.477599
1.476407
1.340508
1.358986
1.511574
1.614690
1.519918
1.646876
1.776814
1.811981
1.757741
1.881719
2.207756
2.201796
2.088547
2.517700
2.863407
2.900958
3.238916
6.024837
33.563972
99.412799
232.335925
552.178025
900.039673
1015.788913
1015.788913
1015.788913
1015.788913
1015.788913
1015.788913
1015.788913
825.230479
414.531827
224.731565
81.057549
36.519766
22.364855
27.942657
43.296814
59.558749
82.577467
101.052523
117.919445
125.878453
124.571919
114.910603
95.450878
78.287721
54.548979
40.032864
25.047660
17.247796
11.765957
9.401441
8.446574
8.365512
8.108616
8.632541
9.514689
9.582639
10.078549
11.398792
11.488795
11.292696
11.073947
11.178851
10.854602
10.368824
10.275841
10.635853
9.738803
10.051727
9.581447
9.877682
9.818673
9.673834
9.834766
10.059476
9.918809
9.773970
9.379983
9.416938
9.133816
9.127855
9.162426
##ZVALUE=300
1.182556
1.251698
1.287460
1.089573
1.315475
1.230836
1.252890
1.318455
1.313686
1.429915
1.394749
1.329780
1.341701
1.504421
1.254678
1.350641
1.382828
1.435876
1.575947
1.450777
1.542568
1.692772
1.548529
1.901984
2.092719
1.934767
2.218485
2.236962
2.522469
2.857447
3.046989
3.659725
15.164614
53.118467
186.274648
375.620723
783.091784
1015.788913
1015.788913
1015.788913
1015.788913
1015.788913
1015.788913
1015.788913
1005.060673
670.429468
318.507552
161.574483
52.570701
23.078918
19.359589
25.798678
38.426518
52.692890
74.794888
91.839433
112.037659
119.273663
117.963552
110.853910
94.219446
78.125596
56.293607
41.028857
25.623441
17.971992
12.249947
10.054708
8.989573
9.234548
9.885430
9.991527
10.172725
10.595918
10.861754
10.949969
10.923743
10.479689
10.193586
10.296702
10.159612
10.004640
9.784698
10.198951
9.548664
9.677410
9.796619
9.857416
9.622574
9.395480
9.740591
9.430647
9.431839
9.086728
9.667873
9.226799
##ZVALUE=305
1.186728
1.151562
1.238585
1.114607
1.100898
0.983477
1.187921
1.282692
1.310706
1.302958
1.342893
1.337528
1.318455
1.435876
1.347661
1.356602
1.473427
1.300573
1.452565
1.558661
1.439452
1.858473
1.761913
1.726747
1.822710
2.058744
2.056956
1.991987
2.281666
2.350807
2.549887
2.670884
3.068447
3.610849
8.025765
30.672550
127.843618
286.732912
667.370558
998.227000
1015.788913
1015.788913
1015.788913
1015.788913
1015.788913
1015.788913
1015.788913
949.347019
473.977923
249.095559
89.267492
34.649968
15.477538
17.115474
25.002956
34.731627
54.220557
70.364475
89.728832
103.821754
114.093423
112.569928
103.550553
92.475414
71.452856
54.948926
37.098527
26.774406
17.044544
13.500452
11.119843
10.392666
10.852814
10.916591
10.538697
10.535717
10.372996
10.034442
9.755492
9.724498
9.704828
9.683967
9.486675
9.886622
9.783506
9.552836
9.906888
9.869933
10.038614
9.912848
9.476542
8.969903
9.306669
9.012818
9.372830
9.097457
##ZVALUE=310
1.153946
1.336932
1.262426
1.065731
1.131892
1.223683
1.288652
1.248717
1.148582
1.307726
1.251698
1.173615
1.315475
1.346469
1.312494
1.233816
1.360774
1.386404
1.376867
1.483560
1.483560
1.532435
1.465678
1.727939
1.457930
1.657605
1.771450
1.761913
1.984835
2.062917
1.985431
2.224445
2.554655
2.667904
2.918839
2.995729
3.762841
16.952753
57.469606
195.156932
390.332937
823.187828
1015.797853
1015.797853
1015.797853
1015.797853
1015.797853
1015.797853
1015.797853
1015.797853
724.346638
343.028903
174.463987
55.229664
21.908879
13.398528
15.566945
22.444725
31.454563
48.249960
62.189698
82.692504
95.643997
106.914639
107.953548
99.664927
88.967681
70.949793
55.255890
37.934780
27.865767
18.678904
14.969707
11.861920
10.960698
10.504723
9.901524
10.045767
9.524822
9.183884
9.273887
9.224415
9.839535
9.593964
9.525418
10.033846
9.581447
9.648800
9.287000
9.460449
9.802580
9.113550
9.189844
8.919835
9.236932
8.927584
##ZVALUE=315
1.135468
1.084805
0.954866
0.996590
1.010895
0.982881
1.176000
1.286864
1.251698
1.146793
1.317859
1.336932
1.475811
1.214743
1.165867
1.404881
1.308918
1.366735
1.365542
1.385808
1.339912
1.358986
1.644492
1.573563
1.574755
1.589656
1.614690
1.912713
1.821518
1.974702
1.940727
1.898408
2.130866
2.206564
2.530813
2.708435
2.704859
3.347993
3.580451
8.599758
33.631921
134.769678
289.363861
657.616854
1009.267569
1015.788913
1015.788913
1015.788913
1015.788913
1015.788913
1015.788913
1015.788913
979.422927
517.546535
269.519687
90.067983
33.354759
13.428926
11.906624
15.791655
19.878745
30.813813
42.536855
60.094595
74.993968
92.945695
100.082755
102.743506
96.702576
82.619786
70.072412
53.071976
40.722489
26.313663
19.872785
14.043450
11.746883
10.379553
9.876490
9.567738
9.890795
9.275675
9.471774
9.774566
9.785891
9.317994
9.137988
9.727478
9.470582
9.769797
9.194613
9.572506
9.187460
9.333491
9.110570
8.907914
##ZVALUE=320
1.095533
1.047850
0.934601
1.217723
1.155734
1.051426
1.185536
1.201630
1.225471
1.122952
1.183748
1.245737
1.253486
1.080632
1.125932
1.289845
1.056790
1.391768
1.258850
1.391768
1.464486
1.288652
1.469851
1.325607
1.450777
1.583695
1.423955
1.572967
1.612902
1.501441
1.649857
1.911521
1.852512
2.021790
1.969934
2.187490
2.352595
2.506971
2.614856
2.873540
3.330708
4.587770
16.102791
83.672404
207.360387
520.561934
846.776962
1015.788913
1015.788913
1015.788913
1015.788913
1015.788913
1015.788913
1015.788913
1015.788913
706.757903
395.172834
161.682963
65.771937
18.183589
11.584759
11.736751
13.727546
18.922687
26.066899
39.883852
53.288937
70.657730
83.608627
93.694925
96.700788
91.800690
82.452893
65.401793
52.566528
35.545826
26.530623
18.328428
14.075637
11.052489
10.081530
9.703636
9.782910
9.805560
9.682775
9.558797
9.358525
9.594560
9.225607
9.308457
9.455681
9.495616
9.119511
8.807778
8.660555
9.253621
##ZVALUE=325
0.972748
0.999570
0.999570
1.065731
1.033545
1.068711
1.024604
1.231432
1.142621
1.076460
1.030564
1.037717
1.220703
1.004934
1.006722
0.991821
1.132488
1.203418
1.221895
1.198649
1.303554
1.423955
1.269579
1.469851
1.420975
1.517534
1.569986
1.630783
1.477599
1.500845
1.450777
1.670718
1.497865
1.758933
1.793504
2.026558
1.907945
2.147555
2.144575
2.417564
2.642870
2.472997
2.740622
3.594756
8.320808
54.436922
137.579441
348.221660
617.849827
1015.788913
1015.788913
1015.788913
1015.788913
1015.788913
1015.788913
1015.788913
1015.788913
829.857588
492.522717
208.446980
93.794465
27.517676
12.827516
10.408759
11.081696
13.186932
17.603636
27.064681
37.377477
54.208636
67.098737
81.536770
90.234876
91.677904
86.795688
74.441433
61.783791
46.423674
35.047531
24.120808
17.819405
13.185740
11.460781
9.838939
9.578466
9.642839
9.789467
9.213686
9.501576
9.326935
9.437799
9.019971
8.951426
8.995533
8.904934
8.726716
##ZVALUE=330
0.978708
1.042485
1.017451
0.808835
0.939965
0.923872
1.072884
1.090765
1.107454
1.084805
1.195669
1.172423
1.105666
1.142621
0.985861
1.118779
1.195669
1.072884
1.213551
1.233816
1.271963
1.166463
1.055598
1.151562
1.345873
1.278520
1.294613
1.389980
1.352429
1.477599
1.589656
1.517534
1.614690
1.676679
1.622438
1.677871
1.674891
1.854897
1.962781
1.964569
2.062917
2.353787
2.348423
2.656579
3.058910
3.505945
4.760623
25.515556
80.660582
251.888633
474.478006
930.066705
1015.788913
1015.788913
1015.788913
1015.788913
1015.788913
1015.788913
1015.788913
993.922949
666.942000
303.856730
149.999857
48.111677
18.578768
10.418892
10.300875
10.988712
13.101697
18.582940
24.914742
37.618876
49.223900
65.302849
76.293945
84.329844
86.037517
80.140829
71.779490
56.221485
44.862628
30.772686
23.693442
17.430782
13.978481
11.217594
10.216832
9.488463
9.274483
9.099841
8.972883
8.623600
8.887649
8.655787
8.767843
8.601546
##ZVALUE=335
1.106858
1.127720
0.981688
1.058578
1.134872
1.068711
1.129508
1.103878
1.006722
1.034737
1.008511
1.111627
0.939965
0.999570
1.130700
1.017451
1.053810
1.164675
1.226664
1.322627
1.214743
1.007915
1.148582
1.224875
1.193881
1.341701
1.169443
1.292825
1.430511
1.356602
1.113415
1.338720
1.526475
1.471639
1.507998
1.633763
1.669526
1.487732
1.803637
1.860857
1.881719
2.113581
1.913905
2.298951
2.487898
2.671480
2.847910
3.193617
3.620982
11.083484
41.261911
158.599019
323.158503
700.351596
1015.788913
1015.788913
1015.788913
1015.788913
1015.788913
1015.788913
1015.788913
1015.788913
901.274085
465.893745
243.579745
79.163909
28.946996
11.707544
10.083914
9.943843
11.114478
13.228655
16.940832
25.269985
34.530759
48.318505
58.359504
70.740581
77.238679
78.630447
75.453520
64.121485
55.352449
42.695999
34.216642
24.269819
18.072724
13.234615
11.553764
9.613633
9.088516
8.590817
8.629560
8.316636
8.697510
8.409619
##ZVALUE=340
0.849962
0.949502
1.041889
0.948906
1.053810
1.007915
1.168847
1.041889
0.973940
1.076460
1.042485
1.038909
0.977516
0.985861
1.029968
1.096725
1.032948
1.058578
1.176596
1.097918
1.149774
0.999570
1.095533
1.226664
1.095533
1.260638
1.285672
1.136661
1.368523
1.466870
1.167655
1.195669
1.388788
1.377463
1.394749
1.396537
1.471639
1.679659
1.580715
1.681447
1.486540
1.781583
1.850724
1.919866
2.093911
2.271533
2.227426
2.730489
2.959967
3.122687
3.510714
5.801916
20.867586
105.828643
253.353715
596.719980
966.486931
1015.786529
1015.786529
1015.786529
1015.786529
1015.786529
1015.786529
1015.786529
1015.786529
602.809787
325.935483
129.661560
48.352480
14.213920
10.739565
10.861754
10.633469
11.520982
13.201833
17.376542
23.174882
33.525825
43.165684
57.043433
65.797567
72.919726
74.746609
70.379972
64.445734
52.478909
43.121576
31.103492
23.962855
17.614961
13.670921
10.594726
8.920431
8.443594
8.506775
8.275509
##ZVALUE=345
1.000762
0.976920
0.872612
0.968575
1.054406
0.959635
1.007915
0.997782
1.039505
0.987649
0.993609
0.997782
0.932813
1.132488
1.157522
1.226664
1.092553
1.166463
1.163483
1.019835
1.097918
1.141429
1.183748
1.115799
1.125932
1.104474
1.044869
1.073480
1.294613
1.285672
1.336932
1.325607
1.446605
1.311898
1.326799
1.352429
1.469851
1.469851
1.460910
1.502633
1.517534
1.759529
1.627803
1.786947
1.928806
2.166629
2.225637
2.178550
2.367496
2.595782
2.736449
2.930760
3.296733
3.970861
8.858442
61.591864
170.682669
451.470017
805.026889
1015.788913
1015.788913
1015.788913
1015.788913
1015.788913
1015.788913
1015.788913
1015.788913
787.776709
459.994674
187.263489
81.084967
23.719668
12.487769
10.738969
10.594726
9.953976
10.150671
11.612773
14.693737
21.283627
28.524995
40.882826
49.877763
60.729980
65.767765
67.353845
66.376925
58.969855
51.825643
40.925741
31.860471
22.309422
17.260909
12.882948
10.284781
8.972883
##ZVALUE=350
1.023412
0.988841
1.026988
1.072884
0.950694
0.878572
1.015663
0.894666
1.064539
1.039505
1.004934
1.029968
1.018643
1.022816
0.989437
1.326799
1.080632
1.044869
1.176000
1.123548
1.190901
1.041889
1.176000
1.063943
1.192689
1.045465
1.112819
1.233816
1.129508
1.237988
1.264811
1.222491
1.264811
1.351833
1.413822
1.154542
1.322627
1.370907
1.369715
1.383424
1.484752
1.636744
1.587868
1.717806
1.873970
1.834631
1.765490
1.899600
1.990795
2.164841
2.193451
2.333522
2.519488
2.992749
3.043413
3.486872
4.991889
25.526881
80.915689
258.631706
514.564514
992.266536
1015.788913
1015.788913
1015.788913
1015.788913
1015.788913
1015.788913
1015.788913
926.586986
548.425913
237.925649
107.068419
27.418733
12.895465
10.026693
9.343624
8.613467
8.910894
9.409785
10.264516
14.178753
19.034743
26.814938
34.982562
45.896769
53.130984
59.777498
62.339902
61.335564
56.066513
47.110915
39.442778
29.753447
23.101568
15.931726
##ZVALUE=355
0.933409
0.831485
0.927448
0.947714
0.891685
0.889897
1.033545
0.956655
1.029968
0.939965
0.790954
0.861883
1.009703
0.776649
1.047850
0.972748
0.850558
1.161695
1.058578
1.085997
1.049638
1.176596
1.044869
1.100898
0.927448
0.987649
1.033545
1.061559
1.127720
1.076460
1.117587
1.333952
1.190901
1.300573
1.244545
1.300573
1.226664
1.187921
1.221895
1.438856
1.350641
1.383424
1.296997
1.431704
1.452565
1.556873
1.571774
1.479983
1.564622
1.783967
1.775622
1.948476
2.137423
2.195835
2.461672
2.717972
2.814531
3.332496
3.731847
13.282895
46.822429
171.931386
355.476737
752.737522
1015.660763
1015.660763
1015.660763
1015.660763
1015.660763
1015.660763
1015.660763
1004.459858
660.786033
289.227962
135.174990
39.279461
15.204549
9.057522
8.637905
8.047819
8.039474
8.044839
8.636713
9.892583
11.853576
16.803741
22.096634
31.461716
38.150549
46.801567
52.753687
56.247711
56.003928
51.624775
45.354962
36.299825
##ZVALUE=360
0.976920
0.950694
0.974536
0.955462
1.126528
0.925660
1.050830
1.186728
0.990629
1.110435
1.119971
1.176596
1.053810
1.097918
1.138449
1.216531
1.174808
1.200438
1.000762
1.266599
1.283884
1.301765
1.159906
1.205802
1.274943
1.236796
1.198649
1.132488
1.184940
1.124740
1.234412
1.222491
1.218915
1.221895
1.436472
1.374483
1.436472
1.509786
1.494884
1.496673
1.619458
1.416802
1.555681
1.694560
1.673698
1.821518
1.943707
1.932979
1.911521
1.931787
2.002716
1.874566
1.961589
2.113581
2.269745
2.354980
2.372861
2.773404
3.070831
3.297925
3.494620
6.583929
22.493601
96.591711
227.683783
565.826893
938.555002
1015.788913
1015.788913
1015.788913
1015.788913
1015.788913
1015.788913
1015.788913
838.619471
402.879715
200.466514
67.662001
24.962425
10.149479
8.809566
8.363724
7.961988
7.857680
7.648468
8.105636
8.738637
10.801554
13.495684
19.051433
25.149584
34.026504
40.026903
47.305822
50.225854
50.748587
##ZVALUE=365
1.004934
1.079440
1.071692
1.135468
1.078844
1.288652
1.049638
0.942945
0.998974
1.025796
0.990629
1.114607
1.097918
1.051426
1.097918
1.098514
1.110435
0.950694
1.154542
1.066923
0.999570
1.059771
1.102686
1.105666
1.273751
1.234412
1.152754
1.389980
1.213551
1.176000
1.324415
1.329780
1.121759
1.219511
1.338720
1.312494
1.593828
1.495481
1.458526
1.665950
1.384616
1.317859
1.416802
1.560450
1.586676
1.504421
1.590848
1.570582
1.635551
1.729727
1.878738
1.873970
1.878738
1.969934
2.059937
2.159476
2.314448
2.462864
2.711415
2.620816
3.091693
3.243685
3.504753
4.436970
10.276437
61.525702
156.999826
399.416685
734.744668
1015.787721
1015.787721
1015.787721
1015.787721
1015.787721
1015.787721
1015.787721
1011.411548
551.482439
286.148787
94.902515
35.314560
10.916591
8.499622
7.823706
7.709861
7.353425
6.806850
6.892681
7.214546
7.596612
8.842945
12.172461
15.739799
22.745728
27.935505
35.796762
##ZVALUE=370
0.945926
0.907779
0.968575
0.958443
0.888705
0.980496
0.920892
0.844598
0.981688
0.933409
1.077652
1.115799
1.174808
0.970960
1.094937
1.083612
0.877976
0.991821
1.006722
0.998974
1.129508
1.099706
1.251698
1.097918
1.246929
1.176000
1.122952
1.083612
1.062751
1.152754
1.238585
1.110435
1.144409
1.287460
1.229644
1.337528
1.261830
1.337528
1.176000
1.249909
1.340508
1.225471
1.411438
1.224875
1.342893
1.576543
1.467466
1.535416
1.553893
1.571774
1.498461
1.579523
1.629591
1.773834
1.701713
1.896620
2.007484
1.952648
2.231598
2.174973
2.424717
2.471805
2.581477
3.019571
3.078580
3.672838
5.454421
30.717850
100.922585
304.182768
556.728840
996.890664
1015.789509
1015.789509
1015.789509
1015.789509
1015.789509
1015.789509
1015.789509
665.416718
364.103913
137.748718
59.322715
18.029809
9.039640
7.352829
6.970763
6.565452
6.530881
6.375909
6.126761
6.069541
6.472468
7.991791
9.811521
13.568997
##ZVALUE=375
0.973940
1.023412
0.925660
0.968575
0.826716
0.970960
0.903606
0.880957
0.912547
0.975728
0.838637
1.003742
0.820756
0.893474
0.901818
0.929832
1.005530
0.953674
1.007915
0.926852
0.978708
1.143813
1.046658
0.953674
0.984669
1.003742
1.029968
0.997782
1.001954
0.992417
1.104474
1.109838
1.058578
1.101494
1.284480
1.058578
1.092553
1.155734
1.216531
1.253486
1.292825
1.105666
1.274943
1.194477
1.104474
1.163483
1.365542
1.409650
1.297593
1.484752
1.409650
1.346469
1.500845
1.324415
1.496673
1.615882
1.549721
1.785755
1.756549
1.741648
1.857877
2.017617
1.997948
2.227426
2.377629
2.585649
2.836585
3.346801
4.018545
13.620853
53.634644
195.219517
399.148464
853.329897
1015.788913
1015.788913
1015.788913
1015.788913
1015.788913
1015.788913
1015.788913
866.450667
519.598722
228.255987
107.927918
31.423569
12.416840
7.178783
6.457567
6.252527
6.069541
5.871654
5.909801
5.665421
5.684495
5.871654
##ZVALUE=380
1.046658
0.818968
0.827909
0.911951
0.868440
0.878572
0.793934
0.897646
0.939965
0.921488
1.100898
1.003742
0.967979
0.978708
0.919700
1.059771
1.002550
1.110435
1.053810
0.936985
0.960827
0.945926
0.959635
1.060963
1.166463
1.075864
0.913739
0.984669
1.113415
1.066923
1.133680
1.032948
1.076460
1.123548
1.116991
1.090765
0.985861
1.183748
1.108646
1.212955
1.205802
1.154542
1.222491
1.103878
1.270771
1.275539
1.113415
1.208782
1.200438
1.290441
1.299977
1.332760
1.578927
1.526475
1.512766
1.415610
1.584888
1.611710
1.497865
1.665950
1.665950
1.812577
1.825690
1.899600
1.925826
2.225637
2.441406
2.760887
3.064871
3.514886
4.040003
7.272959
27.208924
135.263801
308.963656
704.847574
1015.837789
1015.837789
1015.837789
1015.837789
1015.837789
1015.837789
1015.837789
1015.837789
769.059062
360.101461
174.606442
55.011511
20.128489
8.067489
6.554723
6.019473
5.739927
5.551577
5.554557
5.375743
##ZVALUE=385
0.918508
0.773668
0.800490
0.807643
0.904799
0.818968
0.967979
0.768900
0.952482
0.843406
0.965595
0.808835
0.974536
0.883937
0.863671
0.892878
0.813603
0.964999
0.817776
1.062751
0.853539
1.026988
0.805855
0.907779
1.002550
1.045465
0.851750
0.965595
0.895858
1.022816
1.018643
0.925660
0.987649
1.041889
0.810623
1.018643
1.040697
0.932813
1.169443
1.124740
1.056790
1.137853
1.176596
1.118779
1.253486
1.103878
1.286864
1.303554
1.122952
1.282692
1.234412
1.257658
1.417994
1.296997
1.415610
1.380444
1.454949
1.371503
1.310706
1.469851
1.520514
1.755953
1.700521
1.680851
1.777411
2.049804
2.186894
2.364516
2.542734
2.860427
3.004670
3.240705
3.645420
4.416704
13.379455
74.675679
196.082592
496.280789
866.042972
1015.788913
1015.788913
1015.788913
1015.788913
1015.788913
1015.788913
1015.788913
983.558893
561.751723
302.403569
104.130507
38.013458
9.435415
6.419420
5.616546
5.539656
5.208850
##ZVALUE=390
0.769496
0.895858
0.823736
0.812411
0.756979
0.936985
0.890493
0.815988
0.941753
0.864863
0.936985
0.824928
0.987649
0.861883
0.916719
0.964999
0.899434
0.895858
1.008511
0.784993
0.952482
0.744462
0.924468
0.885725
0.814795
0.990629
0.859499
0.815988
0.845790
1.043677
0.975728
0.928640
0.958443
1.011491
1.031756
0.937581
0.945926
0.974536
1.024604
1.020432
1.011491
1.184940
1.084805
1.047850
1.143813
1.107454
0.918508
1.069903
1.073480
1.088977
1.128912
1.154542
1.112819
1.149774
1.264811
1.291633
1.338720
1.219511
1.286864
1.323819
1.391768
1.492500
1.586676
1.617670
1.595616
1.811981
1.865625
2.041459
2.099872
2.460480
2.476573
2.730489
2.910495
2.892613
2.915859
3.498793
6.226897
38.094521
119.689703
361.480713
664.218664
1015.788913
1015.788913
1015.788913
1015.788913
1015.788913
1015.788913
1015.788913
1015.788913
703.728795
403.321981
156.415701
65.927505
15.931726
7.015467
5.487800
##ZVALUE=395
0.845790
0.798702
0.805855
0.823736
0.832677
0.815988
0.804663
0.817776
0.860691
0.860691
0.777841
0.851750
1.027584
0.866652
0.871420
0.833869
0.840425
0.944734
0.896454
0.878572
0.872612
1.049638
1.109838
0.975728
1.041889
0.978708
1.055598
0.895858
0.889897
0.945926
1.025796
0.877976
0.813603
0.999570
0.931621
1.141429
1.073480
1.013875
1.148582
1.068711
0.966787
1.003742
1.037717
1.137853
1.025796
1.037717
1.104474
1.111627
1.141429
1.159906
1.219511
1.304746
1.195669
1.196861
1.276731
1.194477
1.465678
1.395941
1.367927
1.416802
1.468658
1.618862
1.533628
1.597404
1.681447
1.739860
1.729727
1.923442
2.179742
2.205968
2.515912
2.540946
2.689958
2.668500
2.766848
2.804995
2.808571
3.297925
4.166961
20.420551
77.036619
263.387561
508.158803
966.376662
1015.788913
1015.788913
1015.788913
1015.788913
1015.788913
1015.788913
1015.788913
862.725973
533.093810
248.812437
115.624666
34.791827
##ZVALUE=400
0.832677
0.849962
0.744462
0.786781
0.957847
0.834465
0.696778
0.806451
0.888705
0.732541
0.875592
0.846982
0.886917
0.829697
0.882745
0.892878
0.841618
0.984669
0.936985
0.859499
0.819564
0.859499
0.829697
0.957847
0.884533
0.893474
1.092553
0.938773
0.819564
0.863671
0.935793
1.013875
1.021624
0.795722
0.777841
0.961423
0.822544
0.931621
0.971556
0.993609
0.963807
0.851750
0.974536
1.018643
0.935793
0.898838
0.976920
0.881553
1.213551
1.154542
1.184940
1.154542
1.040697
1.043677
1.320839
1.239777
1.260638
1.288652
1.251698
1.404881
1.293421
1.161695
1.349449
1.409650
1.369715
1.603961
1.520514
1.865625
1.885891
2.178550
2.274513
2.352595
2.303720
2.258420
2.441406
2.317429
2.495646
2.613664
2.587438
2.980828
3.385544
11.900663
43.740869
154.695511
324.204564
698.523521
1013.993025
1015.788913
1015.788913
1015.788913
1015.788913
1015.788913
1015.788913
899.528861
579.965711
283.707976
##END
