##TITLE=SH701
##FORMAT=SPECTACLE-ASCII V-1.2
##DATA TYPE=ULTRAVIOLET SPECTRUM
##SECOND TYPE=ULTRAVIOLET SPECTRUM
##DATE=11/28/17
##TIME=18:06:56
##SPECTROMETER/DATA SYSTEM=SPECTACLE
##XUNITS=NM EM
##YUNITS=ENERGY
##YFACTOR=1
##FIRSTX=220
##LASTX=410
##NPOINTS=96
##3DDATA=Equidistant
##ZUNITS=NM EX
##FIRSTZ=210
##LASTZ=400
##ZPOINTS=39
##XYDATA=(Y..Y)
##ZVALUE=210
2.470613
2.851486
2.559423
2.466440
3.148913
3.047585
3.476739
3.379583
4.099607
3.356934
3.161430
4.143715
3.146529
3.572702
3.101826
3.846884
3.406405
3.677607
4.414916
4.549623
4.889965
4.578829
4.580617
5.158782
5.293489
5.772710
5.516410
5.509853
6.191730
6.356835
5.904436
6.534457
6.580949
6.635785
6.776452
6.972551
7.005930
8.131862
7.619858
7.878542
7.150769
7.649660
7.926822
8.180737
8.107424
7.985830
9.229779
9.369850
8.939505
10.053515
8.774996
9.078979
9.638667
9.973645
9.763837
10.284781
11.337996
10.761619
11.091828
11.110902
10.380745
11.299849
10.709763
11.677742
10.980964
11.651516
11.622906
13.700724
15.733838
17.551780
21.684766
24.791956
28.763413
33.148527
34.115911
35.915971
38.185716
37.993789
36.630630
34.016967
32.903552
26.435852
23.786426
21.002889
19.092560
16.168952
14.801621
14.031529
11.814833
12.432933
12.756586
12.928843
12.553930
12.007952
12.086630
12.988448
##ZVALUE=215
6.139874
5.882978
5.590916
4.744530
4.886985
4.335642
4.690886
5.207658
5.674958
5.442500
5.372763
5.908608
5.630851
4.726648
3.643632
3.997684
3.575683
4.330873
4.582405
4.661679
5.110502
5.397797
5.651712
5.314946
5.236864
6.081462
5.847812
6.742477
5.560517
6.156564
6.548762
7.042885
7.430911
7.532835
7.575750
7.879734
7.411838
8.575916
8.591413
8.071661
7.679462
9.111762
8.681417
8.310676
8.742809
8.606911
8.657575
9.955764
10.004640
9.912848
8.622408
9.985566
9.959936
10.119677
10.893941
11.501908
10.927916
11.523962
10.845661
11.187792
10.947585
11.746883
11.536479
11.375546
12.061000
12.857914
13.315678
14.185905
17.319918
18.146634
20.551682
24.567842
29.393435
30.537844
31.674504
34.246445
37.110448
36.311746
35.178661
33.133626
30.842423
28.397441
24.612546
21.338463
20.506978
16.954541
17.107725
15.098453
13.913512
12.366772
13.119578
12.360811
12.947917
13.350844
12.463927
14.176965
##ZVALUE=220
15.849471
15.848875
17.593503
18.307567
18.339753
14.716983
13.552904
11.109710
10.940433
10.737777
11.676550
12.330413
11.605620
10.774732
10.175705
8.277893
6.336570
5.970597
4.291534
4.816651
5.514622
5.262494
5.333424
5.394816
6.570816
5.855560
5.794764
5.731583
6.058812
6.697774
7.485747
7.106662
7.901788
9.325743
8.182526
7.907748
7.756948
8.831620
8.078814
8.899570
8.398890
9.319782
10.130405
10.105968
8.454919
9.894967
10.631680
8.999705
9.849668
10.169744
11.308789
10.719895
10.793805
11.911988
11.986494
13.277531
11.997819
13.113618
13.971925
13.549924
13.260841
13.210773
12.925863
14.826655
12.926459
15.082955
14.411807
16.740561
17.548800
21.043420
23.322701
27.627945
31.466484
33.623576
35.154819
38.042665
37.511587
36.982894
34.930706
33.511519
31.960607
30.137897
27.437806
26.307702
22.946596
19.735694
17.530918
17.772913
16.557574
15.753508
14.818907
13.951659
16.169548
14.108419
15.012622
15.873909
##ZVALUE=225
26.872754
28.142929
37.927628
48.571825
61.847568
64.126849
64.605474
53.337812
43.217540
33.877492
23.878813
22.908449
21.842718
24.846792
26.214719
22.983551
19.060969
15.507936
12.756586
9.901524
8.776784
6.916523
5.782843
6.084442
6.850958
7.129908
6.870627
7.326603
8.301735
7.339716
6.890893
8.410811
7.385612
8.879900
7.772446
8.492470
8.289814
9.912848
8.864999
8.762479
9.273887
8.978844
10.585785
10.867715
9.314418
10.331869
10.869503
11.732578
11.285543
12.670755
13.867617
13.989806
13.393760
14.569759
14.662743
15.857816
15.737414
16.138554
16.587973
17.767549
17.373562
17.360449
19.061565
16.783476
18.179417
19.349456
19.568801
23.511648
23.945570
26.500821
28.681755
30.895472
33.705831
39.196610
39.663911
39.500594
41.470528
41.345954
37.041903
36.801696
35.288930
31.625628
29.841661
26.835799
26.850700
23.079515
24.935603
22.657514
20.867586
21.159649
20.298958
21.049976
21.350980
20.633936
20.792484
20.983815
##ZVALUE=230
23.583770
26.190877
43.160915
84.260702
116.556883
156.584978
179.266930
187.926888
181.289911
152.869821
114.044547
80.575943
54.309964
45.243502
44.934750
44.817924
45.294762
48.291683
44.053793
35.159588
27.531981
19.417405
13.092756
8.315444
7.288456
6.709695
7.605553
8.170605
9.178519
8.669496
8.135438
8.514524
8.880496
9.156466
9.163618
9.789467
9.948611
10.126829
10.545850
10.209680
10.422468
10.227561
11.399984
11.284947
11.319518
11.709929
12.133718
13.352633
13.440847
14.586449
15.459657
16.494989
16.909838
17.796755
18.182993
17.544627
21.501780
20.415783
21.704435
21.548867
22.635460
24.077892
23.520589
25.779605
24.584532
27.361512
27.204752
29.554963
30.657649
32.214522
36.069751
39.942861
42.772889
46.152472
48.341751
47.390461
48.884749
48.725605
44.107437
41.464567
46.189427
40.065646
38.495660
34.756660
34.322739
32.527447
33.796430
31.904578
31.507611
30.998588
31.004548
30.623674
29.122829
30.633807
29.976964
30.304790
##ZVALUE=235
10.088682
10.650754
24.440885
60.409904
107.901692
186.301470
256.529450
357.790589
406.148434
420.682430
393.999815
335.152745
228.221416
168.747902
108.833909
81.892610
70.624948
74.046850
77.080727
76.330900
70.524812
63.433647
48.982501
34.250617
26.919842
16.773939
13.246536
9.522438
10.439754
9.561777
9.360909
9.058714
9.065866
10.564923
10.117888
9.351969
10.117888
10.660887
11.662841
11.151433
11.675954
11.181831
12.035966
11.288524
12.353659
14.431477
13.125539
14.264584
15.996695
16.013980
17.434955
19.023418
18.965602
20.912886
21.629930
22.987723
24.625659
24.971962
29.219985
28.520823
29.876828
33.097863
32.514930
33.403635
35.065413
35.619736
36.394000
38.923621
41.303635
41.516423
43.164492
49.664974
52.506924
58.132410
58.447719
57.160854
61.228871
58.439970
57.459474
58.455467
51.390529
49.579740
51.431656
48.764944
49.543977
45.333505
45.795441
45.241714
45.674443
44.478774
44.187903
42.988658
44.405460
41.336417
43.434501
41.892529
##ZVALUE=240
2.719760
3.035665
4.440546
17.765760
37.628412
96.416473
169.639587
325.336456
456.684828
624.658465
713.149905
744.868517
676.140785
585.720539
437.132716
306.231976
182.661414
127.930641
96.991658
93.414783
102.503896
108.380914
107.279420
99.336505
79.109669
62.374473
47.312975
31.361580
23.549795
14.903545
12.365580
11.563897
10.512471
11.285543
11.212826
10.563731
11.139512
11.891723
11.278987
10.992885
11.271834
10.586977
12.639761
12.148619
12.492537
13.886690
13.531446
15.899539
17.388463
19.398928
20.386577
22.435784
22.634864
25.248528
24.516582
27.180910
29.478669
33.282638
31.631589
31.645894
35.364628
35.667419
37.843585
39.453506
40.230751
42.689443
39.648414
46.416521
45.189857
50.622821
53.731799
58.767796
63.417554
63.438416
66.030622
68.864822
66.814423
68.298578
64.066648
64.376593
63.497424
59.978962
60.840845
57.149529
57.873726
55.488944
56.249499
55.134892
53.839684
52.518845
54.446459
55.855513
52.603483
55.336952
53.365827
54.310560
##ZVALUE=245
2.565980
2.800822
2.429485
2.745986
4.639626
15.056729
39.394498
110.364556
206.110477
388.903618
560.029745
790.506005
912.491679
969.502926
933.655500
780.359507
636.119843
430.656672
287.983418
163.229704
115.073919
99.298954
104.423761
117.006898
123.294592
121.046901
105.954409
93.044639
66.793561
53.025484
34.227967
22.962689
18.290877
12.165904
10.484457
11.083484
10.525584
10.619760
9.956956
10.490417
10.073781
11.157990
9.899735
11.588931
11.812449
11.690855
12.512803
14.504790
15.294552
15.575886
17.417669
20.235777
19.986629
21.731853
23.899674
24.734735
29.277802
28.198957
29.536486
31.224489
34.204721
35.533905
35.948753
35.854578
37.085414
38.409829
38.958788
40.632486
43.217540
47.768950
46.883821
53.570867
54.152608
56.829453
61.924458
63.141584
63.134432
58.320761
57.870746
61.887503
60.809851
58.736801
58.293939
56.470633
56.610703
55.408478
54.647923
54.528713
54.805875
53.897500
52.444935
49.327612
53.342581
52.485466
50.346851
52.596927
##ZVALUE=250
2.102852
2.032518
2.013445
2.242923
2.481937
2.603531
3.488660
9.314418
40.795803
92.641711
230.439901
385.129452
580.451488
850.332975
1007.776856
1015.779972
1015.779972
1015.779972
876.712799
608.545542
409.805775
254.938006
137.897730
98.888874
98.060966
110.438466
126.307607
128.152966
124.540925
117.304921
95.739961
76.286793
58.318973
37.027597
23.204684
15.111566
11.694431
10.183454
9.304881
9.405613
10.404587
10.081530
10.342598
10.576844
10.889769
10.747910
11.787415
11.659861
11.279583
14.197826
16.196966
16.894937
18.037558
19.483566
20.089746
21.561980
22.852421
24.067760
24.141669
27.065873
27.024746
27.724504
28.869510
29.060841
32.252669
31.380653
33.840537
35.835505
35.533905
40.344596
41.250587
42.780638
45.952797
48.858523
52.143931
53.540468
56.893826
54.463744
53.182840
50.868988
52.073598
50.687790
50.299764
51.489472
49.200654
48.430562
49.035549
49.070716
49.000978
47.282577
49.580932
49.792528
49.081445
49.686432
50.280690
49.666762
##ZVALUE=255
1.890659
2.166629
2.146959
2.086759
1.926422
2.086759
2.678633
2.751946
2.884865
4.933476
25.584698
72.034597
195.910931
337.250829
588.976741
828.551650
1015.788913
1015.788913
1015.788913
1015.788913
1015.788913
820.161700
579.980016
325.136781
192.816854
106.431842
89.817643
98.432899
114.563704
131.155849
138.555765
133.146644
122.024417
98.031759
77.797771
54.706931
37.715435
23.719668
16.777515
11.379719
9.234548
9.411573
8.715987
9.995699
9.745955
9.480715
10.752678
11.919737
11.999607
13.349652
14.364719
15.833974
14.919639
16.317964
16.963482
17.847419
18.852949
19.574761
20.162463
20.863414
23.032427
24.272799
24.524927
25.255680
25.742650
25.881529
25.967956
28.705001
30.723810
33.051968
34.665465
37.426949
39.753914
41.330457
42.584538
45.294762
45.600533
45.771599
45.092702
44.206977
44.216514
45.438409
45.925975
45.314431
43.403506
43.783784
43.564439
46.018958
46.170950
45.262575
44.872761
44.412613
45.731664
45.630932
46.214461
44.975877
##ZVALUE=260
1.933575
2.067685
1.884699
1.724958
2.203584
1.981854
2.369881
1.907945
2.601743
2.306700
2.586842
3.640652
11.483431
54.824948
125.836730
303.398967
500.075817
822.863579
1015.784740
1015.784740
1015.784740
1015.784740
1015.784740
1015.784740
745.512843
508.848429
285.342932
166.514516
92.350841
80.152750
93.925595
117.598772
134.781599
141.610503
141.623616
122.791529
104.008913
79.480410
59.284568
37.324429
25.940537
15.443563
11.140704
9.392500
10.223985
9.934902
9.764433
10.488629
12.115836
11.744499
12.922883
13.987422
14.782548
15.878677
16.533732
17.135739
17.900467
18.777847
20.040870
21.915436
21.351576
22.078753
22.094846
22.195578
24.466515
24.845600
26.403666
26.941895
28.197765
30.289888
32.693744
33.590794
34.838915
38.794875
38.399696
39.535761
39.846897
41.429996
40.633678
40.338635
42.717457
40.576458
41.399598
39.443970
40.643811
41.115880
40.984750
41.133761
41.150451
40.969849
43.478608
42.379498
41.722655
42.209625
42.264462
43.907762
##ZVALUE=265
1.907945
1.670718
1.853704
1.872778
1.854897
1.834631
2.063513
1.877546
1.750588
2.191663
2.278686
2.533793
2.564788
3.649592
8.102655
29.363632
105.139613
222.174525
483.952761
745.580792
1015.788913
1015.788913
1015.788913
1015.788913
1015.788913
1015.788913
1012.176871
664.830804
430.918932
216.847658
124.696493
76.160431
78.226924
102.741718
121.294856
140.596628
147.801638
138.271451
123.041868
100.927949
81.408620
56.006908
39.457679
22.957921
15.693903
11.182427
10.960698
10.577440
11.689663
12.426972
13.429523
15.278459
16.487837
16.746521
17.410517
18.529892
19.613504
20.931959
22.113919
21.304488
22.957921
22.781491
23.634434
23.911595
24.813414
25.758743
25.475621
27.591586
28.471947
30.246973
32.270551
33.026934
35.320520
36.558509
37.408471
36.945939
37.223697
38.755536
36.477447
38.133860
39.518476
38.580894
36.591887
38.571954
38.580894
37.550926
39.189458
38.840771
40.861964
40.224791
40.208697
40.563941
39.862990
40.028691
41.015744
40.985942
##ZVALUE=270
1.632571
1.766682
1.655817
1.688600
1.883507
1.894832
1.934767
1.971722
1.871586
1.878738
1.976490
2.316833
2.113581
2.553463
2.805591
3.012419
3.927946
18.988848
62.747598
194.372535
374.608636
635.715723
1015.788913
1015.788913
1015.788913
1015.788913
1015.788913
1015.788913
1015.788913
974.987745
671.954751
343.503952
184.485912
83.028674
62.065721
77.762604
100.582838
125.561953
135.604739
145.585537
141.941905
125.646591
108.527541
80.052614
60.143471
38.047433
27.181506
18.755794
15.141964
13.963580
14.966726
15.922785
17.001629
18.622875
19.580722
20.505786
21.694899
22.246838
23.450851
24.719834
25.075674
25.620461
26.850700
26.435852
26.688576
27.717948
28.399825
29.654503
29.383898
32.024980
32.788515
34.551620
34.598708
35.919547
36.408901
35.980940
37.659407
36.350489
37.251711
37.424564
37.173629
37.169456
36.272407
37.084818
37.357807
37.965775
37.896633
37.139654
38.226843
37.825704
38.565993
37.898421
38.411617
38.332939
38.723946
38.001537
##ZVALUE=275
1.529455
1.638532
1.654625
1.608729
1.503825
1.543760
1.628995
1.886487
1.811981
2.025962
1.891851
2.106428
2.052784
2.183914
2.379417
2.490878
2.730489
3.065467
2.832413
9.156466
40.454865
113.880634
313.416719
565.049648
991.760492
1015.791893
1015.791893
1015.791893
1015.791893
1015.791893
1015.791893
1015.791893
883.124471
462.328792
261.876583
105.220675
61.509609
57.675838
73.576570
100.414753
119.979978
137.317777
144.190788
139.383674
125.488639
102.899671
83.124638
60.283542
44.376850
30.960441
25.256872
21.171570
19.861460
20.918846
21.052957
22.724867
23.998618
25.897622
26.325583
27.661920
28.331876
29.516816
29.087663
29.889941
30.122995
30.431747
30.567646
32.790899
32.925606
32.883883
34.456849
35.851598
36.825538
37.251711
39.046407
38.260818
38.892627
37.236810
38.274527
37.796497
37.052631
37.419796
36.340952
36.913753
36.562681
36.931634
36.764741
37.143826
38.386583
36.317706
37.265420
36.578774
36.812425
36.328435
36.964417
36.378503
##ZVALUE=280
1.524687
1.477599
1.457930
1.507998
1.521707
1.602769
1.587868
1.586676
1.656413
1.721978
1.788735
1.797676
1.719594
1.894832
2.011657
1.954436
2.205968
2.477765
2.405643
2.849698
2.804995
5.540848
23.085475
104.523897
237.531662
525.293946
822.955966
1015.788913
1015.788913
1015.788913
1015.788913
1015.788913
1015.788913
1015.788913
1011.624932
609.499812
364.667773
150.778890
74.436665
44.382811
52.101612
77.231526
97.437501
122.950673
135.994554
144.641995
138.216615
124.698877
107.452869
85.172653
67.404509
48.837662
39.811730
30.632615
27.534962
25.940537
26.989579
28.875470
30.123591
30.630827
32.875538
32.776594
32.554865
33.485889
34.149885
35.581589
34.774542
35.753846
36.084652
37.988424
37.908554
38.308501
39.598942
39.127469
39.372444
40.055513
40.626526
38.972497
39.125681
39.116740
38.516521
38.581491
37.094951
37.517548
37.753582
36.929846
37.040710
36.238432
37.276745
36.696792
36.047697
36.177635
35.244823
35.336614
36.208630
35.928488
##ZVALUE=285
1.600981
1.535416
1.364946
1.560450
1.666546
1.549721
1.567602
1.640916
1.827478
1.672506
1.879930
1.809597
1.904964
2.051592
1.928806
1.962781
1.928806
2.175570
1.960993
2.444983
2.704859
2.528429
3.407598
3.564954
14.262795
51.269531
161.956549
324.332714
672.430992
982.394814
1015.822887
1015.822887
1015.822887
1015.822887
1015.822887
1015.822887
1015.822887
855.011940
528.889894
239.991546
117.853880
45.910478
36.883950
52.972436
70.679784
97.909570
115.287900
134.259462
140.874982
141.997933
133.103728
114.853978
95.520616
75.705647
60.560703
44.898987
39.218664
35.745502
36.412477
36.050677
37.520528
37.812591
38.209558
37.579536
38.263798
38.153529
39.501786
40.848851
41.393638
42.694807
41.896701
42.633414
42.525530
42.375922
43.097734
42.503476
41.806698
41.809678
41.252971
40.417910
39.512515
38.139820
39.067864
38.662553
38.291812
39.312840
38.993955
38.674474
37.716627
37.833452
36.134720
35.849810
35.875440
35.556555
35.604835
35.146475
##ZVALUE=290
1.483560
1.418591
1.434684
1.508594
1.379848
1.450777
1.412630
1.490712
1.533628
1.609921
1.545548
1.694560
1.711845
1.684427
1.623631
1.646876
1.848936
1.748800
1.977682
2.259612
2.242923
2.419949
2.632737
2.678633
2.830625
3.403425
5.057454
29.896498
86.255670
247.967839
446.486473
867.925882
1015.788913
1015.788913
1015.788913
1015.788913
1015.788913
1015.788913
1015.788913
1015.788913
729.805827
360.471606
186.193585
65.034628
33.187866
36.038756
49.056411
72.443485
92.383623
118.354559
135.590434
145.587921
146.710873
137.592554
122.340918
100.282431
82.985759
65.978765
56.979656
49.022436
45.854449
43.167472
44.141412
43.524504
43.431520
44.556856
44.564605
44.193864
46.020746
45.524836
45.629740
45.725703
46.145916
45.650601
46.127439
46.061873
45.284629
44.365525
43.743849
43.684840
42.104721
42.189956
40.589571
41.206479
40.330887
39.850473
39.552450
38.742423
37.811995
37.800670
37.471652
36.531687
36.201477
35.071969
35.503507
35.082698
##ZVALUE=295
1.280904
1.444817
1.439452
1.541972
1.353621
1.416802
1.479983
1.369715
1.620650
1.610518
1.578927
1.597404
1.908541
1.653433
1.801848
1.649857
1.682639
1.780987
1.801848
1.904964
1.964569
2.026558
2.037883
2.358556
2.487898
2.376437
2.940893
3.252625
4.018545
9.333491
37.048459
149.259567
318.378806
696.345568
1012.467742
1015.788913
1015.788913
1015.788913
1015.788913
1015.788913
1015.788913
1015.788913
956.274867
505.447984
270.794630
92.960596
42.366982
28.378963
35.417676
53.967834
71.361661
98.809600
118.877888
139.456987
148.758888
149.335861
142.055750
126.622915
110.403895
89.781880
75.580478
61.867833
54.965615
49.934983
47.538877
47.872663
47.630668
48.330426
49.600601
49.029589
49.577951
48.704743
48.718452
48.511624
48.548579
48.165917
47.282577
46.094656
45.430660
44.644475
43.836832
43.998957
43.491721
42.944551
41.471720
41.618943
41.373968
40.382743
39.894581
39.250851
39.086938
38.009882
37.288666
36.853552
36.042929
35.932660
##ZVALUE=300
1.271963
1.195669
1.271963
1.303554
1.445413
1.283884
1.480579
1.351833
1.411438
1.280904
1.399517
1.657605
1.451969
1.232624
1.578927
1.544952
1.576543
1.645684
1.891851
1.751781
1.751781
1.733899
1.880527
1.958609
2.321601
2.433658
2.524853
2.839565
2.931952
3.134608
3.444552
4.583597
17.427802
99.274516
231.564641
541.191697
876.977444
1015.788913
1015.788913
1015.788913
1015.788913
1015.788913
1015.788913
1015.788913
1015.788913
698.818564
411.552787
177.956820
83.636642
34.741759
31.846762
43.426752
55.270791
77.451468
96.746683
122.894645
138.738751
150.569677
151.621699
144.279599
132.139921
111.681819
96.553564
78.079700
66.339970
57.182908
53.750873
50.930977
50.646663
49.638748
50.398707
50.015450
49.845576
49.647689
49.466491
49.763918
47.763586
47.186613
47.728419
46.473742
46.137571
45.155883
44.000745
44.010878
43.399930
42.372942
42.229891
42.055845
40.798783
40.096641
40.019751
38.231611
37.156940
37.483573
36.867857
36.743879
##ZVALUE=305
1.354814
1.419783
1.281500
1.310706
1.594424
1.353621
1.231432
1.313686
1.362562
1.393557
1.336932
1.601577
1.409650
1.458526
1.548529
1.511574
1.472831
1.478791
1.567602
1.732707
1.672506
1.657605
1.798868
1.792908
2.143979
2.065897
2.035499
2.336502
2.432466
2.559423
2.936721
3.200769
3.502965
3.902912
13.141632
52.099824
192.926526
387.029648
788.141489
1015.788913
1015.788913
1015.788913
1015.788913
1015.788913
1015.788913
1015.788913
1015.788913
981.851816
531.905890
292.079449
117.776990
56.654811
34.545660
37.543774
46.919584
58.587790
80.878735
98.214746
121.206641
135.662556
147.241950
148.164630
141.001940
129.827857
107.392669
92.808604
76.073408
66.269636
56.312680
52.273870
50.323606
48.952699
48.879981
49.129725
49.092770
47.958493
47.780871
47.765970
47.839880
46.615601
46.171546
45.919418
45.116544
44.622421
44.177771
43.936968
42.255521
41.937828
41.301847
41.622519
39.957762
38.533807
38.228631
37.828684
37.648678
36.924481
##ZVALUE=310
1.262426
1.241565
1.046658
1.309514
1.108646
1.259446
1.292825
1.425743
1.253486
1.180768
1.433492
1.423955
1.279712
1.167655
1.369715
1.534820
1.340508
1.556873
1.408458
1.650453
1.605749
1.622438
1.802444
1.746416
1.676679
1.823902
2.078414
2.046824
2.349615
2.240539
2.442598
2.777576
2.824664
2.891421
3.431439
3.986955
4.997849
29.661655
99.065900
295.770764
537.738800
981.354713
1015.788913
1015.788913
1015.788913
1015.788913
1015.788913
1015.788913
1015.788913
1015.788913
848.800540
424.656868
226.364732
84.280968
43.307543
33.886433
37.297606
47.029853
56.901574
74.916482
91.708899
112.466812
123.777986
136.157870
137.864947
132.135749
121.887922
102.952719
88.382959
72.198510
62.564611
52.816868
49.695969
46.934485
45.757890
44.927597
45.386553
45.174956
44.872761
44.075847
43.436885
44.221878
43.831468
44.074655
43.378472
43.258667
42.475462
42.002797
41.571856
41.515827
39.900541
39.642453
38.872957
37.690997
37.824512
37.450790
##ZVALUE=315
1.186728
1.148582
1.014471
1.247525
1.255870
1.335740
1.211762
1.247525
1.264811
1.270771
1.253486
1.343489
1.248717
1.387596
1.407862
1.274943
1.470447
1.519918
1.351833
1.468658
1.699924
1.501441
1.635551
1.551509
1.830459
1.794696
1.673698
2.046824
1.941919
1.967549
2.079606
2.301931
2.263784
2.440810
2.665520
3.046989
3.066659
3.556609
4.062653
13.944507
56.723952
217.741728
428.154469
865.264535
1015.788913
1015.788913
1015.788913
1015.788913
1015.788913
1015.788913
1015.788913
1015.788913
1015.788913
597.926974
324.206948
120.944977
56.215525
32.054782
31.938553
36.444664
42.429566
54.127574
65.246820
83.809495
98.260641
116.737485
124.774575
128.057003
124.424696
111.223459
98.760724
80.836415
69.563985
56.075454
49.579740
44.442415
43.243766
42.223930
42.138696
41.724443
43.065548
42.257905
42.266846
41.953921
42.191744
41.424632
41.595697
41.436553
40.883422
40.820837
39.766431
39.464831
38.634539
38.903952
37.572980
37.666559
##ZVALUE=320
1.331568
1.298785
1.297593
1.174808
1.236796
1.304746
1.013875
1.230836
1.269579
1.345873
1.228452
1.384616
1.274943
1.325607
1.329780
1.402497
1.388788
1.336932
1.378655
1.310706
1.540780
1.427531
1.579523
1.511574
1.544952
1.705885
1.712441
1.762509
1.913905
1.997948
1.884699
1.939535
2.180934
2.179742
2.367496
2.539754
2.648830
2.910495
3.015995
3.533959
3.938675
6.158948
26.685596
140.211582
322.080851
728.007555
1015.788913
1015.788913
1015.788913
1015.788913
1015.788913
1015.788913
1015.788913
1015.788913
1015.788913
774.580836
445.389748
192.607641
85.780621
32.189488
25.493503
26.137829
28.024912
35.063624
42.937994
57.939887
71.330667
89.865923
103.563666
115.230680
117.432475
113.647580
104.643703
88.799596
75.683594
60.711503
52.748919
46.187639
41.574836
39.630532
38.947463
38.533807
38.685799
39.912462
40.140748
40.072799
40.436983
39.532781
39.595962
39.435625
39.391518
38.410425
38.555861
37.412643
37.495494
37.678480
##ZVALUE=325
1.209974
1.088977
1.183748
1.066923
1.217723
1.389980
1.293421
1.103878
1.080632
1.166463
1.190901
1.161695
1.080632
1.260638
1.426935
1.249909
1.283884
1.433492
1.429915
1.468658
1.451969
1.451969
1.492500
1.518726
1.549721
1.536608
1.727939
1.699924
1.577735
1.857877
1.836419
1.940727
1.890659
1.921654
2.151728
2.183914
2.179742
2.493858
2.743602
2.983809
3.137589
3.434420
3.705621
4.384518
14.382005
100.175738
245.167017
557.634830
919.272900
1015.789509
1015.789509
1015.789509
1015.789509
1015.789509
1015.789509
1015.789509
1015.789509
978.598595
620.785952
269.291401
125.528574
39.432645
21.414757
18.978715
20.181537
23.820996
28.875470
38.329959
49.804449
68.472624
81.308484
97.337961
105.146766
107.779503
104.660988
93.924999
83.109736
68.390965
58.308840
48.091412
42.910576
38.786530
37.857890
37.551522
37.994981
37.825704
37.766695
37.218928
38.443804
37.787557
37.404895
37.514567
37.272573
37.027597
36.304593
35.705566
##ZVALUE=330
1.113415
1.229644
1.228452
1.126528
1.268983
1.282692
1.116991
1.101494
1.139641
1.173615
1.303554
1.170635
1.231432
1.207590
1.182556
1.257658
1.306534
1.277924
1.283884
1.369715
1.397729
1.260638
1.624823
1.422763
1.317859
1.490712
1.633763
1.565814
1.566410
1.581907
1.580715
1.608729
1.819730
1.728535
2.059937
1.984835
2.133846
2.076626
2.365708
2.448559
2.781749
2.735853
2.705455
3.103614
3.495812
4.150867
6.526709
43.782592
140.506029
409.208536
719.654560
1015.793681
1015.793681
1015.793681
1015.793681
1015.793681
1015.793681
1015.793681
1015.793681
1015.793681
848.052502
390.906930
192.486644
64.448714
26.053786
16.434789
17.170906
19.105673
21.855831
28.702617
36.246777
49.239993
62.593818
80.671906
90.896487
99.728703
103.574991
99.352002
90.891719
76.793432
67.460537
54.355860
47.577620
42.126775
39.068460
37.838817
37.156940
36.319494
36.063790
36.722422
36.306977
36.077499
36.364794
35.951734
35.639405
35.732985
##ZVALUE=335
1.225471
1.254678
1.166463
1.141429
1.292825
1.264811
1.173615
1.225471
1.392961
1.300573
1.387596
1.240969
1.215935
1.331568
1.221895
1.247525
1.319647
1.307726
1.258850
1.308918
1.325607
1.408458
1.536608
1.628995
1.516938
1.614690
1.664758
1.496673
1.656413
1.625419
1.602769
1.629591
1.648664
1.876950
1.938939
1.971722
2.001524
1.913905
2.108812
2.110600
2.174973
2.359748
2.598763
2.718568
2.827644
3.329515
3.528595
3.894567
4.750490
19.428730
76.037645
277.853012
533.064008
997.489691
1015.844941
1015.844941
1015.844941
1015.844941
1015.844941
1015.844941
1015.844941
1015.844941
991.218686
539.823771
283.444524
92.465878
36.872625
18.122792
17.450452
18.348694
20.463467
24.207830
28.766990
38.272738
47.507882
62.993765
74.525476
87.267756
93.271732
97.451806
95.166564
85.816979
76.473951
65.375566
57.550669
47.656894
42.485595
39.023757
37.799478
36.292672
35.889745
35.086870
35.034418
34.439564
34.734607
34.864545
##ZVALUE=340
1.051426
1.154542
1.116991
1.046658
1.066923
1.012683
1.073480
1.106858
1.010895
1.135468
1.123548
1.249909
1.121759
1.374483
1.237988
1.144409
1.257658
1.213551
1.381636
1.292825
1.196861
1.228452
1.219511
1.384616
1.203418
1.358986
1.416802
1.385808
1.391768
1.504421
1.574755
1.504421
1.637936
1.520514
1.578927
1.694560
1.809597
1.973510
1.937747
1.970530
2.111793
2.145767
2.056956
2.443790
2.190471
2.434850
2.573729
3.013611
3.128648
3.522635
4.064441
8.553863
35.046935
169.166923
379.895568
843.479633
1015.788913
1015.788913
1015.788913
1015.788913
1015.788913
1015.788913
1015.788913
1015.788913
1015.788913
675.941706
370.714664
148.530006
59.615970
21.058917
18.365979
18.909574
19.909739
22.236705
24.221539
30.028820
36.315918
47.585964
58.762431
73.590875
82.420707
91.132522
93.164444
89.572668
84.439516
73.436499
64.966679
54.430962
48.360825
41.253567
37.204623
34.944415
33.477545
33.480525
33.650994
33.388734
##ZVALUE=345
1.203418
1.123548
1.066923
1.112819
1.032948
1.070499
1.043677
1.018643
0.970960
1.157522
1.068711
1.158714
1.032948
1.210570
0.989437
1.161695
1.231432
1.270771
1.230836
1.201630
1.309514
1.145601
1.268983
1.202822
1.350641
1.358986
1.382828
1.243949
1.411438
1.393557
1.455545
1.423955
1.288652
1.294613
1.446605
1.602769
1.616478
1.648664
1.686811
1.688600
1.875758
2.037883
1.680851
1.977682
2.151728
2.143979
2.312660
2.391934
2.770424
2.914667
2.987981
3.514886
3.730655
4.627705
15.415549
99.505782
253.741741
589.624643
962.337852
1015.788913
1015.788913
1015.788913
1015.788913
1015.788913
1015.788913
1015.788913
1015.788913
934.843421
534.085631
206.721425
89.200735
29.665828
19.562840
19.100904
19.093752
20.057559
20.956993
23.820996
28.036833
36.069751
44.224858
58.234930
67.056417
77.272654
83.588958
87.680817
85.594654
79.430938
71.890950
60.844421
52.753687
43.971539
39.126873
35.697818
33.391714
32.109618
##ZVALUE=350
1.117587
1.149774
1.161695
1.151562
1.210570
1.039505
1.173615
1.053810
1.143813
1.297593
1.242757
1.249909
1.212955
1.217723
1.093745
1.233816
1.315475
1.264811
1.190901
1.229644
1.265407
1.242757
1.255870
1.314878
1.329780
1.339912
1.331568
1.337528
1.447797
1.480579
1.457930
1.483560
1.496673
1.360774
1.528859
1.717806
1.506805
1.626611
1.660585
1.786947
1.667738
1.869798
1.819730
1.781583
1.941919
2.100468
2.037883
2.276897
2.116561
2.509952
2.520680
2.606511
3.115535
3.297925
3.623962
3.985763
10.073781
40.671825
171.114802
365.974903
789.960623
1015.789509
1015.789509
1015.789509
1015.789509
1015.789509
1015.789509
1015.789509
1015.789509
1015.790105
602.833629
330.663919
125.714540
48.248768
19.912720
18.073916
18.310547
18.572807
19.358993
20.799637
23.964643
27.053952
33.582449
40.417910
51.604509
59.948564
70.429444
76.414943
80.418587
79.086423
74.143410
67.874789
57.438612
50.648451
42.069554
37.741661
##ZVALUE=355
1.319647
1.233816
1.059771
1.107454
1.080632
1.091957
1.257658
1.146793
1.122952
1.133680
1.105666
1.124740
1.284480
1.292825
1.279712
1.340508
1.137853
1.352429
1.271963
1.357794
1.342893
1.415610
1.240969
1.223683
1.216531
1.348853
1.410842
1.271963
1.344681
1.478791
1.552701
1.528859
1.699924
1.493692
1.506805
1.378655
1.456738
1.634955
1.667738
1.709461
1.707673
1.853704
1.774430
1.935959
1.863837
2.034903
1.987815
2.106428
2.263784
2.202988
2.302527
2.393723
2.881885
2.950430
2.936721
3.322959
3.633499
3.901720
4.843473
23.966432
86.227655
299.741626
560.215712
999.415517
1015.797853
1015.797853
1015.797853
1015.797853
1015.797853
1015.797853
1015.797853
1015.797853
890.388489
399.376750
189.172626
56.046844
23.737550
17.193556
17.082691
17.381907
17.945766
18.915534
20.148754
22.152662
25.218725
30.754805
36.889911
45.958757
53.968430
63.724518
69.411993
73.257685
72.957873
67.705512
62.857866
54.878592
##ZVALUE=360
1.319647
1.294613
1.252890
1.306534
1.250505
1.283884
1.325607
1.252890
1.400709
1.462698
1.503825
1.355410
1.378655
1.616478
1.505613
1.220703
1.340508
1.356602
1.418591
1.446605
1.452565
1.481771
1.472831
1.525879
1.630783
1.504421
1.493692
1.577735
1.531839
1.593828
1.733899
1.732707
1.690984
1.678467
1.715422
1.879930
1.643896
1.640916
1.608729
1.791716
1.743436
1.923442
2.064705
1.834631
2.030730
2.081990
2.110600
2.172589
2.245903
2.254844
2.437830
2.379417
2.547503
2.813935
2.775788
3.047585
3.223419
3.575683
3.674626
4.266500
4.788637
10.011792
40.149689
172.942877
378.947854
841.051936
1015.884876
1015.884876
1015.884876
1015.884876
1015.884876
1015.884876
1015.884876
1015.884876
1015.884876
572.930574
298.949480
103.188753
37.909746
17.422438
16.369820
16.453862
17.110705
17.501712
17.681718
19.063950
20.249486
23.058653
26.472807
32.196641
38.120747
47.709942
55.010915
61.903000
66.211820
66.688657
##ZVALUE=365
1.136661
1.224875
1.233816
1.327991
1.290441
1.259446
1.191497
1.135468
1.197457
1.230836
1.233816
1.163483
1.305938
1.232624
1.147985
1.240969
1.261830
1.412630
1.287460
1.235604
1.271963
1.361966
1.239777
1.272559
1.327991
1.434684
1.483560
1.422763
1.459718
1.564622
1.582503
1.376867
1.506805
1.591444
1.551509
1.743436
1.603961
1.525879
1.706481
1.635551
1.624823
1.776814
1.869798
1.811981
1.805425
1.936555
1.871586
1.874566
1.933575
1.952648
2.164841
2.075434
2.385974
2.373457
2.574921
2.563000
2.583861
2.987981
3.173947
3.489852
3.820658
4.052520
4.661679
5.858541
16.563535
101.527572
253.776908
598.606467
983.587503
1015.797853
1015.797853
1015.797853
1015.797853
1015.797853
1015.797853
1015.797853
1015.797853
792.932510
435.688496
154.809952
58.751702
18.711686
15.164614
15.046000
15.210509
15.580654
15.824437
16.080737
16.896725
17.848611
20.106435
23.650527
27.884841
34.550428
40.637851
49.413443
##ZVALUE=370
0.990629
1.138449
0.885725
1.112819
1.016855
1.044869
1.135468
1.137853
1.030564
1.019835
1.000762
0.993609
1.132488
1.164675
1.160502
0.956655
1.099706
1.207590
1.157522
1.108646
1.328588
1.225471
1.213551
1.198649
1.296997
1.150966
1.074672
1.129508
1.194477
1.174808
1.210570
1.147985
1.350641
1.374483
1.454949
1.326799
1.336932
1.593828
1.422763
1.439452
1.609921
1.392961
1.391768
1.560450
1.558661
1.704693
1.695752
1.634955
1.632571
1.668930
1.861453
1.804829
2.127886
2.031922
2.002716
1.956820
2.156496
2.267957
2.388954
2.710819
2.991557
2.988577
3.278852
3.689528
3.925562
4.488826
8.068681
54.286718
172.109604
491.888523
857.105851
1015.661955
1015.661955
1015.661955
1015.661955
1015.661955
1015.661955
1015.661955
1015.661955
950.599909
552.014709
216.548443
94.640851
29.414892
15.859604
13.861656
13.859868
14.267564
14.338493
14.460683
14.858842
15.427470
16.143918
18.253922
20.390749
25.160909
##ZVALUE=375
0.985861
1.200438
1.313686
1.138449
1.109838
1.190901
1.101494
1.128912
1.082420
1.038909
1.127720
1.108646
1.182556
1.156926
1.031756
1.169443
1.219511
1.208782
1.200438
1.234412
1.130700
1.289845
1.168847
1.317859
1.222491
1.190901
1.258850
1.243949
1.317859
1.194477
1.305938
1.288652
1.237988
1.457930
1.357794
1.281500
1.366735
1.521707
1.398921
1.495481
1.437664
1.476407
1.478791
1.618862
1.570582
1.424551
1.572967
1.586676
1.748800
1.621842
1.713634
1.631975
1.765490
1.628995
1.898408
2.004504
2.074838
1.886487
2.064705
2.297759
2.241731
2.470613
2.666712
2.769828
3.071427
3.473759
3.869534
4.548430
5.351901
25.778413
99.264979
325.924754
638.349652
1015.788913
1015.788913
1015.788913
1015.788913
1015.788913
1015.788913
1015.788913
1015.788913
1015.788913
805.575848
372.536778
182.287693
53.925514
21.512508
13.434887
12.992620
12.988448
13.401508
13.398528
13.450980
13.973713
14.458895
14.817715
##ZVALUE=380
1.046658
1.135468
0.995994
1.120567
0.996590
1.177788
1.163483
1.004934
1.008511
1.089573
0.877976
1.096725
1.213551
1.080632
1.014471
0.991821
1.023412
1.048446
1.051426
1.190901
1.182556
1.242757
0.977516
1.151562
1.065731
1.110435
1.251698
1.158714
1.145601
1.342893
1.145601
1.166463
1.268983
1.226664
1.295805
1.168847
1.369715
1.337528
1.245737
1.586676
1.356602
1.384616
1.344681
1.509786
1.467466
1.555681
1.503825
1.408458
1.463890
1.591444
1.587868
1.643896
1.673698
1.670718
1.795888
1.609921
1.749992
1.800656
2.036691
1.940727
1.926422
2.282858
2.273917
2.466440
2.768636
2.888441
2.910495
3.543496
3.877878
4.464984
5.187988
12.385845
56.290030
258.680582
540.743470
1015.788913
1015.788913
1015.788913
1015.788913
1015.788913
1015.788913
1015.788913
1015.788913
1015.788913
1015.788913
549.826622
281.803608
92.909932
35.359859
13.961792
12.151599
12.201667
12.272596
12.168884
12.432933
12.736917
##ZVALUE=385
0.902414
0.978708
0.955462
0.978708
1.054406
1.025796
1.145601
1.015663
1.049638
1.081824
1.049638
1.071692
1.050830
1.114607
1.026988
0.968575
1.011491
1.124740
0.999570
1.045465
0.946522
0.978708
1.118779
1.205802
1.042485
1.114607
1.098514
1.091957
1.038909
1.121759
1.254678
1.153946
1.235604
1.164675
1.119971
1.276731
1.105666
1.157522
1.219511
1.132488
1.378655
1.425743
1.411438
1.340508
1.456738
1.280904
1.435876
1.409650
1.281500
1.463890
1.548529
1.613498
1.492500
1.647472
1.594424
1.702905
1.608729
1.679659
1.645684
1.844764
1.963973
1.905560
2.210736
2.153516
2.371669
2.296567
2.695918
2.877712
3.185868
3.606677
3.904700
4.356503
4.803538
6.583929
24.643540
152.179599
367.310643
842.034817
1015.792489
1015.792489
1015.792489
1015.792489
1015.792489
1015.792489
1015.792489
1015.792489
1015.792489
813.894868
465.474725
186.462998
71.557760
17.992854
11.776686
11.026859
11.033416
11.257529
##ZVALUE=390
1.047850
0.867844
1.088977
1.100898
0.968575
0.902414
1.115799
1.129508
0.964999
1.067519
0.866652
0.822544
0.782609
1.054406
0.956655
1.027584
1.040697
1.083612
1.130700
0.934601
1.053810
1.264811
1.110435
1.085997
1.200438
1.180768
1.163483
1.013875
1.258850
1.219511
1.047850
1.183748
1.158714
1.038909
1.287460
1.248717
1.238585
1.241565
1.155734
1.194477
1.415610
1.418591
1.177788
1.430511
1.242757
1.292825
1.243949
1.341701
1.284480
1.328588
1.353621
1.483560
1.470447
1.516938
1.575947
1.645684
1.763701
1.673698
1.682639
1.659989
1.670718
2.076626
1.977682
1.847744
2.386570
2.304912
2.443790
2.815723
3.172755
3.380775
3.619790
3.764629
4.184842
4.161596
4.347563
4.774928
13.007522
65.512657
295.360684
623.464584
1015.790701
1015.790701
1015.790701
1015.790701
1015.790701
1015.790701
1015.790701
1015.790701
1015.790701
1015.790701
631.307960
324.480534
104.571581
35.993457
12.431741
10.631680
##ZVALUE=395
0.964999
0.879765
1.028776
0.954866
1.053810
1.143813
0.992417
1.053810
1.059771
1.023412
1.046658
1.043677
0.973940
1.037717
0.966787
0.826716
0.919700
1.049638
1.105666
1.094937
1.140833
1.018643
1.156926
1.098514
1.004934
1.142621
1.118779
1.110435
1.105666
1.087785
1.155734
1.201630
1.138449
1.139641
1.144409
1.022816
1.154542
1.283884
1.248717
1.295805
1.283884
1.317859
1.348853
1.447797
1.377463
1.166463
1.415610
1.340508
1.470447
1.356602
1.447797
1.566410
1.379848
1.417994
1.537800
1.653433
1.608729
1.563430
1.744628
1.686811
1.745820
1.922846
1.944900
2.034903
1.949668
2.194643
2.263784
2.408624
2.817512
3.140569
3.449917
3.480911
3.377795
3.590584
3.587604
4.008412
3.968477
4.665852
6.197691
42.986870
163.925886
530.059934
949.909687
1015.788913
1015.788913
1015.788913
1015.788913
1015.788913
1015.788913
1015.788913
1015.788913
1015.788913
922.439694
438.613892
205.966830
61.144829
##ZVALUE=400
0.867844
1.007915
0.937581
1.084805
1.004934
0.942945
1.073480
0.982881
1.126528
1.006722
0.908971
0.913739
1.054406
1.011491
0.873804
0.945926
1.073480
0.921488
1.151562
0.996590
1.029968
1.123548
1.048446
1.039505
1.228452
1.080632
1.190901
1.134872
1.005530
1.071692
1.080632
1.335740
1.056790
1.220703
1.338720
1.299977
1.256466
1.185536
1.075864
1.246929
1.314878
1.228452
1.213551
1.252890
1.348853
1.356602
1.375675
1.301765
1.341701
1.430511
1.356602
1.587868
1.392961
1.608729
1.459718
1.578927
1.550913
1.625419
1.498461
1.638532
1.709461
1.717806
1.859665
1.973510
1.914501
2.335906
2.211928
2.439618
2.812743
2.997518
3.103614
3.250837
3.065467
3.183484
3.254414
3.519654
3.536940
3.738999
4.100800
4.626513
5.498528
23.514628
93.442798
331.707001
677.498579
1015.788913
1015.788913
1015.788913
1015.788913
1015.788913
1015.788913
1015.788913
1015.788913
1015.788913
1015.579700
615.133643
##END
