##TITLE=SH751
##FORMAT=SPECTACLE-ASCII V-1.2
##DATA TYPE=ULTRAVIOLET SPECTRUM
##SECOND TYPE=ULTRAVIOLET SPECTRUM
##DATE=11/28/17
##TIME=17:42:38
##SPECTROMETER/DATA SYSTEM=SPECTACLE
##XUNITS=NM EM
##YUNITS=ENERGY
##YFACTOR=1
##FIRSTX=220
##LASTX=410
##NPOINTS=96
##3DDATA=Equidistant
##ZUNITS=NM EX
##FIRSTZ=210
##LASTZ=400
##ZPOINTS=39
##XYDATA=(Y..Y)
##ZVALUE=210
9.665489
9.760857
9.038448
8.654594
7.819533
7.924438
7.181764
7.872581
5.400777
4.837513
4.569888
4.116893
2.969503
3.273487
3.310442
3.283620
3.254414
3.558993
3.841519
3.386736
3.561974
3.639460
4.423857
4.037619
4.156828
4.860759
4.888773
4.445910
5.078912
5.008578
4.872680
5.724430
6.146431
5.225539
4.614592
5.297661
4.476905
5.713701
5.497932
5.514622
6.704926
6.040931
5.583763
5.802512
5.885959
5.938411
6.310940
6.298423
6.469488
7.386804
6.670952
7.043481
7.289648
7.582903
7.771850
6.576777
8.048415
7.990599
6.908774
7.692575
7.238984
7.968545
8.210540
8.563995
7.734895
7.316470
8.285642
8.654594
10.206699
11.243820
12.278557
12.830496
14.492869
15.490651
16.725659
16.261935
16.554594
17.151833
17.000437
13.768673
13.516545
12.357831
11.907816
10.326505
8.263588
8.009672
7.587671
6.797910
6.884933
7.246733
7.742643
8.624792
10.715723
13.560653
13.993979
15.104413
##ZVALUE=215
25.679469
24.938583
23.169518
18.764734
14.594793
13.827682
12.103915
12.626648
12.788773
12.729764
10.434985
9.929538
6.813407
5.799532
5.258918
4.059672
3.897548
3.591776
3.108978
3.617406
3.662705
3.922582
4.066825
4.857779
4.075766
4.926920
5.125999
4.812479
4.890561
5.222559
5.437732
5.585551
6.212592
6.084442
5.404949
6.649494
6.322861
5.903840
6.087422
6.463528
6.223917
6.143451
6.663799
6.015897
6.385446
6.556511
6.667972
7.348657
6.830692
7.586479
6.957650
7.053614
8.062720
7.800460
6.660819
7.746816
7.609725
7.847548
7.962584
8.067489
7.736683
8.778572
8.977652
8.010864
8.798838
9.518862
8.640885
9.140968
10.035634
11.376739
12.165904
12.565851
14.163852
15.700459
15.701652
16.419888
15.629530
16.888976
16.241670
13.905764
11.930466
12.617707
10.883808
9.400845
9.660721
8.371472
7.042885
7.457733
7.978678
6.166697
6.593466
7.441640
7.128716
6.245971
6.951690
9.017587
##ZVALUE=220
58.154464
59.894919
62.478781
55.976510
51.408410
37.968755
34.094453
25.460720
21.213889
21.161437
21.152496
21.191835
19.068718
18.988848
14.459491
11.392832
6.990433
5.262494
4.910827
3.981590
4.009604
4.121661
4.405975
4.517436
5.024672
4.317760
5.466938
5.506873
5.657673
5.539656
5.345941
5.753636
5.793571
6.410480
6.222725
5.514622
7.187724
6.692410
7.072687
6.789565
6.258488
6.338954
7.112622
5.946755
7.330775
7.828474
7.526875
7.465482
7.557869
6.915927
8.424520
8.355975
7.339716
9.167790
9.547472
8.418560
8.894801
9.385943
10.725856
9.152889
9.826422
10.192990
9.435415
10.486841
10.081530
11.112690
10.168552
10.887980
11.175871
12.061596
13.274550
13.669729
15.215874
16.172528
17.973781
18.591881
16.438961
16.765594
15.213490
15.751719
13.800859
13.215542
12.705922
10.714531
9.382963
9.690523
8.813739
9.264946
8.487701
8.796453
8.088946
7.849932
7.738471
7.345676
7.588863
7.373691
##ZVALUE=225
72.923899
79.299808
100.548863
114.273429
120.381713
116.154552
101.554990
78.858733
62.964559
46.344995
37.630796
31.649470
33.882856
34.515858
34.549832
31.307936
26.835799
20.477772
15.235543
9.755492
7.373691
5.325675
5.197525
4.845858
5.175471
5.375743
5.628467
6.251931
5.366802
5.813837
5.963445
6.231666
6.986856
5.487800
6.516576
6.653666
6.395578
7.841587
6.932616
6.942749
6.331801
7.346869
7.587671
8.272529
7.827878
7.271767
8.416772
8.905530
9.752512
8.657575
9.644628
9.235740
10.618567
10.947585
11.670589
9.967685
11.817813
11.739731
12.065768
12.972951
11.923909
12.781620
12.459755
13.139844
13.367534
13.604760
13.713837
13.683438
13.834834
13.185740
15.295744
16.581416
16.197562
17.481446
20.067692
19.031763
17.623901
16.958714
15.662909
15.643835
13.562441
14.155507
12.113452
12.584925
10.624528
10.146499
9.263754
9.798408
9.469986
10.159612
9.556413
9.705424
8.429885
8.898973
9.107590
9.081960
##ZVALUE=230
50.343871
55.741668
87.312460
140.878558
182.206631
221.871734
231.179595
224.419832
196.774006
157.573819
110.811591
81.042647
60.222745
53.491592
53.533912
55.963993
59.458613
55.764914
47.576427
38.968921
28.996468
18.548965
13.512969
7.888675
6.871819
7.538795
5.455613
6.695986
6.238818
6.862879
6.434917
6.270409
6.361604
7.483959
7.187724
7.151961
6.720424
6.866455
7.841587
7.115602
8.436441
7.374883
8.224845
8.423924
8.312464
8.334517
9.216666
8.624792
10.165572
8.845925
10.391474
11.531711
12.337565
12.825727
11.746883
11.671782
12.855530
14.660954
14.829636
14.230609
14.165640
14.712811
15.587807
14.838576
14.896989
16.044974
15.651584
15.598536
15.812516
17.091632
18.535852
19.977689
21.264553
20.312667
20.370483
22.569895
20.135641
20.004511
17.893910
17.903447
18.022656
16.117692
15.871525
13.406873
15.268922
13.318658
13.135672
11.639595
12.843609
11.619925
11.754632
10.506511
11.119843
10.943413
10.421872
11.220574
##ZVALUE=235
15.108585
17.260909
35.274625
81.457496
136.408806
214.157701
285.305977
358.327627
383.491516
379.330516
327.530503
261.066556
181.003809
134.012699
95.248818
75.358748
72.931647
75.845718
83.335638
85.013509
78.927875
66.502690
50.668716
36.603808
25.156736
14.884472
11.388659
8.664727
7.432699
7.000566
7.141829
7.734895
7.165670
7.000566
7.671714
7.634759
7.630587
7.783771
7.189512
7.993579
7.581711
8.102655
8.152723
8.679628
8.866787
9.315610
10.570884
9.779930
10.839701
10.277629
12.056828
13.259649
14.092922
14.183521
14.827847
14.700890
16.940832
17.590523
18.267632
17.884970
18.855929
19.088984
19.802451
20.434856
18.870831
19.305944
19.814968
18.893480
20.919442
21.168590
21.155477
23.449659
23.453832
23.973584
24.319887
24.988651
23.600459
21.996498
21.242499
20.760894
18.886924
20.200610
18.095970
16.062856
16.152859
15.247464
14.528632
13.155937
13.912916
13.912916
14.674664
14.368892
12.909770
13.498664
13.182759
12.694597
##ZVALUE=240
2.603531
3.278852
6.760955
15.364885
43.388605
86.943507
179.455876
275.282860
403.585434
494.162440
559.859872
555.695891
508.191586
399.516821
310.288668
192.588568
139.826536
100.714564
91.319680
95.288754
104.675889
109.934807
111.001730
99.483728
78.755617
63.673854
44.942498
32.947659
20.344853
14.041662
10.705590
8.476973
7.946491
8.529425
7.671714
8.855462
7.972717
8.023977
8.809566
7.853508
8.186698
8.849502
8.367896
8.602738
8.469820
8.756518
8.934736
10.035634
10.268688
11.393428
13.274550
14.030933
15.242696
15.656948
16.993880
16.899705
18.492937
18.095970
18.976927
20.917654
20.450950
20.749569
20.731688
21.090508
21.097660
20.876527
22.675991
21.498799
21.866560
23.085475
24.028420
23.191571
23.926497
25.167465
25.372505
25.326610
25.242567
25.830865
23.865700
22.040606
23.273826
19.126534
18.846989
18.180609
18.464923
18.018484
17.873645
16.382933
16.075969
15.717745
14.780760
14.911890
14.955997
14.235973
12.388825
14.650822
##ZVALUE=245
2.321601
2.110600
2.085567
2.341866
4.089475
12.252927
33.359528
88.056922
163.232684
265.085697
429.953933
544.904470
660.264492
671.678782
628.448725
542.538762
398.050547
292.082429
207.068920
124.982595
98.208785
92.297792
104.910731
119.051933
118.028522
115.580559
107.368827
88.010430
70.606470
51.146746
37.942529
20.928979
14.218688
9.468794
8.906722
8.033514
8.155704
7.689595
7.730722
9.037852
8.102655
7.386804
7.299781
8.117557
8.335710
8.066893
8.286834
8.885860
8.896589
10.796785
12.190938
11.626482
13.065934
15.006661
14.872551
15.099645
16.904473
17.832518
18.041730
17.962456
18.361807
18.920898
19.102693
18.994808
19.211769
19.082427
18.938780
18.596649
19.290447
20.668507
22.501945
23.592710
22.275448
21.878481
22.759438
22.537708
21.756887
21.722913
19.821525
19.814968
19.697547
17.825961
17.399788
15.602708
16.345978
14.527440
15.300512
14.800429
15.397668
14.285445
14.205575
14.113784
14.554858
11.785626
13.328791
13.293624
##ZVALUE=250
2.460480
2.518892
2.455711
2.254844
2.331734
2.253652
3.540516
7.931590
31.618476
67.713857
170.509815
278.834701
404.644012
584.373474
691.782832
776.266456
758.813024
666.643977
556.990504
376.932621
254.740715
168.476701
102.237463
88.206530
95.013976
109.138489
124.137998
132.035613
125.535727
113.825798
92.587471
76.645613
56.056976
33.638477
24.393797
13.909936
10.022521
7.844567
7.739663
7.921457
7.003546
6.743670
7.442832
7.192492
7.726550
7.829666
7.772446
8.752942
9.075999
9.513497
10.516644
11.365414
11.122823
12.691617
13.211966
13.252497
13.704896
14.451742
15.040636
14.679432
14.898777
15.873909
15.606880
15.547872
14.926791
14.752746
15.759468
15.641451
16.756654
16.852617
17.840862
17.998815
19.920468
19.113421
18.369555
18.859506
19.180775
18.295646
17.182827
16.449690
16.343594
15.370846
14.705658
14.873743
14.733672
13.528466
13.422966
12.807846
13.213754
12.799501
12.752414
11.928678
12.639761
12.162924
11.649728
12.120605
##ZVALUE=255
1.893640
1.916885
1.863837
1.915693
2.024770
1.965761
1.965761
2.102852
2.657771
3.933907
18.633604
49.874783
137.807727
233.978629
408.387780
558.717847
751.279593
850.570798
882.231593
825.591683
713.240504
508.943796
354.405642
203.500986
128.182769
86.861849
81.993937
97.078681
113.238692
127.027631
133.711696
128.653646
123.125911
98.160505
78.398585
51.392913
36.938787
20.530820
14.199615
8.901954
7.459521
6.842613
7.120967
7.326603
7.075667
6.673932
7.528663
7.163882
6.991625
8.018613
8.697510
9.342432
9.260774
9.982586
10.683537
11.459589
11.210442
11.691451
11.407733
11.819601
11.479855
11.779666
12.836456
13.074875
12.876987
12.367964
13.393760
13.194680
13.571978
14.441609
13.841987
14.795661
14.695525
15.896559
15.817881
15.259981
15.303493
14.975667
14.529824
14.367700
13.573766
14.062524
12.021661
12.937784
12.316704
11.464953
12.228489
11.554956
11.141896
11.099577
11.235476
10.984540
10.975599
10.999441
9.811521
11.011958
##ZVALUE=260
1.508594
1.851916
1.540780
1.559854
1.701713
1.750588
1.930594
2.104640
2.217889
2.137423
2.373457
3.120899
9.257793
38.082004
85.604787
209.896564
344.108939
551.738739
724.814534
909.366012
986.369848
977.006555
842.792988
680.040717
440.697670
295.729637
171.617866
107.982755
74.072480
75.465441
90.882778
114.378929
130.727887
141.636729
136.507750
120.961666
103.986859
77.706575
58.711767
36.192536
23.731589
12.193918
9.789467
7.613897
6.453991
6.489754
6.241798
7.530451
7.997751
8.313656
8.226633
9.050965
8.914471
10.216832
9.841919
10.634661
10.433793
10.989904
10.775924
11.002421
11.815429
11.365414
11.564493
11.640787
12.365580
11.756420
12.136698
13.027787
11.947751
13.305545
12.738705
13.219714
13.294816
13.787746
14.785528
14.312863
13.687611
12.994409
13.249516
12.470484
12.242794
11.579990
11.290908
11.501908
11.252761
11.163950
11.001825
10.874867
11.175871
10.960698
11.304617
10.314584
10.367632
9.964705
10.149479
10.312796
##ZVALUE=265
1.771450
1.675487
1.681447
1.702905
1.717806
1.695752
1.810789
1.772642
1.828671
1.884699
1.915693
2.129674
2.272725
2.336502
6.241798
20.976663
78.266859
158.290863
324.817896
517.273545
722.735524
959.344506
1015.788913
1015.788913
990.319848
788.826942
615.248680
389.012694
253.516436
130.003691
83.142519
63.472986
74.823499
100.502968
117.502809
136.086941
141.216516
138.057470
124.054551
101.330876
82.103610
51.816702
36.622882
22.425652
14.289618
8.689761
7.453561
7.356405
7.856488
8.663535
9.031892
9.582639
10.154843
10.486841
11.415482
11.547804
12.027621
12.003779
12.487769
12.988448
13.008714
13.038516
13.722777
13.019443
12.546778
12.986660
13.042688
12.672544
14.197826
13.128519
13.288856
14.452934
13.972521
14.539957
14.630556
13.366938
12.976527
13.247728
13.546944
12.456775
12.680888
11.355877
11.389852
10.472536
11.135936
10.658503
10.521412
10.523796
10.613799
10.055900
10.102987
10.167956
9.694695
9.599924
10.622740
9.793639
##ZVALUE=270
1.403689
1.448989
1.318455
1.402497
1.396537
1.521707
1.623631
1.587868
1.753569
1.654625
1.582503
1.939535
2.094507
1.948476
2.301931
2.419949
3.028512
13.667941
40.467978
127.215981
249.362588
428.192616
727.185607
939.690471
1015.788913
1015.788913
1015.788913
998.607874
760.318637
563.097596
373.739004
195.633769
112.000704
57.665706
54.596663
76.319575
95.277429
124.231577
138.067603
143.994689
139.367580
123.404860
107.138753
77.026486
56.507587
34.916997
23.989677
14.800429
11.550784
9.933710
10.439754
10.948777
11.123419
11.548996
12.267828
12.406707
12.813807
13.101697
14.122725
14.719963
14.250875
15.079975
14.589429
14.201999
13.362765
14.182925
13.690591
14.486909
14.418960
14.155507
13.742447
14.300942
14.674664
14.675856
13.723969
14.128685
13.543963
13.651848
12.644529
13.086796
11.881590
11.602640
11.250973
10.615587
11.056662
10.516644
9.893775
10.057688
10.414720
9.598732
10.177493
9.520650
9.273887
9.571910
8.625984
9.205937
##ZVALUE=275
1.576543
1.485944
1.552701
1.459718
1.458526
1.685619
1.435876
1.551509
1.536608
1.620650
1.766682
1.662970
1.778603
1.790524
1.757741
2.012849
2.016425
2.163649
2.678633
6.311536
24.068952
72.689652
207.642913
375.525951
677.908659
887.086987
1015.843749
1015.843749
1015.843749
1015.843749
986.055732
713.693500
496.493578
263.206959
152.941942
66.933632
46.723485
53.893924
69.679618
98.234415
117.564797
134.091973
140.429735
138.185620
125.286579
101.032853
80.656409
57.285428
41.957498
26.045442
19.910932
14.631748
13.194680
13.010502
13.335943
13.886690
14.131665
15.379786
15.563965
16.075969
16.383529
16.306639
16.193986
16.413927
16.723871
16.252995
15.606880
16.161799
15.384555
16.024709
15.414953
15.455484
15.600920
15.618801
15.526414
14.602542
14.492869
14.192462
13.478994
13.301969
12.226701
12.066960
11.450648
10.856986
11.427999
10.726452
10.155439
10.608435
10.130405
10.075569
9.522438
9.072423
9.530783
9.650588
8.915663
9.390712
##ZVALUE=280
1.030564
1.345873
1.414418
1.258850
1.306534
1.246929
1.402497
1.386404
1.535416
1.427531
1.661777
1.544952
1.568794
1.670718
1.689792
1.796484
1.705885
1.737475
1.999736
2.192855
2.441406
3.381968
13.418794
63.001513
149.838924
342.804790
539.377928
835.547447
1010.717750
1015.788913
1015.788913
1015.788913
1015.788913
810.692906
598.297715
341.418982
205.489993
86.897612
48.111677
38.484931
49.127936
72.347522
92.509985
118.084550
133.394003
141.647458
137.916803
121.431947
104.530454
80.955625
63.776970
42.445660
32.210946
22.353530
18.222928
16.345978
17.273426
17.283559
16.756654
18.208623
17.676950
18.418431
18.909574
17.869473
17.461777
17.889738
18.091798
17.768741
17.460585
16.987920
17.286539
17.436743
16.849637
16.244650
15.976429
16.015768
14.455914
14.670491
14.025569
13.436675
12.904406
12.241602
12.125969
11.644959
11.200905
10.830760
11.445880
10.615587
10.143518
9.759665
9.662509
9.281635
9.306669
9.376407
8.917451
8.947849
##ZVALUE=285
1.263618
1.195669
1.173615
1.282692
1.063943
1.258850
1.413822
1.345873
1.362562
1.493692
1.461506
1.459718
1.473427
1.334548
1.541972
1.446605
1.658797
1.654625
1.927614
1.752973
2.043843
2.363920
2.259612
2.521873
7.670522
29.001832
98.698735
206.980705
444.928408
665.932894
966.736674
1015.788913
1015.788913
1015.788913
1015.788913
995.924473
711.523890
489.313602
251.227021
144.930482
62.062740
35.429001
33.539534
45.390725
69.958568
89.815855
113.863945
128.906965
138.224959
138.309002
127.551556
112.878680
86.775422
69.826841
48.536658
37.211776
26.460886
23.421645
21.233559
20.912886
21.883845
21.298528
21.345615
21.058917
20.444989
20.664930
19.936562
20.034909
19.898415
19.955635
19.338727
19.067526
18.290877
17.846823
16.798973
16.895533
15.578866
15.296936
14.807582
15.094876
13.576746
13.381839
12.746453
11.854768
12.095571
11.669993
11.148453
10.949969
10.612607
10.258555
10.500550
10.055900
9.424686
9.239912
9.110570
9.170771
##ZVALUE=290
1.249909
1.147985
1.269579
1.405478
1.271963
1.190901
1.095533
1.190901
1.167655
1.213551
1.394749
1.339912
1.483560
1.487732
1.517534
1.500845
1.185536
1.318455
1.447797
1.582503
1.720786
1.772642
2.058744
2.111793
2.165437
2.645850
3.515482
11.992455
58.605671
136.013627
312.204957
514.026880
852.742791
1015.788913
1015.788913
1015.788913
1015.788913
1015.788913
852.757692
625.556707
360.959768
214.109421
93.089938
45.198798
25.074482
29.020905
45.616627
62.041879
89.664459
109.178424
128.529668
138.179660
138.357878
130.399466
112.200975
92.945695
67.697763
53.743720
39.991736
33.590794
27.590990
25.367737
24.647713
22.962689
23.305416
22.611618
22.108555
22.560954
22.894740
22.227764
21.425486
21.282434
19.943714
19.582510
18.971562
17.930865
16.998649
17.066598
15.315413
15.140772
14.795661
14.127493
13.480783
13.049841
12.111664
12.314916
11.837482
11.634827
10.864735
10.783672
10.655522
9.744763
9.698868
9.416938
9.611845
9.249449
##ZVALUE=295
1.000762
1.098514
0.945926
1.139641
1.260638
1.134872
1.048446
1.263618
1.279712
1.214743
1.138449
1.048446
1.203418
1.154542
1.345873
1.091957
1.214743
1.286864
1.302958
1.359582
1.429915
1.411438
1.647472
1.657605
1.723766
2.148747
2.207756
2.179742
2.765656
5.225539
29.066801
83.145499
231.470466
417.176485
749.322772
989.832878
1015.685797
1015.685797
1015.685797
1015.685797
996.782780
785.122514
483.634472
294.065475
131.294727
64.992905
27.237535
21.575689
31.277537
44.667721
67.776442
87.303519
110.634565
125.002861
135.301948
136.517882
125.273466
113.589764
91.854930
75.428486
55.656433
45.428872
35.131574
29.931664
26.606917
25.909543
24.118423
24.704933
23.957491
23.430586
22.619963
21.754503
21.480918
20.687580
19.677877
19.231439
18.859506
17.638803
16.805530
15.857816
14.598966
14.604926
13.718605
13.541579
13.094544
12.614727
11.857748
11.865497
11.184812
11.288524
10.253787
10.099411
9.761453
9.046793
9.333491
8.947849
##ZVALUE=300
1.142621
1.141429
1.191497
1.213551
1.039505
1.160502
1.185536
1.209974
1.224875
1.258850
1.069903
1.087785
1.241565
1.166463
1.261830
1.501441
1.208782
1.371503
1.617670
1.604557
1.499653
1.644492
1.634955
1.632571
1.740456
1.697540
1.886487
1.797676
2.016425
2.196431
2.526641
2.957582
13.128519
49.240589
160.393715
303.648710
595.971942
867.453814
1015.788913
1015.788913
1015.788913
1015.788913
1015.788913
950.855613
615.372658
394.837856
197.144747
105.065703
41.844845
24.309754
24.995804
32.448769
47.683716
62.919855
86.916685
104.206800
123.096704
132.003427
134.931803
130.040646
111.357570
96.308589
74.320436
59.528947
43.467879
35.336614
29.798746
26.597977
25.117993
23.270845
23.313761
22.084713
21.385550
21.359921
20.139813
19.885898
18.765926
18.015504
16.853809
16.898513
15.429854
15.320778
14.064908
13.847947
13.238788
12.595654
12.296438
11.938810
11.202693
11.033416
10.576844
10.243654
9.734631
9.566545
9.282827
9.068847
##ZVALUE=305
1.093745
1.177788
1.064539
1.068711
1.088977
0.929832
1.137853
1.150966
1.214743
1.211762
1.138449
1.146793
1.174808
1.154542
1.357794
1.224875
1.298785
1.290441
1.156926
1.324415
1.230836
1.219511
1.556873
1.637936
1.449585
1.642704
1.768470
1.848936
1.902580
1.939535
2.212524
2.334714
2.612472
2.970695
5.445480
35.330653
95.687509
259.294510
453.268886
786.512494
1012.963653
1015.796661
1015.796661
1015.796661
1015.796661
984.543562
755.447745
469.950438
289.704800
131.299496
67.177415
30.395985
23.552775
26.298761
33.886433
50.029755
64.050555
85.687637
102.951527
120.716691
127.953887
128.774643
121.500492
105.024576
89.623928
68.127513
53.529739
39.878488
32.386780
26.606917
23.945570
21.504760
20.721555
19.797683
19.024611
17.817616
17.939806
16.944408
16.120672
15.916824
15.154481
14.033914
14.180541
13.121963
12.960434
12.118816
11.929870
11.275411
11.053681
10.837913
10.497570
9.631515
9.471774
9.361506
9.256601
8.618832
##ZVALUE=310
1.057982
1.032948
1.202822
1.038909
1.138449
1.100898
1.256466
1.039505
1.195669
1.140833
1.209974
1.119971
1.149774
1.258850
1.366735
1.111627
1.248717
1.311898
1.202822
1.265407
1.334548
1.353621
1.550913
1.369715
1.635551
1.596808
1.538992
1.589656
1.721978
1.762509
1.695752
1.948476
1.941919
2.232790
2.404451
2.504587
3.007650
15.328526
52.494407
168.049932
319.330692
620.033741
890.097022
1015.852690
1015.852690
1015.852690
1015.852690
1015.852690
984.463692
646.423697
418.226719
205.916762
112.044811
46.136975
26.431680
22.854805
25.553703
33.156872
42.200685
59.816837
75.342655
95.432997
107.030869
117.695928
119.288564
111.638904
100.607872
83.754659
66.908002
48.347712
37.696958
28.037429
22.795796
19.256473
17.278790
16.386509
15.689731
15.005469
14.489889
14.135838
13.678670
12.821555
12.800694
12.018681
11.734962
11.467934
10.965466
10.975599
10.911822
10.461807
9.966493
9.479523
9.319782
8.764863
8.836985
8.638501
##ZVALUE=315
1.307726
1.406670
1.246929
1.303554
1.347661
1.217723
1.465678
1.241565
1.363754
1.316667
1.284480
1.349449
1.443624
1.340508
1.270771
1.456738
1.248717
1.351833
1.333952
1.459718
1.405478
1.367927
1.471639
1.652837
1.684427
1.580715
1.471639
1.517534
1.804829
1.765490
1.886487
1.735687
2.049804
2.074838
2.077818
2.170801
2.319813
2.614856
2.825856
6.933808
28.440952
113.317966
241.898894
513.886809
776.368976
1015.985608
1015.985608
1015.985608
1015.985608
1015.985608
1015.985608
774.901509
538.720489
285.465717
154.265761
60.992837
31.204820
20.338893
21.145940
23.929477
29.367805
39.788485
50.469637
68.102479
82.775950
98.377466
106.076598
108.545423
102.645755
88.904500
75.988770
58.337450
45.082569
31.150579
23.777485
17.854571
15.191436
13.852715
12.898445
12.432933
12.005568
11.320710
11.296868
11.062622
10.811687
10.557771
10.200739
9.921789
9.988546
9.387732
9.152889
9.176731
8.750558
8.660555
8.501410
8.278489
##ZVALUE=320
1.070499
0.936985
1.008511
1.077652
0.956655
0.933409
0.991821
1.010895
1.010895
1.020432
1.060963
1.076460
1.127720
1.160502
1.023412
1.050830
1.069903
1.035929
1.193881
1.116991
1.041889
1.278520
1.237988
1.246929
1.294613
1.346469
1.392961
1.300573
1.412630
1.239777
1.412630
1.534820
1.625419
1.648664
1.708865
1.760721
1.835823
2.040863
2.097487
2.356768
2.655983
3.561974
12.379885
65.051913
162.203908
392.313004
615.668893
947.580934
1015.788913
1015.788913
1015.788913
1015.788913
1015.788913
915.978551
656.225681
356.389880
201.600790
88.092685
41.919947
18.353462
15.336871
15.811920
17.395616
23.117661
29.180646
43.038726
55.651665
72.868466
86.284876
95.229745
96.149445
91.413856
82.715750
66.457987
52.356720
36.645532
27.524829
19.190907
14.663935
11.443496
10.465980
10.130405
9.472966
9.134412
9.057522
8.737445
8.611679
8.742809
8.229613
8.289814
8.166432
8.162856
8.228421
7.945895
7.789731
7.875562
##ZVALUE=325
1.081824
0.936985
0.916719
0.968575
1.220703
1.187921
1.070499
0.867844
0.767708
0.906587
0.992417
1.132488
1.071692
1.081824
0.972748
1.001954
1.010895
1.176596
1.251698
1.034737
1.170635
1.059771
1.143813
1.057982
1.012683
1.246929
1.318455
1.265407
1.410842
1.360774
1.343489
1.364946
1.365542
1.344681
1.433492
1.604557
1.683831
1.614690
1.926422
1.857877
2.038479
2.084970
2.432466
2.997518
6.673932
45.083761
117.887855
295.003653
507.335663
857.998729
1015.788913
1015.788913
1015.788913
1015.788913
1015.788913
987.430811
738.528371
427.123904
263.495445
118.470788
55.706501
18.089414
11.429787
10.019541
10.935664
13.054609
17.149448
25.899410
35.702586
53.042769
65.330863
78.771710
85.580945
88.302493
83.321929
71.137547
59.247613
44.190884
33.278465
21.926761
15.901923
11.014938
9.451509
8.704662
8.171797
7.770658
7.624626
7.614493
7.686615
7.557869
7.566810
7.521510
7.219911
7.255673
7.448792
7.111430
##ZVALUE=330
0.901818
0.904799
0.914931
0.933409
0.874996
0.802875
1.004934
1.028776
0.946522
1.023412
1.021624
0.967979
1.010895
0.942945
0.911951
1.057982
1.138449
1.105666
1.071692
0.841618
1.146793
1.141429
1.137853
1.203418
0.952482
0.997782
1.253486
1.181960
1.223683
1.434684
1.323819
1.349449
1.474619
1.349449
1.299977
1.536608
1.546741
1.464486
1.509786
1.631975
1.628995
1.912713
1.977682
2.211928
2.328753
2.571940
3.507733
20.199418
65.387487
207.268596
378.478765
689.757466
944.381952
1015.786529
1015.786529
1015.786529
1015.786529
1015.786529
846.382976
528.510809
333.364010
153.242946
76.272488
26.960969
12.289882
8.286834
7.844567
8.898973
10.611415
15.638471
22.063851
34.128428
45.308471
61.734915
71.495771
79.428554
80.691576
75.641870
67.282915
53.347945
42.088628
28.368831
21.460652
14.441609
10.895729
9.041429
7.722974
7.257462
7.355809
7.053614
7.119775
6.727576
6.821752
6.814599
6.921887
6.864667
##ZVALUE=335
0.866652
0.865459
0.937581
0.958443
0.833869
1.052618
1.063943
0.916719
0.831485
0.937581
1.070499
1.085997
0.884533
0.830889
1.038909
0.962615
0.856519
0.969768
1.106858
1.154542
1.155734
0.964999
1.179576
1.056790
1.163483
0.962615
1.245737
1.243949
1.086593
1.225471
1.195669
1.222491
1.417994
1.185536
1.099706
1.332760
1.305938
1.340508
1.425743
1.422763
1.525879
1.789927
1.790524
1.785755
1.766682
2.128482
2.078414
2.481937
2.845526
8.550882
32.177567
121.309757
249.423385
522.567034
790.632963
1015.788913
1015.788913
1015.788913
1015.788913
1015.788913
969.200730
635.545850
423.955917
221.327543
115.437508
40.125847
16.639829
8.169413
7.615685
7.716417
8.166432
10.341406
14.350414
22.810698
30.686855
45.032501
55.817962
67.003965
72.935820
74.769855
72.080493
61.391592
51.940680
39.185882
30.522943
20.894408
15.696883
11.618733
9.258986
7.623434
7.536411
7.046461
6.927848
6.745458
6.804466
6.655455
##ZVALUE=340
0.841618
1.020432
0.992417
0.938773
1.097918
1.022816
0.921488
1.008511
0.958443
0.925660
0.985861
0.985861
0.901818
1.083612
0.956655
0.822544
0.810623
0.983477
1.070499
1.015663
1.128912
1.053810
1.077652
1.083612
1.162887
1.118779
1.019835
1.027584
1.100898
1.249909
1.132488
1.037717
1.193881
1.165867
1.215935
1.264811
1.355410
1.155734
1.568794
1.418591
1.454949
1.588464
1.541972
1.583695
1.534820
1.741648
1.906753
1.992583
2.017617
2.418756
2.528429
4.487634
16.201735
81.152916
191.079974
447.842479
701.877475
1010.492444
1015.788913
1015.788913
1015.788913
1015.788913
1015.788913
788.663626
548.752546
279.333591
154.043436
59.814453
23.427606
9.259582
7.745624
7.693768
7.438660
8.442998
9.991527
14.375448
20.193458
29.945970
39.827824
53.960681
62.973499
69.273710
69.990754
65.793991
59.837699
49.563646
40.272474
28.727651
21.515489
14.678836
11.796951
8.556843
7.647872
7.024407
6.844997
6.399751
##ZVALUE=345
0.798702
0.916719
0.768900
0.859499
0.928640
0.891685
0.899434
0.877976
0.801682
0.845790
0.997782
0.824928
0.894666
0.856519
0.736713
0.712872
0.856519
0.970960
0.934601
1.153946
1.002550
0.764728
0.942945
0.856519
0.932813
0.992417
0.989437
1.052618
1.044869
1.047850
0.939965
0.972748
1.100898
1.204610
1.208782
1.232624
1.003742
1.241565
1.305938
1.166463
1.265407
1.346469
1.342893
1.295805
1.450777
1.465678
1.566410
1.564622
1.505613
1.815557
1.896620
2.120733
2.335906
2.845526
7.106662
44.008493
117.715001
290.975571
501.126647
847.909451
1015.719771
1015.719771
1015.719771
1015.719771
1015.719771
913.027525
672.161579
390.157700
212.361813
80.673695
35.168529
12.180805
8.020997
7.409453
7.108450
7.056594
7.541776
9.384751
12.171865
18.847585
26.000738
37.593842
47.116876
57.452917
62.021613
64.478517
62.771440
56.061745
48.817992
38.178563
30.103922
19.881725
15.825629
11.190772
8.804798
7.363558
##ZVALUE=350
0.969768
0.924468
0.955462
0.817776
0.999570
0.918508
0.892878
0.935793
0.807643
1.004934
0.911951
0.928640
0.864863
0.777841
1.020432
0.989437
0.919700
0.924468
1.249909
0.935793
0.926852
0.990629
0.829697
1.042485
0.979900
0.960827
1.173615
1.015663
1.135468
1.138449
1.191497
1.048446
1.072884
1.055598
1.246929
1.122952
1.154542
1.294613
1.317859
1.249909
1.190901
1.355410
1.123548
1.360774
1.186728
1.448989
1.336932
1.408458
1.698732
1.545548
1.788735
1.800656
1.804829
2.045631
2.171993
2.550483
4.003644
22.523403
65.538883
193.476677
361.411572
677.887797
929.046869
1015.788913
1015.788913
1015.788913
1015.788913
977.769494
738.210678
451.631546
267.288685
117.016435
53.652525
15.636683
8.569956
7.049441
6.645918
6.515980
6.438494
7.348657
8.598566
12.231469
16.826987
24.943948
32.629967
43.908954
50.349832
56.595802
58.675408
57.660937
53.316951
44.661760
36.719441
27.638674
21.147728
14.558434
##ZVALUE=355
1.009703
0.861883
0.910759
0.950694
0.884533
1.026988
0.970960
0.800490
0.917912
0.807643
0.836849
1.080632
0.965595
0.948906
0.965595
0.882745
1.012683
0.936985
0.990629
0.882745
0.887513
1.043677
1.069903
1.080632
1.130700
0.912547
1.026988
0.940561
1.110435
1.050830
1.060963
1.208782
1.004934
1.105666
0.975728
1.051426
1.074672
1.250505
1.205802
1.348853
1.229644
1.077652
1.338720
1.307726
1.323819
1.278520
1.274943
1.511574
1.553893
1.549721
1.666546
1.702905
1.797676
1.861453
1.823902
2.155900
2.165437
2.340674
2.958775
10.413527
36.422610
132.784843
262.184739
519.596934
776.842833
1015.754938
1015.754938
1015.754938
1015.754938
1015.754938
840.296745
531.337857
332.731605
146.406889
69.105625
21.534562
9.867549
6.623864
6.362796
6.218553
6.285906
6.130934
6.726980
8.088946
10.251999
14.955997
20.611882
28.950572
36.025643
44.788718
50.317645
53.518414
53.333640
48.533678
43.070912
34.423470
##ZVALUE=360
0.998974
1.006722
0.819564
0.897646
0.916719
0.908971
0.864863
0.966787
1.039505
0.904799
0.949502
0.963807
0.794530
0.890493
1.045465
0.972748
1.008511
1.000762
0.966787
1.170635
0.937581
1.115799
1.017451
0.971556
0.972748
1.058578
1.021624
1.044869
1.043677
1.122952
1.088977
1.176596
0.995994
1.134872
1.064539
1.143813
1.102686
1.044869
1.046658
1.095533
1.239777
1.155734
1.254678
1.301765
1.389980
1.184940
1.469851
1.541972
1.399517
1.294613
1.525879
1.509786
1.616478
1.807809
1.687407
1.884699
1.799464
2.042651
2.222657
2.523661
2.616644
4.980564
16.524792
67.601800
153.330564
358.222723
584.028959
919.691920
1015.788913
1015.788913
1015.788913
1015.788913
953.465700
627.892017
409.055948
192.429423
98.835826
35.004616
14.355779
6.976724
6.325841
6.246567
5.886555
5.738735
5.441904
6.090999
6.818771
8.933544
11.725426
17.677546
23.554564
32.376647
38.009882
43.829679
47.951937
48.731565
##ZVALUE=365
0.843406
0.914931
0.835657
0.971556
0.777841
0.926852
0.937581
1.074672
1.068711
0.927448
1.048446
0.959635
1.021624
0.918508
0.907779
0.967979
0.922680
0.920892
0.981688
0.887513
0.997782
1.076460
1.105666
1.022816
1.024604
0.991821
1.097918
1.066923
1.025796
0.986457
1.053810
1.036525
1.088977
1.121759
1.021624
1.096725
1.238585
0.992417
1.239777
1.171827
1.208782
1.151562
1.188517
1.335740
1.310706
1.132488
1.256466
1.198649
1.329780
1.237988
1.220703
1.184940
1.415610
1.583695
1.533628
1.458526
1.749992
1.813769
1.827478
2.105832
2.202988
2.516508
2.582669
3.038645
6.838441
36.270618
96.389651
255.485773
444.957614
754.625797
988.856554
1015.788913
1015.788913
1015.788913
1015.788913
750.965476
522.756577
274.723768
146.422982
52.789450
21.901727
7.522702
6.171465
5.541444
5.611777
5.268455
5.491972
5.173683
5.398989
6.357431
7.471442
10.547638
14.347434
20.138621
25.865436
33.613443
##ZVALUE=370
0.889897
0.884533
1.001954
0.948906
0.950694
0.800490
0.810623
0.774860
0.886917
0.997782
0.876784
0.946522
0.814795
0.935793
0.712872
0.836849
0.993609
0.983477
0.972748
0.841618
1.048446
0.877976
0.873804
0.901818
0.935793
0.976920
0.946522
0.982881
1.114607
0.919700
1.061559
0.946522
1.105666
1.143813
1.104474
1.046658
1.021624
0.963807
1.103878
0.993609
1.068711
0.983477
1.049638
1.075864
1.155734
1.125932
1.031756
1.124740
1.254678
1.377463
1.293421
1.362562
1.246929
1.151562
1.311898
1.332760
1.366735
1.360774
1.310706
1.624823
1.690984
1.682639
1.834631
1.894832
2.139807
2.624989
3.936887
20.111799
61.728954
185.651779
337.578654
622.529984
864.944458
1015.788913
1015.788913
1015.788913
1015.788913
854.607821
617.823601
329.205394
182.681680
70.074797
31.435490
11.171699
6.435513
5.449653
5.402565
5.089641
5.080700
4.706979
4.866719
5.024672
5.425811
6.392598
8.567572
12.413859
##ZVALUE=375
0.856519
0.873804
0.879765
0.858903
0.846982
0.764728
0.750422
0.674725
0.978708
0.927448
0.851750
0.859499
0.953674
0.947714
0.900626
0.877976
0.870824
0.897646
0.870824
0.929832
0.855923
0.878572
0.851750
0.835657
0.827909
0.939965
0.972748
0.926852
0.937581
0.816584
0.899434
0.872612
0.733733
0.799894
0.863671
1.047850
0.995994
1.104474
0.931621
1.055598
1.102686
0.970960
1.006722
1.057982
0.985861
0.974536
1.054406
1.108646
1.141429
1.045465
1.152754
1.137853
1.186728
1.190901
1.200438
1.286864
1.330972
1.318455
1.361966
1.560450
1.512766
1.687407
1.617670
1.526475
1.698732
1.844764
2.138615
2.207756
2.632737
10.461807
34.243464
113.197565
229.425430
483.678579
725.023746
1010.185480
1015.788913
1015.788913
1015.788913
982.970595
745.973587
437.308550
269.681811
127.702951
61.156750
19.230843
8.251667
5.515814
5.166531
5.091429
4.693866
4.619956
4.367828
4.502535
4.637837
4.861951
##ZVALUE=380
0.775456
0.787973
0.841618
0.871420
0.792742
0.850558
0.911951
0.940561
0.862479
0.754595
0.827909
0.794530
0.777841
0.856519
0.891685
0.809431
0.878572
0.751615
0.878572
0.794530
0.726581
0.883937
0.887513
0.820756
0.890493
0.878572
0.875592
0.891685
0.892878
0.822544
0.962615
0.805855
0.891685
0.792742
0.985861
1.000762
0.965595
0.948906
1.054406
1.018643
0.906587
0.912547
0.882745
1.021624
1.122952
0.952482
1.033545
0.935793
0.998974
1.079440
1.002550
1.041889
1.083612
1.077652
1.200438
1.030564
1.134872
1.082420
1.121759
1.375675
1.322627
1.455545
1.495481
1.562834
1.472831
1.613498
1.669526
1.680851
1.933575
2.276897
2.540946
5.741715
20.683408
83.814859
179.023743
397.473574
617.784858
929.793715
1015.788913
1015.788913
1015.788913
1015.788913
850.192904
574.914813
377.101898
178.685784
89.255571
29.571652
11.947751
5.535483
4.826784
4.645586
4.478693
4.230738
4.239678
4.070997
##ZVALUE=385
0.807643
0.867844
0.721812
0.744462
0.682473
0.751615
0.771880
0.892878
0.822544
0.710487
0.787973
0.812411
0.906587
0.832677
0.773668
0.867844
0.788569
0.737906
0.874996
0.991821
0.751615
0.816584
0.718832
0.982881
0.852942
0.719428
0.820756
0.831485
0.681877
0.832677
1.000762
0.863671
0.882745
0.941753
0.841618
0.935793
0.961423
0.901818
1.040697
1.002550
1.042485
0.910759
0.939965
1.005530
0.840425
1.068711
0.926852
0.957847
1.028776
1.114607
1.151562
0.975728
1.150966
1.109838
1.017451
1.191497
1.026988
1.199841
0.996590
1.131892
1.222491
1.350641
1.190901
1.458526
1.329780
1.237988
1.278520
1.519918
1.656413
1.860857
1.790524
2.325773
2.270937
3.146529
9.823442
49.765706
116.034746
272.848606
456.188917
750.876665
970.804691
1015.780568
1015.780568
1015.780568
985.292792
717.707872
503.611565
270.603895
149.856806
58.147907
22.588968
6.625652
4.899502
4.452467
4.469752
4.087687
##ZVALUE=390
0.779629
0.745654
0.827909
0.771880
0.843406
0.838637
0.806451
0.690818
0.817776
0.868440
0.798702
0.828505
0.748634
0.696778
0.913739
0.898838
0.979900
0.848770
0.730753
0.796914
0.861883
0.903606
0.929832
0.796914
0.848770
0.875592
0.857711
0.900626
0.773668
0.880957
0.927448
0.960827
0.979900
0.803471
0.762939
1.019835
0.959635
0.898838
1.018643
0.886917
0.795722
0.886917
1.070499
0.794530
0.852942
1.013875
0.931621
0.954866
0.976920
0.967979
0.911951
1.104474
1.113415
1.101494
1.133680
0.960827
1.103878
1.063943
1.173615
1.164675
1.152754
1.238585
1.229644
1.354814
1.203418
1.265407
1.546741
1.434684
1.714826
1.645684
1.752973
1.831651
2.013445
2.084970
2.100468
2.287626
5.019903
29.574633
79.602599
211.226940
375.449657
654.809475
868.341923
1015.788913
1015.788913
1015.788913
1015.788913
857.926607
650.107861
392.044783
224.381685
87.747574
38.962960
11.835694
5.460978
4.354715
##ZVALUE=395
0.833869
0.719428
0.833869
0.797510
0.733733
0.807643
0.758767
0.783801
0.889897
0.834465
0.790954
0.848770
0.884533
0.729561
0.910759
0.829697
0.860691
0.849962
0.716448
0.816584
0.631809
0.927448
0.773668
0.715852
0.922680
0.781417
0.900626
0.897646
0.979900
0.822544
0.779629
0.890493
0.808835
0.872612
0.823736
0.912547
0.950694
0.951886
0.988841
1.019835
1.111627
0.804663
0.937581
1.003742
0.904799
1.070499
0.988841
0.941753
0.842810
1.087785
1.026988
0.878572
1.153946
1.027584
1.022816
1.211762
0.950694
1.168847
1.082420
0.963807
1.243949
1.144409
1.204610
1.231432
1.229644
1.239777
1.491904
1.362562
1.562834
1.497865
1.723766
1.888871
1.738667
1.767874
1.758933
1.785755
2.075434
2.133846
3.016591
16.606450
55.183768
161.970854
286.384821
503.376722
708.328485
975.081921
1015.788913
1015.788913
1015.788913
984.756947
775.817037
477.389693
299.559832
140.225887
65.497756
20.350814
##ZVALUE=400
0.856519
0.837445
0.857711
0.698566
0.736713
0.810623
0.859499
0.859499
0.803471
0.780821
0.873804
0.772476
0.947714
0.854731
0.762939
0.905991
0.828505
0.859499
0.843406
0.742674
0.838637
0.881553
0.897646
0.841618
0.811815
0.850558
0.981688
0.919700
0.879765
0.892878
0.813603
0.875592
0.928640
0.720620
0.797510
0.849962
0.860691
0.853539
0.915527
1.052618
1.034737
1.050830
0.860691
1.032948
1.000762
0.913739
0.837445
0.875592
0.922680
1.000762
0.951886
1.097918
0.963807
1.137853
1.161695
1.023412
0.974536
1.178980
1.185536
1.096725
1.122952
1.153946
1.181960
1.299977
1.284480
1.191497
1.285672
1.468658
1.584888
1.519918
1.609921
1.661777
1.593828
1.564622
1.568794
1.603961
1.663566
1.669526
1.851916
2.056956
2.250671
8.632541
30.373931
97.198486
192.246437
393.112898
592.089891
853.284001
1009.344459
1015.788913
1015.788913
999.111533
822.618604
545.066595
361.299515
184.452534
##END
