##TITLE=DDW001
##FORMAT=SPECTACLE-ASCII V-1.2
##DATA TYPE=ULTRAVIOLET SPECTRUM
##SECOND TYPE=ULTRAVIOLET SPECTRUM
##DATE=02/05/18
##TIME=13:34:29
##SPECTROMETER/DATA SYSTEM=SPECTACLE
##XUNITS=NM EM
##YUNITS=ENERGY
##YFACTOR=1
##FIRSTX=220
##LASTX=410
##NPOINTS=96
##3DDATA=Equidistant
##ZUNITS=NM EX
##FIRSTZ=210
##LASTZ=400
##ZPOINTS=39
##XYDATA=(Y..Y)
##ZVALUE=210
14.090538
11.104941
12.416840
9.926558
11.204481
8.135438
8.029938
6.836653
5.919933
5.389452
3.231764
2.521873
2.263784
2.188683
1.790524
1.661777
1.781583
1.878738
2.175570
2.448559
2.052784
2.316833
2.776980
2.377629
2.409816
2.584457
2.911687
3.285408
2.753735
3.230572
3.063679
2.949834
3.724694
3.556609
3.277659
3.656745
3.316998
3.661513
4.172921
4.137754
3.874898
4.783869
3.510714
4.131794
3.765821
4.113913
4.209876
3.665686
4.009604
3.853440
4.727840
3.228784
4.524589
3.489852
3.948808
4.572868
4.405975
4.188418
4.220605
4.819632
3.391504
4.030466
4.122853
3.867745
3.505945
3.959537
3.588796
4.707575
5.556941
6.397963
6.005764
6.585717
7.475615
8.388758
8.118749
9.206533
9.122491
9.539723
8.738637
8.650422
7.011890
7.055998
6.486773
5.770922
4.478693
3.510714
3.857613
3.960729
5.095601
5.624890
7.642508
10.568500
13.647676
20.297766
24.560690
29.666424
##ZVALUE=215
35.469532
33.286810
28.869510
22.450686
20.786524
16.152859
15.119910
14.577508
15.838742
13.439655
12.136698
9.238720
6.430745
4.384518
3.756881
3.082752
2.231598
2.379417
2.495646
2.308488
2.948642
2.413988
2.290606
2.891421
2.988577
3.010631
3.097653
3.154874
3.222823
3.353953
3.693700
3.367662
4.037619
4.107952
4.000664
3.958941
5.145669
3.834963
4.040599
3.612638
5.032420
4.485846
4.432797
4.406571
4.750490
4.730821
4.867911
3.631711
4.000664
4.964471
4.120469
4.876852
4.290938
4.654527
4.318953
4.300475
3.665686
4.419684
3.988743
4.281998
4.735589
5.452633
4.152656
4.938841
4.632473
4.721880
5.157590
5.284548
5.463958
5.168915
6.278753
7.223487
7.311702
8.778572
9.135604
8.709431
8.777976
7.471442
8.168817
6.840825
6.522536
7.273555
5.923510
5.584955
4.908442
4.582405
4.058480
4.109740
3.751516
3.520846
3.516674
3.821850
4.071593
4.733801
6.388426
9.353757
##ZVALUE=220
78.236461
82.174540
74.423552
69.331527
53.827763
42.892694
31.687617
27.244687
24.941564
23.996830
23.423433
23.338795
20.556450
18.072724
13.393760
8.992553
6.162524
4.824996
3.527999
3.078580
2.587438
3.068447
2.950430
3.342628
3.471971
3.796816
3.955960
3.837943
3.783703
4.283786
4.019737
3.864765
4.187822
5.529523
4.929900
4.940629
4.152656
4.912615
5.226731
4.672408
5.115867
5.158782
4.894733
4.446507
5.265474
5.195737
4.758835
5.182624
4.921556
5.153418
5.726814
5.342960
5.353689
5.720854
5.492568
5.672574
5.832911
5.686879
4.960895
5.743504
5.362630
5.276799
5.529523
5.405545
5.948544
4.849434
5.820990
5.897880
5.596876
6.859899
7.969737
7.083416
8.406639
9.807944
9.578466
9.624958
9.434819
8.995533
8.900762
8.926988
7.835627
6.469488
7.204413
5.749464
5.079508
5.254745
4.428625
4.478693
4.350543
5.075932
4.089475
3.704429
4.212856
4.092455
3.946424
4.266500
##ZVALUE=225
100.826621
102.970004
122.917891
137.771964
138.156414
119.913816
101.806521
74.155927
56.149960
47.081709
38.977861
35.655499
37.840605
40.147901
35.847425
31.648874
25.116801
18.936992
14.954805
8.456707
5.261898
3.303885
3.137589
3.105998
3.070831
3.298521
3.325939
3.343821
3.933907
4.262924
4.799962
4.875660
4.348755
4.320741
4.717708
4.950762
4.495978
4.651546
5.085468
4.842877
5.735755
4.674792
5.469918
5.136728
5.477667
5.113482
4.726648
5.931854
5.379915
5.325675
5.217791
6.462932
5.383492
5.796552
6.616712
6.049871
5.998611
5.912781
5.523562
6.229877
6.432533
5.488992
6.156564
5.657673
6.604791
6.491542
5.850792
5.716681
6.963611
6.895661
7.551908
8.088946
9.553432
8.863807
9.770989
9.046793
9.364486
8.846521
8.939505
8.555651
7.169843
7.448792
6.907582
6.463528
5.257726
5.652905
5.294681
5.172491
4.988909
4.568696
5.215406
5.089641
4.654527
4.176497
4.370809
4.117489
##ZVALUE=230
66.528916
69.289804
111.017823
160.445571
194.048882
223.452449
226.681828
204.973817
177.124739
145.932436
97.487569
73.520541
55.770874
55.573583
57.450533
60.635805
62.098503
57.900548
49.911737
36.913753
30.290484
19.558668
11.985898
7.779598
5.167723
4.565716
4.742742
4.007816
4.769564
4.691482
4.867911
4.882812
5.945563
5.109906
5.082488
4.908442
5.093813
5.001426
5.754828
5.853772
6.238818
5.273819
6.171465
6.229877
5.067587
5.693436
5.903840
5.796552
5.582571
6.756783
6.018877
6.079674
5.576611
6.011724
5.726814
5.898476
7.130504
5.808473
5.911589
6.147623
6.288886
6.522536
6.023645
7.127523
6.183982
6.777644
7.105470
6.652474
7.472634
8.406639
8.839965
9.910464
9.827614
10.552406
11.264682
10.722876
10.128617
9.455681
9.721518
9.264946
8.209944
8.151531
7.802844
7.208586
7.322431
6.533861
6.118417
6.167889
5.581975
6.306767
5.725622
4.986525
6.010532
5.641580
5.712509
5.758405
##ZVALUE=235
17.192960
20.010471
42.250752
95.302463
149.597526
225.663781
284.507871
346.463919
362.600684
340.315700
297.687650
223.051906
166.173577
111.922622
90.494752
80.125928
80.875754
84.681511
87.724924
85.596442
79.793930
64.556599
48.610568
34.685731
22.714734
15.612841
10.485649
7.511973
6.336570
6.489754
5.850792
6.003976
6.192923
6.345510
5.391836
5.822778
5.632639
5.349517
5.207658
6.090999
6.457567
5.968809
5.919933
5.770922
5.698800
6.524920
5.808473
5.461574
5.681515
6.603599
5.591512
6.502867
5.919933
6.713867
6.580949
7.404685
6.608963
5.347729
6.225705
7.080436
7.622838
5.956888
7.013679
6.674528
7.373691
7.238984
7.025599
7.685423
8.490682
8.534789
9.651780
10.705590
9.713769
10.992885
11.592507
12.945533
11.661649
10.620952
11.580586
10.297894
10.060668
9.838939
9.375811
8.297563
8.777976
7.277727
7.671714
7.337928
7.380843
7.472634
7.070899
7.268786
6.824732
6.487966
6.384850
5.603433
##ZVALUE=240
1.458526
2.277493
5.464554
20.975471
44.936538
97.487569
165.052414
281.796455
374.998450
446.535945
506.988764
496.878624
419.727564
359.608531
258.266926
184.685588
121.485591
101.475716
96.154809
107.300878
115.367770
121.059418
114.364624
100.741982
86.382627
60.993433
43.573976
28.086901
20.739436
13.189912
9.911656
9.393692
7.053614
8.090734
7.756948
8.036494
7.729530
6.706715
6.864667
6.954670
6.405711
6.259680
6.380677
6.826520
6.231666
6.811619
5.902648
6.316900
6.233454
6.452799
6.643534
6.287694
6.241798
6.620884
6.620884
6.192923
6.670952
6.025434
6.703734
6.356835
6.539822
6.310940
7.113814
6.675720
7.319450
7.859468
7.656813
7.182956
9.253621
8.012652
9.629726
10.499954
11.627674
12.421608
11.446476
11.510849
12.231469
10.980964
11.532903
9.682775
11.449456
9.083748
10.412931
9.532571
8.642673
8.790493
8.599758
7.485747
8.314848
8.095503
8.648634
7.488728
7.309914
7.067919
6.417632
6.629825
##ZVALUE=245
1.093745
1.240969
1.194477
1.133680
3.800988
10.890961
37.185550
73.817968
168.913007
259.970427
406.996012
493.276715
561.985970
577.009916
552.851558
449.756980
357.501507
243.937969
170.011520
112.192631
99.697709
98.970532
116.528869
130.678415
134.286880
126.062632
112.494826
93.579888
72.511435
53.911805
38.548708
23.155808
15.363693
11.140704
8.827448
7.590652
8.174777
7.571578
7.561445
6.004572
7.110834
5.531907
5.740523
5.434752
6.280541
5.938411
5.475879
5.547404
5.348921
5.561709
5.722642
5.221963
5.252957
5.463958
5.893707
5.603433
5.450845
5.408525
5.314946
5.175471
5.040765
5.187988
6.303787
5.235672
5.689859
5.782843
6.354451
6.294847
7.003546
6.628633
7.452965
7.257462
8.521676
9.295940
9.409785
10.122657
10.545850
9.845495
10.042787
9.634495
8.780956
9.030700
8.638501
8.186698
7.506609
7.632971
7.608533
7.259846
7.417798
6.617904
6.839633
6.270409
6.929636
6.088614
6.353855
5.928874
##ZVALUE=250
1.159906
1.348853
1.010895
1.113415
1.500845
1.686811
2.360940
8.277893
21.936893
51.131845
130.684972
224.499702
380.589962
490.411520
603.680015
656.474829
630.846024
573.252439
481.034517
331.791639
230.439901
136.775970
106.068850
95.931888
106.095672
126.308799
135.672688
143.972635
136.911869
118.296742
99.980831
73.538423
56.485534
35.727620
22.846460
13.341904
9.582639
7.196665
7.408857
7.082820
6.515980
7.357597
6.427765
6.035566
5.858541
5.875826
5.224943
5.409718
5.198717
5.200505
5.506873
4.549623
5.236864
4.756451
5.037785
5.140901
4.911423
4.514456
5.188584
5.605817
4.752874
4.593730
4.817843
5.614758
5.306602
5.857944
5.728602
6.395578
6.775856
6.576777
6.563663
8.358955
8.658767
8.980632
7.851720
8.908510
8.706450
7.721782
8.371472
8.181930
7.299781
6.635785
6.578565
6.641746
7.095933
5.750656
5.936623
5.759597
5.583763
5.880594
5.373955
5.388856
5.948544
5.583763
5.170703
5.337000
##ZVALUE=255
0.824928
0.863671
1.083612
0.786781
1.061559
1.183748
1.356602
1.145601
1.498461
4.172921
13.777614
46.762824
98.300576
207.074881
317.901969
480.584502
598.513484
702.018738
727.064013
661.308765
579.632521
463.159680
293.193460
189.604759
110.388994
89.520812
91.185570
106.275678
127.748847
140.681863
144.424438
141.588449
127.897859
103.198886
81.548691
53.486824
37.840605
20.836592
13.312697
8.671880
6.911755
6.315708
6.120801
5.289912
6.079674
5.317926
5.046725
5.080700
4.768968
4.607439
5.052686
4.872680
4.326701
5.073547
5.294681
4.661679
5.112886
5.527735
4.573464
5.063415
5.266666
4.664660
5.637407
4.953742
4.841685
4.999638
5.426407
5.389452
5.040765
5.865693
5.927682
6.115437
7.079840
6.794930
7.287860
7.577538
6.799698
6.251931
6.350875
5.857944
6.170869
6.328821
6.037951
5.093813
4.863739
4.974604
5.414486
4.776716
4.704595
5.103946
5.221963
4.149675
3.885627
4.363656
4.249811
4.097819
##ZVALUE=260
0.870824
0.901818
0.916719
0.748634
0.830889
1.025796
0.979900
0.924468
1.319647
1.282692
1.638532
2.039671
6.377697
27.115941
60.971975
151.677728
251.010656
419.392586
563.436747
724.081993
796.555877
789.339542
685.727596
574.379563
375.990868
257.338881
152.566433
100.778937
76.427460
83.571672
107.337832
126.121640
143.463612
150.363445
146.537423
126.343966
108.414888
79.772472
56.417584
35.654902
22.829771
12.611747
7.949471
5.858541
5.643964
5.326867
4.917979
5.020499
5.267859
5.118847
4.770756
4.478693
4.854798
5.092621
4.865527
5.051494
4.921556
5.131960
4.300475
4.437566
4.250407
4.084706
4.288554
4.564524
4.792809
4.852414
4.928708
4.793406
4.930496
5.233884
5.382895
5.481839
5.602837
6.036758
6.084442
6.103516
5.516410
5.542636
5.324483
4.865527
5.003810
4.341602
4.521608
4.309416
4.375577
3.959537
3.802776
4.117489
3.313422
4.061460
4.253983
4.064441
3.600717
3.615618
3.513694
3.615618
##ZVALUE=265
0.719428
0.690818
0.652671
0.720620
0.816584
0.767708
0.772476
0.862479
0.992417
0.846982
1.198649
1.232624
1.213551
1.680851
3.599524
18.527508
45.258999
119.406581
207.768679
396.150947
544.211864
682.132840
826.987028
851.739645
771.698952
663.095713
477.862954
337.511897
188.760757
120.517612
73.847771
68.565607
79.945922
107.396841
130.415559
150.772929
154.841542
145.694613
132.230520
103.627443
80.861449
54.396987
36.401749
19.969940
12.293458
7.695556
6.417632
5.113482
5.561709
5.215406
5.392432
5.046725
5.598664
5.216599
5.178452
4.598498
4.934669
4.638433
4.554987
4.489422
4.575849
4.218817
4.482865
4.372597
4.226565
4.574656
4.411936
4.409552
4.482865
4.661679
4.932880
5.178452
5.503893
5.818605
5.510449
5.139709
4.982948
4.911423
4.609823
4.460812
4.144907
4.095435
4.100800
4.099607
3.884435
3.600717
3.556609
3.306866
3.345609
3.256798
3.147721
3.478527
3.290772
3.052950
3.639460
3.198981
##ZVALUE=270
0.622869
0.645518
0.547767
0.642538
0.937581
0.884533
0.826716
1.029968
0.912547
0.797510
0.810623
0.952482
0.995994
1.101494
1.255870
1.191497
1.797676
7.979870
24.998784
79.790950
159.677863
280.585885
491.233468
652.480721
832.090974
889.305472
867.363811
777.134895
602.332950
453.964472
311.881900
164.903998
96.280575
58.970451
59.333444
84.290504
107.829571
134.615898
146.777630
155.383945
148.940682
130.243897
107.642412
78.142881
57.394505
33.048987
22.742748
12.707710
7.984638
6.046891
5.032420
5.416870
4.814863
5.158782
5.308986
4.817843
4.441738
5.088449
4.998446
4.669428
4.535913
4.260540
4.447699
4.155636
4.109740
4.016757
4.122853
4.453659
4.452467
4.239678
4.517436
4.336834
5.051494
5.049706
5.272627
5.017519
4.828572
4.515648
4.590750
3.969669
3.546476
3.318787
3.729463
3.556609
3.180504
3.386736
3.379583
3.330708
3.087521
3.182888
3.064871
2.960563
2.912879
2.738833
2.717972
2.694726
##ZVALUE=275
0.607967
0.514984
0.520945
0.597835
0.491738
0.710487
0.660419
0.737906
0.809431
0.497699
0.836849
0.804663
1.005530
0.780821
0.982881
1.056790
0.944734
1.246929
1.467466
3.847480
14.385581
40.773749
122.027993
229.924917
426.970720
585.672855
767.537951
864.156485
910.946727
858.242512
752.681494
554.854870
393.502712
211.254954
123.523474
60.988665
47.083497
59.323907
79.189539
108.244419
127.328634
146.049857
151.029825
145.651698
129.330754
102.774501
82.306862
56.040883
37.673712
21.563768
13.744831
8.168817
6.141663
5.169511
4.784465
4.778504
4.652739
4.592538
4.755855
4.453659
4.659891
4.146695
4.504919
4.405975
4.121661
3.752708
4.211664
4.290938
4.176497
4.118681
4.464984
4.459620
4.441738
4.783869
4.804730
4.130602
4.338622
4.407763
3.859997
4.089475
3.595948
3.195405
3.488660
3.200769
3.319979
3.324747
3.338456
2.893806
2.990961
3.019571
2.793670
2.920628
2.439618
2.899766
2.495646
2.628565
##ZVALUE=280
0.626445
0.467896
0.478625
0.588894
0.630617
0.665784
0.467896
0.838637
0.624657
0.659823
0.639558
0.830889
0.639558
0.689626
0.714660
0.837445
0.880957
1.018643
1.233816
1.154542
1.437664
1.702905
8.822680
30.355453
93.621612
175.368786
333.094001
489.796996
698.935986
828.365684
917.223692
904.974937
827.505589
631.161928
464.373827
268.265605
159.753561
75.237751
45.567751
40.083528
53.872466
79.208612
101.549625
129.653811
141.981840
148.617625
141.918659
124.718547
106.545687
77.371597
57.623982
35.135746
22.925735
12.389421
8.636713
5.606413
4.712939
4.503727
4.666448
4.212856
4.418492
4.333854
4.156828
4.637837
4.446507
4.355907
4.027486
4.005432
4.265904
4.059672
4.148483
4.189610
4.452467
4.286766
4.357696
4.434586
4.169941
3.965497
3.937483
3.321767
3.226995
3.197789
3.148913
3.070831
3.079772
3.173947
2.972484
3.176928
2.772808
2.992749
2.607703
2.908707
2.940893
2.747774
2.621412
2.755523
##ZVALUE=285
0.332594
0.491738
0.567436
0.405908
0.652671
0.554919
0.437498
0.638962
0.397563
0.741482
0.545979
0.708699
0.577569
0.760555
0.719428
0.877976
0.847578
0.875592
0.845790
0.916719
1.033545
1.116991
1.446605
1.615882
4.676580
15.291572
52.750707
107.683539
236.702561
380.957723
539.550781
757.851005
874.480009
934.795737
884.879827
723.859668
565.565825
350.139737
223.006010
106.205940
56.740642
31.754971
33.902526
52.997470
72.632432
101.654530
119.372606
137.462616
144.542456
141.265988
126.635432
102.332830
83.198547
55.084825
38.108826
21.231771
13.127923
7.937551
5.693436
4.350543
4.224777
4.035830
4.000664
3.916621
3.888607
4.207492
4.017949
3.981590
3.791451
3.868937
4.040599
3.943443
3.983974
4.192591
4.227757
3.950000
3.820658
3.861785
3.531575
3.334880
3.252625
3.162622
3.195405
2.998710
3.063679
2.801418
3.155470
2.881885
2.735853
2.990961
2.801418
2.643466
2.917647
2.570748
2.444983
2.970695
##ZVALUE=290
0.327826
0.246763
0.391603
0.415444
0.414848
0.416636
0.414848
0.446439
0.322461
0.463724
0.436902
0.602603
0.489950
0.515580
0.454783
0.625849
0.652671
0.599623
0.830889
1.003742
0.766516
0.865459
1.052618
1.008511
1.196861
1.214743
2.033710
6.425977
30.000806
67.956448
162.376761
282.782912
443.377495
678.763986
822.785497
939.414501
931.273699
812.018514
664.520860
446.646810
295.490623
147.844553
78.912973
33.161640
24.135709
32.421947
46.160817
69.901943
89.165568
115.551949
130.200982
138.538480
136.391521
121.691823
103.178620
75.348616
54.865479
34.300685
22.285581
11.986494
7.947683
5.361438
3.993511
3.802776
3.662705
3.344417
3.461838
3.552437
3.754497
3.693700
3.801584
3.962517
3.963709
3.679991
3.690720
3.745556
3.406405
3.291965
3.476739
2.991557
3.114939
2.838969
2.857447
2.889633
2.786517
2.829432
2.642870
3.018975
2.570748
2.862811
2.452731
2.552867
2.492666
2.462864
2.399683
2.503991
##ZVALUE=295
0.540614
0.382662
0.417829
0.515580
0.469685
0.456572
0.340939
0.336766
0.399947
0.329614
0.441670
0.408888
0.560880
0.631809
0.569820
0.531673
0.603795
0.598431
0.555515
0.784993
0.696778
0.740886
0.803471
0.812411
1.017451
0.831485
1.100898
1.136661
1.444817
2.834797
9.982586
41.605830
95.729828
232.676864
376.944542
598.971844
757.226944
906.856656
945.133567
868.396759
745.259523
538.411736
371.580720
197.849870
108.453631
41.484833
23.012757
19.084811
26.362538
44.680834
61.515570
87.584853
107.970834
125.239491
131.520629
128.048658
117.265582
94.576478
76.498985
51.209927
35.841465
20.458698
12.983680
7.044673
4.980564
3.844500
3.310442
3.359914
3.491640
3.440976
3.328919
3.585815
3.516674
3.461838
3.505945
3.677607
3.747940
3.169775
3.135800
3.178716
3.009439
2.656579
2.705455
2.700686
2.751946
2.664924
2.758503
2.677441
2.770424
2.644658
2.460480
2.458692
2.656579
2.362728
2.615452
2.525449
##ZVALUE=300
0.361800
0.346899
0.409484
0.240803
0.240803
0.355840
0.381470
0.283718
0.436902
0.319481
0.503659
0.445843
0.453591
0.457764
0.374913
0.443459
0.553727
0.473857
0.603795
0.480413
0.570416
0.972748
0.594854
0.666976
0.739694
0.732541
0.889897
0.906587
1.004934
1.167655
1.205802
1.553893
6.268620
21.583438
74.481964
146.530867
305.803418
465.811491
682.763457
818.368793
923.631787
920.279026
801.178813
658.659935
439.394712
287.187696
143.616796
78.563690
30.467510
16.073585
17.035604
24.546981
40.707588
56.120753
79.727769
98.917484
117.678642
123.696923
122.671723
113.282800
93.007684
75.634718
52.578449
37.103891
21.205544
13.564825
7.294416
4.753470
3.463626
3.220439
3.306866
3.158450
3.112555
3.419518
2.952814
3.064871
2.820492
2.969503
2.887845
2.947450
2.711415
2.514720
2.731681
2.560616
2.723932
2.528429
2.503991
2.426505
2.514720
2.444983
2.321601
2.421737
2.349615
2.572536
2.244711
2.507567
##ZVALUE=305
0.357628
0.363588
0.258684
0.267625
0.278950
0.272989
0.199676
0.403523
0.418425
0.491738
0.230670
0.353456
0.338554
0.390410
0.415444
0.479817
0.558496
0.449419
0.548959
0.330806
0.490546
0.577569
0.626445
0.512600
0.468493
0.711679
0.596642
0.781417
0.662804
0.911951
1.082420
0.993609
1.213551
1.279712
3.439784
11.917949
48.195720
106.140971
239.568949
376.146436
582.699776
739.224553
888.571739
924.675465
847.053528
722.242594
521.747470
368.909836
198.342800
108.361840
42.577982
20.125508
12.177825
14.494658
23.277998
35.133958
57.703853
74.458718
95.441937
108.275414
118.671656
117.151737
105.044842
91.841817
68.258643
52.406788
33.046603
22.329688
11.199713
6.790757
4.311800
3.601909
3.374815
3.163815
2.874732
2.950430
2.719760
2.646446
2.802610
2.508759
2.411604
2.378821
2.527833
2.307892
2.678633
2.461672
2.454519
2.369881
2.260804
2.503991
2.440810
2.300739
2.514720
2.501607
2.357960
2.500415
##ZVALUE=310
0.275970
0.387430
0.205636
0.184774
0.187755
0.365973
0.512600
0.366569
0.393987
0.346899
0.150800
0.376701
0.275970
0.297427
0.548959
0.301600
0.491738
0.356436
0.428557
0.443459
0.493526
0.720620
0.353456
0.526905
0.517964
0.576973
0.468493
0.608563
0.688434
0.748634
0.634789
0.923872
0.822544
0.951886
0.995994
1.128912
1.602769
4.964471
26.270747
62.442422
157.749653
269.261599
476.511717
637.546778
822.038651
898.094773
891.028643
808.961987
628.491640
464.576483
267.371535
161.794424
70.739985
32.685995
12.371540
9.254813
13.637543
19.840002
32.711625
45.893788
67.060590
84.098577
101.475716
109.133720
110.241771
104.201436
86.358786
71.066618
47.712922
33.548474
19.004941
12.496710
7.450581
5.119443
3.524423
3.120899
2.714992
2.656579
2.268553
2.457500
2.576709
2.443790
2.376437
2.660751
2.284646
2.540946
2.391934
2.476573
2.301931
2.273917
2.234578
2.398491
2.354980
2.294779
2.373457
2.365708
##ZVALUE=315
0.292659
0.235438
0.295639
0.385642
0.424981
0.204444
0.250936
0.225902
0.167489
0.267625
0.415444
0.334978
0.454783
0.194907
0.389814
0.162721
0.270605
0.379682
0.371933
0.464916
0.373721
0.477433
0.350475
0.499487
0.372529
0.538826
0.501871
0.363588
0.411868
0.540614
0.728965
0.706911
0.834465
0.842810
0.730753
0.886917
0.900626
1.244545
1.332760
2.543926
14.919639
41.251779
117.042661
209.188461
396.363735
558.300614
751.557946
855.536461
896.413922
846.664906
692.060590
545.761585
341.836810
215.953588
102.434754
49.132705
15.424490
8.668900
8.626580
11.260509
18.526912
28.005838
43.542981
59.121847
81.303716
94.237924
102.805495
103.946924
95.360875
83.244443
61.543584
47.418475
31.074882
21.452904
11.548996
7.609725
4.614592
3.369451
2.800822
2.489686
2.405643
2.214909
2.253652
2.142787
2.146959
2.240539
2.262592
2.244711
2.340674
2.364516
2.277493
2.251863
2.228618
2.403855
2.186894
2.210736
##ZVALUE=320
0.237823
0.214577
0.118613
0.249743
0.303984
0.266433
0.356436
0.301600
0.388622
0.376701
0.321865
0.272989
0.245571
0.341535
0.434518
0.344515
0.251532
0.454783
0.501871
0.388622
0.323653
0.401735
0.279546
0.461936
0.552535
0.486970
0.556707
0.385642
0.549555
0.452995
0.537634
0.682473
0.588894
0.689626
0.703931
0.676513
0.766516
0.902414
0.837445
1.190901
1.234412
1.654625
5.516410
32.263994
76.109767
184.651613
303.470492
494.729877
645.798445
816.502571
883.530974
871.999860
787.814856
606.774688
445.828438
252.534747
144.489408
63.067675
28.554797
10.011792
6.698966
7.839799
9.993911
16.447902
24.767518
41.021705
55.489540
72.894692
87.062716
96.451640
98.560452
90.586543
80.213547
60.577989
45.390725
28.879642
19.915700
11.354685
7.020831
3.919601
3.132820
2.628565
2.487898
2.300739
2.249479
2.443790
2.206564
2.123713
2.168417
2.157688
2.160668
2.207756
2.150536
2.184510
1.974702
2.166629
##ZVALUE=325
0.445843
0.430942
0.349879
0.358820
0.263453
0.213981
0.277758
0.318885
0.424981
0.175834
0.320673
0.320673
0.401735
0.404716
0.307560
0.329614
0.355840
0.368953
0.518560
0.465512
0.326633
0.463724
0.459552
0.549555
0.477433
0.367761
0.416636
0.656843
0.642538
0.625849
0.610948
0.554919
0.428557
0.807643
0.704527
0.776649
0.711679
0.832677
0.813603
0.927448
0.936985
1.076460
1.082420
1.345873
2.717972
17.467737
46.802759
124.475956
220.855474
410.710573
562.488437
751.004815
845.348835
874.598622
815.625787
647.862554
498.933792
310.275555
190.697908
85.534453
40.767789
13.794899
7.272959
6.009936
6.892681
10.315776
14.859438
24.891496
37.053823
54.890513
68.584681
82.382560
91.137886
91.266632
86.004734
70.970654
57.901740
40.686727
28.941631
16.558766
10.776520
5.939603
4.380941
3.170967
2.632737
2.240539
2.242923
2.124906
2.234578
2.137423
2.251863
2.072453
2.137423
1.928806
2.216697
2.159476
##ZVALUE=330
0.173450
0.219941
0.182986
0.207424
0.336766
0.143647
0.212789
0.205636
0.150800
0.213981
0.243783
0.106692
0.244975
0.282526
0.171661
0.201464
0.253916
0.387430
0.303984
0.512600
0.387430
0.357628
0.425577
0.355840
0.332594
0.454783
0.325441
0.396967
0.366569
0.430942
0.329614
0.459552
0.546575
0.469685
0.492930
0.479817
0.628829
0.570416
0.594854
0.661612
0.677705
0.718832
0.918508
0.911951
1.035929
1.320839
1.561642
8.774996
27.987957
91.779828
174.693465
338.582993
488.242507
687.848926
806.085467
876.178741
842.325687
711.317658
570.589900
372.061729
242.004991
115.675926
59.298873
21.638870
9.488463
6.012917
5.834699
6.658435
8.667707
15.328526
21.995902
35.632849
48.392415
66.255927
76.654553
85.480809
85.184574
78.174472
68.766475
51.375628
39.086938
25.040507
17.337799
10.693669
7.125735
4.279613
3.248453
2.465844
2.211928
2.118945
2.192855
2.014637
1.945496
1.909733
1.981854
1.495481
##ZVALUE=335
0.266433
0.257492
0.298619
0.268817
0.144839
0.150800
0.143647
0.060797
0.290871
0.358820
0.170469
0.238419
0.250936
0.308752
0.250936
0.304580
0.256896
0.392795
0.380874
0.296831
0.180602
0.225902
0.475645
0.248551
0.508428
0.406504
0.206828
0.509620
0.518560
0.444651
0.504851
0.375509
0.446439
0.613928
0.426769
0.582933
0.452995
0.540614
0.556707
0.646710
0.557899
0.698566
0.696778
0.796914
0.873804
0.797510
1.142621
1.059771
1.368523
3.509521
13.174415
57.386756
121.552944
267.635584
418.366790
630.479455
761.024952
855.319500
856.576562
759.896636
639.312863
440.096855
301.630497
158.376694
83.974600
29.111505
12.457967
6.090999
5.245805
5.309582
5.899668
8.616447
12.801886
21.906495
31.929612
48.046708
59.804916
72.382689
78.028440
79.560876
74.865818
61.845779
51.490664
37.763715
28.144717
17.111897
11.558533
6.447434
4.496574
2.917647
2.617836
1.908541
1.895428
1.955628
1.885891
1.847744
##ZVALUE=340
0.169873
0.073910
0.270605
0.226498
0.289679
0.236630
0.284910
0.301600
0.410676
0.405908
0.264645
0.285506
0.346899
0.193715
0.301600
0.260472
0.222921
0.240803
0.209808
0.263453
0.413656
0.345707
0.422597
0.398755
0.252724
0.317693
0.393987
0.372529
0.338554
0.314713
0.352859
0.462532
0.342727
0.511408
0.435710
0.377893
0.371933
0.369549
0.481606
0.410676
0.411868
0.597835
0.603795
0.602603
0.555515
0.510812
0.828505
0.803471
0.776649
0.990629
0.961423
1.642704
5.315542
27.316809
68.849921
175.253749
298.012495
492.724776
637.953877
784.416795
832.770467
784.775615
685.989857
506.335497
358.233452
189.153552
106.119514
42.575002
17.680526
6.675720
5.333424
4.875660
4.957914
5.806684
8.192658
13.250709
19.945502
31.627417
42.160749
57.897568
67.588687
74.047446
74.443817
68.468451
60.516596
48.617721
38.000941
25.366545
17.668605
10.738969
6.794930
3.967881
3.081560
2.312660
2.025962
1.983643
##ZVALUE=345
0.248551
0.198483
0.187755
0.193715
0.250936
-0.013709
0.083447
0.305772
0.169873
0.118613
0.332594
0.214577
0.207424
0.039935
0.222921
0.238419
0.253916
0.126958
0.109673
0.187755
0.152588
0.208616
0.215769
0.219941
0.379682
0.204444
0.343919
0.279546
0.206828
0.198483
0.277758
0.351667
0.447631
0.353456
0.360608
0.401735
0.430942
0.335574
0.609756
0.322461
0.443459
0.344515
0.511408
0.551939
0.447631
0.671744
0.494719
0.714660
0.712872
0.700951
0.804663
0.816584
1.088977
1.141429
2.539754
14.591813
40.643811
112.637877
205.783844
383.694768
530.567765
704.036951
786.737800
799.261928
730.005503
561.724901
421.357751
252.091885
143.369436
57.505965
26.290417
9.100437
5.651712
4.874468
4.324913
4.569888
5.047917
7.176995
10.850430
19.132495
27.996898
41.369796
50.628781
60.049891
66.111684
68.452954
64.212680
56.511760
48.618913
36.473870
27.019978
17.047524
11.178851
6.151795
4.285574
2.915859
##ZVALUE=350
0.179410
0.113845
0.146627
0.196695
0.201464
0.216961
0.089407
0.142455
0.334978
0.395775
0.279546
0.268817
0.305772
0.115633
0.178814
0.350475
0.077486
0.304580
0.174642
0.261664
0.155568
0.156760
0.372529
0.189543
0.158548
0.323653
0.306964
0.220537
0.336766
0.221729
0.406504
0.284910
0.378489
0.403523
0.268817
0.410676
0.451803
0.374913
0.407696
0.256896
0.378489
0.355840
0.457764
0.361800
0.417829
0.412464
0.402927
0.538826
0.551939
0.554919
0.667572
0.736713
0.734925
0.733733
0.821948
0.948906
1.401901
7.347465
22.916794
75.147748
144.369602
292.945504
431.057811
614.498854
727.242827
792.507529
760.434866
622.795820
481.855869
297.870636
180.917978
81.711411
38.393736
11.372566
5.994439
4.630685
4.109740
3.838539
3.964901
4.797578
6.190538
10.851622
15.883446
25.026798
33.652782
45.543909
52.973628
59.666634
62.597990
60.430765
54.347515
43.179989
35.783648
24.452806
17.783642
10.972619
##ZVALUE=355
0.122786
0.219941
0.179410
0.289679
0.248551
0.145435
0.112653
0.337958
0.339746
0.272989
0.051856
0.307560
0.183582
0.215769
0.243783
0.292659
0.161529
0.249743
0.287890
0.199676
0.203848
0.235438
0.078678
0.252724
0.322461
0.211596
0.216961
0.242591
0.403523
0.323653
0.358820
0.278950
0.416636
0.193715
0.194907
0.243783
0.394583
0.181794
0.402927
0.486970
0.355840
0.297427
0.468493
0.341535
0.409484
0.341535
0.400543
0.364780
0.407696
0.497699
0.599623
0.861883
0.547767
0.574589
0.878572
0.717640
0.802875
0.880957
1.056790
3.407001
12.506843
49.614906
102.013946
216.102600
343.612432
534.847975
655.081868
752.370954
754.297972
656.743646
536.141992
358.238816
227.059722
101.659894
48.891902
15.386939
6.752610
4.572868
3.983974
3.618598
3.649592
3.688931
3.988743
5.877614
8.231997
13.527870
19.795895
29.677749
37.987828
47.075748
53.549409
55.869818
55.223703
48.953891
42.005777
32.762885
##ZVALUE=360
0.193715
0.188947
0.130534
0.214577
0.122786
0.167489
0.052452
0.362992
0.231862
0.154972
0.226498
0.131726
0.198483
0.193715
0.205636
0.157952
0.142455
0.258684
0.308752
0.297427
0.255704
0.105500
0.208616
0.198483
0.302792
0.343919
0.274777
0.269413
0.225902
0.138879
0.323653
0.240803
0.349879
0.334978
0.364780
0.364780
0.261664
0.354648
0.292659
0.307560
0.212789
0.378489
0.359416
0.379682
0.456572
0.342727
0.515580
0.443459
0.517964
0.446439
0.478625
0.486970
0.714660
0.613928
0.691414
0.773668
0.650883
0.738502
0.813603
0.821948
1.127720
1.451969
6.628633
21.183491
71.163774
138.005614
272.316933
404.247642
582.271814
676.444769
719.836950
679.327846
556.592941
428.086519
260.466933
157.924891
68.720579
30.975938
9.251833
4.943609
4.085898
3.677607
3.414750
3.236532
3.056526
3.255606
4.431605
6.534457
11.030436
15.921593
24.025440
31.785965
41.370988
47.126412
51.065683
51.054955
##ZVALUE=365
0.224710
0.252724
0.146627
0.172853
0.306964
0.248551
0.226498
0.310540
0.257492
0.304580
0.290871
0.267625
0.307560
0.216961
0.264645
0.299811
0.136495
0.250936
0.363588
0.386834
0.259876
0.290871
0.207424
0.371933
0.396967
0.229478
0.317693
0.360608
0.389814
0.287890
0.414848
0.345707
0.298619
0.296831
0.495911
0.366569
0.324845
0.355840
0.343919
0.382662
0.345707
0.234842
0.327826
0.454783
0.369549
0.460744
0.412464
0.327826
0.513792
0.335574
0.467896
0.563860
0.553727
0.521541
0.418425
0.553727
0.670552
0.546575
0.618696
0.807643
0.803471
0.888705
1.021624
1.314878
2.559423
13.762712
38.269758
102.753639
190.514922
351.740718
482.126474
622.346997
685.818791
674.829483
602.520704
462.179780
333.196521
179.376602
98.743439
35.983920
14.830828
5.262494
4.018545
3.635883
3.515482
3.264546
2.940893
2.826452
2.970695
3.848672
5.398989
9.100437
12.826920
20.780563
27.035475
35.658479
##ZVALUE=370
0.174642
0.114441
0.204444
0.041723
0.105500
0.196695
0.204444
0.059605
0.076890
0.177622
0.138879
0.097752
0.177622
0.218749
0.307560
0.267625
0.393987
0.168681
-0.054836
0.025630
0.045896
0.307560
0.157952
0.167489
0.131726
0.181794
0.205636
0.367761
0.198483
0.355840
0.358820
0.368953
0.240803
0.188947
0.241995
0.288486
0.309944
0.287890
0.163913
0.307560
0.448823
0.262856
0.484586
0.451803
0.291467
0.356436
0.255704
0.351667
0.371933
0.239611
0.321865
0.465512
0.212789
0.256896
0.248551
0.395775
0.423789
0.683665
0.577569
0.670552
0.597835
0.647902
0.782609
0.770688
0.861883
1.086593
1.508594
6.990433
23.535490
77.372789
144.291520
276.329517
403.451920
564.727783
648.138523
674.656630
626.987815
500.979424
375.852585
214.612484
123.452544
49.797893
23.277998
8.213520
4.488826
3.352761
3.090501
2.967715
2.845526
2.583861
2.454519
2.596974
3.151894
4.657507
6.981492
11.523962
##ZVALUE=375
0.143647
0.269413
0.178814
0.231862
0.234842
0.146627
0.230670
0.255704
0.116825
0.272989
0.174642
0.067949
0.219941
0.296831
0.348687
0.283718
0.251532
0.366569
0.152588
0.260472
0.240803
0.083447
0.173450
0.276566
0.216961
0.291467
0.263453
0.228882
0.141859
0.295639
0.245571
0.314713
0.332594
0.400543
0.341535
0.229478
0.185966
0.449419
0.250936
0.284910
0.204444
0.251532
0.276566
0.292659
0.326633
0.277758
0.423789
0.343919
0.347495
0.361800
0.363588
0.364780
0.372529
0.468493
0.382662
0.413656
0.444651
0.492930
0.321865
0.367761
0.541806
0.476837
0.547767
0.628829
0.655651
0.719428
0.900626
0.896454
1.238585
3.540516
12.490749
46.387911
98.982453
219.067931
338.837504
502.953529
601.489544
665.302873
651.621819
550.620556
438.357592
273.931623
174.746513
82.085729
41.727424
13.823509
5.716681
3.471971
3.113747
2.982616
2.679825
2.467632
2.246499
2.152920
1.997948
2.496839
##ZVALUE=380
0.276566
0.181794
0.001788
0.248551
-0.012517
0.217557
0.162721
0.142455
0.200868
0.227690
0.110865
0.268817
0.109673
0.233650
0.211596
0.180602
0.180602
0.344515
0.221729
0.101924
0.185966
0.217557
0.226498
0.345707
0.235438
0.282526
0.305772
0.164509
0.430942
0.230670
0.321865
0.230670
0.227690
0.155568
0.187755
0.193715
0.355840
0.300407
0.273585
0.231862
0.384450
0.239611
0.338554
0.403523
0.318885
0.258684
0.337958
0.415444
0.246763
0.280738
0.315905
0.435710
0.361800
0.344515
0.377893
0.288486
0.366569
0.256896
0.450611
0.324845
0.339746
0.393987
0.401735
0.398755
0.440478
0.431538
0.701547
0.628829
0.766516
0.937581
1.060963
1.558661
8.500814
26.987791
83.306432
154.307485
294.225812
424.088836
576.479435
650.969744
655.961037
598.708987
474.717617
361.315012
216.699839
131.089687
56.102872
25.937557
7.659793
3.952980
3.033876
2.895594
2.731681
2.564788
2.339482
2.241731
##ZVALUE=385
0.137687
0.179410
0.123978
0.164509
0.169873
0.075698
0.051856
0.066757
0.306964
0.094771
0.169873
0.118613
0.184774
0.187755
0.283718
0.278950
0.175834
0.116825
0.115633
0.051856
0.299811
0.216961
0.105500
0.094771
0.042915
0.158548
0.207424
0.120997
0.243783
0.099540
0.160933
0.270605
0.263453
0.274777
0.306964
0.256896
0.260472
0.144839
0.285506
0.295639
0.240803
0.378489
0.311732
0.170469
0.341535
0.106692
0.382662
0.279546
0.438690
0.252724
0.342727
0.269413
0.296831
0.255704
0.237823
0.230670
0.164509
0.399947
0.504851
0.353456
0.467896
0.279546
0.506639
0.429749
0.483990
0.410676
0.500679
0.521541
0.668764
0.736713
0.704527
0.899434
0.969768
1.147985
3.163815
17.903447
47.148466
121.346712
213.375688
372.212529
492.312908
616.061687
654.931664
622.953773
547.141433
409.776568
295.107961
165.030956
94.991922
40.173531
16.963482
4.879832
3.014803
2.671480
2.756715
2.652407
##ZVALUE=390
0.191927
-0.015497
0.073910
0.164509
0.178814
-0.038743
0.022650
0.169873
0.155568
0.077486
0.115633
0.131726
0.123978
0.144839
0.054836
-0.033975
0.115633
0.193715
0.239611
0.157952
0.109673
0.093579
0.090599
0.320673
0.244975
0.288486
0.125766
0.213981
0.286698
0.233650
0.188947
0.239611
0.248551
0.358820
0.383854
0.118613
0.147820
0.154972
0.295639
0.355840
0.262856
0.127554
0.143647
0.202656
0.322461
0.262856
0.245571
0.198483
0.231862
0.286698
0.185966
0.309944
0.315905
0.286698
0.265837
0.373721
0.254512
0.251532
0.240803
0.239611
0.358820
0.413656
0.339746
0.439882
0.624657
0.439882
0.406504
0.585914
0.672936
0.586510
0.687838
0.896454
0.931621
0.782609
0.955462
0.909567
1.832843
7.449985
34.598708
79.906583
186.260939
293.142796
442.385674
547.245741
641.750693
658.332705
596.755743
504.528880
352.672935
242.437720
127.873421
66.856742
23.491979
8.997917
3.548861
3.031492
##ZVALUE=395
0.245571
0.124574
0.094771
0.303984
0.246763
0.173450
0.248551
0.119805
0.167489
0.228882
0.189543
0.068545
0.173450
0.224710
0.179410
0.153780
0.298619
0.136495
0.223517
0.110865
0.080466
0.184774
0.096560
0.126958
0.069737
0.282526
0.115633
0.176430
0.105500
0.228882
0.201464
0.172853
0.307560
0.114441
0.265837
0.344515
0.430942
0.082850
0.371933
0.365973
0.441670
0.391603
0.304580
0.252724
0.276566
0.402927
0.324845
0.338554
0.294447
0.415444
0.360608
0.450611
0.395775
0.225902
0.265837
0.291467
0.334978
0.266433
0.356436
0.340939
0.284910
0.354648
0.399947
0.371933
0.407696
0.403523
0.463724
0.618696
0.456572
0.594854
0.583529
0.562668
0.727773
0.508428
0.853539
0.913739
0.751615
0.842810
1.045465
5.140901
18.089414
63.975453
125.791430
249.231458
364.384651
519.227982
612.820983
675.382614
659.015775
565.565825
448.405743
282.631516
182.649493
87.742805
42.529702
14.156699
##ZVALUE=400
0.222921
0.365973
0.105500
0.195503
0.097752
0.151992
0.066757
0.011921
0.050664
0.174642
0.096560
0.073910
0.065565
0.235438
0.134706
0.170469
0.070930
0.292659
0.147820
0.148416
0.053644
0.057817
0.290871
0.372529
0.236630
0.183582
0.219941
0.157952
0.208616
0.190735
0.255704
0.227690
0.168681
0.338554
0.230670
0.233650
0.329614
0.203848
0.390410
0.293851
0.329614
0.143647
0.276566
0.289679
0.254512
0.354648
0.399947
0.201464
0.472665
0.232458
0.284910
0.331998
0.325441
0.457764
0.329614
0.223517
0.317693
0.262856
0.396967
0.352859
0.328422
0.346899
0.422597
0.393987
0.351667
0.417829
0.370741
0.606775
0.553727
0.450611
0.598431
0.558496
0.612736
0.657439
0.689626
0.617504
0.568628
0.673532
0.776649
0.919700
0.778437
2.751946
10.040998
37.139654
81.167817
182.407498
291.048884
448.992848
557.821989
648.359656
661.258698
586.297512
484.607816
327.127576
218.079686
112.180710
##END
