##TITLE=DDW2
##FORMAT=SPECTACLE-ASCII V-1.2
##DATA TYPE=ULTRAVIOLET SPECTRUM
##SECOND TYPE=ULTRAVIOLET SPECTRUM
##DATE=02/05/18
##TIME=13:38:22
##SPECTROMETER/DATA SYSTEM=SPECTACLE
##XUNITS=NM EM
##YUNITS=ENERGY
##YFACTOR=1
##FIRSTX=220
##LASTX=410
##NPOINTS=96
##3DDATA=Equidistant
##ZUNITS=NM EX
##FIRSTZ=210
##LASTZ=400
##ZPOINTS=39
##XYDATA=(Y..Y)
##ZVALUE=210
15.743971
14.223456
12.360811
10.537505
10.093451
9.874701
8.969903
8.483529
7.171631
4.771948
3.690720
2.792478
2.117753
1.994967
2.037883
1.813769
1.826882
2.043843
2.141595
2.228618
3.173947
2.449751
2.381802
3.421903
3.514886
3.327727
3.039837
3.559589
3.413558
3.596544
4.118681
4.647970
3.846884
4.194975
3.832579
3.833771
3.826618
4.515648
4.389882
4.390478
4.789829
4.147887
4.604459
4.653931
4.721880
4.628897
4.500747
4.347563
4.786849
5.268455
5.256534
5.914569
5.145669
5.727410
6.302595
5.446672
5.399585
5.164742
4.287958
5.331635
5.629659
4.746914
4.930496
5.353689
5.404949
5.980730
5.667806
7.042885
6.613731
7.174611
9.908676
10.808706
11.288524
12.677908
13.226867
14.398694
14.411807
14.268756
15.424490
14.037490
12.868643
12.302995
10.556579
8.806586
8.471608
7.066727
5.330443
6.004572
6.994605
7.199645
10.088682
12.393594
18.120408
20.983815
27.848482
31.898618
##ZVALUE=215
37.412643
38.022995
30.187964
25.161505
21.524429
18.011928
17.182827
13.717413
13.493896
13.290644
11.205673
9.208918
6.833673
4.792809
3.588796
2.413988
2.583861
2.598763
2.491474
2.464652
2.686977
3.149509
2.980828
3.301501
3.445745
3.237724
3.202558
3.301501
3.477931
4.077554
4.696846
3.813505
3.926754
4.643798
4.046559
4.974604
4.566908
4.506707
5.259514
5.590916
4.428625
4.772544
5.267859
5.374551
4.985929
5.207658
5.067587
4.750490
5.460978
5.113482
5.126595
5.486608
5.370975
5.814433
4.909635
5.280972
5.394816
5.284548
5.025864
5.488992
5.785823
5.669594
5.098581
5.281568
6.190538
6.501675
5.489588
6.575584
6.975532
8.158684
8.987784
9.567738
10.745525
12.764931
13.791919
12.937784
13.012886
12.082458
12.830496
11.694431
11.322498
9.711981
9.354949
8.887649
8.381605
5.728602
5.536675
4.806519
5.224943
4.064441
4.218817
4.375577
5.270839
5.747676
7.335544
11.923909
##ZVALUE=220
81.520677
80.494881
77.868700
69.607496
57.830811
44.513941
34.517646
27.444959
24.622679
24.649501
24.798512
22.706985
20.687580
17.060637
13.160706
10.822415
6.401539
4.612803
3.690720
3.524423
3.103614
3.015995
3.108978
3.124475
3.526807
3.621578
3.626943
3.831983
3.953576
4.151464
3.976822
3.279448
3.842711
4.553795
4.733801
5.255938
5.492568
4.834533
5.239844
5.044937
5.446672
5.200505
5.590916
5.542636
4.804730
4.911423
5.033612
5.561709
4.942417
5.846620
5.794764
5.212426
4.855990
5.437732
5.849600
5.722642
5.850792
5.592704
6.113648
5.732775
5.872846
6.523728
6.347895
5.835891
5.297661
5.366802
5.910993
6.453991
6.661415
7.996559
9.862781
8.697510
11.375546
11.475682
11.944771
13.491511
12.390614
11.159778
11.371970
10.765791
10.157824
8.205771
8.433461
7.866621
7.115602
6.192923
6.813407
4.305840
5.021691
4.895926
5.087852
4.634857
4.269481
4.058480
4.621744
4.365444
##ZVALUE=225
105.338693
110.425949
126.801729
137.220621
137.861967
122.627616
104.649663
79.250932
61.309934
50.316453
38.549900
37.080646
37.018657
38.836598
38.004518
33.139586
25.409460
20.991564
15.333891
9.453893
6.680489
4.435778
4.070997
2.936721
3.715754
3.560781
3.428459
3.683567
4.049540
4.085898
4.287958
4.323721
5.158782
5.254745
4.807711
4.900694
4.968643
5.680919
5.443692
5.740523
5.888939
5.217791
6.252527
4.741549
5.091429
6.005764
5.854964
6.371737
5.332828
5.684495
5.500913
5.396605
5.477667
5.969405
6.235838
6.350875
7.281899
6.874800
6.406903
6.077886
8.488894
6.530881
6.687641
6.831884
7.471442
5.919933
6.641746
6.715655
7.653832
7.854700
8.946657
10.011792
10.559559
10.612607
11.446476
11.768937
11.546612
10.934472
10.920763
9.507537
9.016991
8.321404
8.753538
7.831454
7.516742
6.329417
5.317926
5.273819
6.072521
5.291700
5.499721
4.764795
4.680753
4.861951
5.044937
4.912615
##ZVALUE=230
71.190596
74.794888
122.807622
160.076618
203.008652
225.007534
233.662724
212.671757
174.101591
139.594674
98.582506
73.605776
59.330463
56.470633
59.019923
62.749982
67.513585
58.598518
52.409768
37.643909
28.150678
20.393729
12.896657
7.653832
5.452633
4.838705
4.547834
4.365444
4.800558
4.443526
4.609823
5.916953
5.524755
5.484819
4.805923
5.579591
6.088614
6.282926
6.545782
6.047487
6.221533
6.431937
5.639791
5.385876
5.505681
6.782413
6.188750
6.286502
6.975532
5.909801
5.885959
7.047653
6.763935
5.955696
6.989837
6.720424
6.390810
6.913543
6.909966
7.546544
6.765723
6.743670
7.268786
7.531643
7.496476
7.611513
6.528497
8.897781
8.677840
9.030700
9.265542
11.048913
10.627508
11.199713
12.469888
12.292862
13.680458
10.488629
12.260675
10.559559
10.129809
9.499788
8.530617
8.870959
7.796884
6.485581
6.528497
6.697774
6.975532
5.955696
6.342530
6.860495
7.452965
5.473495
6.420612
6.255507
##ZVALUE=235
20.510554
23.676753
50.724745
91.475844
162.196755
216.091871
295.823812
344.633460
367.965698
349.738002
293.674469
240.505934
175.663829
122.502446
94.228983
80.175996
82.736611
90.132952
98.207593
91.911554
82.540512
72.050691
51.225424
37.942529
22.572875
17.266870
9.903908
6.857514
5.871654
5.838871
5.543828
6.621480
7.280707
6.348491
6.374717
6.535649
6.702542
6.834865
6.795526
6.072521
6.560683
6.634593
6.130934
6.470680
6.318688
6.134510
5.638599
5.920529
6.338954
7.435679
6.585717
6.683469
7.271767
6.832480
6.942749
7.137656
7.538795
7.192492
6.515980
7.660985
7.132888
7.298589
7.138848
7.100701
7.481575
8.317828
8.883476
8.669496
8.954406
10.037422
10.531545
11.856556
12.707710
13.548732
13.612509
12.569427
12.790561
11.695623
12.439489
11.952519
12.333989
10.580420
10.140538
9.934902
9.625554
9.007454
8.170605
7.375479
8.884668
7.828474
8.011460
7.378459
7.583499
6.717443
7.368922
7.737875
##ZVALUE=240
1.843572
1.870990
7.540584
18.759966
52.073002
94.977617
183.704495
267.817974
391.411781
456.533432
511.433482
483.237505
447.515845
350.680947
271.661878
178.449750
128.323436
101.120472
100.917816
103.802681
113.057494
121.130943
115.210414
104.205608
81.589818
66.635609
45.201778
33.046603
19.679666
13.003945
10.266900
8.437634
7.210970
7.742643
7.569790
7.281899
6.887913
6.327629
6.625652
7.442832
7.120967
6.804466
6.174445
6.186962
6.963611
7.001758
5.866885
6.273985
5.397797
6.085634
6.216764
6.268620
6.948709
5.254745
6.724000
5.809665
6.467700
6.576777
6.005764
6.757975
6.770492
6.892681
8.064508
6.280541
7.427931
8.043647
7.778406
7.697940
8.206964
9.194613
9.935498
10.424852
11.825562
11.634827
12.134910
11.730790
12.035966
11.920929
12.478828
11.523962
10.268688
8.811951
9.478927
10.293722
9.032488
9.274483
9.179711
7.653832
8.624792
9.159446
8.461475
8.197427
7.550716
8.269548
6.171465
7.617474
##ZVALUE=245
1.664758
1.385808
1.299977
1.706481
3.190637
13.922453
32.135844
86.947680
156.146884
247.109532
386.652946
494.356751
580.789447
596.551895
547.753572
466.157794
340.022445
247.769952
183.477998
120.478868
100.315809
104.646683
113.586783
129.536986
132.969618
127.685666
112.528801
92.520714
75.106621
51.073432
36.469698
22.201538
15.214682
10.202527
8.643866
8.412600
7.293820
7.639527
7.354617
6.692410
6.923676
7.063746
6.200671
5.968809
5.966425
5.841851
6.219745
5.852580
5.891919
6.308556
5.513430
5.956888
5.710721
5.975962
5.354881
6.048679
5.809665
5.668998
5.954504
5.461574
6.192923
6.590486
6.212592
5.627871
6.503463
6.504655
6.782413
6.644726
7.290840
9.019971
8.365512
10.523796
9.737611
11.408925
11.026859
11.437535
11.023879
10.114908
11.227727
9.250641
10.057688
10.229945
9.472966
8.293986
8.019805
7.706881
8.369684
7.284880
7.288456
7.186532
7.413626
7.325411
6.427765
6.906986
6.775856
6.620884
##ZVALUE=250
1.323819
1.385808
1.407862
1.281500
1.480579
1.589656
2.589822
6.677508
27.942657
61.005950
147.210956
240.112543
350.679755
504.006743
591.556430
663.615465
656.006932
578.417778
483.167768
333.431959
229.207873
151.760578
102.007985
92.353821
107.170939
120.729804
137.033463
142.639875
134.596825
124.093890
102.714896
78.065991
59.121847
35.129786
24.295449
14.347434
10.038614
8.485913
8.030534
6.843805
6.462932
7.175803
6.156564
6.231666
6.071925
5.563498
5.722642
5.787611
5.730987
5.751848
5.776882
5.715489
5.483627
6.003976
5.527735
5.968809
5.731583
4.999638
5.308986
5.946755
5.138516
5.732775
5.402565
5.778670
5.786419
5.704761
5.770922
6.521940
7.240772
7.273555
7.596612
8.858442
8.669496
9.968877
9.346604
8.931756
9.648800
9.152889
9.150505
8.001924
7.998943
7.782578
8.296967
7.330775
7.297993
7.083416
6.492734
6.379485
6.850958
6.000996
6.587505
6.048679
5.828738
6.065965
5.699992
5.607605
##ZVALUE=255
1.133680
0.891685
1.293421
1.001954
0.977516
1.189709
1.294613
1.368523
1.366735
3.513694
17.564893
43.602586
92.612505
207.549930
322.415829
500.000715
628.068447
750.146508
779.930949
723.162889
617.508888
483.642817
297.066569
193.414688
115.456581
91.389418
88.521838
106.102824
128.510594
140.900612
150.567889
139.555931
128.987432
102.524757
82.588792
54.998994
38.632751
20.125508
13.493896
8.181930
6.736517
5.857944
5.927682
5.261898
5.863905
6.522536
5.698800
6.391406
5.744696
5.229712
5.469918
5.150437
5.437732
5.082488
5.032420
5.243421
4.940629
4.860759
4.981756
5.479455
4.911423
5.232692
5.691648
5.113482
5.663633
6.015897
5.708933
5.776882
6.846786
6.658435
7.488728
7.117987
7.714629
8.218884
7.685423
8.376837
8.457899
7.187724
7.123947
6.025434
6.718636
6.070733
5.538464
5.552769
5.949736
5.883574
5.199909
4.778504
4.831553
4.468560
5.027652
4.218817
4.727840
4.741549
4.905462
4.740953
##ZVALUE=260
0.798702
1.044869
0.960827
1.214743
1.028776
0.790954
1.172423
1.133680
0.868440
1.306534
1.459718
2.050400
6.344914
26.321411
60.775876
150.976777
253.885984
433.446765
585.501790
767.802596
865.947008
879.724622
771.188736
628.425479
416.267514
282.284617
158.943534
108.422637
76.788664
84.084868
101.299882
127.762556
142.538548
152.641535
146.783590
127.944946
108.649731
80.331564
57.959557
36.659837
23.417473
13.232827
8.309484
5.749464
5.998611
5.602837
5.927682
5.194545
5.454421
5.499721
5.736947
4.858971
5.250573
5.503893
5.132556
4.855990
5.196929
4.645586
4.898906
5.148649
5.183816
5.141497
5.160570
5.185604
4.779696
4.678965
5.348921
5.356669
5.067587
5.468726
5.636811
6.457567
6.182790
6.677508
6.690621
6.407499
5.992651
6.062984
6.255507
5.712509
5.077720
4.611611
5.147457
3.992915
4.603863
4.942417
4.037619
3.718734
3.786683
4.148483
3.891587
3.674626
3.971457
3.479719
3.748536
4.224777
##ZVALUE=265
0.767708
0.677705
0.691414
0.647902
0.898838
0.768900
0.827909
0.767708
1.254678
1.014471
1.148582
1.012683
1.325607
1.415610
3.346801
18.077493
43.099523
111.962557
198.918581
370.786786
532.444715
682.259798
843.449831
888.136625
822.321773
708.017945
530.218482
375.639796
207.629800
125.240684
75.771809
67.947507
78.852773
111.073852
131.486654
149.463415
154.676437
145.650506
133.685470
103.878975
82.476735
53.511858
35.842657
21.026731
13.153553
8.129478
5.892515
5.663633
4.916787
5.473495
5.098581
5.323887
5.724430
5.314946
4.754663
4.743934
4.780889
4.437566
4.747510
4.742742
4.767776
4.971623
4.833937
4.465580
5.217791
5.115867
4.615784
4.829764
4.596710
5.410910
5.379915
5.364418
5.369782
5.681515
5.992651
5.496740
5.211830
5.033612
5.096793
4.151464
4.202724
3.841519
4.050732
3.956556
3.599524
3.419518
4.046559
3.793836
3.682971
3.520846
3.329515
3.343821
3.279448
2.928972
3.076792
3.081560
##ZVALUE=270
0.784993
0.983477
0.775456
0.734925
0.705719
0.968575
0.886917
0.849962
0.879765
0.978708
0.885725
1.018643
1.075864
1.118779
1.230836
1.585484
2.121925
8.324981
24.097562
78.918934
154.358745
272.715688
472.654700
631.579757
805.484653
869.008899
846.278667
760.341883
589.935780
441.756845
309.457779
164.788961
96.455812
60.232878
60.114861
83.714724
107.179880
133.179426
149.527788
156.281590
149.409771
130.648613
110.271573
80.894828
58.397651
35.793781
23.286939
13.220906
8.859634
5.807877
5.719662
4.970431
5.191565
5.108714
5.223751
5.180836
4.899502
5.332828
4.962683
4.614592
4.775524
4.665852
4.516840
4.484653
4.482865
4.278421
4.738569
4.750490
4.742742
4.750490
4.740953
5.290508
5.283952
5.173683
5.250573
4.891753
5.276799
4.651546
4.629493
4.399419
4.329681
3.940463
3.684759
3.653765
3.849864
3.265738
3.159642
3.276467
3.466606
3.155470
3.146529
2.979636
2.710819
2.735853
3.020763
2.980828
##ZVALUE=275
0.519753
0.532866
0.653863
0.511408
0.562668
0.698566
0.714660
0.892878
0.667572
0.722408
0.714660
0.678897
0.802875
0.958443
0.881553
1.137853
0.867844
1.279712
1.600981
3.762841
14.127493
41.643977
119.652748
222.954750
418.007970
567.448735
743.019581
847.731829
892.900825
843.998790
768.128633
551.470518
392.025709
211.328864
122.359991
60.646534
47.246814
59.484839
79.165697
105.803609
126.443505
147.963762
152.465701
146.262646
132.488608
104.171634
83.414912
55.566430
38.363934
22.410750
13.947487
8.145571
6.288886
5.451441
5.276799
4.737973
4.821420
4.943609
4.570484
4.647970
4.357696
4.881620
4.201531
4.478693
4.362464
4.340410
4.347563
3.894567
4.399419
4.495978
4.395843
4.892945
5.051494
4.891753
5.177855
4.937649
4.390478
4.561543
4.105568
4.021525
4.066825
3.547668
3.564954
3.475547
3.394485
3.182888
2.960563
2.867579
3.211498
2.900958
2.978444
2.942681
2.937913
2.936721
3.222823
2.895594
##ZVALUE=280
0.573993
0.579953
0.478625
0.671744
0.486970
0.494719
0.709891
0.636578
0.649691
0.774860
0.724792
0.818968
0.651479
0.735521
0.674725
0.673532
0.904799
1.160502
1.047850
1.324415
1.206994
1.816750
9.329915
30.241609
94.180703
173.750520
326.861739
477.358699
680.098534
813.034773
902.068615
903.061032
815.243721
626.570582
459.599495
265.665650
158.630610
73.847771
44.942498
41.358471
54.436922
81.643462
102.008581
129.679441
143.057704
148.870945
142.496824
124.487877
106.998682
79.107881
58.060884
35.745502
23.408532
12.978911
8.607507
5.606413
4.954934
4.934669
4.568696
4.525781
4.130602
4.252791
4.537702
4.409552
4.399419
4.156828
3.874898
4.083514
4.105568
4.363656
4.389882
4.255772
4.288554
4.714727
4.495978
4.707575
4.576445
3.941655
4.038811
3.799796
3.509521
3.692508
3.268719
3.174543
3.266931
3.181696
3.092885
2.574921
2.771616
3.031492
3.084540
2.914667
2.812743
2.900958
2.880692
2.551675
##ZVALUE=285
0.450611
0.544786
0.385642
0.536442
0.496507
0.566840
0.478625
0.690818
0.714660
0.735521
0.438690
0.541806
0.579953
0.647902
0.643730
0.681877
0.758767
0.791550
0.819564
1.043677
0.989437
1.123548
1.204610
1.560450
4.158616
14.957786
51.780939
107.958913
237.403512
373.724699
572.524667
732.430816
856.704712
916.831493
872.011781
714.109540
557.294488
351.818800
222.283006
104.139447
56.895614
32.426715
33.905506
54.103732
72.714686
101.346970
120.847821
137.111545
144.122839
138.831735
127.661824
103.754997
84.520578
55.051446
38.605928
20.996928
13.476610
7.591844
5.553961
4.688501
4.313588
4.083514
3.728867
4.129410
3.994703
3.919601
3.969669
3.850460
4.266500
3.834963
3.900528
3.999472
4.253983
4.305840
3.778934
3.690720
4.081726
3.601909
3.447533
3.647804
3.367662
3.187656
3.160834
2.983809
2.867579
3.031492
2.978444
2.821684
2.799630
2.716780
3.003478
2.721548
2.713799
2.945662
2.584457
2.764463
##ZVALUE=290
0.433922
0.540614
0.526905
0.545979
0.455976
0.632405
0.524521
0.531673
0.570416
0.412464
0.461936
0.507832
0.351667
0.534654
0.619888
0.680685
0.514984
0.597835
0.730753
0.867844
0.886917
0.911951
1.022816
1.000762
1.186728
0.974536
1.625419
5.737543
27.598739
67.092776
133.378506
280.196667
434.451699
662.087798
805.611014
917.812586
916.332006
801.007748
662.299991
445.928574
293.549895
149.804950
79.093575
33.818483
24.445653
32.941699
47.641993
69.268942
89.963675
117.051601
131.185651
138.846636
137.052536
121.161938
103.189945
77.186823
56.455731
35.537481
23.605824
12.637973
7.853508
5.254745
4.185438
3.960729
3.689528
3.733635
3.469586
3.636479
3.928542
3.549457
3.621578
3.582835
3.795624
3.758669
3.951788
4.073977
3.847480
3.585815
3.566742
3.351569
3.071427
3.050566
3.129840
3.007650
2.954602
2.723932
2.944469
2.569556
2.645850
2.818704
2.885461
2.399683
2.504587
2.575517
2.698898
2.639890
##ZVALUE=295
0.558496
0.679493
0.514984
0.530481
0.478625
0.431538
0.492930
0.651479
0.509620
0.357628
0.541806
0.593662
0.578761
0.719428
0.492930
0.546575
0.635982
0.508428
0.723600
0.728965
0.656843
0.580549
0.646710
0.831485
0.955462
0.969768
1.332760
1.293421
1.460910
2.852678
11.272430
49.795508
109.572411
245.917439
389.465690
601.121783
753.004551
890.296698
931.185484
860.759616
736.147761
531.711578
376.794934
200.050473
109.791756
42.019486
22.697449
20.110607
27.661920
45.429468
62.010884
88.419914
106.036663
126.442909
131.702423
129.209757
117.621422
96.568465
77.891946
52.372813
36.382675
21.353960
13.552904
7.514954
5.251765
3.597736
3.217459
3.264546
3.250837
3.416538
3.484488
3.641844
3.614426
3.751516
3.469586
3.642440
3.159642
3.350973
3.034472
3.010631
3.115535
2.807975
2.774596
2.924800
2.783537
2.691746
2.544522
2.370477
2.625585
2.575517
2.418756
2.608895
2.695918
2.486706
2.602935
2.617836
##ZVALUE=300
0.375509
0.320673
0.367761
0.348687
0.484586
0.322461
0.398755
0.354648
0.470877
0.328422
0.477433
0.383854
0.468493
0.392795
0.519753
0.445843
0.514984
0.599623
0.639558
0.730753
0.763535
0.713468
0.724792
0.683665
0.904799
0.886917
0.955462
0.864863
1.256466
1.287460
1.406670
1.649857
6.665587
26.687980
94.578862
180.644989
352.220535
519.284010
736.466646
856.325030
938.336849
929.389000
801.187754
663.290024
445.202589
291.068554
147.899985
78.596473
29.817820
16.073585
17.148852
24.011731
40.201545
56.305528
80.945492
99.253654
117.898583
124.490857
122.007728
115.188956
94.242692
76.094866
51.993728
37.017465
22.010803
13.983846
7.259846
5.244613
3.524423
3.493428
3.134608
3.257990
3.239512
3.504753
3.198981
3.056526
3.253818
3.145933
2.906919
2.798438
2.763867
2.517700
2.772808
2.629757
2.496839
2.463460
2.338886
2.316833
2.355576
2.470613
2.510548
2.485514
2.247691
2.289414
2.241731
2.506971
##ZVALUE=305
0.444651
0.252724
0.403523
0.203848
0.405908
0.398755
0.494719
0.492930
0.383854
0.509620
0.414848
0.469685
0.547767
0.470877
0.472665
0.527501
0.602603
0.576973
0.488758
0.638962
0.511408
0.724792
0.554919
0.502467
0.567436
0.728965
0.759959
0.852942
0.906587
1.134872
1.105666
1.087785
1.154542
1.350641
2.768636
16.379952
49.848557
149.228573
270.864964
492.270589
671.164989
875.011683
975.444913
978.651643
883.983970
692.349672
534.873605
338.604450
212.984681
97.424984
48.009753
17.963648
12.179613
15.512705
22.827983
38.677454
54.740906
77.302456
93.963742
111.767650
117.709637
116.891861
107.353926
89.309812
73.103905
50.376654
35.594702
19.796491
12.652874
7.164478
4.894733
3.782511
3.502965
3.185868
3.070831
2.960563
2.713799
2.676845
2.819896
2.761483
2.742410
2.603531
2.699494
2.730489
2.677441
2.675653
2.626777
2.535582
2.490878
2.435446
2.344847
2.168417
2.245903
2.233982
2.225637
2.188683
##ZVALUE=310
0.394583
0.296831
0.444651
0.227690
0.283718
0.439882
0.326633
0.320673
0.309944
0.448823
0.421405
0.463724
0.435710
0.491738
0.477433
0.424981
0.395775
0.389814
0.434518
0.525713
0.531673
0.644922
0.517964
0.676513
0.444651
0.554919
0.809431
0.567436
0.739694
0.819564
0.763535
0.718832
1.013875
0.887513
1.252890
1.303554
1.545548
6.634593
21.795630
76.926947
157.073736
327.841640
500.788689
728.933811
855.096579
942.472816
919.160843
792.366862
650.324821
436.123013
291.251540
147.114992
79.726577
29.026866
13.778806
9.864569
13.152957
21.795630
30.893683
49.333572
65.586567
88.051558
102.074742
111.050606
111.496449
101.706982
89.821815
69.879889
52.561760
33.491850
22.043586
12.634993
8.150935
4.703999
3.552437
3.099442
2.816916
2.660751
2.557635
2.470613
2.783537
2.629757
2.502799
2.558827
2.520680
2.410412
2.378821
2.598763
2.538562
2.583861
2.490878
2.439618
2.360940
2.381802
2.188683
2.399683
##ZVALUE=315
0.320673
0.337958
0.333786
0.311732
0.245571
0.348687
0.495911
0.396967
0.481606
0.379682
0.449419
0.366569
0.310540
0.335574
0.328422
0.360608
0.445843
0.474453
0.238419
0.322461
0.468493
0.355840
0.444651
0.505447
0.649691
0.587702
0.557899
0.464916
0.634789
0.666976
0.668764
0.578761
0.550747
0.797510
0.820756
0.853539
0.885725
1.145601
1.308918
2.942681
10.717511
45.205951
99.201798
228.084922
370.550752
593.529940
731.980801
859.917998
893.079638
829.438567
717.692971
522.102714
368.715525
198.803544
109.616518
41.669607
17.556548
8.389950
8.429885
12.217760
17.317533
30.664802
43.165684
62.439442
78.642964
96.211433
104.004741
104.933977
98.575950
81.542730
67.465901
48.328638
34.174919
19.803643
12.698770
6.911755
4.492998
3.497601
2.867579
2.433658
2.494454
2.146959
2.191663
2.275705
2.252460
2.328753
2.061725
2.283454
2.466440
2.403855
2.374649
2.229810
2.203584
2.239943
2.063513
2.223849
##ZVALUE=320
0.315905
0.244975
0.319481
0.334978
0.334978
0.417829
0.281930
0.387430
0.291467
0.416636
0.244975
0.331998
0.136495
0.262856
0.341535
0.313520
0.411868
0.583529
0.412464
0.460744
0.354648
0.496507
0.421405
0.585914
0.527501
0.517964
0.518560
0.665784
0.515580
0.541806
0.789762
0.525713
0.573993
0.708699
0.775456
0.840425
0.902414
0.898838
0.844598
1.110435
1.195669
1.531839
4.888773
24.770498
63.454509
170.244575
286.921859
476.282835
635.896921
814.849734
891.119838
882.144570
793.396831
608.691573
447.641611
250.127912
144.758821
61.017871
28.698444
9.937882
7.161498
7.819533
9.998679
16.185641
25.334954
40.879846
54.571629
72.996616
86.848736
97.248554
99.359751
91.028810
80.717802
62.712431
46.747923
29.459596
20.302534
11.216998
7.124543
3.957748
3.094673
2.573729
2.254844
2.197623
2.298951
2.103448
2.157688
2.051592
1.966953
2.090931
2.036691
2.214909
2.228618
2.238750
2.095699
2.131462
##ZVALUE=325
0.195503
0.319481
0.410676
0.263453
0.076890
0.199676
0.193715
0.178814
0.317693
0.227690
0.149608
0.314713
0.111461
0.303984
0.243783
0.535846
0.376701
0.435710
0.358820
0.373721
0.461936
0.196695
0.272989
0.552535
0.488758
0.358820
0.336766
0.349879
0.422597
0.477433
0.455976
0.470877
0.557899
0.362992
0.563860
0.624657
0.656843
0.576973
0.738502
0.839829
0.991821
0.929832
1.239777
1.235604
2.765656
15.601516
41.571856
111.765862
200.202465
376.814604
528.824925
717.702508
823.499560
864.256620
811.865926
646.265745
495.916009
306.628942
187.025666
83.667636
40.672421
13.583899
7.358789
5.957484
6.930828
10.116696
14.403462
25.118589
36.805868
54.843426
68.271756
83.949566
90.026855
92.660785
85.638762
72.616935
58.497787
41.750669
29.926896
16.834736
11.030436
5.633831
4.007816
2.973676
2.406836
2.148747
2.244711
2.081990
1.906753
2.088547
1.857877
1.989603
2.057552
2.133846
1.920462
2.075434
##ZVALUE=330
0.239611
0.249743
0.288486
0.135899
0.120997
0.092983
0.200868
0.169873
0.403523
0.192523
0.362992
0.361800
0.258684
0.145435
0.427961
0.229478
0.235438
0.257492
0.283718
0.189543
0.314713
0.412464
0.452995
0.509620
0.254512
0.300407
0.535846
0.539422
0.379682
0.413656
0.450611
0.377893
0.422597
0.468493
0.598431
0.408888
0.703931
0.430942
0.715852
0.580549
0.722408
0.868440
0.769496
0.956655
0.819564
1.192689
1.565814
7.019639
21.904707
74.436665
144.634843
292.350650
433.664918
632.869601
754.905939
842.179656
819.941759
702.921748
568.887591
371.258855
242.339969
113.961697
57.984591
21.103621
9.037852
5.677938
5.598664
6.559491
8.829832
15.288591
21.955967
35.687685
48.451424
65.459609
76.928735
85.532665
86.076856
79.727769
69.393516
52.681565
39.495826
25.308728
17.352700
10.501742
7.255673
4.008412
2.989769
2.322793
2.096891
2.005696
2.157688
1.963973
1.828671
1.767874
1.938939
2.014637
##ZVALUE=335
0.103712
0.102520
0.244975
0.304580
0.204444
0.271797
0.325441
0.188947
0.147820
0.115633
0.258684
0.162721
0.167489
0.148416
-0.015497
0.097752
0.219941
0.431538
0.241995
0.166893
0.200868
0.134706
0.298619
0.267625
0.141859
0.188947
0.228882
0.205636
0.337958
0.349879
0.232458
0.541806
0.238419
0.385642
0.405908
0.458956
0.460744
0.510812
0.547767
0.651479
0.452995
0.514984
0.612736
0.702739
0.757575
0.828505
0.921488
1.025796
1.105666
2.989769
11.191964
45.871735
97.836852
218.988657
357.278585
560.539961
696.731806
814.511776
825.673938
743.174553
627.043843
432.781577
296.501517
155.698657
82.361698
29.101968
12.340546
5.898476
5.262494
5.258918
6.015897
8.305907
12.413859
22.108555
32.605529
48.183799
59.875846
72.928667
78.862906
79.925656
74.551702
61.946511
50.910711
37.974715
28.289557
17.447472
11.203885
6.097555
4.241467
2.814531
2.367496
1.902580
1.929998
1.689792
1.874566
1.769662
##ZVALUE=340
0.232458
0.203848
0.275970
0.218749
0.316501
0.163913
0.347495
0.248551
0.102520
0.106692
0.305772
0.163913
0.110865
0.256896
0.224710
0.434518
0.188947
0.469685
0.379682
0.376701
0.214577
0.274777
0.258684
0.169873
0.370741
0.201464
0.339746
0.249743
0.237823
0.553727
0.263453
0.423789
0.529885
0.440478
0.432730
0.360608
0.403523
0.454783
0.552535
0.665784
0.740886
0.472665
0.571609
0.541806
0.633597
0.767708
0.786781
0.889897
0.966787
0.943542
0.981688
1.788735
5.448461
27.415752
67.525506
170.016885
289.723873
478.274822
623.205900
769.473910
816.704631
774.473548
678.262711
503.877997
355.649590
188.531876
105.902553
42.656660
17.667413
6.643534
5.293489
4.860759
5.009770
5.999804
7.721782
13.324618
19.940734
32.053590
43.839812
58.645606
68.375468
74.626803
74.615479
70.381761
61.442852
48.662424
37.861466
25.658607
18.312931
11.101961
6.906986
3.844500
2.871752
2.224445
2.110600
1.889467
##ZVALUE=345
0.155568
0.152588
0.258684
0.151992
0.136495
0.141859
0.270605
0.209808
0.217557
0.301600
0.101924
0.281930
0.157952
0.230670
0.293851
0.162721
0.272989
0.312924
0.195503
0.243783
0.191927
0.305772
0.262856
0.311732
0.257492
0.228882
0.372529
0.245571
0.225902
0.322461
0.404716
0.345707
0.354648
0.461936
0.417829
0.327826
0.365973
0.325441
0.637770
0.558496
0.396967
0.417829
0.504851
0.570416
0.594854
0.547767
0.566840
0.583529
0.535846
0.744462
0.720620
0.982881
1.066923
1.348853
2.531409
15.500784
42.577982
115.573406
207.481980
379.499793
524.567962
697.692633
783.102512
794.762969
730.957985
566.743016
424.425602
252.896547
145.845413
57.354569
25.821924
9.323955
5.855560
4.953742
4.674792
4.392862
5.099773
7.397532
11.013746
19.272566
27.822852
41.322708
50.229430
60.483813
65.919757
69.059730
66.125989
57.771802
48.785806
36.568642
26.718974
17.064810
11.263490
6.401539
4.302859
2.709627
##ZVALUE=350
0.160933
0.221729
0.162721
0.231862
0.265837
0.281930
0.288486
0.294447
0.282526
0.189543
-0.017881
0.138879
0.076890
0.174642
0.187755
0.125766
0.294447
0.187755
0.214577
0.195503
0.266433
0.168681
0.224710
0.295639
0.246763
0.349879
0.378489
0.420809
0.273585
0.258684
0.332594
0.446439
0.346899
0.234842
0.331998
0.153780
0.288486
0.345707
0.382662
0.411868
0.503659
0.484586
0.380874
0.589490
0.556707
0.575781
0.556707
0.420809
0.509620
0.587702
0.588894
0.555515
0.815988
0.819564
0.872612
1.116991
1.334548
7.365942
23.886561
76.018572
145.976543
293.460488
427.856445
608.330965
718.066692
783.639550
752.351880
626.632571
484.691858
294.294953
180.960894
84.785819
39.442778
12.036562
5.738735
4.626513
4.217625
3.932714
3.872514
4.797578
6.310940
10.805726
16.479492
24.702549
33.333898
44.954419
53.216815
60.474873
62.921643
60.499907
55.231452
44.257641
35.396814
24.144650
17.552972
10.726452
##ZVALUE=355
0.507832
0.437498
0.446439
0.285506
0.419617
0.391603
0.435710
0.374913
0.336766
0.293851
0.461936
0.528693
0.432730
0.317693
0.458956
0.348687
0.541806
0.324845
0.418425
0.543594
0.517964
0.398755
0.606775
0.663996
0.562668
0.493526
0.423789
0.449419
0.545979
0.549555
0.600815
0.503659
0.509620
0.513792
0.480413
0.574589
0.663996
0.531673
0.496507
0.599623
0.615716
0.645518
0.649691
0.709891
0.742674
0.887513
0.829697
0.724792
0.840425
0.741482
0.813603
0.811815
0.754595
1.090765
0.954866
0.902414
1.215935
1.277924
1.460910
3.703833
12.896657
50.465465
102.689862
216.107965
341.378450
525.910854
644.246936
738.160014
739.262700
645.243526
526.074767
355.390906
229.788423
103.008747
50.658584
16.184449
6.954670
4.901886
4.502535
4.110932
3.750920
3.867745
4.193783
6.105900
8.336902
14.185905
20.567775
29.896498
38.308501
48.065782
54.247975
57.017803
55.399537
49.444437
42.938590
33.122897
##ZVALUE=360
0.130534
0.172853
0.243783
0.262856
0.149608
0.104904
0.248551
0.121593
0.128746
0.196695
0.113845
0.153780
0.130534
0.258684
0.216961
0.307560
0.307560
0.351667
0.267625
0.188947
0.420809
0.325441
0.264645
0.227690
0.328422
0.351667
0.391603
0.473857
0.275970
0.244975
0.283718
0.247955
0.204444
0.396967
0.365973
0.433922
0.285506
0.405908
0.348687
0.357628
0.284910
0.476837
0.437498
0.558496
0.495911
0.389814
0.452995
0.427961
0.449419
0.545979
0.585914
0.736713
0.633597
0.602603
0.690818
0.757575
0.621676
0.612736
0.812411
0.775456
0.910759
1.613498
5.653501
25.635958
62.459707
156.657696
261.546969
431.198478
571.891665
706.833005
742.943883
696.559548
592.912436
411.289930
277.976990
138.220787
72.852969
26.822686
10.823607
4.731417
4.312992
3.548861
3.406405
3.244877
3.380775
3.368855
4.309416
7.020831
10.165572
16.714931
23.624897
33.561587
40.048957
46.748519
50.872564
51.455498
##ZVALUE=365
0.122786
0.167489
0.125766
0.192523
0.166893
0.307560
0.157952
0.296831
0.211596
0.216961
0.152588
0.213981
0.206828
0.180602
0.222921
0.222921
0.204444
0.151992
0.158548
0.100732
0.101924
0.305772
0.214577
0.196695
0.184774
0.308752
0.342727
0.196695
0.153780
0.037551
0.266433
0.179410
0.147820
0.407696
0.337958
0.273585
0.270605
0.304580
0.232458
0.152588
0.242591
0.329614
0.364780
0.116825
0.251532
0.273585
0.330806
0.254512
0.338554
0.657439
0.527501
0.391603
0.443459
0.510812
0.574589
0.633597
0.627637
0.743866
0.655651
0.675917
0.799894
0.938773
0.935793
1.132488
2.491474
14.477968
38.488507
103.542805
193.002820
366.823673
507.651567
686.396956
779.984593
787.914991
715.523958
532.249808
379.182696
208.029747
111.426711
40.244460
15.641451
5.282760
4.145503
3.673434
3.378987
3.062487
2.984405
2.689958
2.914667
3.674626
5.131960
9.138584
13.242960
21.143556
27.583838
36.135912
##ZVALUE=370
0.189543
0.331998
0.151992
0.283718
0.153780
0.173450
0.352859
0.141859
0.225902
0.148416
0.378489
0.322461
0.198483
0.254512
0.281930
0.346899
0.116825
0.203848
0.313520
0.182986
0.297427
0.272989
0.228882
0.292659
0.354648
0.242591
0.207424
0.303984
0.267625
0.304580
0.116825
0.194907
0.280738
0.197887
0.137687
0.234842
0.200868
0.415444
0.412464
0.490546
0.445843
0.278950
0.351667
0.357628
0.329614
0.320673
0.414848
0.412464
0.355840
0.278950
0.445843
0.317693
0.407696
0.542998
0.516772
0.407696
0.577569
0.508428
0.721812
0.571609
0.672936
0.765920
0.695586
0.865459
0.836849
0.927448
1.421571
7.714629
25.006533
76.571703
146.383643
283.150673
410.570502
575.829744
661.084652
684.294701
635.179877
505.706668
384.175777
226.980448
132.661462
53.835511
24.559498
7.750988
4.203916
3.525615
3.403425
2.888441
2.585649
2.606511
2.436638
2.549887
3.084540
4.508495
6.889701
11.402965
##ZVALUE=375
0.159740
0.065565
0.191927
0.160933
0.165701
0.104904
0.235438
0.127554
0.289679
0.180602
0.245571
0.264645
0.305772
0.143647
0.179410
0.138879
0.108480
0.302792
0.172853
0.173450
0.330806
0.196695
0.312924
0.360608
0.246763
0.249743
0.352859
0.273585
0.271797
0.293851
0.294447
0.357628
0.227690
0.313520
0.398755
0.258684
0.322461
0.262856
0.488758
0.298619
0.413656
0.508428
0.397563
0.455976
0.366569
0.271797
0.457764
0.291467
0.298619
0.325441
0.397563
0.334978
0.575781
0.424981
0.515580
0.522733
0.375509
0.505447
0.443459
0.351667
0.329614
0.596642
0.613928
0.645518
0.684857
0.740886
0.823736
0.874996
1.092553
3.636479
12.669563
46.470761
100.021958
220.827460
342.838764
512.975454
613.315701
682.441592
664.573908
557.515621
438.274741
274.860859
177.557468
89.048743
46.179891
15.034676
6.074905
3.316998
3.166795
2.832413
2.676845
2.557635
2.618432
2.242923
2.400875
2.827644
##ZVALUE=380
0.135899
0.134706
0.267625
0.194907
0.324845
0.111461
0.111461
0.210404
0.124574
0.004768
0.057817
0.146627
0.068545
0.079870
0.093579
0.176430
0.178814
0.151992
0.252724
0.134706
0.146627
0.176430
0.229478
0.231862
0.038743
0.176430
0.265837
0.281930
0.288486
0.316501
0.505447
0.181794
0.275970
0.249743
0.172853
0.243783
0.057817
0.226498
0.240803
0.230670
0.269413
0.234842
0.316501
0.304580
0.425577
0.461936
0.326633
0.350475
0.342727
0.303984
0.340939
0.468493
0.318885
0.381470
0.437498
0.298619
0.425577
0.450611
0.265837
0.448823
0.501871
0.549555
0.593662
0.567436
0.462532
0.733733
0.755787
0.552535
0.760555
1.020432
0.949502
1.712441
6.490946
32.132864
74.355602
174.555779
280.744433
443.943739
563.363433
668.107867
676.406026
590.438843
493.793488
349.058509
239.768624
121.595860
63.833594
23.076534
9.327531
3.939867
3.233552
2.733469
2.776980
2.631545
2.390742
2.206564
##ZVALUE=385
0.113845
0.173450
0.116825
0.210404
0.103712
0.279546
0.090599
0.214577
0.243783
0.124574
0.214577
0.071526
0.166893
0.186563
0.107884
0.133514
0.110865
0.176430
0.047684
0.162721
0.186563
0.145435
0.079870
0.113845
0.290871
0.254512
0.302792
0.300407
0.297427
0.266433
0.274777
0.237823
0.137687
0.280738
0.082850
0.235438
0.208616
0.347495
0.209808
0.213981
0.300407
0.187755
0.258684
0.270605
0.215769
0.286698
0.261664
0.284910
0.271797
0.438690
0.422597
0.304580
0.299811
0.330806
0.321865
0.353456
0.337958
0.382662
0.380874
0.474453
0.417829
0.387430
0.423789
0.417829
0.581741
0.477433
0.505447
0.528693
0.624657
0.782609
0.715852
0.944734
0.931621
1.161695
3.081560
18.148422
46.915412
120.046735
213.198662
378.319621
505.216718
626.254678
662.014484
632.687807
560.335517
416.005850
299.971700
167.415738
96.634626
40.286779
16.889572
4.851818
3.266931
2.886653
2.855659
2.698898
##ZVALUE=390
0.224710
0.166893
0.097752
0.268817
0.259876
0.240803
0.057817
0.284910
0.203848
0.300407
0.199676
0.203848
0.047684
0.154972
0.182986
0.112653
0.214577
0.031590
0.183582
0.039935
0.056624
0.139475
0.092983
0.270605
0.245571
0.103712
0.235438
0.169873
0.174642
0.075698
0.212789
0.301600
0.069737
0.077486
0.312924
0.228882
0.259876
0.261664
0.207424
0.030994
0.086427
0.164509
0.212789
0.411868
0.259876
0.326633
0.277758
0.237823
0.229478
0.276566
0.287890
0.296831
0.319481
0.243783
0.324845
0.332594
0.533462
0.324845
0.258684
0.384450
0.295639
0.410676
0.440478
0.416636
0.402927
0.488758
0.445843
0.398755
0.611544
0.771880
0.663996
0.883937
0.720620
1.018643
0.966787
0.934601
1.678467
9.492636
29.449463
92.478991
175.832510
330.315828
449.819565
582.051873
653.869510
669.717789
620.432496
490.657687
378.001928
231.781006
137.683749
57.638884
26.102662
7.495880
3.652573
2.920628
##ZVALUE=395
0.266433
0.203848
0.210404
0.159740
0.092983
0.087619
0.146627
0.119805
-0.094771
0.025630
0.161529
0.171661
0.284910
0.192523
0.113845
0.087619
0.094771
0.130534
0.180602
0.200868
0.206828
0.336766
0.151992
0.188947
0.320673
0.110865
0.291467
0.161529
0.234842
0.204444
0.272989
0.241995
0.198483
0.411868
0.260472
0.254512
0.242591
0.344515
0.278950
0.238419
0.237823
0.254512
0.349879
0.319481
0.358820
0.401735
0.369549
0.358820
0.382662
0.297427
0.337958
0.299811
0.169873
0.339746
0.202656
0.205636
0.560880
0.367761
0.328422
0.344515
0.205636
0.320673
0.358820
0.448823
0.414848
0.355840
0.393987
0.347495
0.571609
0.760555
0.629425
0.658631
0.640750
0.649691
0.854731
0.745654
0.778437
0.929832
1.285672
4.010797
22.930503
56.680441
133.376718
223.695636
383.581519
512.885451
649.033785
695.456862
677.073598
590.292811
438.953638
311.162472
169.174671
92.234612
34.762621
14.910698
##ZVALUE=400
0.298619
0.248551
0.096560
0.131726
0.126958
0.153780
0.115633
0.165701
0.240803
0.304580
0.048876
-0.026822
0.113845
-0.000596
0.191927
0.127554
0.132918
0.213981
0.321865
0.162721
0.249743
0.279546
0.266433
0.324845
0.061989
0.188947
0.264645
0.176430
0.279546
0.225902
0.266433
0.132918
0.302792
0.341535
0.241995
0.276566
0.248551
0.312924
0.230670
0.263453
0.233650
0.359416
0.208616
0.341535
0.266433
0.257492
0.265837
0.275970
0.371933
0.289679
0.190735
0.300407
0.234842
0.285506
0.428557
0.335574
0.223517
0.275970
0.331998
0.341535
0.348687
0.321865
0.249743
0.406504
0.421405
0.482798
0.532866
0.591874
0.609756
0.773668
0.571609
0.842810
0.691414
0.775456
0.741482
0.773668
0.631809
0.760555
0.895858
0.945926
1.048446
3.092885
12.135506
46.864748
102.583766
231.743455
365.472436
558.071733
681.765676
775.255561
775.100589
667.369962
540.132523
349.021554
228.706598
115.560889
##END
