##TITLE=FDDW2
##FORMAT=SPECTACLE-ASCII V-1.2
##DATA TYPE=ULTRAVIOLET SPECTRUM
##SECOND TYPE=ULTRAVIOLET SPECTRUM
##DATE=02/05/18
##TIME=13:44:59
##SPECTROMETER/DATA SYSTEM=SPECTACLE
##XUNITS=NM EM
##YUNITS=ENERGY
##YFACTOR=1
##FIRSTX=220
##LASTX=410
##NPOINTS=96
##3DDATA=Equidistant
##ZUNITS=NM EX
##FIRSTZ=210
##LASTZ=400
##ZPOINTS=39
##XYDATA=(Y..Y)
##ZVALUE=210
14.003515
12.257695
11.167526
11.891723
10.114908
9.238720
10.463595
7.201433
5.752444
5.928874
3.722906
2.971888
2.343655
1.771450
1.787543
1.924634
2.228618
2.200603
2.405643
2.169609
2.125502
2.202988
2.434850
3.351569
4.322529
5.988479
8.219481
10.336637
15.409589
18.514991
22.880435
26.853681
29.581785
31.245947
31.551719
32.276511
33.138990
32.149553
32.233000
30.043721
28.293729
26.782751
25.335550
24.357438
22.632480
21.257997
20.618439
17.564893
17.368793
16.952753
14.970899
13.942719
13.298988
11.612773
11.059642
10.747910
11.453629
11.100769
9.717941
9.315610
8.716583
8.730888
8.134842
8.044839
7.318854
7.015467
7.201433
7.763505
7.281899
7.679462
8.171797
7.960796
9.005666
8.771420
9.941459
9.840727
9.641647
10.033846
8.701682
7.954836
8.183718
8.159876
6.328821
5.968809
5.280972
5.248785
4.405975
4.295707
5.338788
5.937815
8.249879
9.758472
12.603998
15.239716
20.545721
24.270415
##ZVALUE=215
33.318996
34.579635
26.913881
22.572875
20.004511
18.414855
15.468597
15.124679
15.072823
13.660789
11.215806
8.321404
6.481409
4.109740
3.978610
2.785921
1.967549
2.371669
2.642870
2.135634
2.241731
2.811551
3.420711
3.596544
6.045699
7.089972
9.557605
13.700724
18.694997
21.860600
27.163625
30.363798
34.431815
34.235716
38.143992
39.372444
39.232969
39.975643
35.011768
35.695434
33.766627
32.110810
31.976700
29.821992
26.704669
24.873614
22.822618
21.310449
20.723939
19.568801
18.408895
15.277863
16.167760
15.014410
14.209747
12.466908
11.838675
10.386705
11.367798
11.540651
9.226799
9.678602
9.905696
10.179877
8.745790
8.073449
7.832646
7.391572
8.881688
7.851720
8.819699
9.541512
10.166764
8.651614
10.407567
9.632707
10.049939
9.721518
9.687543
8.536577
8.112788
7.540584
7.351637
6.333590
5.967617
5.809665
4.665852
5.285740
4.302859
4.268885
4.572868
4.530549
5.188584
5.562901
7.124543
8.709431
##ZVALUE=220
74.653625
71.418881
70.837736
60.344934
52.599907
42.984486
33.797622
28.384924
24.626851
24.354458
23.492575
22.780895
20.920634
17.799735
13.879538
9.275675
5.862713
4.586577
3.352761
2.788901
2.966523
2.580881
3.368855
3.401637
4.607439
8.491874
10.693669
16.041994
19.012690
26.234984
29.687881
37.890673
39.031506
43.159723
44.165850
48.361421
45.709610
46.724677
43.017864
43.739676
41.243434
37.160516
36.820769
34.697652
30.981898
28.874874
28.858781
26.594996
23.517609
21.042824
20.568967
17.635822
17.253757
15.785694
14.870763
14.791489
13.351440
13.465881
11.980534
11.611581
13.257861
10.823607
10.315776
10.300875
9.233952
9.117723
9.743571
8.741617
8.330941
9.430647
9.077787
10.413527
10.063648
11.381507
9.904504
11.856556
10.005832
11.493564
11.304617
9.899735
8.600950
7.892847
7.927418
7.835627
6.894469
5.278587
5.887747
5.449653
5.455613
4.301667
5.619526
4.834533
4.241467
4.553795
4.106760
5.327463
##ZVALUE=225
90.866685
97.079873
111.671686
124.231577
123.678446
113.925934
97.648501
72.161555
56.967735
43.298602
39.292574
39.591789
38.742423
38.076639
36.056638
32.933950
24.199486
19.669533
14.353991
8.601546
6.436706
4.298687
3.485680
3.523827
5.849600
7.361770
10.998845
14.452934
18.810630
24.299622
27.720928
31.596422
34.981966
39.487481
39.966702
40.108562
42.159557
41.607618
42.580962
40.010810
38.440824
35.321712
33.317804
30.826926
29.834509
28.312802
26.411414
23.072958
24.527907
20.728707
20.283461
19.755960
17.366409
16.239882
16.249418
14.063716
15.472770
14.583468
14.854670
12.399554
11.489987
11.904836
12.087822
11.109710
10.643601
8.918643
9.818673
9.915829
9.671450
11.376739
10.486841
10.456443
11.715889
10.483861
11.268854
10.340810
12.281537
10.633469
10.377765
9.576678
8.614659
9.435415
7.416606
6.690621
6.191730
6.635785
7.041693
5.643964
5.956888
5.831718
5.259514
5.802512
5.471706
4.579425
5.198717
5.531907
##ZVALUE=230
59.174895
64.847469
100.129843
141.979456
173.287988
202.061534
201.880932
193.165541
161.993504
136.651993
92.940927
71.870685
58.611631
55.961609
58.754683
60.844421
60.309768
58.153868
54.029822
38.719773
29.445887
20.488501
12.057424
8.016825
5.821586
6.886721
8.528829
9.894967
11.814833
16.947985
17.720461
20.112991
21.695495
24.874806
27.213693
25.760531
28.357506
28.247833
24.428964
26.480556
24.867654
26.575923
24.964809
23.389459
21.831989
20.903945
20.704865
18.066764
17.961860
15.878677
17.483830
16.074777
15.403628
14.343858
13.030767
12.498498
13.386607
12.322664
12.798905
12.039542
11.828542
11.893511
11.188984
11.379719
10.973811
10.141730
10.521412
10.374784
9.845495
10.013580
11.857748
10.480881
10.723472
12.170672
12.510419
11.382699
11.463761
11.089444
11.101961
10.046959
10.965466
9.500980
7.903576
8.244514
8.228421
7.960796
7.063746
6.974936
7.042885
6.520748
6.378889
6.643534
6.730556
6.861687
6.135702
6.221533
##ZVALUE=235
17.413497
20.711422
37.388802
88.773966
130.776763
200.168490
259.860754
314.431787
334.304571
309.636593
270.224810
223.084688
151.325464
114.926696
90.966821
79.662800
79.705715
87.832808
89.845657
88.234544
80.984831
68.607926
50.481558
37.273765
25.681853
15.731454
11.948943
9.588599
8.905530
10.303855
10.249615
12.185574
12.682676
13.865829
15.141964
14.227629
16.350746
15.868545
15.319586
16.495585
16.548634
14.694929
15.107989
15.407801
13.937950
14.280677
13.820529
14.039874
11.951923
13.053417
14.120936
11.560917
12.300611
10.873675
13.216734
11.880994
11.165738
11.409521
11.389852
10.474920
10.691881
10.392666
10.516644
11.422634
10.385513
9.887815
11.013746
10.359883
10.272861
11.496544
12.049675
12.895465
13.107657
12.733936
12.723804
13.237000
12.937784
12.246966
11.911988
12.168884
10.823607
10.106564
9.873509
9.716749
10.471940
9.202957
8.077621
9.115934
8.025765
7.341504
7.454753
8.411407
7.983446
8.323789
7.937551
7.074475
##ZVALUE=240
1.677871
2.403855
5.096793
17.490983
41.405559
91.134906
148.896575
250.269771
322.423577
389.066935
440.805554
443.400741
383.649468
324.908495
239.288807
173.123479
118.397474
98.164678
97.887516
105.829835
117.218494
123.876929
117.304921
100.157857
84.913969
61.080456
47.923923
30.475855
22.129416
13.997555
12.652874
11.215806
11.625886
11.843443
12.734532
12.209415
13.552904
12.553930
13.265610
13.603568
12.709498
13.294816
13.849735
14.083982
11.440516
11.196733
12.765527
11.799932
11.360645
11.787415
11.053681
10.451674
10.083914
10.383725
10.481477
11.497736
10.662675
10.611415
10.024905
9.732842
9.743571
9.413958
9.714961
10.049939
9.662509
8.996725
10.465980
9.546876
10.672808
11.068583
11.425614
11.217594
12.706518
12.365580
12.498498
12.652874
13.304949
12.106895
12.085438
11.314750
11.593699
10.449886
10.503531
10.883808
10.873675
10.548830
9.689927
9.578466
9.438992
8.002520
8.450747
8.687973
9.191632
7.817745
8.371472
7.507801
##ZVALUE=245
1.306534
1.728535
1.537800
1.597404
2.907515
11.217594
29.819608
77.185631
134.570599
239.530802
329.583883
448.527932
495.750904
522.094965
494.025946
412.786603
326.756835
228.565931
161.823630
110.545754
95.703602
96.390843
118.644834
124.938488
136.235952
127.320886
112.730861
97.406507
74.566603
55.812001
37.545562
27.906895
20.226836
15.877485
15.090704
14.481544
14.192462
15.296936
15.266538
13.897419
13.996959
13.929605
14.331937
13.689995
13.242960
12.278557
11.523962
12.179613
11.328459
11.817813
12.284517
11.392832
11.229515
10.263920
10.336637
11.172891
9.846687
9.096861
9.474754
9.004474
8.958578
9.349585
9.707808
8.736849
9.245872
8.999705
9.200573
9.041429
9.779930
9.811521
9.457469
9.976625
10.492802
10.710955
11.471510
10.375977
11.796951
10.621548
10.630488
9.768605
11.099577
10.380745
10.240674
9.188652
9.109974
9.071827
8.905530
8.463860
8.524656
8.007884
7.821918
7.725954
7.298589
7.608533
6.762743
7.842779
##ZVALUE=250
1.169443
1.415610
1.130700
1.000762
1.322627
1.314878
1.963973
6.341934
24.611950
54.579973
130.074620
212.730765
309.395790
440.506935
521.006584
583.917499
582.637787
515.073538
432.921648
300.625563
205.458999
142.141581
94.077587
92.438459
104.638934
119.989514
140.897632
139.869452
138.656497
126.675963
114.141703
87.498426
67.784786
45.598745
35.307407
24.738908
21.544695
18.054843
17.218590
16.607642
16.894937
17.286539
17.279983
16.380548
16.685724
14.510751
15.236735
13.571978
15.011430
13.264418
12.783408
11.562705
11.479855
11.603832
10.844469
10.706782
9.563565
10.605454
10.489821
9.365678
10.193586
9.371638
9.336472
9.558797
8.527637
9.225607
8.815527
8.246899
9.379983
8.992553
8.889437
9.980798
8.982420
10.009408
10.303855
10.367632
10.027885
9.824634
9.835958
9.258986
9.346604
8.223653
7.607937
7.252693
7.579923
7.423759
7.093549
7.695556
7.423759
6.742477
7.791519
6.423593
6.649494
6.298423
6.499887
5.821586
##ZVALUE=255
1.034737
1.203418
1.238585
1.050830
0.835657
1.018643
1.003742
1.305938
1.760721
3.770590
16.875863
42.118430
83.854795
178.954601
276.996493
420.244932
529.233813
625.023842
648.187995
608.709455
527.551770
421.841741
267.711878
174.157619
107.921958
88.544488
90.793967
107.114911
132.877827
147.834420
156.975985
155.247450
143.273473
119.430423
96.340775
70.732832
53.252578
39.658546
31.006932
24.893880
23.922920
23.244619
22.659898
20.778775
20.985603
20.615458
18.692613
17.823577
16.976595
16.884804
15.905499
16.027689
14.629960
14.144778
12.441874
12.100935
11.235476
11.757612
11.592507
10.518432
10.963678
10.242462
9.658933
9.177923
9.514689
9.785891
8.396506
8.927584
8.792877
8.560419
10.124445
9.275675
8.650422
9.388924
8.910894
9.517670
8.493662
8.585453
8.837581
8.443594
6.993413
6.886721
6.468892
7.492900
6.242990
6.216764
6.597638
6.514788
5.646944
5.680919
5.826950
6.010532
5.450845
5.281568
5.273819
5.080700
##ZVALUE=260
0.969768
0.801682
0.879765
0.777841
1.049638
1.069903
1.109838
1.278520
1.006722
1.165867
1.402497
2.187490
6.557703
25.972724
59.156418
142.377615
229.814649
377.361774
504.200459
644.487739
709.555745
716.431737
628.912449
508.270860
347.560644
241.027474
145.935416
100.601912
85.434914
94.199777
121.863484
143.045783
161.587596
172.395706
171.838999
152.423978
135.571957
104.765892
84.472895
59.671998
47.854781
36.771894
30.900836
27.773976
25.220513
23.916960
23.691654
22.309422
21.731853
20.063519
19.679666
17.712712
17.904639
16.098619
14.720559
13.408661
13.221502
13.061762
12.675524
11.426806
11.438727
10.894537
10.373592
9.989738
10.889769
9.494424
8.994937
8.683801
8.598566
8.610487
8.896589
8.904934
9.402633
8.384585
8.353591
8.689761
8.297563
8.294582
7.295609
7.141829
6.861687
6.638765
6.143451
6.106496
5.982518
5.843639
5.638599
5.568862
5.413890
5.268455
5.345941
4.805923
5.136728
4.607439
4.886985
4.977584
##ZVALUE=265
0.613928
0.572801
0.772476
0.878572
0.956655
0.988841
1.030564
0.961423
1.030564
0.856519
1.296997
1.367927
1.465678
1.338720
4.024506
14.184713
49.453974
98.861456
172.924399
333.497524
471.821427
649.929643
743.382573
771.342516
712.541938
579.934716
461.917520
300.314426
205.960870
121.697783
92.665553
91.075897
106.912851
139.210820
161.943436
182.535648
184.990764
177.413821
162.079930
133.579969
113.597512
83.122849
64.517856
47.317743
38.707852
31.664968
28.447509
25.292635
24.357438
22.591949
21.481514
20.908713
20.014644
18.495917
17.163754
16.022921
15.348792
14.458895
13.153553
12.483597
11.968613
12.124777
10.732412
10.600686
10.843873
9.966493
10.292530
9.133816
9.043813
9.217858
8.893609
8.766651
8.879900
8.102655
8.399487
8.291602
7.570982
7.738471
7.266998
6.675720
6.508827
5.944967
5.842447
5.837679
5.868673
5.131960
5.147457
5.309582
4.765987
4.906654
5.603433
4.600883
4.699826
4.176497
4.354715
4.260540
##ZVALUE=270
0.801682
0.633597
0.672936
0.461936
0.753999
0.694990
0.719428
0.640750
0.647902
0.984669
0.928640
0.888705
1.062751
1.200438
1.191497
1.426935
1.966953
7.736683
22.606850
75.441003
149.164796
258.187652
444.770455
594.906807
753.863454
812.802911
795.106888
722.472668
572.094917
430.541635
303.258896
174.094439
114.796758
85.730553
90.316534
115.325451
138.531923
168.787837
182.371736
185.698867
180.689692
161.032677
139.595866
107.175708
84.055662
59.966445
45.318604
34.075975
28.047562
23.344755
22.044778
20.930767
19.365549
17.593503
17.991662
16.313791
15.624762
14.229417
14.082789
12.916923
12.100935
12.126565
10.946989
10.607839
10.151863
9.658933
10.333657
9.252429
9.183884
8.725524
9.201765
9.021759
8.414984
8.394718
8.466840
8.403659
8.380413
7.896423
7.018447
6.629825
6.641746
6.655455
5.978942
5.519986
5.397797
5.133748
5.079508
5.003810
4.418492
4.810691
4.480481
4.721880
4.377961
4.013777
4.161596
4.079938
##ZVALUE=275
0.587702
0.561476
0.796914
0.552535
0.429749
0.785589
0.728965
0.684857
0.758767
0.713468
0.838637
0.882745
0.871420
0.850558
0.897646
1.173615
0.883937
1.261830
1.386404
4.071593
14.013648
50.219893
165.465474
224.725008
392.416716
557.731986
725.961924
805.034637
839.219689
795.539618
579.428673
527.511835
268.446803
222.508907
110.624433
86.066723
78.357458
80.767870
108.385682
128.839612
150.270462
169.999599
177.558661
171.525478
153.801441
124.095678
103.106499
74.912906
56.107640
42.091608
28.030872
22.585988
18.069744
16.938448
15.635490
14.093518
13.917685
13.266802
12.408495
12.151599
12.066960
10.838509
10.869503
9.848475
9.625554
9.865761
9.379983
9.050965
8.493662
9.105802
8.169413
8.212924
8.089542
8.451939
7.762909
7.682443
7.395744
7.121563
6.899834
7.016659
6.457567
5.912781
5.795956
5.692840
5.032420
5.080700
5.278587
4.840493
5.016923
4.530549
4.822612
4.347563
4.540682
4.644990
4.431605
4.083514
##ZVALUE=280
0.540614
0.633597
0.774860
0.787973
0.378489
0.540614
0.489950
0.735521
0.541806
0.745654
0.785589
0.808835
0.782609
0.785589
0.925660
0.858903
0.815988
1.058578
0.979900
1.090765
1.182556
1.906753
9.031892
28.155446
88.874698
164.421797
309.465528
451.232791
647.445917
760.686994
838.471651
835.483670
760.679841
582.599640
436.387658
256.522894
156.468749
80.968738
54.704547
51.888824
65.622926
94.603896
115.961432
141.531825
155.704618
160.825849
155.597925
137.931705
117.264986
87.634921
67.412853
44.334531
32.554865
20.786524
15.599728
12.383461
11.771917
10.661483
10.517836
10.525584
10.636449
9.298921
9.881854
9.112954
8.951426
8.499622
8.344650
8.175969
8.186698
7.783771
7.872581
8.333921
8.348823
7.745624
7.305741
7.007718
7.350445
6.698966
6.461740
6.610751
6.193519
6.119609
5.515814
5.396605
5.690455
5.468726
4.981756
5.319715
5.067587
4.435778
4.786849
4.152656
4.572868
4.564524
4.130602
4.460812
##ZVALUE=285
0.387430
0.468493
0.422597
0.537634
0.520945
0.550747
0.636578
0.686646
0.567436
0.495911
0.649691
0.536442
0.766516
0.576973
0.770688
0.698566
0.592470
0.749826
1.001954
0.969768
0.952482
1.205802
1.315475
1.415610
4.367828
14.554858
49.493909
103.711486
226.760507
351.623893
470.833778
680.461526
798.640847
856.989026
816.025734
669.667721
523.299575
326.647758
209.823847
103.106499
57.508945
35.513639
39.213896
58.426857
77.346563
105.873942
126.729608
143.531561
150.737762
145.839453
132.875443
110.406876
88.801980
60.640574
43.290854
26.622415
18.254519
11.930466
9.914637
8.569956
8.213520
8.147955
7.977486
7.433891
7.691979
7.323623
7.449985
7.771850
7.536411
7.499456
7.555485
7.556677
7.093549
7.258654
6.721616
6.844997
6.586909
6.482601
6.461740
6.006956
5.691648
5.560517
5.503893
5.326867
5.049706
5.038977
4.988909
4.792809
4.771948
4.755855
4.675984
4.349947
4.303455
4.388690
4.007816
4.297495
##ZVALUE=290
0.454783
0.458956
0.447631
0.503659
0.476837
0.513792
0.483990
0.373721
0.382662
0.577569
0.362992
0.596642
0.670552
0.539422
0.667572
0.828505
0.640750
0.743866
0.683665
0.819564
0.829697
0.963807
0.970960
1.065731
1.243949
1.290441
2.001524
5.693436
26.893616
65.099597
128.159523
269.557834
415.470004
626.232028
759.686828
857.993960
848.740935
734.879971
599.319935
405.447483
268.463492
135.636926
74.084997
33.463836
26.258826
36.143661
49.934983
73.257685
93.888640
119.123459
135.314465
142.417550
139.416456
126.070976
106.679797
78.426003
59.949756
38.906932
26.746988
15.581846
11.272430
8.134842
7.112622
6.495714
6.108880
6.468892
6.523728
6.543994
6.389618
6.553531
6.308556
6.510615
6.524920
6.476641
6.283522
6.225705
5.987883
5.875826
5.685687
5.555749
5.469918
5.142689
4.837513
5.010962
4.453659
4.615784
4.706979
4.399419
4.420877
4.612803
4.559755
4.407763
4.255772
3.964901
4.265904
4.289746
##ZVALUE=295
0.375509
0.429749
0.359416
0.380874
0.373721
0.651479
0.471473
0.590682
0.526905
0.652671
0.527501
0.545979
0.432730
0.451803
0.410676
0.444651
0.620484
0.474453
0.722408
0.618696
0.587702
0.606775
0.876784
0.823736
1.029968
1.061559
1.165867
1.192689
1.406670
2.413988
13.416409
39.078593
90.088844
213.001966
345.680714
550.332665
688.138008
825.077891
852.124691
789.588690
678.986907
486.307740
333.178639
174.374580
97.902417
40.926933
23.432970
20.631552
28.672814
46.998858
63.244700
89.562535
108.313560
126.961470
134.148002
132.282972
119.987726
98.080635
79.057813
55.001974
38.962960
23.108721
15.422702
9.114742
6.787777
5.598664
5.151629
5.205870
5.060434
5.196929
5.101562
5.464554
5.379915
5.340576
5.665421
5.463958
5.418658
5.047917
5.034804
4.689693
4.787445
4.740953
4.648566
4.222989
4.611611
4.477501
4.456639
4.437566
4.274845
4.241467
4.155636
4.090667
4.340410
4.485846
3.950000
3.784895
##ZVALUE=300
0.192523
0.413656
0.378489
0.412464
0.593662
0.524521
0.506639
0.508428
0.463724
0.527501
0.465512
0.580549
0.521541
0.558496
0.467896
0.472665
0.422597
0.528693
0.613928
0.668764
0.791550
0.694990
0.678897
0.708699
0.611544
0.922680
1.054406
0.780821
0.981688
1.111627
1.025796
1.427531
5.157590
20.258427
68.951845
134.370923
278.277993
422.006845
626.546741
751.801729
834.258795
830.042958
749.432445
573.399663
421.708822
238.053799
141.512752
65.122843
32.075644
16.911626
16.674995
24.581552
40.434599
56.287646
81.837773
98.211765
117.340684
124.734640
123.209953
116.296411
97.366571
79.344511
55.102706
38.642883
22.932887
15.053749
8.801818
6.226897
4.596710
4.606843
4.767776
4.658699
4.873872
5.091429
4.678965
4.625916
4.575849
4.611611
4.658699
4.723668
4.641414
4.437566
4.375577
4.472733
4.303455
4.010797
4.336834
3.976822
4.336834
4.180670
4.165769
3.569722
3.722906
3.991723
3.832579
3.936887
##ZVALUE=305
0.305772
0.200868
0.473857
0.292659
0.444651
0.415444
0.443459
0.495911
0.460744
0.432730
0.373721
0.295639
0.385642
0.492930
0.457764
0.355840
0.366569
0.594854
0.485778
0.556707
0.517964
0.635982
0.560880
0.597835
0.610948
0.671744
0.741482
0.852942
0.844598
0.908971
0.996590
0.908971
0.979900
1.144409
3.014803
10.964870
45.454502
99.770427
220.512748
346.405506
538.499951
674.105883
807.629824
840.464830
767.454505
653.226972
468.065739
329.146981
178.198814
98.242760
37.940741
18.233657
12.000799
15.075803
23.970604
36.269426
57.183504
74.358582
96.570849
109.925866
120.339990
118.748546
107.312799
94.134808
71.546435
53.501725
35.365820
23.441911
13.000965
8.737445
5.600452
5.098581
4.613996
4.396439
4.328489
4.543662
4.288554
4.167557
4.364848
4.455447
4.008412
4.231930
4.029870
4.000664
4.206896
4.007816
3.917813
3.898740
3.918409
4.167557
3.707409
3.798604
3.865957
3.895760
3.817677
4.005432
##ZVALUE=310
0.296831
0.333786
0.331998
0.397563
0.443459
0.294447
0.446439
0.405908
0.462532
0.398755
0.459552
0.366569
0.412464
0.296831
0.335574
0.577569
0.562668
0.590682
0.417829
0.460744
0.405908
0.380874
0.470877
0.541806
0.587702
0.539422
0.724792
0.621676
0.665784
0.731945
0.785589
0.885725
0.854731
1.035929
1.078844
1.204610
1.564622
4.377961
24.505854
59.391856
143.433809
249.943733
435.812473
585.955977
751.030445
825.241804
814.508796
734.593868
559.774637
415.846705
242.850780
144.074559
61.602592
29.480457
11.869669
9.855628
13.867617
20.229816
32.985806
45.725703
68.246722
85.377693
102.169514
110.291839
112.504959
103.987455
90.347528
72.875619
50.551891
35.103559
20.646453
14.035702
8.361936
5.859733
4.593730
4.341602
3.629923
3.808737
3.903508
3.708601
3.857613
3.531575
3.883839
3.923774
3.935695
4.094839
4.064441
3.877878
3.693700
3.800988
3.847480
3.773570
3.506541
3.746748
3.668666
3.690720
##ZVALUE=315
0.223517
0.206828
0.471473
0.400543
0.321865
0.239611
0.301600
0.514984
0.394583
0.333786
0.378489
0.483990
0.389814
0.467896
0.297427
0.424981
0.424981
0.418425
0.285506
0.338554
0.321865
0.472665
0.448823
0.555515
0.548959
0.523925
0.468493
0.645518
0.659823
0.629425
0.721812
0.604987
0.744462
0.831485
0.839829
0.883937
0.995994
1.197457
1.292825
2.750754
10.141730
42.252541
92.211962
208.100677
338.091850
542.697906
674.001575
787.637830
823.428631
759.983659
653.717518
467.122793
329.954624
177.390575
97.278953
36.454797
16.159415
8.548498
8.505583
12.359619
18.134713
30.489564
42.845607
63.009858
77.599883
95.205903
103.267431
104.280710
96.427798
83.380938
68.701506
48.330426
35.082698
20.456910
13.340712
7.905960
5.551577
4.425645
4.240870
3.767610
3.624558
3.745556
3.582835
3.499985
3.662705
3.798604
3.795624
3.717542
3.824830
3.872514
3.995895
3.876686
3.756881
3.505945
3.844500
3.529787
##ZVALUE=320
0.248551
0.342727
0.280738
0.318885
0.272989
0.409484
0.223517
0.213981
0.220537
0.359416
0.255704
0.292659
0.392795
0.312924
0.370741
0.440478
0.313520
0.400543
0.382662
0.598431
0.373721
0.438690
0.568628
0.391603
0.643730
0.587702
0.444651
0.586510
0.482798
0.593662
0.478625
0.631809
0.738502
0.704527
1.035929
0.858903
0.747442
0.964999
0.756979
1.046658
1.232624
1.619458
4.430413
24.751425
59.864521
151.443481
253.286958
426.970720
569.582582
727.717876
796.598792
791.524649
718.630552
550.803542
405.407548
227.804780
128.964782
52.859783
25.043488
9.669662
7.091761
7.807612
9.993911
16.328692
25.099516
41.242838
55.894852
73.691607
87.947845
99.190474
100.255609
93.721747
82.530975
63.027740
48.891902
31.150579
21.507740
12.387633
8.459687
5.521774
4.395843
3.816485
3.832579
3.759861
3.411770
3.722906
3.499985
3.597736
3.624558
3.669858
3.311634
3.407598
3.460646
3.455877
3.309846
3.588796
##ZVALUE=325
0.295639
0.263453
0.226498
0.477433
0.341535
0.329614
0.367761
0.122786
0.317693
0.407696
0.360608
0.233650
0.183582
0.104904
0.408888
0.222921
0.422597
0.343919
0.276566
0.417829
0.438690
0.318885
0.462532
0.426769
0.400543
0.437498
0.396967
0.437498
0.435710
0.351667
0.478625
0.593662
0.522733
0.553727
0.596642
0.641942
0.681877
0.890493
0.787973
0.758767
0.892878
0.838637
0.845790
1.176000
2.215505
14.714003
38.765669
101.861954
185.099840
350.322723
490.190983
664.557815
757.046938
789.452791
742.130876
590.695739
450.508595
275.139809
167.272687
75.120926
36.477447
12.497902
7.306933
6.220937
6.986856
10.234714
14.678836
24.979711
36.580563
55.702925
69.041848
83.727837
92.682838
92.967749
87.144971
72.713494
59.688687
42.376518
30.167699
18.200874
11.745691
7.178783
5.435944
4.096627
3.906488
3.627539
3.201962
3.514886
3.479719
3.268719
3.449917
3.482699
3.449917
3.535748
3.245473
3.242493
##ZVALUE=330
0.241995
0.202656
0.126958
0.155568
0.380874
0.187755
0.221729
0.100732
0.308752
0.283718
0.337958
0.299811
0.186563
0.181794
0.205636
0.307560
0.255704
0.432730
0.233650
0.425577
0.431538
0.531673
0.351667
0.274777
0.402927
0.349879
0.382662
0.309944
0.426769
0.427961
0.481606
0.505447
0.472665
0.492930
0.568628
0.546575
0.519753
0.667572
0.675917
0.752807
0.922680
0.738502
0.933409
0.892878
0.928640
1.193881
1.325607
6.389618
20.379424
68.510771
133.112669
266.568661
398.344994
578.746796
693.053603
770.390630
749.868751
637.753606
510.982871
330.700874
214.134455
100.803971
51.830411
18.709898
8.356571
6.005764
6.051660
6.516576
9.139776
15.353560
22.609830
36.174655
49.001575
66.102743
78.375936
85.806847
86.807609
80.227852
70.938468
53.993464
40.972829
26.284456
18.723607
11.944771
7.997751
5.209446
4.431605
3.847480
3.451705
3.219843
3.491640
3.143549
3.115535
3.173947
3.184676
3.008842
##ZVALUE=335
0.126958
0.269413
0.178814
0.344515
0.323653
0.402927
0.251532
0.150800
0.190735
0.325441
0.283718
0.218749
0.303984
0.376701
0.327826
0.281930
0.353456
0.103712
0.195503
0.422597
0.221729
0.140667
0.331998
0.398755
0.185966
0.351667
0.446439
0.567436
0.365973
0.587702
0.354648
0.502467
0.464916
0.541806
0.506639
0.654459
0.468493
0.672936
0.539422
0.420809
0.502467
0.538826
0.635982
0.611544
0.646710
0.669956
0.848770
1.064539
1.103878
2.939701
10.283589
40.991902
89.080930
197.097659
320.398808
504.701734
632.677674
735.272765
748.008490
670.307875
566.276908
388.726592
264.585614
139.085650
72.935820
25.752783
11.419654
6.298423
5.404949
5.294681
6.184578
8.741617
13.042688
22.572875
32.165647
48.299432
60.924888
73.609948
79.387426
80.714822
75.493455
63.650608
53.206682
39.040446
29.358864
18.568635
13.011694
7.540584
5.362630
4.227757
3.506541
3.189445
3.158450
3.147721
3.190637
3.175735
##ZVALUE=340
0.242591
0.066757
0.178814
0.227690
0.370741
0.292659
0.272989
0.177622
0.153780
0.096560
0.326633
0.385642
0.272989
0.519753
0.338554
0.278950
0.425577
0.240803
0.317693
0.422597
0.430942
0.367761
0.316501
0.265837
0.273585
0.232458
0.438690
0.298619
0.315905
0.353456
0.749826
0.407696
0.388622
0.569820
0.450611
0.438690
0.491738
0.510812
0.434518
0.456572
0.555515
0.356436
0.637770
0.699759
0.756979
0.663996
0.764728
0.910759
0.933409
1.117587
1.121759
1.646876
5.201697
25.414824
62.241554
154.268742
259.081721
421.710610
554.104447
687.105656
728.051662
690.014958
601.267815
445.960760
314.689875
163.840652
90.250969
37.386417
15.643835
6.240606
5.444884
5.189776
5.119443
6.121993
8.019805
13.321638
20.301938
31.436682
43.210983
58.529973
67.909956
74.788928
76.209903
70.547462
63.422918
49.809813
39.194822
26.888847
19.194484
12.224913
8.134842
5.083680
3.978610
3.398657
3.114939
3.073812
##ZVALUE=345
0.201464
0.163913
0.252724
0.244975
0.242591
0.184774
0.150800
0.385642
0.244975
0.305772
0.314713
0.250936
0.238419
0.359416
0.182986
0.268817
0.189543
0.203848
0.313520
0.265837
0.166893
0.396967
0.193715
0.291467
0.456572
0.352859
0.341535
0.158548
0.221729
0.244975
0.309944
0.341535
0.431538
0.506639
0.446439
0.305772
0.387430
0.433922
0.302792
0.335574
0.411868
0.560880
0.350475
0.334978
0.584722
0.495911
0.546575
0.740886
0.627637
0.789762
0.775456
0.701547
0.994802
1.197457
2.309680
13.849735
39.949417
108.780861
189.465880
337.373018
462.538600
616.881847
687.879920
701.677799
640.741587
491.634607
369.254947
218.587518
123.776793
49.253702
23.016930
8.385777
5.746484
4.968643
4.742742
4.660487
5.451441
7.528663
11.272430
19.701719
28.269887
41.772723
51.641464
61.865449
67.378879
69.846511
67.544580
58.507919
50.155520
37.871599
27.949810
18.180609
12.454987
7.115602
5.115867
3.908873
##ZVALUE=350
0.297427
0.069737
0.162721
0.143647
0.152588
0.174642
0.226498
0.185966
0.204444
0.358820
0.312924
0.227690
0.266433
0.051856
0.359416
0.352859
0.138879
0.161529
0.365973
0.392795
0.363588
0.303984
0.264645
0.269413
0.175834
0.258684
0.345707
0.291467
0.306964
0.317693
0.335574
0.320673
0.398755
0.346899
0.361800
0.443459
0.323653
0.392795
0.450611
0.465512
0.355840
0.455976
0.368953
0.467896
0.578761
0.483990
0.490546
0.610948
0.649691
0.611544
0.555515
0.585914
0.699759
0.736713
0.856519
1.029968
1.197457
6.568432
21.814704
69.327950
132.306814
263.709426
383.298993
538.513660
636.186600
686.250925
657.681823
543.397665
417.547822
249.878764
153.546929
69.896579
33.308864
10.671616
5.923510
4.937649
4.420877
4.169941
4.183650
4.956722
6.728768
11.299849
16.465783
25.086999
33.625960
45.282841
54.178834
61.079860
63.485503
61.469674
56.515932
45.456886
36.097765
25.783777
18.022656
11.818409
##ZVALUE=355
-0.067949
-0.072718
0.018477
-0.031590
0.004768
0.099540
-0.117421
-0.023842
0.100732
0.019670
0.055432
0.063777
-0.067949
0.163913
-0.006557
0.071526
-0.002980
-0.041723
0.066757
0.000596
0.059605
0.136495
0.057817
0.124574
0.100732
0.033975
0.155568
0.306964
0.150800
0.055432
0.124574
0.158548
0.393987
0.089407
0.156760
0.022650
0.091791
0.148416
-0.026822
0.218749
0.185966
0.276566
0.281930
0.225902
0.314713
0.168681
0.271797
0.194907
0.249743
0.313520
0.317693
0.382662
0.356436
0.362992
0.573993
0.502467
0.662804
0.656843
0.804663
3.205538
11.594892
45.380592
94.490647
197.426677
311.643481
478.377938
584.102869
658.632517
656.876564
562.366843
457.717776
302.901864
193.009973
86.256862
41.819811
13.252497
6.417632
4.476905
4.118681
3.846884
3.522635
3.588796
4.083514
5.920529
8.445978
14.280677
19.966960
30.862689
38.955808
48.221946
54.399967
57.752728
56.104660
50.306916
43.871999
33.752918
##ZVALUE=360
0.194907
0.133514
0.169873
0.386834
0.206828
0.183582
0.171661
0.197887
0.219941
0.169873
0.283718
0.258684
0.209808
0.117421
0.209808
0.273585
0.199676
0.200868
0.289679
0.367761
0.268817
0.092983
0.332594
0.220537
0.264645
0.209808
0.287890
0.375509
0.135899
0.311732
0.372529
0.401735
0.249743
0.392795
0.406504
0.328422
0.348687
0.335574
0.257492
0.248551
0.356436
0.479817
0.390410
0.439882
0.389814
0.464916
0.350475
0.464916
0.448823
0.529885
0.543594
0.420809
0.562668
0.563860
0.736713
0.665784
0.751615
0.613928
0.883937
0.892878
1.166463
1.295805
5.936623
20.277500
64.501762
125.816464
246.515870
365.378857
530.435443
611.004829
647.251010
609.594584
484.984517
369.097590
229.067802
137.879848
58.896542
26.053786
8.378625
5.020499
4.221797
3.929734
3.605485
3.506541
3.713965
3.767610
5.156994
7.109642
11.406541
15.988946
25.004745
32.606721
42.157769
47.750473
52.528977
51.638484
##ZVALUE=365
0.131726
0.098944
0.245571
0.254512
0.340939
0.256896
0.070930
0.152588
0.398755
0.159740
0.169873
0.183582
0.363588
0.194907
0.195503
0.219941
0.295639
0.190735
0.348687
0.184774
0.189543
0.219941
0.252724
0.191927
0.137687
0.291467
0.221729
0.240803
0.290871
0.315905
0.316501
0.315905
0.457764
0.257492
0.273585
0.281930
0.323653
0.285506
0.368953
0.354648
0.292659
0.464916
0.377893
0.288486
0.366569
0.487566
0.469685
0.392795
0.500679
0.527501
0.395775
0.442863
0.406504
0.571609
0.626445
0.618696
0.525713
0.483990
0.604987
0.619888
0.806451
0.718832
0.958443
1.148582
2.149940
13.057590
35.378933
93.839765
173.944831
322.165489
435.524583
561.241508
620.677471
613.104701
543.817878
399.135947
284.775496
158.635974
86.898804
31.728745
13.194680
5.224943
4.091859
3.905892
3.658533
3.405809
3.194809
3.113747
3.319979
3.910661
5.644560
9.502769
13.338923
21.306872
27.897954
36.710501
##ZVALUE=370
0.158548
0.151992
0.257492
0.146627
0.209808
0.237823
0.217557
0.310540
0.130534
0.167489
0.191927
0.201464
0.283718
0.197887
0.217557
0.207424
0.156760
0.408888
0.270605
0.347495
0.300407
0.287890
0.210404
0.298619
0.316501
0.213981
0.379682
0.324845
0.279546
0.229478
0.232458
0.132918
0.412464
0.247955
0.511408
0.320673
0.353456
0.396967
0.488758
0.400543
0.434518
0.318885
0.245571
0.530481
0.352859
0.210404
0.451803
0.283718
0.314713
0.471473
0.298619
0.550747
0.476837
0.603795
0.419617
0.476837
0.407696
0.432730
0.487566
0.867844
0.549555
0.700951
0.687838
0.618696
0.902414
0.956655
1.388788
6.607771
22.172928
71.072578
133.116841
250.073671
367.434621
515.163541
589.808822
612.939000
565.520525
446.680784
331.357718
185.042620
104.545951
40.913820
19.478798
7.158518
4.424453
3.540516
3.523827
3.172755
2.932549
2.789497
2.803802
3.060699
3.581643
5.157590
7.614493
12.563467
##ZVALUE=375
0.204444
0.122786
0.153780
0.173450
0.175834
0.302792
0.233650
0.153780
0.220537
0.286698
0.101924
0.315905
0.180602
0.227690
0.129938
0.233650
0.180602
0.247955
0.169873
0.328422
0.149608
0.230670
0.154972
0.332594
0.386834
0.310540
0.285506
0.202656
0.279546
0.469685
0.344515
0.425577
0.339746
0.479817
0.306964
0.324845
0.575781
0.325441
0.470877
0.363588
0.498891
0.450611
0.257492
0.448823
0.391603
0.516772
0.435710
0.424981
0.342727
0.462532
0.322461
0.465512
0.445843
0.378489
0.358820
0.392795
0.350475
0.425577
0.377893
0.410676
0.325441
0.465512
0.597835
0.612736
0.661612
0.603795
0.675917
0.862479
0.932813
3.322959
12.065768
44.569969
96.737742
208.295584
311.480761
451.946855
545.598865
611.134768
591.065884
490.349531
381.184816
234.935880
148.454905
74.335933
37.404895
12.446642
5.477667
3.326535
3.241897
3.134608
2.964735
2.714992
2.698898
2.430677
2.698898
3.101826
##ZVALUE=380
0.236630
0.159740
0.076890
0.106692
0.047684
0.120997
0.163913
0.300407
0.116825
0.162721
0.115633
0.174642
0.110865
0.055432
0.175834
0.322461
0.192523
0.353456
0.204444
0.282526
0.250936
0.352859
0.144839
0.153780
0.248551
0.345707
0.345707
0.158548
0.420809
0.432730
0.528693
0.612736
0.743866
0.695586
0.592470
0.606775
0.599623
0.726581
0.621676
0.533462
0.632405
0.601411
0.600815
0.503659
0.527501
0.635982
0.539422
0.585914
0.533462
0.601411
0.305772
0.416636
0.566840
0.501871
0.554919
0.408888
0.376701
0.281930
0.435710
0.579953
0.648499
0.436902
0.565648
0.587702
0.460744
0.545979
0.633597
0.708699
0.813603
0.864863
1.130700
1.848936
6.091595
29.975772
69.168806
160.302520
258.235931
400.872827
504.335761
596.438646
600.624681
522.757769
432.836413
302.616954
204.863548
100.999475
52.608848
18.383861
7.864833
3.817677
3.032684
2.935529
2.960563
2.748966
2.560616
2.676845
##ZVALUE=385
0.134706
0.178814
0.165701
0.151992
0.147820
0.209808
0.185966
0.039935
0.194907
0.134706
0.045896
0.179410
0.264645
0.063777
0.179410
0.355840
0.158548
0.196695
0.163913
0.171661
0.099540
0.264645
0.321865
0.283718
0.336766
0.308752
0.369549
0.514984
0.627637
0.717640
0.911951
0.917912
1.148582
1.117587
1.230836
1.238585
1.350641
1.107454
1.141429
1.174808
1.121759
0.987649
0.900626
0.977516
0.905991
0.775456
0.638962
0.745654
0.525713
0.542998
0.748634
0.813603
0.699759
0.629425
0.718832
0.361800
0.464916
0.395775
0.534654
0.426769
0.366569
0.487566
0.569820
0.727773
0.605583
0.489950
0.576973
0.686646
0.761747
0.633597
0.688434
0.704527
0.870824
1.174808
3.047585
16.488433
42.551756
106.974840
189.074874
330.886841
441.934466
555.149913
589.782596
558.112860
488.365889
360.517502
255.236626
140.451789
80.519915
33.553839
14.202595
4.565716
3.174543
2.789497
3.051758
2.688766
##ZVALUE=390
0.221729
0.108480
0.174642
0.235438
0.052452
0.196695
0.152588
0.287890
0.214577
0.152588
0.216961
0.210404
0.292659
0.155568
0.143647
0.113845
0.170469
0.234842
0.231862
0.171661
0.148416
0.158548
0.237823
0.195503
0.255704
0.455976
0.527501
0.793934
1.078844
1.078844
1.457930
1.499653
1.797676
1.975894
2.013445
2.037883
2.125502
2.033710
1.935959
1.879930
1.833439
1.579523
1.522899
1.364946
1.441836
1.271963
1.188517
1.154542
1.182556
0.965595
0.995994
0.834465
0.773668
0.719428
0.499487
0.808835
0.614524
0.663996
0.436902
0.509620
0.675917
0.592470
0.436902
0.532866
0.433922
0.573993
0.598431
0.598431
0.669956
0.626445
0.789762
0.819564
0.859499
0.785589
0.862479
0.887513
1.820922
6.764531
31.706691
71.982741
167.930722
263.326764
396.639705
493.680835
578.024983
591.003895
534.605980
449.956656
309.544802
210.035443
108.235478
56.018829
19.758940
7.767677
3.402829
2.873540
##ZVALUE=395
0.245571
0.199676
0.214577
0.072718
0.150800
0.118613
0.082850
0.267625
0.089407
0.148416
0.265837
0.238419
0.198483
0.101924
0.013709
0.027418
0.284910
0.262856
0.156760
0.111461
0.162721
0.180602
0.186563
0.202656
0.288486
0.512600
0.613928
0.894666
1.299977
1.277924
1.695752
2.161860
2.380610
2.581477
2.485514
2.527833
2.670884
2.683997
2.685785
2.429485
2.429485
2.314448
2.157688
1.723766
1.667738
1.613498
1.885891
1.472831
1.287460
1.252890
1.298785
0.990629
0.965595
0.823736
0.899434
0.750422
0.666976
0.631809
0.755787
0.738502
0.574589
0.577569
0.652671
0.542998
0.551939
0.710487
0.677705
0.651479
0.638962
0.685453
0.777841
0.566840
0.760555
0.747442
0.668764
0.628829
0.715852
0.801682
0.895858
4.544854
15.937686
57.055950
111.790895
222.231746
323.609710
467.575788
552.905798
607.025623
591.159463
501.344800
395.509601
245.703459
156.272650
74.297786
35.824776
12.037754
##ZVALUE=400
0.380874
0.306964
0.241995
0.203848
0.193715
0.016689
0.204444
0.106692
0.077486
0.154972
0.108480
0.203848
0.133514
0.205636
0.199676
0.174642
0.366569
0.269413
0.148416
0.169873
0.193715
0.148416
0.334978
0.317693
0.465512
0.475645
0.601411
0.865459
1.237988
1.591444
1.905560
2.348423
2.564788
2.631545
2.705455
2.763867
2.729893
3.019571
2.773404
2.612472
2.526641
2.321601
2.145767
2.173781
1.961589
1.958609
1.630783
1.544952
1.394749
1.386404
1.118779
1.144409
1.093745
0.798702
0.826716
0.881553
0.775456
0.924468
0.649691
0.648499
0.632405
0.725985
0.619888
0.334978
0.484586
0.567436
0.702739
0.623465
0.699759
0.561476
0.620484
0.574589
0.791550
0.656843
0.712872
0.825524
0.812411
0.825524
0.710487
0.894666
0.994802
2.681613
8.926988
32.760501
70.726871
159.646869
256.147981
397.101641
492.844582
571.720600
584.771633
519.109964
426.841974
284.125805
187.692642
95.054507
##END
