##TITLE=FDDW1
##FORMAT=SPECTACLE-ASCII V-1.2
##DATA TYPE=ULTRAVIOLET SPECTRUM
##SECOND TYPE=ULTRAVIOLET SPECTRUM
##DATE=02/05/18
##TIME=13:41:38
##SPECTROMETER/DATA SYSTEM=SPECTACLE
##XUNITS=NM EM
##YUNITS=ENERGY
##YFACTOR=1
##FIRSTX=220
##LASTX=410
##NPOINTS=96
##3DDATA=Equidistant
##ZUNITS=NM EX
##FIRSTZ=210
##LASTZ=400
##ZPOINTS=39
##XYDATA=(Y..Y)
##ZVALUE=210
14.619827
12.762547
13.233423
11.225939
10.875463
9.368658
9.028912
8.298755
6.352663
6.089807
3.557801
2.683997
2.268553
1.834631
2.221465
2.086759
2.347827
2.197623
2.339482
1.880527
2.458692
2.504587
2.694726
2.829432
3.871918
3.085732
4.021525
5.306602
5.223751
6.947517
7.031560
7.810593
9.068847
8.093715
9.516478
10.390878
10.239482
9.319782
10.781884
9.556413
9.406805
8.911490
8.791685
8.336902
7.593632
7.886887
8.022785
7.519722
8.076429
7.113814
6.387830
6.718636
5.701780
6.472468
5.546808
6.116629
5.698800
6.106496
4.939437
5.054474
4.517436
4.792809
4.801750
4.869699
5.663633
4.975796
4.512668
5.130768
5.595684
6.070733
6.254911
8.280873
8.729696
9.367466
8.089542
8.757710
9.692907
10.233521
8.874536
8.174777
7.757545
6.694794
6.231666
6.224513
5.530715
4.107952
4.224777
4.333854
4.572868
5.716681
7.640719
9.174943
13.187528
16.764998
20.401478
26.199818
##ZVALUE=215
33.222437
34.666657
27.050972
21.198988
18.846989
16.098619
15.995502
15.649796
13.449788
13.529658
10.757446
9.425879
5.560517
4.785657
3.907681
2.380610
2.388954
2.369881
2.107620
2.239943
2.490878
2.550483
3.436804
2.938509
3.131628
4.727840
5.580783
5.546808
6.770492
8.258820
8.862615
9.802580
11.015534
10.285974
12.103915
11.465549
13.127923
11.303425
11.692643
11.510849
11.523962
11.514425
11.358857
9.951591
9.096861
9.196997
9.315610
7.833838
8.734465
8.745790
8.085966
6.667972
7.063746
6.545782
7.147789
6.863475
6.880760
6.000996
5.149841
6.608963
5.853772
5.796552
4.721880
5.963445
5.979538
5.716681
6.173849
6.567836
6.741881
6.537437
6.918907
7.515550
7.962584
8.912683
9.216666
9.457469
8.964539
7.656813
7.898808
6.849766
7.016659
6.299615
6.434917
4.622936
5.569458
4.415512
4.018545
4.587770
3.908873
4.359484
3.837943
3.495812
3.947616
5.474687
8.150935
9.932518
##ZVALUE=220
69.229603
69.358945
69.777966
61.731935
54.658651
41.005611
33.952594
28.373599
26.539564
24.905801
24.871826
22.713542
20.226836
17.620921
14.438629
8.539557
6.794930
4.908442
3.865957
2.798438
2.570748
2.808571
2.664924
3.363490
4.221797
4.313588
5.611777
6.852746
8.538961
9.418726
9.995699
11.499524
12.428761
15.428662
13.635755
14.469624
14.021993
14.426708
15.013814
13.723969
14.334917
13.838410
12.059808
11.841655
11.928678
10.751486
10.639429
8.984804
9.637475
9.566545
8.423924
9.825826
8.036494
7.306933
8.506775
7.373691
7.712841
7.631779
7.319450
8.116961
7.531643
7.048845
6.475449
6.897449
6.729960
6.773472
6.303787
6.539822
5.977750
7.068515
7.902980
8.405447
8.531809
9.893775
8.974671
9.817481
9.560585
9.871721
9.587407
9.045601
8.528829
7.277727
7.158518
6.606579
5.465746
6.035566
4.705787
4.193783
4.684925
4.532933
3.756881
4.485846
4.295707
4.737973
4.405975
4.348755
##ZVALUE=225
93.970895
92.428923
109.816790
124.762654
122.161508
108.993649
95.881820
74.457526
56.500435
43.161511
38.059950
38.743615
39.762855
40.680766
36.333799
34.750700
25.816560
19.942522
13.628602
9.406805
5.489588
4.152656
3.528595
3.845692
4.494786
4.315972
5.028844
6.273985
7.092953
8.984804
10.350943
10.747910
13.252497
12.762547
13.548732
14.153719
14.234781
14.669895
14.211535
13.872981
14.454722
13.156533
13.298988
12.332797
11.414886
11.537671
10.358691
11.326671
9.830594
9.262562
9.965897
8.383989
9.983778
8.461475
8.611679
8.486509
8.531809
8.092523
7.633567
6.782413
7.730722
7.303953
7.378459
7.428527
7.979870
6.781816
7.058978
7.363558
8.313656
7.345676
8.138418
9.369850
9.437799
10.302663
8.910894
9.264946
9.898543
9.129643
8.642673
7.195473
7.179976
7.395744
6.713867
6.617904
6.708503
6.129742
5.116463
4.939437
5.095601
4.886985
5.063415
4.852414
4.063845
4.532933
5.066991
4.820824
##ZVALUE=230
63.759685
70.343614
102.330446
147.387981
170.092583
199.384689
204.313993
190.016627
167.861581
138.140917
92.755556
72.316527
58.350563
56.456923
60.161948
60.957670
58.130622
56.399703
47.848821
37.050843
28.784871
19.853711
12.287498
7.638931
5.174875
5.287528
5.846620
6.187558
7.001758
7.770658
8.385777
10.151863
11.342764
10.460615
12.493730
11.885762
12.787580
11.678934
13.018847
12.298822
12.306571
10.240674
10.968447
11.106730
10.706782
10.788441
9.816885
9.493828
10.430813
8.711815
9.882450
9.140968
8.467436
9.159446
9.179711
8.885860
8.009672
8.524656
8.942485
8.845925
8.439422
7.454753
7.891655
8.834600
7.115602
8.688569
8.300543
8.278489
8.928776
8.960962
9.331703
9.220839
10.614991
11.149645
12.138486
10.026693
9.623766
10.586977
9.418726
9.319782
8.113980
8.098483
7.987618
7.092953
6.317496
6.811619
6.281734
6.824732
6.399751
6.413460
6.730556
5.414486
5.514622
5.076528
5.739927
5.107522
##ZVALUE=235
20.126700
19.520521
47.043562
84.849596
142.325759
190.247893
264.137983
305.428505
323.608518
313.670635
259.896517
209.653974
163.670778
112.790465
88.821650
78.396797
78.380704
85.897446
91.123581
88.409781
79.102516
68.765879
51.958561
38.200617
22.293925
15.780926
10.380745
7.390976
6.928444
7.304549
7.498860
7.293820
7.523894
7.818937
8.531809
9.470582
9.247661
8.778572
10.303855
8.407831
9.737611
9.416938
9.081960
8.539557
9.696484
8.892417
8.457899
8.761883
9.022951
7.739663
8.869767
7.962584
8.796453
7.695556
8.686781
7.246733
8.329749
9.119511
8.172989
7.920861
7.925630
7.681847
8.711815
7.867813
7.887483
8.189678
8.568764
8.808970
9.075999
10.259748
9.368658
9.117723
10.934472
10.301471
11.696815
10.373592
10.890961
10.834932
10.037422
9.750724
10.098815
8.527637
9.024739
8.513927
7.881522
7.290840
7.041693
7.171631
7.858872
6.916523
6.188750
6.678700
7.033944
5.902648
6.487966
6.447434
##ZVALUE=240
2.187490
2.179742
6.700754
17.280579
45.654774
88.067651
165.622830
242.434740
340.600014
409.847498
456.770658
441.424847
395.697951
320.410728
249.867439
160.259008
123.264790
101.216435
93.070865
108.080506
116.610527
119.345784
114.873648
102.838874
80.110431
67.766905
46.049953
32.252669
20.383000
13.327599
10.153651
9.051561
7.967949
9.196997
8.781552
7.550716
8.498430
10.159612
8.130670
8.749962
8.549690
8.765459
9.183884
9.035468
8.594990
9.056926
10.211468
8.949637
8.298755
8.606911
9.097457
8.293986
8.534789
8.338690
8.528829
7.690787
7.959604
7.553697
8.364916
7.889867
8.629560
8.470416
8.022785
8.128881
8.541942
8.709431
8.403659
8.428693
9.003878
9.742975
8.948445
10.520816
10.019541
12.083650
10.961890
10.894537
12.063980
11.014938
10.723472
10.446906
9.227991
8.907914
9.109974
8.829832
9.026527
8.075833
7.456541
7.600784
7.790923
7.926822
7.331967
6.328821
7.330775
7.041693
7.273555
6.557703
##ZVALUE=245
1.311898
1.284480
1.514554
1.795888
4.181862
11.960864
36.073923
73.327422
156.569481
236.133933
355.035663
442.468524
497.257710
520.422459
489.327908
404.115915
328.897834
225.511789
159.689784
109.382868
94.738603
99.510550
117.799640
128.610730
130.486488
128.943920
109.457970
99.464655
70.668459
53.172708
38.659573
22.520423
15.995502
11.170506
9.620786
8.831620
8.540750
9.711981
8.384585
8.577704
9.579659
9.237528
8.290410
8.700490
8.277893
8.626580
8.411407
7.698536
8.199811
7.404685
8.292794
7.142425
7.237792
7.504821
7.106662
7.330775
7.542968
7.385612
7.786751
7.851720
7.072687
6.877780
6.450415
6.423593
6.837845
6.583929
6.694794
7.568598
7.795691
8.243918
7.875562
8.683801
9.000897
10.121465
9.248853
10.150671
9.197593
8.935928
8.975863
8.932948
8.571744
8.717775
8.181930
7.131696
7.137656
7.102489
6.498694
6.306767
7.147789
7.113814
6.331801
6.517768
6.061792
6.142855
6.522536
6.433725
##ZVALUE=250
1.061559
1.147985
1.597404
0.970960
1.422763
1.758933
2.236962
8.145571
23.610592
62.710643
117.149949
228.823423
328.079462
450.407863
528.743863
580.632687
567.115545
507.864952
425.764918
290.113688
206.508636
146.669745
97.228885
91.805458
107.397437
121.503472
135.303736
140.108466
134.131908
122.294426
99.166632
81.705451
59.783459
36.467910
25.007725
15.675426
11.550784
10.558963
9.760857
9.487867
9.188652
9.322762
9.200573
9.843707
8.953810
8.512735
8.651614
8.474588
8.280873
7.483959
8.491874
7.598996
6.912947
7.748604
6.380677
7.130504
6.866455
6.647706
7.039905
6.852746
6.325841
6.812811
7.002950
6.149411
6.532669
7.221699
7.496476
6.687641
6.635785
7.649660
8.023977
7.904768
7.840991
8.721948
8.980632
8.409619
8.470416
7.447600
7.351637
7.447600
7.192492
6.974936
6.571412
6.564856
6.609559
6.496906
6.097555
5.829930
5.989671
5.161762
5.973577
5.789995
5.286932
5.136728
5.265474
5.377531
##ZVALUE=255
0.880957
0.914931
0.815988
1.053810
1.396537
1.118779
1.515746
1.430511
1.515746
3.329515
18.317699
43.984652
88.588595
183.037519
282.900929
426.542759
527.980924
625.247955
641.418695
610.484481
517.706871
411.048532
264.405608
174.469948
105.439425
85.993409
89.536905
104.024410
129.345655
140.419602
147.634745
143.765807
132.030845
105.745792
85.271001
56.936741
40.884614
25.551915
17.028451
13.046861
11.442900
9.655952
10.893941
10.450482
9.426475
9.676814
9.317994
9.176731
9.210706
9.429455
8.837581
8.693933
8.207560
7.979870
7.318854
7.506609
7.377863
7.528663
7.458925
7.013679
7.013679
7.091761
6.036758
6.952882
6.716847
7.616878
7.278919
6.478429
6.985664
7.170439
7.177591
7.954836
7.359982
7.560849
8.058548
7.456541
7.147789
6.636977
6.901622
6.615520
6.444454
5.600452
6.233454
5.135536
5.270839
4.965663
5.415678
5.170703
4.964471
5.021691
4.218817
5.312562
4.967451
4.889965
4.211664
4.928708
##ZVALUE=260
0.764728
0.785589
0.684857
0.821948
0.887513
0.830889
1.051426
1.076460
1.294613
1.172423
1.207590
1.495481
8.901954
24.234653
68.853498
129.375458
261.876583
377.476811
524.613857
629.287958
709.297657
702.546835
606.191754
499.513745
338.549614
224.494934
149.905682
89.922547
76.505542
85.606575
106.257796
132.658482
147.563815
156.117678
152.667761
131.892562
116.108656
85.292459
63.916445
41.789412
28.937459
19.225478
14.191866
11.756420
10.522604
11.057854
10.505915
10.581613
9.601712
10.402799
9.848475
8.898973
9.145737
8.729696
8.395910
8.026958
7.866621
7.849932
7.643700
7.015467
7.921457
7.385612
7.030964
6.791949
6.658435
7.004738
6.547570
6.734729
6.423593
6.619692
6.831884
6.645918
7.359982
6.553531
7.773638
6.633997
6.672740
6.320477
6.263852
5.846620
6.700754
5.478859
4.956722
5.019903
5.347729
4.639626
5.025864
4.845858
4.536510
4.725456
4.129410
4.160404
4.029870
4.244447
4.410744
4.097819
##ZVALUE=265
0.706911
0.615716
0.611544
0.879765
0.751615
0.938773
0.805855
0.618696
0.991821
0.907779
0.962615
1.156926
1.218915
1.437664
3.715754
18.204451
44.665933
110.689998
193.617940
353.175998
495.883822
622.221828
739.534497
764.800906
701.053739
604.217052
446.861982
319.879651
186.318755
116.052628
81.323981
71.699619
84.756613
115.046501
136.951804
154.689550
160.172582
153.185725
138.345957
112.905502
88.608861
61.572790
42.679906
27.675629
19.979477
14.788508
13.117790
11.588931
11.089444
10.661483
10.736585
10.353923
9.515882
9.940863
9.063482
8.593798
8.227825
7.754564
8.331537
7.827878
7.881522
7.429719
7.471442
7.121563
7.221699
7.021427
6.373525
7.149577
6.994605
6.927848
6.882548
7.348657
7.192492
7.163882
6.980896
7.048845
7.248521
5.979538
6.044507
6.125569
5.618930
5.164742
5.035996
4.725456
4.967451
4.762411
4.400611
4.378557
4.336834
4.413724
4.076958
3.921986
4.259944
4.103780
4.129410
4.049540
##ZVALUE=270
0.591874
0.805855
0.721812
0.887513
0.990629
0.734925
0.644922
0.787973
0.756979
0.917912
1.155734
0.912547
0.982881
1.274943
1.268983
1.206994
1.553893
8.164644
24.505854
76.761842
153.806806
260.819793
452.425480
594.919920
751.172900
804.108977
792.871714
717.032552
559.169650
423.792005
299.492478
164.986849
99.263787
63.228607
66.189766
91.110468
114.197731
142.625570
154.120922
160.236955
154.337883
136.344433
118.264556
86.171627
65.632463
42.184591
29.365420
19.650459
14.774799
11.957884
11.429787
10.126829
10.270476
9.857416
9.455681
9.052753
8.818507
8.277893
8.631945
8.423924
7.770658
7.994771
7.806420
7.315874
7.507801
6.781816
6.885529
6.748438
6.519556
7.056594
7.057786
6.597638
6.557703
7.256866
7.328987
6.604791
6.944537
6.083846
6.222725
5.670786
5.675554
5.055666
4.812479
4.552603
4.482865
4.808903
4.172921
4.356503
4.354715
4.018545
4.073977
3.648996
3.847480
4.157424
3.824830
4.085898
##ZVALUE=275
0.391603
0.346899
0.293851
0.657439
0.594854
0.431538
0.641942
0.760555
0.670552
0.517964
0.475645
0.488758
1.039505
0.845790
1.010895
1.037717
0.782609
1.160502
1.377463
4.302859
14.404655
39.420724
114.983916
214.998722
392.447710
533.690453
699.450970
796.082020
829.708576
783.143640
651.315451
517.570972
367.938876
198.779702
118.370652
63.636899
52.338839
63.390732
84.253550
113.515854
133.097768
153.726935
160.223842
152.435899
137.650967
111.297965
87.576509
59.556961
44.097900
26.232600
18.719435
12.971759
11.160970
9.120703
9.218454
8.569956
8.745790
7.982850
8.115768
8.045435
7.690787
7.136464
7.663965
7.371902
6.876588
6.968975
7.170439
7.073879
6.752610
6.627440
6.588697
6.771684
6.821752
6.557703
6.296635
6.703734
6.207824
6.351471
5.612969
5.193949
5.376935
4.866719
4.980564
4.958510
4.667640
4.190803
4.368424
4.146695
3.919601
3.980994
3.862977
3.474951
3.817677
3.774762
3.704429
3.756881
##ZVALUE=280
0.309944
0.426769
0.362992
0.428557
0.630617
0.527501
0.515580
0.406504
0.626445
0.528693
0.481606
0.505447
0.552535
0.771880
0.668764
0.814795
0.768900
0.889897
0.909567
1.022816
1.071692
1.702905
8.548498
30.058622
90.908408
166.237950
308.707952
446.798801
643.329620
761.040449
843.260884
833.002925
735.943913
602.311492
403.906703
268.905759
137.043595
76.306462
44.650435
43.257475
60.398579
80.391765
110.347867
128.114820
147.495866
151.924491
145.935416
131.987929
106.906891
86.351633
58.395863
40.605664
24.323463
17.090440
11.182427
8.731484
7.740855
7.325411
7.351637
7.444620
7.566810
7.113814
6.937981
7.180572
6.397963
6.878972
6.833673
6.265640
6.698966
6.298423
6.241798
6.420612
6.323457
6.126761
6.097555
6.083846
5.925894
5.566478
5.136728
5.073547
5.315542
4.846454
4.907846
4.748702
4.350543
4.166961
4.628897
3.908873
4.040599
3.910661
3.945827
3.661513
3.803968
3.514886
3.198981
3.492832
##ZVALUE=285
0.510812
0.442863
0.518560
0.235438
0.309944
0.500679
0.674725
0.442863
0.559688
0.657439
0.579953
0.639558
0.585914
0.603795
0.795722
0.680685
0.534654
0.789762
0.955462
0.722408
0.823736
1.038909
1.301765
1.415610
4.419684
15.269518
51.363707
105.102658
222.817659
353.899598
497.468710
689.757466
797.321796
854.063630
812.031627
662.760735
521.710515
327.084661
204.262733
98.076463
54.377913
31.898618
35.235882
54.642558
74.741840
105.467439
122.278929
138.868690
146.787763
142.096877
128.129721
105.688572
85.021853
58.347583
40.991902
24.054646
16.089678
10.176897
7.275939
7.106662
6.697774
6.372929
6.004572
5.991459
6.343722
6.301999
6.030798
6.249547
6.083846
6.228685
6.351471
5.796552
5.998611
5.988479
6.143451
5.862713
5.475879
5.109906
5.434752
5.123615
4.918575
4.658699
4.299879
4.062653
4.287958
4.289746
3.964901
4.209876
3.653765
3.816485
3.930926
3.542900
3.835559
3.554821
3.880858
3.893971
##ZVALUE=290
0.237823
0.503659
0.281930
0.296831
0.411868
0.642538
0.414848
0.582933
0.598431
0.577569
0.741482
0.597835
0.491738
0.409484
0.507832
0.557899
0.511408
0.672936
0.684857
0.764728
0.853539
0.800490
0.956655
0.981688
1.090765
1.177788
1.872778
6.040931
27.855635
65.700412
131.996870
272.261500
416.761637
629.896522
756.112933
857.919455
853.329897
751.523972
615.762472
418.888927
279.383659
140.287876
76.104999
32.624602
24.501681
34.236908
48.186779
71.211457
90.274811
117.579699
132.801533
139.981508
139.857531
123.270750
105.432868
77.072978
57.268739
36.551952
23.620725
13.970733
9.871721
6.894469
6.078482
5.326867
5.135536
5.076528
5.334616
5.279779
5.177855
5.099773
5.143881
5.214810
5.394816
5.290508
5.077720
5.079508
4.845858
4.688501
4.252791
4.383922
4.144907
4.324913
3.983974
4.237890
4.098415
3.914833
3.674626
3.927946
3.853440
3.769994
3.557801
3.610849
3.502965
3.546476
3.831983
3.544688
##ZVALUE=295
0.364780
0.363588
0.473857
0.464916
0.367761
0.431538
0.434518
0.499487
0.478625
0.486970
0.423789
0.482798
0.505447
0.648499
0.522733
0.650883
0.545979
0.584722
0.610948
0.547767
0.538826
0.751615
0.833869
0.821948
1.000762
0.846982
1.131892
1.309514
1.540780
2.554655
9.361506
39.845705
90.075731
215.249658
348.124504
549.886823
691.772699
821.440816
848.652720
782.254934
672.296882
482.823849
338.323712
183.061957
98.970532
38.979650
22.169948
20.342469
27.780533
46.244860
63.603520
89.123845
108.645558
126.135945
134.395957
131.016970
118.617415
97.619891
77.947974
53.025484
37.181973
21.931529
13.863444
8.046627
6.056428
4.909635
4.673600
4.255772
3.915429
4.154444
4.815459
4.559755
4.661679
4.779696
4.223585
4.071593
4.514456
4.039407
4.010797
4.057884
3.659725
3.612638
3.629923
3.841519
3.502965
3.563762
3.607869
3.600717
3.298521
3.285408
3.451705
3.408790
3.396869
3.237724
3.467798
3.332496
##ZVALUE=300
0.420809
0.320673
0.435710
0.337958
0.326633
0.317693
0.379682
0.288486
0.445843
0.321865
0.472665
0.435710
0.409484
0.508428
0.572801
0.467896
0.514984
0.424981
0.410676
0.561476
0.527501
0.643730
0.677705
0.617504
0.800490
0.951886
0.696778
0.912547
0.867844
1.183748
1.298785
1.439452
4.021525
24.140477
61.419606
154.371858
263.540745
445.645452
595.775843
756.801963
829.954743
818.993449
737.618804
559.932590
412.503481
234.425664
140.083432
62.261820
30.732751
15.707612
16.618967
26.272535
37.224889
58.635473
78.150630
102.843642
115.967989
125.408769
123.274922
112.257004
96.148849
72.886944
54.461956
35.928488
23.552775
12.792945
7.917881
5.024672
4.198551
3.771782
3.489852
3.663898
3.846884
3.971457
3.629923
3.680587
3.790855
3.552437
3.472567
3.524423
3.479719
3.375411
3.249645
3.090501
3.236532
3.369451
3.122687
3.159642
3.135800
3.187656
3.220439
3.184676
3.315806
2.924800
2.765656
2.901554
##ZVALUE=305
0.369549
0.411868
0.304580
0.407696
0.379682
0.202656
0.485778
0.440478
0.392795
0.384450
0.429749
0.551939
0.399947
0.339746
0.329614
0.543594
0.552535
0.440478
0.474453
0.568628
0.556707
0.492930
0.621676
0.804663
0.711679
0.579953
0.634789
0.826716
0.771880
0.977516
0.809431
0.986457
1.109838
1.337528
2.250671
14.325976
39.718747
111.709833
202.752948
373.914838
518.299937
703.356862
800.285935
836.725831
784.157515
620.203018
484.153628
308.436751
192.365646
87.001920
43.089986
16.890764
11.365414
15.797615
22.700429
38.625598
54.504871
77.682734
96.003413
111.488700
119.841695
116.674900
107.679963
89.685917
71.476698
49.503446
34.873486
20.832419
13.108850
7.176995
5.019903
4.257560
3.555417
3.559589
3.494620
3.393888
3.314614
3.171563
3.287792
3.358722
3.340840
3.140569
3.259778
3.265738
3.243685
3.123879
3.106594
3.083944
3.093481
3.351569
3.018975
3.008842
3.082752
2.933741
3.178716
2.799630
##ZVALUE=310
0.327826
0.342727
0.283718
0.426769
0.356436
0.285506
0.428557
0.327826
0.214577
0.415444
0.398755
0.430942
0.420809
0.419617
0.406504
0.428557
0.388622
0.394583
0.325441
0.377893
0.406504
0.377893
0.497699
0.606775
0.619888
0.644922
0.748634
0.632405
0.639558
0.665784
0.749826
0.866652
0.877976
0.947714
1.067519
1.141429
1.578927
4.575849
24.994612
59.936643
148.821473
252.860785
436.429977
583.429933
747.810602
816.743970
807.901621
734.552741
569.438934
422.843695
243.077874
146.481991
63.557625
30.005574
12.079477
9.412766
14.101863
19.792914
33.468604
46.323538
69.131851
84.228516
102.260709
109.134912
111.795664
106.199980
88.966489
71.827769
48.475862
33.801794
19.670725
13.051629
7.444620
5.164742
3.820658
3.490448
3.311634
3.217459
2.904534
3.116727
3.043413
3.084540
2.978444
2.721548
3.255606
3.015995
2.885461
3.125668
3.221631
3.244877
3.012419
3.105998
2.792478
3.003478
3.125668
2.750754
##ZVALUE=315
0.159740
0.395775
0.292659
0.256896
0.279546
0.321865
0.300407
0.312924
0.395775
0.317693
0.442863
0.255704
0.267625
0.323653
0.268817
0.410676
0.441670
0.307560
0.336766
0.477433
0.452995
0.373721
0.460744
0.430942
0.411868
0.471473
0.634789
0.564456
0.692606
0.674725
0.637770
0.631809
0.642538
0.620484
0.890493
0.929832
0.923872
1.152754
1.323819
2.733469
10.327697
42.407513
93.054771
208.804607
341.492891
543.884039
671.115518
786.162615
822.294950
757.194757
650.946498
468.021631
332.470536
177.081823
97.091794
36.466718
16.319752
8.361936
8.268952
12.667775
18.154979
30.737519
43.582916
63.159466
78.816414
95.215440
102.951527
105.188489
98.245740
81.917644
66.958666
47.412515
33.404827
19.618869
12.434721
7.027984
4.804730
3.642440
3.163815
3.004670
2.780557
3.021955
2.895594
2.752542
2.830625
2.831817
2.944469
3.039837
2.773404
2.815723
2.951622
2.931952
2.861619
2.727509
2.688766
2.767444
##ZVALUE=320
0.252724
0.203848
0.242591
0.219941
0.308752
0.465512
0.327826
0.387430
0.344515
0.278950
0.158548
0.142455
0.321865
0.275970
0.299811
0.325441
0.329614
0.378489
0.290871
0.372529
0.346899
0.443459
0.327826
0.425577
0.468493
0.528693
0.411868
0.545979
0.604987
0.614524
0.599623
0.586510
0.711679
0.606775
0.677705
0.767708
0.837445
0.836849
0.895858
1.022816
1.101494
1.351833
5.636811
19.400716
66.920519
134.090781
270.577669
398.870707
581.464767
710.347891
798.970461
795.514584
691.377521
572.610497
385.394692
251.664519
116.649866
61.547756
23.347735
10.637641
7.050633
7.488728
10.448694
15.655756
26.939511
38.166642
57.782531
72.461963
90.506673
98.916888
98.674893
92.804432
77.243447
64.549446
45.222640
32.149553
19.424558
12.373924
6.837845
4.618764
3.372431
2.913475
2.665520
2.748966
2.786517
2.531409
2.665520
2.467632
2.657771
2.791882
2.822876
2.702475
2.414584
2.589822
2.380610
2.787709
##ZVALUE=325
0.388622
0.174642
0.299811
0.273585
0.331998
0.389814
0.546575
0.370741
0.235438
0.171661
0.156760
0.233650
0.249743
0.290871
0.225902
0.521541
0.502467
0.347495
0.224710
0.187755
0.317693
0.254512
0.348687
0.381470
0.388622
0.562668
0.410676
0.335574
0.317693
0.429749
0.416636
0.337958
0.498891
0.449419
0.457764
0.609756
0.579953
0.517964
0.638962
0.804663
0.931621
0.981688
0.941753
1.303554
2.628565
15.159845
39.720535
104.191899
187.299848
351.676941
487.792492
659.662485
751.598477
781.745911
733.281970
585.560799
446.996689
276.041627
168.069005
74.060559
36.172867
11.945963
7.038713
6.222725
6.961823
9.959936
15.040636
25.027990
37.155747
56.337714
68.942904
83.621740
92.274547
91.555715
85.807443
72.132945
57.776570
41.463971
29.078722
17.572641
11.402965
6.350875
4.371405
3.420711
2.975464
2.677441
2.688766
2.458692
2.507567
2.301931
2.468824
2.613664
2.271533
2.484918
2.739429
2.403855
##ZVALUE=330
0.317693
0.282526
0.194907
0.158548
0.379682
0.110865
0.254512
0.157952
0.201464
0.301600
0.255704
0.236630
0.225902
0.209808
0.227690
0.120997
0.206828
0.284910
0.280738
0.303984
0.212789
0.377893
0.442863
0.266433
0.227690
0.327826
0.432730
0.358820
0.354648
0.431538
0.346899
0.467896
0.520945
0.712872
0.488758
0.645518
0.633597
0.722408
0.700951
0.613928
0.642538
0.591874
0.659823
0.780821
0.903606
1.204610
1.377463
6.561875
21.185875
69.053769
133.456588
267.402530
393.046737
572.875738
686.627030
765.691996
741.442442
623.012781
504.944921
331.823826
216.296911
102.102757
52.250624
19.253492
8.681417
5.665421
5.659461
6.323457
8.936524
14.614463
22.631884
35.529733
48.787594
66.039562
77.140927
86.195469
85.485578
79.326630
69.138408
52.658916
39.424896
24.786592
17.650723
10.919571
7.415414
4.436970
3.334880
3.040433
2.542734
2.348423
2.351999
2.150536
2.268553
2.292991
2.242923
2.222657
##ZVALUE=335
0.311732
0.271797
0.122786
0.246763
0.244975
0.290871
0.271797
0.324845
0.174642
0.216961
0.171661
0.274777
0.216961
0.275970
0.241995
0.391603
0.232458
0.303984
0.242591
0.240803
0.386834
0.323653
0.456572
0.389814
0.369549
0.353456
0.330806
0.357628
0.336766
0.263453
0.259876
0.437498
0.535846
0.609756
0.595450
0.505447
0.453591
0.400543
0.456572
0.580549
0.458956
0.559688
0.593662
0.698566
0.700951
0.835657
0.827909
1.056790
1.305938
2.874732
10.691881
42.498708
90.562701
200.336576
318.532586
501.552820
624.474883
724.864006
741.121769
668.776631
562.395453
388.109684
265.320539
138.590932
72.553754
25.350451
11.303425
5.954504
5.190969
5.209446
6.120801
8.586645
12.552738
22.756457
32.302737
47.959685
60.090423
72.531700
77.875853
79.168677
73.060989
61.917901
51.535964
38.503408
28.557777
17.577410
11.757612
6.654859
4.732609
3.306866
2.879500
2.366900
2.407432
2.167821
2.053976
2.235770
##ZVALUE=340
0.273585
0.175834
0.192523
0.288486
0.405908
0.242591
0.208616
0.187755
0.105500
0.261664
0.245571
0.333786
0.368953
0.272989
0.184774
0.350475
0.110865
0.284910
0.249743
0.194907
0.317693
0.235438
0.217557
0.282526
0.347495
0.363588
0.352859
0.261664
0.282526
0.406504
0.385642
0.403523
0.499487
0.385642
0.368953
0.463724
0.401735
0.444651
0.380874
0.485778
0.495911
0.443459
0.588894
0.589490
0.642538
0.614524
0.767708
0.649691
0.784993
0.928640
1.045465
1.612902
4.856586
25.262833
61.896443
154.199004
257.058740
422.504544
547.478795
675.190687
719.798803
683.165789
596.249700
443.246961
312.774777
166.035891
93.151927
38.172603
15.443563
6.173849
4.976988
4.975796
4.644990
5.972981
7.698536
13.340712
20.147562
32.010674
44.056773
57.778955
67.588687
74.954629
74.917674
69.460869
61.898828
48.662424
38.069487
25.826693
18.439889
11.322498
7.238984
4.107952
3.188848
2.597570
2.445579
2.265573
##ZVALUE=345
0.133514
0.224710
0.263453
0.281930
0.233650
0.121593
0.125766
0.160933
0.142455
0.233650
0.120997
0.307560
0.285506
0.202656
0.230670
0.184774
0.274777
0.301600
0.211596
0.373721
0.190735
0.181794
0.394583
0.315905
0.503659
0.303984
0.211596
0.233650
0.286698
0.304580
0.269413
0.327826
0.443459
0.342727
0.302792
0.539422
0.314713
0.480413
0.237823
0.355840
0.584722
0.315905
0.342727
0.450611
0.534654
0.528693
0.627637
0.531673
0.664592
0.698566
0.773668
0.740886
0.993609
1.059771
2.978444
11.280775
46.374798
95.263720
197.263956
309.217572
476.827621
589.970946
685.158968
695.210695
620.744824
517.123938
353.235602
232.625604
109.262466
53.809881
18.521547
8.815527
5.283952
4.746914
4.445910
4.630685
5.023479
6.728768
11.932850
18.199682
29.020905
39.247870
51.307678
60.018897
67.412853
68.797469
64.711571
58.248639
47.365427
37.542582
26.087761
18.387437
11.353493
7.334948
4.345775
3.337860
##ZVALUE=350
0.201464
0.356436
0.203848
0.137687
0.228882
0.231862
0.326633
0.221729
0.120997
0.118613
0.147820
0.213981
0.258684
0.252724
0.208616
0.178814
0.248551
0.319481
0.195503
0.380874
0.307560
0.229478
0.326633
0.378489
0.298619
0.470877
0.531673
0.274777
0.173450
0.379682
0.381470
0.384450
0.140667
0.344515
0.386834
0.274777
0.241995
0.450611
0.424981
0.428557
0.361800
0.417829
0.294447
0.329614
0.542998
0.491738
0.477433
0.546575
0.359416
0.580549
0.619888
0.777841
0.612736
0.726581
0.821948
0.913739
1.344681
6.838441
22.587776
71.180463
133.676529
264.707804
381.897688
533.477664
626.670718
676.604509
646.874905
537.111759
416.207910
249.480605
154.289603
71.652532
33.447742
10.179877
5.477667
4.567504
4.441738
3.782511
3.668666
4.754663
6.541610
10.757446
15.820861
25.145411
33.128858
45.704842
54.258704
60.911775
63.617826
61.169863
55.295825
44.774413
35.973787
24.077892
17.596483
10.754466
##ZVALUE=355
0.269413
0.111461
0.244975
0.187755
0.114441
0.089407
0.172853
0.237823
0.315905
0.290871
0.196695
0.143647
0.251532
0.284910
0.294447
0.245571
0.304580
0.313520
0.281930
0.285506
0.227690
0.181794
0.294447
0.213981
0.336766
0.261664
0.478625
0.142455
0.413656
0.263453
0.158548
0.218749
0.415444
0.387430
0.255704
0.245571
0.244975
0.453591
0.374913
0.391603
0.299811
0.272989
0.325441
0.403523
0.421405
0.311732
0.510812
0.293851
0.507832
0.480413
0.559688
0.523925
0.551939
0.682473
0.670552
0.663996
0.715852
0.979900
1.096725
3.220439
11.653900
45.441985
92.867613
192.694664
303.460956
468.173623
570.695996
650.460720
652.520657
559.145808
454.710722
305.013657
194.673538
87.215900
41.823983
13.756752
6.181598
4.396439
3.840923
3.829598
3.550649
3.566742
4.116893
5.643964
8.137822
13.871789
20.288825
30.532479
38.616657
48.266649
54.113865
57.334900
55.789948
49.313903
43.150783
32.770634
##ZVALUE=360
0.244975
0.221729
0.072718
0.290871
0.341535
0.266433
0.065565
0.276566
0.258684
0.094771
0.172853
0.122786
0.234842
0.214577
0.151992
0.105500
0.070930
0.201464
0.136495
0.198483
0.274777
0.287890
0.240803
0.298619
0.323653
0.355840
0.218749
0.319481
0.260472
0.432730
0.301600
0.243783
0.253916
0.262856
0.335574
0.242591
0.165701
0.406504
0.251532
0.290871
0.415444
0.352859
0.380874
0.356436
0.235438
0.466704
0.485778
0.540614
0.415444
0.392795
0.342727
0.513792
0.589490
0.689626
0.643730
0.597835
0.692606
0.714660
0.687838
0.878572
1.188517
1.864433
5.222559
24.078488
58.189631
141.986609
235.440731
377.972722
493.299961
606.344938
636.492968
591.080785
506.268740
350.806713
236.507654
117.490888
62.035918
22.964478
9.667873
4.498959
4.030466
3.668666
3.434420
3.356934
3.332496
3.631711
4.536510
7.260442
10.298491
16.584992
23.470521
33.465624
40.383935
47.869682
50.921440
51.335692
##ZVALUE=365
0.143647
0.256896
0.162721
-0.052452
0.095963
0.251532
0.200868
0.141859
0.315905
0.232458
0.272989
0.158548
0.284910
0.101924
0.194907
0.337958
0.448823
0.254512
0.255704
0.161529
0.192523
0.242591
0.116825
0.240803
0.252724
0.183582
0.196695
0.408888
0.070930
0.190735
0.230670
0.301600
0.301600
0.315905
0.180602
0.441670
0.396967
0.413656
0.288486
0.165701
0.341535
0.192523
0.288486
0.453591
0.330806
0.430942
0.424981
0.577569
0.473857
0.360608
0.401735
0.300407
0.459552
0.547767
0.328422
0.545979
0.537634
0.513792
0.695586
0.606775
0.766516
0.881553
1.016855
1.067519
2.288818
13.075471
35.682917
92.555881
170.255899
313.621759
426.689982
555.467606
610.696673
597.677827
530.859828
401.287675
288.082957
153.551698
85.909963
31.872988
13.146996
4.939437
3.893971
3.493428
3.537536
3.189445
3.081560
2.840757
3.031492
3.973842
5.179644
8.997917
13.388991
20.773411
27.655959
36.005974
##ZVALUE=370
0.138879
0.256896
0.228882
0.210404
0.224710
0.221729
0.152588
0.114441
0.206828
0.209808
0.385642
0.204444
0.161529
0.181794
0.245571
0.083447
0.149608
0.079870
0.305772
0.215769
0.257492
0.292659
0.235438
0.245571
0.365973
0.363588
0.302792
0.321865
0.291467
0.325441
0.102520
0.247955
0.269413
0.167489
0.249743
0.326633
0.256896
0.317693
0.392795
0.309944
0.327826
0.348687
0.370741
0.352859
0.320673
0.228882
0.342727
0.282526
0.418425
0.308752
0.311732
0.392795
0.368953
0.369549
0.551939
0.446439
0.403523
0.513792
0.431538
0.686646
0.525713
0.602603
0.728965
0.687838
0.747442
0.913739
1.353621
6.778836
22.082925
71.787834
132.459402
248.981714
362.581015
509.962440
582.230687
604.193807
556.789637
439.774990
326.790810
185.643435
105.732679
42.337775
19.574761
7.442832
4.299879
3.588796
3.262758
2.954602
2.903938
2.599955
2.387762
2.641678
3.283620
4.692674
6.968975
11.560917
##ZVALUE=375
0.142455
0.160933
0.082850
0.181794
0.225902
0.174642
0.250936
0.334978
0.226498
0.223517
0.149608
0.122786
0.228882
0.092983
0.266433
0.118613
0.187755
0.111461
0.110865
0.179410
0.209808
0.193715
0.152588
0.164509
0.172853
0.139475
0.293851
0.319481
0.252724
0.185966
0.300407
0.173450
0.249743
0.160933
0.249743
0.258684
0.335574
0.374913
0.300407
0.392795
0.408888
0.422597
0.293851
0.346899
0.370741
0.343919
0.188947
0.313520
0.341535
0.321865
0.256896
0.391603
0.349879
0.386834
0.327826
0.342727
0.221729
0.360608
0.424981
0.442863
0.419617
0.592470
0.531673
0.675917
0.826716
0.657439
0.749826
0.903606
1.085997
2.796650
15.705824
39.471984
100.488663
177.207589
315.809846
423.195958
542.270541
593.936443
571.271777
499.149561
359.184742
255.513787
144.607425
82.423687
32.467842
14.540553
4.703999
3.520846
3.180504
2.913475
2.657771
2.624989
2.311468
2.489686
2.367496
2.836585
##ZVALUE=380
0.116825
0.115633
0.080466
0.159740
0.140667
0.210404
0.211596
0.239611
0.032783
0.055432
0.234842
0.093579
0.147820
0.198483
0.320673
0.192523
0.258684
0.238419
0.188947
0.126958
0.097752
0.098944
0.141859
0.120997
0.292659
0.139475
0.231862
0.341535
0.340939
0.413656
0.200868
0.347495
0.230670
0.314713
0.356436
0.183582
0.406504
0.335574
0.388622
0.400543
0.304580
0.393987
0.321865
0.278950
0.403523
0.403523
0.415444
0.275970
0.344515
0.296831
0.255704
0.269413
0.227690
0.171661
0.423789
0.391603
0.399947
0.342727
0.474453
0.493526
0.459552
0.420809
0.360608
0.460744
0.423789
0.661612
0.593662
0.536442
0.716448
0.773668
1.140833
1.565814
7.844567
24.338961
73.313713
134.974718
256.226659
371.200442
507.526994
574.696660
584.159493
529.407859
417.687893
316.470861
187.605619
110.107660
46.806931
22.025704
6.710887
3.690720
3.050566
2.993941
2.770424
2.683997
2.545714
2.448559
##ZVALUE=385
0.194907
0.144839
0.181794
0.121593
0.156760
0.079870
0.127554
0.085831
0.212789
0.057817
0.188947
0.090599
0.108480
0.210404
0.111461
0.272989
0.197887
0.169873
0.059605
0.128746
0.230670
0.115633
0.079870
0.165701
0.231862
0.207424
0.252724
0.286698
0.310540
0.209808
0.377893
0.460744
0.312924
0.395775
0.430942
0.461936
0.399947
0.450611
0.520945
0.347495
0.459552
0.380874
0.386834
0.455976
0.457764
0.678897
0.477433
0.245571
0.384450
0.397563
0.354648
0.210404
0.317693
0.341535
0.263453
0.346899
0.429749
0.376701
0.392795
0.406504
0.380874
0.461936
0.316501
0.245571
0.380874
0.331998
0.379682
0.615716
0.699759
0.648499
0.662804
0.900626
0.844598
1.218915
2.882481
16.382933
42.863488
107.471943
188.920498
330.905914
438.892841
547.423959
579.589009
558.341742
491.349697
364.659429
260.268450
142.769814
82.165599
34.044981
14.157891
4.357696
3.016591
2.769828
2.740622
2.641678
##ZVALUE=390
0.161529
0.231862
0.147820
0.103712
0.323653
0.161529
0.025630
0.124574
0.024438
0.108480
0.198483
0.020862
-0.011921
0.095963
0.027418
0.093579
0.167489
0.033975
0.215769
0.137687
0.175834
0.163913
0.201464
0.185966
0.294447
0.227690
0.182986
0.353456
0.411868
0.509620
0.432730
0.605583
0.534654
0.647902
0.557899
0.656843
0.660419
0.540614
0.517964
0.472665
0.537634
0.526905
0.593662
0.445843
0.493526
0.628829
0.496507
0.469685
0.503659
0.377893
0.553727
0.440478
0.515580
0.492930
0.389814
0.389814
0.375509
0.315905
0.312924
0.375509
0.419617
0.392795
0.369549
0.372529
0.425577
0.418425
0.428557
0.583529
0.576973
0.620484
0.740886
0.617504
0.670552
0.830889
0.814795
0.951886
1.537800
8.650422
26.328564
81.240535
150.625706
280.624628
382.486582
495.560765
560.507774
578.725934
537.178516
428.486466
328.182578
202.838778
119.058490
49.314499
22.570491
6.659627
3.601909
2.854466
##ZVALUE=395
0.216961
0.198483
0.259876
0.190735
0.345707
0.236630
0.049472
0.223517
0.105500
0.212789
0.153780
0.332594
0.178814
0.201464
0.255704
0.186563
0.044703
0.054836
0.179410
0.283718
0.101924
0.155568
0.279546
0.321865
0.206828
0.311732
0.368953
0.377893
0.469685
0.566840
0.615716
0.689626
0.650883
0.820756
0.975728
0.968575
0.696778
0.796914
0.673532
0.880957
0.707507
0.522733
0.625849
0.547767
0.608563
0.487566
0.492930
0.467896
0.487566
0.480413
0.418425
0.290871
0.453591
0.311732
0.484586
0.391603
0.375509
0.339746
0.389814
0.441670
0.300407
0.497699
0.513792
0.383854
0.411868
0.458956
0.489950
0.513792
0.431538
0.529885
0.718832
0.595450
0.684857
0.623465
0.641942
0.690818
0.668764
0.770688
1.213551
4.902482
17.444491
59.395432
111.740828
208.974481
310.117006
450.434685
534.728765
591.909885
578.755736
492.781997
390.122533
244.918466
153.315663
68.290830
33.078790
10.636449
##ZVALUE=400
0.494719
0.363588
0.259876
0.256896
0.276566
0.032783
0.242591
0.058413
0.056624
0.168681
0.179410
0.242591
0.091791
0.149608
0.271797
0.152588
0.203848
0.324845
0.336766
0.179410
0.133514
0.172853
-0.001788
0.235438
0.392795
0.286698
0.550747
0.518560
0.582933
0.441670
0.490546
0.639558
0.651479
0.840425
0.806451
0.765920
0.842810
0.853539
0.701547
0.726581
0.657439
0.741482
0.719428
0.681877
0.673532
0.683665
0.640750
0.490546
0.584722
0.629425
0.516772
0.528693
0.389814
0.401735
0.518560
0.529885
0.363588
0.308752
0.400543
0.365973
0.373721
0.405908
0.338554
0.335574
0.337958
0.568628
0.491738
0.476837
0.602603
0.574589
0.506639
0.718832
0.680685
0.622869
0.692606
0.685453
0.540614
0.750422
0.790954
0.810623
0.942945
2.007484
9.992719
28.631687
80.006719
145.613551
268.696547
370.633006
496.810675
556.165576
568.947792
523.397923
409.682989
304.610729
177.145600
106.316805
##END
