##TITLE=13-3
##FORMAT=SPECTACLE-ASCII V-1.2
##DATA TYPE=ULTRAVIOLET SPECTRUM
##SECOND TYPE=ULTRAVIOLET SPECTRUM
##DATE=04/09/18
##TIME=11:16:48
##SPECTROMETER/DATA SYSTEM=SPECTACLE
##XUNITS=NM EM
##YUNITS=ENERGY
##YFACTOR=1
##FIRSTX=220
##LASTX=450
##NPOINTS=116
##3DDATA=Equidistant
##ZUNITS=NM EX
##FIRSTZ=210
##LASTZ=400
##ZPOINTS=39
##XYDATA=(Y..Y)
##ZVALUE=210
27.490854
24.546981
17.474890
15.626550
12.301803
12.171865
10.906458
9.853840
8.317828
6.078482
5.620718
4.965663
4.086494
4.377961
3.564954
4.576445
4.904866
5.133748
5.108714
6.014705
5.445480
6.672740
6.401539
8.129478
7.321835
9.091496
9.386539
10.172725
10.389686
10.214448
11.283755
11.082888
12.745857
11.825562
12.505651
13.964772
13.587475
13.836622
13.111830
13.961792
13.164878
14.402866
15.370846
15.242696
14.380813
13.972521
14.763474
14.566779
15.310645
14.933944
15.435815
15.422702
16.174912
15.893579
15.478730
16.194582
16.247630
15.860796
15.128851
15.289783
16.556978
15.663505
14.568567
16.406775
15.707612
17.383695
16.772747
18.488765
20.272732
24.297833
29.651523
32.141805
39.147735
42.607784
45.225620
47.147870
49.677491
50.973892
47.890544
44.218898
41.768551
39.001703
32.901764
29.873848
25.754571
22.200942
18.215775
17.335415
16.008615
17.489791
22.038817
25.961995
34.560561
43.078661
57.368875
64.951777
81.665516
88.120699
99.985003
102.474689
111.943483
108.253956
106.864572
102.032423
93.784928
86.949468
82.348585
73.114634
64.654946
52.781701
46.058893
36.197901
31.168461
25.003552
23.134947
19.610524
##ZVALUE=215
81.905723
76.894760
59.927702
47.016740
33.320785
23.989677
21.334887
18.196702
15.235543
15.461445
11.379719
9.768605
7.784963
6.172657
5.210638
4.917979
5.013943
4.836917
4.872680
5.349517
5.585551
5.334616
6.341934
7.809997
7.011890
9.047985
7.544756
9.474754
9.397864
9.374619
11.379719
11.034608
12.017488
12.578964
13.018847
13.990998
13.465881
14.828444
14.587641
14.775991
14.065504
14.699697
15.376806
15.703440
16.522408
16.352534
15.133619
15.978813
15.805960
16.230941
15.591979
16.334653
17.132759
17.342567
15.220642
17.881989
18.706918
16.743541
16.124845
17.137527
17.507672
16.836524
15.935898
15.324950
15.948415
17.318726
17.089844
19.187927
19.697547
22.797585
25.662780
28.682947
32.971501
35.196543
40.827990
41.317940
42.703748
41.236877
40.839911
37.046671
36.607981
30.909777
28.294921
23.320913
21.638870
19.780993
15.611649
13.126731
14.104843
12.439489
12.606978
12.475848
12.955666
14.913678
19.050837
21.974444
32.723546
40.201545
54.790974
65.961480
85.633993
100.389719
114.626884
125.383735
138.526559
140.567422
147.803426
143.713951
141.576529
132.633448
128.481984
118.182898
108.731985
88.020563
75.033903
62.697530
##ZVALUE=220
158.104897
158.721805
159.468651
144.224763
120.630860
89.984536
67.947507
42.251945
35.703778
27.747750
26.647449
26.611686
22.269487
18.805861
14.406443
11.909604
8.775592
6.429553
6.486773
5.993843
5.959868
6.852746
6.509423
6.844997
7.201433
8.852482
9.417534
7.594824
10.136962
10.973811
10.756850
11.297464
13.145804
13.697743
13.299584
14.025569
15.465617
14.684796
15.335679
15.544891
15.730858
17.562509
15.819669
15.097857
16.063452
16.462803
16.677976
17.230511
17.570853
18.445849
17.184615
18.050671
18.805861
18.991828
19.838810
16.647577
19.762516
18.772483
18.517971
18.529892
19.418597
19.627810
18.181801
17.063618
16.723871
17.668605
17.808676
17.812848
19.658804
22.516847
26.155710
25.739670
30.544996
32.004714
36.323667
38.414598
37.778616
37.074685
34.724474
33.778548
32.397509
26.791692
24.508834
23.136735
20.905733
19.653440
13.685822
14.292598
13.227463
11.804700
12.572408
13.007522
11.730790
11.116862
11.150837
11.367798
12.152791
11.269450
14.676452
18.615723
25.715828
34.862757
52.840710
65.823793
90.748668
110.153556
138.945580
165.911913
180.467963
197.311640
209.640861
226.874948
222.836733
219.728947
216.293931
199.507475
##ZVALUE=225
208.895802
208.127499
260.579586
288.062692
285.406709
267.416835
224.102736
178.131461
115.804672
82.071424
53.846836
42.242408
41.555762
39.309859
37.771463
34.235716
27.072430
23.118854
19.004941
12.432933
9.217858
7.564425
7.842779
7.927418
8.550882
8.212924
8.887649
10.289550
10.219812
10.862947
11.597872
12.124777
13.123751
13.338923
14.205575
15.226603
15.977621
16.743541
15.755892
17.175674
18.209815
19.315481
19.290447
19.877553
19.549727
19.966960
20.863414
20.038486
18.978715
20.690560
20.916462
21.424890
20.630956
21.352768
21.362901
20.164847
20.406842
21.073818
20.034909
20.607710
19.544959
20.340681
19.840598
19.911528
19.212961
19.796491
19.255877
21.128654
22.662878
22.829771
25.488734
27.139783
30.642748
31.392574
33.747554
34.801960
33.026934
32.503605
31.241775
30.042529
26.896596
24.636984
23.174882
21.024942
15.882850
15.936494
15.810728
15.305877
13.309717
14.146566
12.864470
12.540817
11.986494
12.514591
12.081861
10.958910
12.202859
11.817813
12.132525
11.974573
11.975765
12.349486
13.883710
16.470551
23.758411
37.093759
51.837564
75.374842
98.028779
133.029819
159.619451
200.398564
235.717893
279.496908
303.874612
327.895880
##ZVALUE=230
136.765838
148.632526
233.075619
322.341919
407.748818
486.357808
494.715571
470.526814
403.879881
303.601623
220.226645
134.130716
94.918609
66.602826
61.406493
64.590573
64.694881
58.124661
51.295757
39.900541
31.741858
23.555756
15.535951
10.903478
8.797646
9.287000
9.003878
9.978414
9.779930
9.808540
12.164712
12.163520
13.875961
13.449788
13.601780
14.552474
16.190410
16.040802
16.431808
17.276406
19.331574
19.857883
18.613935
20.215511
20.905733
20.823479
20.447969
20.008683
20.992756
21.369457
21.614432
20.432472
21.659732
21.903515
22.153854
22.411942
21.957755
20.873547
22.892952
21.955967
22.523999
21.229982
21.559596
21.309853
22.197962
22.270679
21.332502
21.859407
25.737882
25.811791
28.774738
30.230880
34.596920
35.230517
35.405755
35.241842
33.838749
33.352971
30.225515
28.096437
25.981665
21.960735
21.353960
18.654466
17.678738
15.568733
15.652776
14.243722
14.639497
15.007854
13.308525
14.836788
13.811588
12.781620
12.558699
13.449788
13.192892
12.215972
14.169812
12.225509
11.191964
12.024641
12.831688
12.623668
11.429787
13.136864
12.275577
13.184547
19.239783
26.473999
39.819479
65.062642
91.928840
136.878490
180.348754
241.991878
##ZVALUE=235
39.860606
42.286515
108.648539
187.780857
294.615626
472.119451
625.603795
767.634511
816.691518
799.213648
706.604719
527.590513
384.271741
228.328705
157.541633
105.348825
90.839863
85.289478
90.101957
89.883804
81.745982
68.202615
59.825778
39.331913
29.965639
20.018816
16.307831
13.252497
12.224913
12.665987
12.175441
12.613535
11.835694
13.473630
13.932586
16.406775
16.009808
15.805960
17.350912
18.602610
17.525554
19.012690
18.780828
18.358827
18.932819
19.641519
19.300580
19.389987
20.071864
19.852519
19.676685
20.106435
18.716455
20.361543
22.260547
21.603703
21.210909
21.290779
19.454956
20.671487
20.571947
22.496581
20.972490
19.580722
20.742416
22.404790
21.186471
20.059943
22.241473
24.500489
26.879907
26.780963
31.572580
32.280684
32.148957
34.230947
33.682585
30.936599
29.869676
29.362440
24.023652
24.053454
21.919608
20.268559
18.746853
17.041564
15.410781
15.549660
15.866756
14.904737
14.230609
15.163422
14.911890
15.721917
13.505816
15.612841
13.629794
12.749434
14.402866
12.339950
14.410615
13.006926
13.562441
13.181567
12.730956
11.949539
14.130473
13.049841
12.158751
12.971759
13.199449
13.596416
15.169978
18.480420
27.897954
53.556561
##ZVALUE=240
3.018975
3.528595
14.073849
38.432479
92.239976
215.002894
351.779461
609.603524
815.460682
1010.339856
1015.669703
1015.669703
1012.108922
831.280947
647.230744
403.849483
267.864466
157.084465
122.137666
108.805895
116.725564
120.044947
117.632747
101.478696
87.771416
64.712763
50.150752
34.410954
24.734735
17.812848
15.093684
14.367700
13.969541
14.449954
14.412999
13.660789
15.596747
16.724467
16.193986
15.458465
17.297864
17.892718
18.363595
18.157959
18.261671
19.537807
19.462705
19.305944
18.902421
19.391775
18.622875
18.926859
18.458962
19.737482
19.327998
17.732978
18.527508
18.026829
19.400716
19.867420
18.217564
18.938780
18.310547
17.726421
19.246936
18.815994
20.101666
19.947886
21.690726
26.848912
26.527643
27.939677
32.702684
32.196641
33.675432
33.600926
31.057000
30.741692
26.961565
26.266575
26.488900
23.186803
21.139979
20.278692
17.714500
17.815828
16.857982
16.112924
15.658736
15.879869
14.454722
14.824867
14.324784
14.629960
14.166832
15.186667
14.102459
15.133619
13.203621
14.526844
13.280511
15.544891
14.195442
14.178753
15.449524
14.631748
13.540983
13.011694
13.112426
12.815595
13.245940
13.314486
14.319420
13.270974
13.695955
13.522506
##ZVALUE=245
2.450943
2.837777
2.423525
3.521442
6.041527
26.623607
70.028901
188.264847
340.638757
600.422621
855.748653
1015.669703
1015.669703
1015.669703
1015.669703
1015.669703
871.726871
574.334860
385.733843
211.891532
146.558881
114.716887
115.561485
129.273534
128.046870
125.855803
117.235780
93.038678
74.991584
58.559775
38.935542
29.151440
18.694997
15.752912
14.366508
13.364553
12.804866
13.947487
13.429523
13.925433
13.677478
15.317798
15.571713
16.120672
16.374588
16.549826
16.645789
16.323924
17.143488
16.188622
16.348958
15.891790
16.108751
16.500950
15.775561
16.275644
17.422438
14.975667
16.039610
15.165806
17.170906
16.321540
17.040968
16.006827
17.522573
17.702579
17.528534
16.921759
18.081665
20.828843
22.087693
24.984479
25.147796
25.561452
28.480887
27.037859
25.463700
24.555922
23.084879
21.838546
21.010637
17.547607
17.272830
16.325712
14.995933
14.248490
13.801455
13.943911
13.155937
13.146996
13.069510
12.798905
13.829470
12.690425
13.354421
12.621880
12.660623
12.226701
12.237430
13.613701
11.552572
11.696815
11.818409
12.438893
11.702776
11.135936
10.935664
11.614561
11.883974
11.970997
11.345744
10.756850
11.654496
12.125969
10.481477
11.597872
##ZVALUE=250
1.997948
2.143979
2.465844
2.797842
2.914667
2.883673
4.119873
17.766953
52.184463
146.909952
288.851857
564.523935
836.043954
1015.669703
1015.669703
1015.669703
1015.669703
1015.669703
1015.669703
787.841082
548.182726
300.869942
181.926489
112.016797
108.140707
124.248862
131.145716
137.821436
136.084557
122.711658
103.019476
85.459948
58.399439
41.172504
26.394725
20.542741
16.369820
13.659000
14.024973
13.103485
15.896559
14.441609
15.372634
15.257597
14.977455
15.765429
15.526414
15.132427
15.216470
14.720559
14.760494
15.592575
15.698671
14.476776
14.716983
15.521646
13.896823
14.458895
14.753938
13.456941
14.505982
14.902949
13.902783
15.052557
14.212728
15.197992
14.460683
15.253425
16.844869
17.327666
18.290877
18.805861
21.441579
22.946000
21.898746
22.122860
21.541715
20.826459
17.729998
18.552542
18.390417
15.333891
13.337731
13.027787
11.859536
12.244582
11.732578
11.441708
11.763573
11.832714
11.067986
10.957718
10.958910
10.681748
10.744929
10.730624
10.709763
10.586977
10.002851
10.471940
10.460615
9.668469
10.256767
10.180473
9.243488
9.733438
10.268688
10.595918
10.199547
9.585619
9.610653
11.056662
10.508895
10.887980
9.568930
9.972453
##ZVALUE=255
2.032518
2.158880
2.354980
2.323985
2.329946
2.524853
2.683997
2.629757
3.369451
9.332895
32.564998
113.910437
238.429904
504.239798
758.316517
1015.669703
1015.669703
1015.669703
1015.669703
1015.669703
1015.669703
999.833941
729.562044
404.638052
236.783624
126.498938
102.848411
103.558898
124.761462
138.761997
146.943927
144.156814
131.369829
112.029910
83.113909
62.681437
41.678548
30.828714
19.768476
17.711520
15.005469
14.753938
15.841722
15.852451
14.966726
15.026927
16.074777
15.542507
14.818907
15.425682
16.226768
14.825463
15.879869
15.014410
15.778542
15.710592
15.004873
14.684796
15.121698
14.350414
13.951659
14.143586
14.146566
13.934970
13.775826
14.855862
13.986826
15.030503
16.057491
16.314983
17.925501
19.324422
18.717647
20.810962
19.078851
20.458698
18.344522
18.475652
15.707612
16.244650
14.968514
14.095902
12.448430
12.303591
10.888577
11.216998
10.883808
10.387897
10.329485
9.802580
10.346770
10.000467
9.793639
9.560585
9.658933
10.162592
9.664893
8.974671
9.001493
9.674430
9.277463
9.514689
8.577704
9.457469
9.387732
9.165406
9.586811
9.289980
8.772612
9.615421
9.029508
8.523464
9.062886
9.509921
9.230971
8.913875
##ZVALUE=260
1.872778
1.902580
2.185702
2.008677
2.236962
2.102852
2.682805
2.638698
2.766848
3.022552
3.124475
4.739761
16.815662
72.580576
158.549547
383.781791
630.923510
1000.120640
1015.669703
1015.669703
1015.669703
1015.669703
1015.669703
1015.669703
966.605544
680.618882
379.758477
216.923952
109.824538
93.619823
105.758905
125.618577
146.255493
154.307485
149.427652
135.850906
110.123754
87.759495
63.795447
47.318935
32.829642
25.668740
18.953681
18.036962
18.203855
17.548800
17.105937
17.569661
17.588735
17.381907
17.685890
17.016530
16.761422
16.266704
16.094446
15.613437
16.687512
15.374422
15.504956
15.169978
14.838576
14.605522
14.958978
14.333725
14.294982
14.419556
14.479756
14.689565
14.168620
15.084743
16.238689
16.971827
17.826557
18.314719
18.073916
17.305613
17.781854
16.831756
14.806986
14.230609
12.351871
11.893511
11.199713
10.178685
10.584593
9.909868
9.974837
9.093881
9.531975
8.998513
9.507537
8.663535
8.817911
9.285808
8.632541
7.676482
7.368922
8.972883
8.087754
8.272529
8.395910
7.878542
8.457899
8.230805
8.226633
8.065701
8.140802
8.452535
7.901788
8.111596
8.331537
8.525848
8.095503
7.774830
8.816719
7.829666
##ZVALUE=265
1.991987
1.758933
1.950860
1.965761
2.035499
2.107620
2.480745
2.415776
2.253652
2.677441
2.646446
2.967715
2.879500
3.675818
9.166002
44.497848
113.447905
303.924680
534.909964
973.401666
1015.669703
1015.669703
1015.669703
1015.669703
1015.669703
1015.669703
1015.669703
915.795565
504.834652
295.782685
141.673684
90.110898
90.716481
110.616684
135.798454
150.746703
159.119964
154.468417
139.169693
120.234489
89.912415
70.500970
49.290657
36.548972
27.804971
22.896528
20.365715
20.661950
20.449758
19.190907
19.872785
19.779801
19.088984
19.394755
19.246936
18.343925
17.983913
18.279552
17.571449
17.241836
16.030669
16.333461
16.136765
15.576482
15.524626
15.717745
15.755892
15.634894
14.916658
15.329719
16.334653
16.228557
17.730594
17.973781
17.792583
17.424822
16.691685
14.753938
14.184713
13.903975
12.400746
11.754632
11.266470
10.872483
9.965897
9.637475
9.522438
9.555817
8.567572
8.389950
8.559823
8.565784
8.229613
8.238554
8.201599
7.519722
8.391738
7.594824
8.227825
7.572770
8.472800
8.284450
7.527471
7.736683
7.761717
8.081794
8.059740
7.773638
7.987618
8.035898
7.997751
7.360578
7.969737
7.277727
7.184744
7.360578
##ZVALUE=270
1.702905
1.655817
1.724958
1.835823
1.941919
1.894832
2.034903
2.158880
2.040863
2.138615
2.096891
2.620816
2.612472
2.639890
3.172755
3.243685
4.543662
21.077991
63.019395
212.647915
416.424870
828.417540
1015.669703
1015.669703
1015.669703
1015.669703
1015.669703
1015.669703
1015.669703
1015.669703
734.665990
449.637771
207.879543
109.239817
75.016618
87.611675
117.643476
140.933990
159.807801
165.939927
161.408782
148.254633
121.701956
99.742413
72.946548
56.238770
38.276911
31.828880
25.233626
23.220778
22.855997
21.656752
21.575689
20.885468
20.679832
20.317435
19.524693
20.186901
19.084811
18.655658
18.563867
17.584562
17.303824
17.363429
16.632676
16.718507
16.167760
15.986562
16.193986
16.046762
16.711950
16.638637
18.273592
18.060803
16.563535
16.389489
16.364455
15.544891
14.290810
13.510585
12.311935
11.363626
10.612607
10.427833
9.866953
9.232759
8.961558
8.689761
8.176565
8.460879
8.641481
8.629560
8.232594
8.315444
7.972717
8.155704
7.693768
7.492900
8.039474
7.446408
7.415414
7.096529
7.313490
7.065535
7.557869
7.368922
7.700920
7.220507
7.322431
7.278919
7.117987
7.013679
6.870627
6.713867
6.810427
6.801486
##ZVALUE=275
1.713634
1.632571
1.619458
1.744628
1.805425
1.723766
1.738667
1.932979
1.899600
2.050996
2.057552
1.838803
2.046824
2.097487
2.301931
2.384782
2.613664
3.167987
3.451705
10.151863
37.461519
143.738985
314.564705
694.835782
1015.669703
1015.669703
1015.669703
1015.669703
1015.669703
1015.669703
1015.669703
1015.669703
959.228873
599.560738
283.465981
148.253441
74.571967
69.086552
94.744563
115.709901
144.473910
156.246424
164.756775
163.787603
146.343708
125.087500
98.089576
78.371763
54.682493
42.438507
31.493902
26.890635
23.190975
23.039579
21.989942
21.331906
20.695925
21.019578
20.703673
19.820929
18.999577
19.078851
17.878413
17.954707
18.157959
17.106533
16.669631
16.429424
16.295910
16.443729
16.302466
17.004609
16.708970
17.240644
16.670823
16.809702
15.807748
14.830828
13.973713
13.083816
12.617707
11.478662
11.263490
10.263920
9.783506
9.679794
9.144545
8.851886
9.034872
8.274913
8.348823
8.522868
8.035898
8.148551
7.764697
7.314682
7.160902
7.839799
7.284880
7.755756
6.861687
7.647872
7.313490
7.265806
7.270575
7.303953
7.015467
6.878972
7.263422
6.770492
7.155538
7.357597
6.719828
6.566644
6.536841
6.524920
##ZVALUE=280
1.509786
1.497865
1.606941
1.655817
1.706481
1.774430
1.789927
1.669526
1.741648
2.026558
2.031922
1.928806
1.957417
1.836419
2.374649
2.169609
2.243519
2.390742
2.856851
3.282428
3.694892
6.208420
22.497773
105.657578
243.945718
557.441711
892.129540
1015.669703
1015.669703
1015.669703
1015.669703
1015.669703
1015.669703
1015.669703
1015.669703
817.924738
407.685041
208.461881
85.910559
59.775710
69.949627
89.221597
116.968751
139.286518
156.220794
162.168741
156.834722
145.564675
117.204785
96.025467
72.264671
54.844618
37.267804
28.996468
23.732781
21.405816
19.654632
19.293427
18.579960
19.009709
18.007755
18.080473
17.947555
17.609000
16.930699
16.857982
16.481876
15.998483
15.887618
15.625954
16.415715
16.433597
16.903877
16.625524
16.643405
16.117692
15.152693
14.695525
12.865663
12.805462
11.939406
11.898875
11.160970
10.818839
9.531975
9.474754
9.329915
9.223819
8.674860
8.660555
8.482933
7.937551
7.971525
7.971525
7.647872
7.801652
7.530451
7.416606
7.481575
7.213950
7.310510
7.248521
7.420778
7.210970
6.775856
7.074475
7.085800
6.946921
6.912947
7.015467
7.035732
6.667972
6.591678
6.853938
6.641746
6.208420
##ZVALUE=285
1.325607
1.400709
1.541972
1.546741
1.549721
1.631975
1.611710
1.825690
1.716614
1.856685
1.703501
1.815557
1.704693
1.966953
1.964569
1.953840
2.239943
2.037883
2.256632
2.560616
2.745986
3.356934
3.573895
4.133582
11.730790
42.956471
151.465535
319.211483
689.050555
1015.669703
1015.669703
1015.669703
1015.669703
1015.669703
1015.669703
1015.669703
1015.669703
1015.669703
618.554950
343.146920
132.222772
65.413713
47.282577
59.098601
84.472895
106.423497
131.598711
145.925879
154.424906
149.263740
135.194659
118.152499
90.258718
71.697831
49.037933
36.944747
25.200844
20.818710
17.754436
16.481876
16.563535
16.040802
15.287995
15.403628
15.595555
14.670491
15.050769
15.318990
15.188456
14.673471
15.193820
15.900731
15.524626
15.322566
15.507936
14.989972
15.186667
14.092922
12.832880
11.993647
11.088848
10.513663
10.851622
10.218620
9.755492
9.555817
9.016991
8.561611
8.468628
8.770823
8.437634
8.046627
7.710457
7.962584
7.753968
7.637739
7.618666
7.297993
7.613897
7.357597
6.716847
7.010698
6.841421
6.842613
6.987453
6.945729
7.351637
6.868839
6.516576
6.821752
6.688833
6.668568
6.655455
6.125569
6.366968
6.306767
##ZVALUE=290
1.426935
1.367927
1.356602
1.401901
1.529455
1.422763
1.350641
1.455545
1.584888
1.530647
1.709461
1.610518
1.736879
1.609921
1.832843
1.937747
1.953840
2.019405
1.849532
2.188683
2.138615
2.351999
2.683997
3.272891
3.276467
3.765821
5.411506
18.240809
91.108680
212.103724
491.827726
821.927786
1015.669703
1015.669703
1015.669703
1015.669703
1015.669703
1015.669703
1015.669703
1015.669703
828.222632
480.853915
197.508931
87.962747
38.133860
37.779808
54.842830
72.934628
99.470615
119.115710
137.141943
143.978000
142.256618
130.701661
110.523701
89.823604
62.288642
47.222972
31.009912
22.678971
16.117692
14.514923
12.956858
13.130903
12.188554
12.258887
12.628436
12.374520
12.566447
12.803674
13.391972
13.464689
13.515949
12.913942
13.009906
12.449622
12.024641
11.780858
10.570884
10.706782
10.440946
9.733438
9.496808
9.084940
9.069443
8.834600
8.947849
8.621812
8.634925
8.372664
7.949471
7.966757
7.736683
7.922649
7.310510
6.877780
7.130504
7.488728
6.983876
6.950498
7.502437
6.946921
6.854534
7.014871
6.822944
7.375479
6.501675
6.658435
6.474853
7.020831
6.435513
6.345510
6.662607
6.642938
6.318688
6.250739
##ZVALUE=295
1.254678
1.367927
1.373887
1.406670
1.399517
1.352429
1.334548
1.416802
1.449585
1.336932
1.398921
1.679659
1.634955
1.701713
1.653433
1.664758
1.595616
1.780987
1.793504
1.893640
2.038479
2.251863
2.387762
2.464652
2.631545
2.952814
3.164411
3.429651
4.104972
6.879568
39.805770
117.898583
344.262719
647.521019
1015.669703
1015.669703
1015.669703
1015.669703
1015.669703
1015.669703
1015.669703
1015.669703
1001.654863
654.991865
287.503600
134.646893
43.771863
26.740432
34.350753
47.658682
70.886612
87.961555
114.197731
127.371550
136.758685
135.613680
119.574666
105.334520
80.508590
62.309504
41.945577
29.860735
19.521713
14.661551
11.972785
10.965466
10.543466
10.729432
10.582805
10.952950
11.190772
11.311769
11.901855
12.304783
11.905432
11.394620
11.118650
10.849833
10.111928
9.651780
9.638667
9.322762
8.865595
8.842945
8.316636
8.478761
8.115768
7.920861
7.801652
7.958412
7.647872
7.201433
7.842779
7.268786
7.406473
7.359982
6.958842
6.980896
6.937981
7.194877
6.862879
6.865859
7.021427
6.797910
6.881952
6.819963
6.753802
6.744862
6.575584
6.927848
6.397963
7.282495
6.538630
6.278753
6.020665
5.720854
##ZVALUE=300
1.282692
1.317859
1.193881
1.283884
1.157522
1.158714
1.239777
1.431704
1.428723
1.379848
1.452565
1.176596
1.428723
1.502633
1.379848
1.578927
1.382828
1.538992
1.586676
1.783967
1.788735
1.917481
2.125502
2.346635
2.347827
2.444983
2.692938
2.670884
3.217459
3.188848
3.717542
4.171729
17.117858
63.656569
227.302909
458.210707
940.625668
1015.669703
1015.669703
1015.669703
1015.669703
1015.669703
1015.669703
1015.669703
1015.669703
841.895938
419.191718
219.847560
74.882507
30.483603
21.801591
28.660893
43.648481
59.513450
82.113743
101.159811
121.422410
127.808452
126.236677
118.903518
99.545717
81.444979
58.522820
43.447614
28.066635
19.544959
13.213754
11.557937
9.657741
9.961724
10.069609
9.819865
10.906458
10.777712
10.572672
10.441542
9.780526
9.705424
9.333491
9.147525
8.774996
8.587837
8.245707
8.556843
7.673502
8.092523
7.550716
7.696748
7.786751
7.361770
7.196665
7.247925
7.375479
7.159710
6.942749
7.486939
6.920695
7.148981
6.745458
6.878972
6.764531
6.849766
6.702542
6.900430
6.515980
6.959438
6.743670
6.479621
6.474853
6.662607
6.561875
6.564856
6.047487
5.952716
6.109476
6.002784
##ZVALUE=305
1.091957
1.185536
1.094937
1.278520
1.173615
1.176000
1.245737
1.130700
1.408458
1.330972
1.332760
1.319647
1.413822
1.396537
1.349449
1.423955
1.386404
1.424551
1.562834
1.449585
1.810789
2.037883
1.803637
1.713634
2.022982
2.172589
2.108812
2.055764
2.418756
2.647638
2.935529
3.071427
3.441572
3.950596
8.812547
32.287836
141.398907
325.488448
744.946599
1015.669703
1015.669703
1015.669703
1015.669703
1015.669703
1015.669703
1015.669703
1015.669703
973.009467
613.315701
332.782865
119.463801
47.790408
18.649697
19.339919
28.650761
39.423704
59.117675
76.666474
98.855495
111.597776
121.876001
119.929910
111.650825
96.619725
74.631572
57.813525
38.774610
27.687550
17.175674
13.122559
11.336803
10.352731
10.066628
9.810925
9.441972
9.309649
8.875728
8.679628
8.640885
8.626580
8.453727
7.768869
7.882714
7.816553
7.679462
7.505417
7.278919
7.551908
7.131696
7.125735
6.942749
6.666780
7.005930
6.861687
6.684661
6.500483
6.609559
6.337762
6.447434
6.759763
6.771684
6.711483
6.427765
6.356835
6.912947
6.543994
6.585717
6.412864
6.252527
6.696582
6.652474
6.129742
6.324649
6.246567
6.013513
5.879998
##ZVALUE=310
1.045465
1.078844
1.168847
1.060963
1.174808
1.103878
1.178980
1.176596
1.230836
1.146793
1.294613
1.173615
1.199841
1.205802
1.371503
1.383424
1.402497
1.349449
1.297593
1.383424
1.599789
1.695752
1.595616
1.768470
1.855493
1.823902
1.844764
1.782775
2.053976
2.266765
2.772808
2.488494
2.740622
2.947450
3.268719
3.393888
4.913807
13.941526
74.140429
184.818506
483.727455
847.810507
1015.669703
1015.669703
1015.669703
1015.669703
1015.669703
1015.669703
1015.669703
1015.669703
791.928768
464.612842
190.404654
83.087683
24.850965
15.266538
18.235445
23.516417
36.335588
48.781633
70.134997
87.246895
103.764534
113.137960
112.174749
108.409524
90.876818
75.577497
54.215789
39.896965
26.032925
18.977523
13.726950
11.141896
9.166598
8.825660
8.711815
8.072853
7.739663
7.465482
7.326603
7.211566
7.087588
7.122755
6.987453
7.091761
6.795526
7.072687
6.471872
6.677508
6.762743
6.715655
6.476641
6.465912
6.284714
6.266832
6.357431
6.592870
6.310940
6.151795
6.217957
6.339550
6.292462
6.389618
6.478429
6.501675
6.648898
6.298423
6.196499
6.273985
6.169677
6.479621
6.124973
5.714893
6.050467
6.041527
##ZVALUE=315
1.073480
0.965595
1.119971
0.993609
1.100898
1.064539
1.224875
1.142621
0.966787
1.173615
1.035929
1.172423
1.204610
1.164675
1.313686
1.257658
1.205802
1.363754
1.289845
1.404881
1.334548
1.343489
1.418591
1.544952
1.666546
1.695752
1.765490
1.920462
2.075434
2.105832
2.060533
2.348423
2.536774
2.566576
2.650619
2.698898
3.007650
3.399849
3.971457
6.694794
38.023591
110.401511
330.706835
624.058843
1015.669703
1015.669703
1015.669703
1015.669703
1015.669703
1015.669703
1015.669703
1015.669703
978.452563
622.915626
279.144645
127.128959
33.841729
15.318990
12.932420
15.871525
22.351742
31.437874
47.913790
62.628984
84.005594
95.799565
106.292963
107.827783
98.943710
87.988973
68.838000
54.411888
37.633777
26.734471
17.330647
13.084412
9.882450
7.903576
7.509589
7.081628
6.744862
6.565452
6.637573
6.194711
6.636977
6.420612
6.527901
6.417632
6.472468
6.257892
6.180406
6.443858
6.383657
6.116629
6.326437
6.133914
6.257892
6.076694
6.039739
5.968809
6.249547
5.910993
5.944967
5.743504
6.084442
6.117821
6.280541
6.195903
5.982518
5.902648
6.160736
5.975962
6.093979
5.687475
5.968809
5.704761
##ZVALUE=320
1.087785
1.019835
1.060963
1.307726
1.074672
1.082420
1.050830
1.109838
1.214743
1.137853
1.091957
1.035929
1.119971
1.124740
1.155734
1.275539
1.399517
1.247525
1.324415
1.117587
1.197457
1.338720
1.477599
1.386404
1.437664
1.581907
1.683831
1.624823
1.629591
1.785755
1.869798
1.900792
2.030730
2.152920
2.298951
2.477765
2.746582
2.692938
3.091693
3.447533
3.762841
4.180670
18.067956
62.557459
216.667652
444.380045
920.262933
1015.669703
1015.669703
1015.669703
1015.669703
1015.669703
1015.669703
1015.669703
1015.669703
836.420059
374.882817
189.054608
62.832832
24.162531
12.048483
11.949539
14.691949
19.191504
29.136539
41.882992
59.553981
73.754787
91.889501
98.988414
100.284815
95.836520
83.315969
69.572926
50.206780
37.389994
24.098754
16.770959
10.773540
8.586645
7.164478
6.491542
6.313920
6.114841
5.992651
5.926490
5.996823
5.831718
5.937815
6.104708
5.847812
5.860925
6.024837
5.835891
5.827546
6.086826
6.015897
6.036758
5.923510
5.659461
5.878806
5.581975
6.000996
5.921721
6.036758
6.183982
5.884767
6.066561
5.929470
5.926490
5.666614
5.801916
5.694628
5.516410
5.852580
5.658865
##ZVALUE=325
0.952482
0.948906
0.964999
0.943542
0.969768
1.030564
1.003742
0.988841
1.066923
1.083612
1.087785
1.184940
1.257658
1.074672
1.075864
1.135468
1.240969
1.295805
1.452565
1.282692
1.277924
1.156926
1.233816
1.354814
1.331568
1.326799
1.435876
1.491904
1.522899
1.680851
1.787543
1.823902
1.976490
1.810789
2.173781
2.027750
2.260804
2.254844
2.445579
2.542734
2.864599
3.031492
3.364682
3.858805
8.994937
35.617948
140.280724
307.153463
700.714588
1015.669703
1015.669703
1015.669703
1015.669703
1015.669703
1015.669703
1015.669703
1015.669703
975.570679
514.434576
276.054740
96.322894
35.279989
12.228489
10.200739
11.014938
13.317466
19.191504
26.870966
42.743683
57.008862
75.797439
86.376667
94.550848
95.755458
88.812709
78.304410
61.451793
47.178864
32.143593
22.051930
13.988614
9.912848
7.437468
6.763935
5.804896
5.763769
5.637407
5.670786
5.463958
5.606413
5.700588
5.639791
5.759597
5.767941
5.482435
5.905628
5.426407
5.477667
5.705953
5.576611
5.619526
5.735755
5.662441
5.749464
5.843639
5.834699
5.835891
6.015897
5.960464
5.988479
5.733967
5.511642
5.467534
5.558729
5.415678
5.232692
##ZVALUE=330
0.937581
0.942945
1.086593
1.000762
0.920892
0.887513
1.031756
0.918508
1.115799
0.969768
0.929832
1.202822
1.011491
1.068711
1.094937
0.981688
0.996590
1.147985
0.978708
1.070499
1.143813
1.238585
1.254678
1.214743
1.346469
1.363754
1.432896
1.336932
1.499653
1.554489
1.486540
1.467466
1.608729
1.574755
1.737475
1.673698
1.856685
1.952648
2.065897
2.065897
2.366900
2.427697
2.649426
2.968907
3.251433
3.646612
5.132556
15.281439
78.651905
202.596784
505.923033
856.210589
1015.669703
1015.669703
1015.669703
1015.669703
1015.669703
1015.669703
1015.669703
1015.669703
692.971945
385.552645
147.586465
60.069561
16.025901
10.228753
9.070635
9.831786
13.081431
17.667413
27.428865
37.874579
52.805543
65.986514
80.154538
87.299943
88.199973
83.474517
70.513487
57.739615
41.299462
30.996799
20.107627
14.218688
9.435415
7.233620
6.109476
5.665421
5.327463
5.154610
5.244613
5.310774
5.551577
5.432963
5.196929
5.456805
5.479455
5.417466
5.135536
5.487800
5.418658
5.576611
5.502701
5.608797
5.662441
5.816817
5.611777
5.728602
5.915761
5.672574
5.878806
5.520582
5.481839
5.404949
5.458593
5.127788
##ZVALUE=335
0.950694
0.897646
0.959635
0.896454
0.944734
0.972748
0.990629
1.057982
0.945926
0.925660
0.945926
1.033545
0.923872
1.005530
0.952482
1.077652
1.103878
1.098514
0.951886
0.975728
1.169443
1.191497
1.171827
1.190901
1.360774
1.260638
1.276731
1.246929
1.363754
1.391768
1.276731
1.308918
1.466870
1.446605
1.543760
1.538992
1.646876
1.842976
1.775622
1.991987
2.152920
2.017617
2.240539
2.262592
2.498627
2.664924
2.989769
3.080964
4.062653
7.126927
43.847561
123.310685
353.798866
638.464689
1015.669703
1015.669703
1015.669703
1015.669703
1015.669703
1015.669703
1015.669703
1015.669703
880.341530
522.933006
214.116573
92.436671
25.159717
11.110902
9.178519
9.020567
10.076761
12.022853
17.514825
23.650527
35.905838
47.061443
62.465668
72.525740
81.177950
81.916451
75.013638
66.144466
52.531958
42.397976
29.260516
21.016598
13.513565
9.921789
7.301569
6.167889
5.338788
5.261898
5.162954
5.343556
5.208850
5.238652
5.259514
5.396605
5.152822
4.994869
5.125999
5.370975
5.228519
5.514622
5.460978
5.421638
5.632639
5.434752
5.570650
5.708933
5.640984
5.623698
5.247593
5.191565
5.326867
5.247593
##ZVALUE=340
0.924468
0.919700
0.932813
1.009703
0.978708
0.926852
1.069903
0.881553
1.066923
0.987649
0.941753
0.969768
0.922680
1.000762
1.106858
1.010895
0.979900
1.022816
1.226664
1.047850
0.797510
1.250505
1.176000
1.123548
1.109838
1.249909
1.145601
1.109838
1.310706
1.349449
1.408458
1.293421
1.182556
1.395941
1.393557
1.409650
1.752973
1.664758
1.625419
1.597404
1.675487
1.745820
1.793504
2.013445
2.197623
2.312660
2.624989
2.512932
2.899766
3.018975
3.560781
4.480481
22.115707
74.725747
244.444013
489.100814
974.153876
1015.669703
1015.669703
1015.669703
1015.669703
1015.669703
1015.669703
1015.669703
995.607376
649.147034
285.588503
130.760670
34.029484
12.840629
8.703470
8.627772
8.394718
9.295940
11.299849
15.016794
23.537874
32.503605
47.219992
58.070421
69.293976
75.059533
75.943470
72.030425
62.194467
53.008795
39.358735
29.754639
20.143986
14.490485
9.440780
7.380843
6.057620
5.594492
5.417466
5.276799
5.128980
5.167723
5.112886
5.079508
5.234480
5.340576
5.264878
5.432963
5.582571
5.380511
5.270839
5.712509
5.586743
5.773902
5.641580
5.410910
5.420446
5.069971
5.075932
4.849434
##ZVALUE=345
0.965595
0.661612
0.776649
0.739694
0.798702
0.821948
0.990629
0.935793
0.912547
0.909567
0.932813
0.914931
0.800490
0.852942
0.985861
0.895858
0.936985
0.981688
1.037717
1.107454
1.098514
1.096725
1.095533
0.979900
0.991821
1.196861
1.212955
1.093745
1.093745
1.128912
1.140833
1.230836
1.197457
1.288652
1.469851
1.378655
1.341701
1.494884
1.395941
1.609921
1.693964
1.573563
1.784563
1.786947
1.880527
2.073646
2.034903
2.089739
2.309680
2.610683
2.698898
2.980828
3.398657
3.716946
9.215474
35.962462
149.782896
330.153704
734.638572
1015.669703
1015.669703
1015.669703
1015.669703
1015.669703
1015.669703
1015.669703
1015.669703
820.968747
367.290974
177.086592
57.593584
21.595955
9.774566
9.001493
8.264780
7.752776
8.135438
9.495616
14.100671
19.574761
31.078458
40.625930
52.596927
61.079860
68.170428
70.456862
66.903830
60.642958
49.165487
40.156841
28.755665
20.830631
13.565421
10.493994
7.810593
6.541610
5.768538
5.509853
5.130768
4.955530
5.012751
4.973412
5.113482
5.172491
5.165935
5.431771
5.452633
5.415678
5.588531
5.431771
5.111694
5.326867
5.159974
5.229712
5.066991
5.160570
##ZVALUE=350
0.946522
0.818968
0.982881
0.912547
0.882745
0.942945
1.059771
0.909567
0.954866
0.916719
0.799894
1.010895
0.877976
0.884533
0.868440
0.977516
0.939965
1.043677
1.051426
1.058578
1.109838
1.006722
1.071692
1.062751
1.071692
1.209974
1.207590
1.158714
1.122952
1.105666
1.190901
0.993609
1.289845
1.346469
1.290441
1.312494
1.337528
1.403689
1.529455
1.392961
1.370907
1.469851
1.613498
1.523495
1.722574
1.803637
1.835823
1.864433
1.972914
1.972914
2.225637
2.362728
2.697706
2.804995
3.164411
3.572702
5.420446
18.363595
92.840791
219.457746
543.236732
920.838714
1015.669703
1015.669703
1015.669703
1015.669703
1015.669703
1015.669703
1015.669703
956.789851
493.002534
253.140926
80.543756
29.292703
10.958910
8.554459
7.643700
6.980896
6.677508
7.349849
9.130836
12.348890
19.022822
25.125742
36.534667
45.275688
56.442618
62.015653
64.898729
63.365698
56.360960
48.263669
37.150979
29.060841
20.018816
15.023947
10.302663
8.225441
6.634593
5.731583
5.472898
5.230904
5.274415
5.337596
5.311966
5.651712
5.939603
5.616546
5.525947
5.644560
5.445480
5.283952
5.116463
5.092621
5.067587
4.831553
##ZVALUE=355
0.889897
0.837445
0.844598
0.971556
0.861883
0.981688
1.029968
0.840425
1.059771
0.857711
0.975728
1.023412
0.953674
0.971556
0.803471
1.217723
1.000762
1.203418
1.247525
1.233816
1.159906
1.095533
1.114607
1.076460
1.055598
1.217723
1.012683
1.098514
1.157522
1.168847
1.109838
1.336932
1.352429
1.359582
1.333952
1.297593
1.261830
1.367927
1.485944
1.426935
1.515746
1.291633
1.341701
1.482964
1.497865
1.781583
1.541972
1.783967
1.808405
1.952648
2.012849
2.107620
2.284646
2.357960
2.648830
2.759695
3.139973
3.364682
4.163980
8.384585
48.921704
142.940879
398.574471
701.820850
1015.669703
1015.669703
1015.669703
1015.669703
1015.669703
1015.669703
1015.669703
1015.669703
638.294816
336.449742
122.620463
46.486855
12.425780
8.296967
7.256866
6.804466
6.469488
6.461740
7.034540
7.992983
11.136532
15.098453
23.280978
30.602813
41.562915
49.424767
56.686997
59.466958
58.355927
53.592920
45.164824
38.515925
28.148890
21.915436
14.953613
11.237860
7.881522
6.738901
5.991459
5.895495
5.789995
5.742908
5.838871
5.863905
5.708933
5.504489
5.480647
5.394816
5.312562
5.092621
5.054474
4.786849
##ZVALUE=360
0.851750
0.825524
0.775456
1.023412
0.951886
0.967979
1.062751
0.776649
1.055598
1.029968
1.066923
1.163483
1.049638
0.996590
1.126528
1.024604
1.061559
0.920892
1.085997
0.898838
0.983477
0.962615
1.154542
1.246929
1.119971
1.106858
1.119971
1.182556
1.211762
1.305938
1.169443
1.329780
1.388788
1.343489
1.371503
1.346469
1.511574
1.277924
1.401901
1.460910
1.340508
1.363754
1.456738
1.490712
1.565814
1.512766
1.696944
1.683831
1.789927
1.795888
1.926422
2.084970
2.125502
2.389550
2.379417
2.558827
2.369881
2.732873
3.015995
3.356934
3.814697
4.789829
22.706985
72.944760
240.696669
476.793051
959.122777
1015.669703
1015.669703
1015.669703
1015.669703
1015.669703
1015.669703
1015.669703
872.114897
493.714809
182.932615
72.705746
17.936826
9.446740
7.543564
7.101893
6.412864
6.096959
6.061792
6.275773
7.192492
8.874536
13.474822
18.651485
27.033687
35.027862
44.003725
50.264001
54.004788
54.501891
50.802827
45.683980
37.095547
29.755831
21.256804
16.133785
11.869669
9.207726
7.352829
6.622672
6.028414
5.802512
5.850792
5.705953
5.555749
5.522966
5.343556
5.051494
4.735589
4.466772
##ZVALUE=365
0.960827
0.892878
0.926852
1.027584
0.896454
0.930429
0.839829
0.998974
0.842810
1.136661
0.969768
1.079440
0.992417
0.932813
1.117587
1.081824
1.000762
1.140833
0.989437
1.077652
1.222491
1.063943
1.102686
1.190901
1.087785
1.053810
1.237988
1.005530
1.219511
1.137853
1.062751
1.189709
1.236796
1.321435
1.368523
1.304746
1.310706
1.343489
1.391768
1.447797
1.391768
1.573563
1.336932
1.406670
1.526475
1.620650
1.634955
1.628995
1.786947
1.727939
1.879930
1.787543
2.032518
1.940727
1.992583
2.044439
2.278686
2.427697
2.605915
2.631545
2.992749
3.175735
3.824830
4.193783
9.822845
35.255551
148.326755
332.006812
780.394673
1015.669703
1015.669703
1015.669703
1015.669703
1015.669703
1015.669703
1015.669703
1004.973650
635.253787
261.941552
118.884444
33.735633
12.515783
7.753968
7.077456
6.402731
5.934834
5.799532
5.529523
5.666614
6.570816
8.606911
11.525750
17.290711
22.807717
31.763911
38.130879
45.422912
49.270988
50.720572
48.760772
43.736696
37.713647
29.944777
23.898482
16.737580
12.997985
9.698868
7.845759
6.919503
6.131530
5.882978
5.564690
4.987717
4.952550
4.794598
4.689693
##ZVALUE=370
0.924468
0.920892
0.881553
0.965595
0.888705
0.977516
0.847578
1.136661
0.978708
0.841618
1.004934
0.799894
0.975728
1.004934
0.922680
0.946522
0.867844
1.058578
1.037717
1.015663
0.874996
0.986457
1.016855
1.036525
1.170635
1.034737
1.075864
1.137853
1.128912
1.016855
1.176000
1.056790
1.213551
1.250505
1.215935
1.213551
1.285672
1.196861
1.312494
1.287460
1.361966
1.168847
1.405478
1.358986
1.372695
1.382828
1.386404
1.471639
1.418591
1.467466
1.515746
1.609921
1.656413
1.863837
1.875758
2.073646
2.039671
2.094507
2.035499
2.276897
2.339482
2.559423
2.837777
3.060699
3.463626
3.618002
5.642772
19.044876
97.481608
244.850516
602.955818
969.635844
1015.669703
1015.669703
1015.669703
1015.669703
1015.669703
1015.669703
1015.669703
845.216513
375.460982
181.398988
60.330629
21.682978
7.989407
6.914735
6.347895
5.908608
5.553961
5.797744
5.626678
6.039739
6.806850
8.396506
11.170506
14.951825
21.061897
26.893616
34.231544
40.393472
45.404434
47.425628
46.564937
43.784976
37.466884
31.350851
23.948550
17.124414
13.659596
9.940863
8.194447
6.685853
5.878806
5.252957
4.858971
4.486442
##ZVALUE=375
0.924468
0.842810
0.961423
0.891685
0.932813
0.816584
0.781417
0.870824
0.879765
0.938773
0.930429
0.865459
0.764728
0.847578
0.916719
0.965595
1.049638
0.955462
1.040697
1.023412
0.839829
0.932813
0.920892
0.998974
1.037717
1.023412
1.033545
1.141429
1.024604
1.204610
0.996590
1.034737
1.110435
1.092553
1.133680
1.165867
1.117587
1.244545
1.246929
1.129508
1.206994
1.217723
1.324415
1.249909
1.278520
1.357794
1.373887
1.275539
1.265407
1.433492
1.590848
1.487732
1.530647
1.702905
1.607537
1.594424
1.674891
1.723766
1.863837
1.760721
1.933575
1.956820
2.143979
2.224445
2.438426
2.385974
3.115535
3.381968
4.483461
9.997487
50.561428
140.435696
406.688452
736.242533
1015.669703
1015.669703
1015.669703
1015.669703
1015.669703
1015.669703
1015.669703
1015.669703
606.988668
327.593684
115.328431
44.170618
11.136532
6.888509
6.256700
6.215572
6.059408
6.152987
6.032586
6.190538
6.210804
6.658435
7.613897
9.139776
12.006760
16.246438
22.707582
29.230714
37.072897
41.933656
45.039654
45.325756
42.631626
36.518574
31.934977
26.253462
19.689798
15.434623
10.583997
8.302927
6.305575
5.309582
##ZVALUE=380
0.882745
0.843406
0.866652
0.797510
0.822544
0.863671
0.880957
0.807643
0.739694
0.857711
0.976920
0.884533
0.918508
0.796914
0.844598
0.780821
0.858903
0.906587
0.790954
0.983477
0.921488
0.870824
0.931621
1.090765
1.026988
1.166463
1.176596
1.072884
0.892878
0.842810
1.233816
1.023412
1.047850
0.991821
0.993609
1.227856
1.151562
1.165867
1.232624
1.350641
1.214743
1.069903
1.210570
1.143813
1.192689
1.311898
1.309514
1.325607
1.325607
1.335740
1.427531
1.393557
1.297593
1.420975
1.213551
1.429915
1.265407
1.492500
1.572967
1.732707
1.675487
1.626611
1.909733
1.837611
2.124906
2.118945
2.596974
2.809763
3.211498
3.503561
4.247427
6.228685
30.541420
93.302727
283.721685
538.061857
990.090966
1015.669703
1015.669703
1015.669703
1015.669703
1015.669703
1015.669703
1015.669703
806.683898
467.611551
179.713964
74.741840
17.958879
8.269548
6.717443
6.424785
6.450415
6.719828
6.304979
6.072521
5.928874
6.105900
5.877614
6.381869
8.053780
10.687709
15.826821
20.644665
27.616620
33.062696
38.960576
42.784810
43.029785
41.280985
37.860870
31.847954
26.438832
19.246936
14.948845
10.782480
##ZVALUE=385
0.815988
0.725985
0.812411
0.578761
0.664592
0.947714
0.839829
0.799894
0.905991
0.725985
0.824928
0.784993
0.835657
0.751615
0.830889
0.785589
0.865459
0.962615
0.887513
0.814795
0.833869
0.946522
0.938773
0.905991
1.052618
0.971556
0.968575
0.915527
0.912547
0.913739
0.969768
1.092553
1.160502
1.039505
1.014471
1.058578
1.124740
1.072884
1.142621
1.127720
1.387596
1.259446
1.107454
1.196861
1.039505
1.125932
1.304746
1.172423
1.270771
1.188517
1.319647
1.299977
1.185536
1.330972
1.340508
1.384616
1.326799
1.381636
1.360774
1.545548
1.673698
1.628995
1.638532
1.694560
1.772642
1.892447
1.969934
2.194643
2.558827
2.810955
3.066659
3.423691
3.793836
3.945827
12.793541
47.582984
184.926987
396.436453
843.439698
1015.669703
1015.669703
1015.669703
1015.669703
1015.669703
1015.669703
1015.669703
1015.669703
699.784756
312.613845
144.748688
40.856600
13.453960
7.041693
6.691813
6.243587
6.293654
5.740523
5.705953
5.233884
5.128980
5.067587
5.117655
5.603433
6.796718
9.334683
12.456775
17.798543
24.116635
29.048920
34.392476
37.295818
39.635897
39.170980
35.820603
31.513572
25.515556
##ZVALUE=390
0.845790
0.736713
0.838637
0.801682
0.660419
0.767708
0.797510
0.808835
0.767708
0.766516
0.767708
0.644922
0.705719
0.809431
0.697970
0.784993
0.821948
0.916719
0.780821
0.838637
0.921488
0.846982
0.794530
0.942945
1.073480
0.917912
1.007915
0.905991
0.901818
0.813603
0.860691
1.006722
1.088977
1.057982
1.010895
1.114607
1.155734
1.133680
1.288652
1.291633
1.130700
1.357794
1.214743
1.343489
1.164675
1.237988
0.987649
1.247525
1.269579
1.226664
1.320839
1.267791
1.232624
1.410842
1.237988
1.344681
1.363754
1.536608
1.493692
1.490712
1.409650
1.681447
1.547933
1.523495
1.674891
1.756549
1.891851
1.973510
2.446771
2.392530
2.777576
2.869964
3.072619
3.224611
3.181696
3.492832
6.849766
28.285980
129.216909
284.355879
637.767911
984.596610
1015.669703
1015.669703
1015.669703
1015.669703
1015.669703
1015.669703
1015.669703
937.374830
455.280542
230.791569
71.383715
23.761988
8.352995
6.922483
6.505847
6.099939
5.655885
5.418658
5.240440
5.375743
5.096793
4.986525
4.920959
5.362630
6.495714
8.391738
10.801554
15.026927
18.844604
24.526715
29.270649
34.359694
36.357641
36.444664
##ZVALUE=395
0.784993
0.788569
0.754595
0.654459
0.638962
0.675917
0.814795
0.673532
0.816584
0.676513
0.719428
0.733733
0.762939
0.785589
0.856519
0.744462
0.945926
0.752807
0.693798
0.763535
0.835657
0.773668
0.815988
0.842810
0.928640
0.899434
0.863671
0.877976
1.144409
0.975728
1.031756
1.130700
1.182556
1.080632
1.162887
1.139641
1.126528
1.313686
1.171827
1.326799
1.161695
1.406670
1.167655
1.266599
1.232624
1.350641
1.340508
1.408458
1.339912
1.360774
1.418591
1.393557
1.457930
1.415610
1.436472
1.278520
1.357794
1.259446
1.409650
1.510978
1.528859
1.515746
1.541972
1.629591
1.445413
1.671910
2.086759
1.959801
2.054572
2.356768
2.497435
2.489686
2.665520
2.724528
2.645850
2.817512
3.066659
3.333688
4.587770
13.885498
79.586506
200.361609
477.496982
799.591541
1015.669703
1015.669703
1015.669703
1015.669703
1015.669703
1015.669703
1015.669703
1015.669703
653.874874
352.936983
125.807524
48.763752
12.373924
7.151961
6.340742
6.156564
5.757809
5.867481
5.659461
5.676746
5.428791
5.214810
5.121827
5.341768
5.182624
5.822778
7.043481
9.419918
11.931658
16.834736
21.261573
27.143955
##ZVALUE=400
0.889897
0.858903
0.799894
0.839829
0.844598
0.829697
0.701547
0.818968
0.639558
0.772476
0.699759
0.839829
0.721812
0.830889
0.717640
0.848770
0.824928
0.665784
0.771880
0.826716
0.773668
0.910759
0.682473
0.921488
0.770688
0.809431
0.991821
1.109838
0.996590
0.960827
0.950694
0.973940
1.085997
1.141429
1.234412
1.110435
1.224875
1.192689
1.293421
1.244545
1.255870
1.354814
1.215935
1.256466
1.190901
1.301765
1.240969
1.354814
1.405478
1.443624
1.329780
1.134872
1.412630
1.338720
1.333952
1.338720
1.369715
1.457930
1.385808
1.439452
1.504421
1.562834
1.521707
1.469851
1.597404
1.615882
1.648664
1.898408
1.901984
2.074838
2.073646
2.190471
2.543926
2.422929
2.425909
2.457500
2.406836
2.634525
2.722740
3.121495
3.684759
6.983876
38.011670
109.413862
321.393013
595.338941
1015.669703
1015.669703
1015.669703
1015.669703
1015.669703
1015.669703
1015.669703
1015.669703
765.393972
452.655554
189.924836
82.776546
20.978451
8.484721
6.210804
5.750656
6.183982
5.966425
6.034970
6.144643
5.727410
5.716681
5.156994
5.051494
5.025864
4.934669
5.108714
6.090999
7.542968
10.515451
##END
