##TITLE=4-1
##FORMAT=SPECTACLE-ASCII V-1.2
##DATA TYPE=ULTRAVIOLET SPECTRUM
##SECOND TYPE=ULTRAVIOLET SPECTRUM
##DATE=04/09/18
##TIME=14:01:14
##SPECTROMETER/DATA SYSTEM=SPECTACLE
##XUNITS=NM EM
##YUNITS=ENERGY
##YFACTOR=1
##FIRSTX=220
##LASTX=450
##NPOINTS=116
##3DDATA=Equidistant
##ZUNITS=NM EX
##FIRSTZ=210
##LASTZ=400
##ZPOINTS=39
##XYDATA=(Y..Y)
##ZVALUE=210
15.406609
14.986992
13.278723
11.520982
10.466576
9.927750
10.921955
8.223653
7.609725
5.823970
4.188418
3.366470
3.283620
2.714992
2.773404
3.765821
3.157854
3.019571
3.065467
3.393888
3.902912
3.306866
3.684759
4.097819
4.677773
4.315972
4.537702
4.792809
4.675984
4.276633
4.960895
5.382895
5.140901
5.518794
4.966855
5.964637
6.030798
6.764531
6.336570
6.494522
7.069707
6.437898
6.186962
6.294847
6.573796
7.089972
7.336736
6.984472
7.606745
8.639693
7.394552
8.871555
7.908940
7.764697
7.927418
7.493496
9.324551
7.786751
7.817745
7.530451
8.031726
8.509755
7.224679
8.096695
7.916689
7.502437
8.151531
7.482767
8.736849
10.149479
10.694861
12.463927
12.527704
14.428496
15.440583
13.637543
15.083551
14.561415
14.840961
14.165640
13.331771
12.096763
10.424852
9.191632
8.520484
7.868409
7.552505
6.344914
7.834435
7.373691
9.590983
13.851523
15.964508
21.235943
26.964545
31.082630
37.091970
40.292740
43.730736
48.897862
51.935911
51.183701
48.857927
49.970746
46.594739
47.842860
43.525696
39.102435
37.623644
33.330917
25.792718
22.655725
18.601418
15.389919
13.771653
13.037920
##ZVALUE=215
39.330721
38.140416
30.112863
26.966929
22.818446
19.611716
16.540885
16.144514
16.199946
14.480948
12.290478
9.782910
7.542968
5.752444
4.429817
3.506541
3.539920
3.553629
3.356934
4.224777
3.461838
3.572702
4.777908
3.826618
4.435778
4.743934
3.951788
4.289746
4.988909
5.744696
5.180836
5.705953
5.383492
5.417466
6.542802
6.973743
6.458759
7.588863
7.046461
7.060766
7.125735
8.129478
8.079410
7.570982
8.426905
7.757545
8.431673
8.182526
9.175539
9.315610
9.536743
9.802580
10.362864
9.338856
9.356737
9.937882
10.143518
9.399652
9.668469
10.126829
9.895563
10.359883
9.677410
9.451509
9.344816
8.731484
8.897781
9.280443
9.774566
9.601712
12.422800
12.240410
13.979673
13.998747
14.191866
14.717579
14.135838
13.695955
14.734864
12.350678
12.446642
11.237860
10.910630
8.882880
8.432865
7.645488
5.940795
7.103682
6.394982
6.381869
5.558729
6.797910
6.415844
8.120537
8.709431
10.955930
15.404820
20.681620
28.544664
34.344792
43.365955
51.568747
56.285858
68.111420
72.305799
78.171492
80.571771
76.715946
77.728629
72.960854
74.760914
63.923597
59.216619
51.132441
43.746829
35.954714
##ZVALUE=220
82.503557
87.609887
82.781911
77.568889
64.637661
50.078630
38.797855
29.169917
28.119683
24.399757
26.504993
24.562478
20.289421
18.033981
13.609529
10.033846
7.792711
5.811453
5.098581
4.174709
4.352927
3.620982
3.903508
4.355907
4.766583
4.697442
4.508495
5.104542
5.506873
6.105900
6.486773
5.789995
5.932450
6.332994
6.628633
7.297993
7.481575
6.898642
8.420944
8.617640
8.294582
9.064674
9.616613
10.296702
9.115934
10.384917
8.526444
12.578964
10.520816
12.075901
12.177825
12.803674
13.106465
14.196634
13.777614
13.117790
13.248920
13.231635
14.095902
12.508631
12.314916
12.592673
12.304783
13.280511
12.511611
11.825562
11.877418
11.303425
12.487769
11.229515
12.138486
13.568997
13.998747
14.588833
15.751719
15.481710
14.793873
14.657974
13.810992
12.819767
12.219548
11.544824
11.749864
8.949637
8.312464
7.984638
7.568598
7.208586
6.947517
6.617904
6.167889
6.684661
5.295873
5.298853
5.403757
5.491972
6.499887
6.517768
8.327961
10.123849
13.131499
19.059777
29.260516
36.106706
45.435429
56.177974
68.093538
82.066655
95.886588
107.737780
115.172863
119.544864
123.102665
116.568804
114.462972
105.858445
##ZVALUE=225
108.399987
114.462972
136.461854
146.670938
148.583651
135.674477
115.746856
84.030628
63.818693
48.840642
39.096475
40.286779
37.949681
37.231445
37.771463
30.311942
27.897954
20.717978
15.680790
9.547472
6.060600
5.966425
4.700422
4.809499
4.821420
4.948974
5.220771
4.853606
5.413890
6.380677
5.441904
6.799698
6.679893
7.483959
7.426739
8.482933
7.988811
8.710623
8.410811
7.737875
9.354949
9.775758
10.121465
11.335611
10.751486
10.856986
11.511445
12.602806
12.710690
13.073683
14.643669
14.921427
14.805794
16.527772
15.484691
16.056895
15.550852
14.974475
17.285943
15.595555
16.080737
15.476942
14.773607
13.767481
14.173985
12.800694
13.685822
13.276935
13.521910
13.786554
15.345812
14.553666
15.938878
16.344786
16.249418
15.597939
15.980601
14.489889
12.860894
13.479590
12.663603
12.359619
11.357665
10.267496
9.905696
8.450747
8.447766
8.872747
8.157492
9.077787
7.496476
8.216500
7.757545
7.380843
6.721616
6.669760
6.931424
6.615520
7.065535
6.510615
6.557703
6.503463
7.402897
9.293556
12.167692
18.831491
25.383830
37.781596
53.532720
68.457723
83.406568
108.862519
123.522878
154.192448
161.581635
176.078677
##ZVALUE=230
72.851777
79.213977
128.993988
167.872906
207.174420
240.386724
241.623521
227.855444
202.289820
156.122446
113.395452
79.144835
61.206818
54.732561
57.781935
60.699582
59.680939
57.792664
49.249530
38.238764
27.740598
22.148490
13.969541
8.626580
6.456971
5.585551
4.974604
5.632639
6.267428
6.718636
6.535649
6.440878
6.871819
7.939935
7.987618
7.975698
8.297563
8.652806
9.025931
8.589625
10.080934
9.762645
10.133982
11.272430
10.356903
11.262894
11.265874
11.972785
12.969971
13.177991
14.000535
14.609694
13.855696
15.874505
15.635490
15.635490
17.261505
16.452670
16.757846
15.651584
15.274882
15.843511
15.271902
15.719533
14.249682
14.399886
15.336871
14.340878
14.496446
16.233921
16.672611
14.983416
16.937852
17.930865
16.541481
16.793609
17.603636
16.397834
15.869737
15.738606
13.704896
13.592839
13.314486
11.452436
10.614991
10.178685
10.455847
9.146929
8.310676
9.787679
9.271502
8.927584
8.762479
8.179545
7.983446
8.176565
7.791519
7.729530
8.396506
7.682443
8.357763
7.689595
7.700920
8.095503
8.240938
7.766485
9.225607
8.933544
11.434555
13.864636
19.769669
33.507943
47.739744
70.827603
92.497468
130.152702
##ZVALUE=235
22.118688
23.834705
54.136515
96.695423
154.686570
240.427852
301.483870
368.621945
393.284559
370.202661
324.638486
244.246721
193.373561
122.144818
97.509623
81.194639
77.210665
84.869862
89.027882
84.767938
80.656409
67.919493
54.518580
34.920573
25.324821
16.164780
10.949969
8.739829
7.764697
6.434917
7.188916
7.141829
6.852746
7.488728
7.670522
8.106828
7.921457
9.279847
9.314418
9.255409
10.455847
9.686947
10.121465
9.533763
11.499524
10.894537
12.180805
12.521744
12.453794
12.427568
13.182759
13.013482
14.906526
14.839768
14.426708
14.367700
14.904737
15.182495
14.995933
15.973449
14.982820
15.728474
14.807582
13.262630
15.601516
15.761852
13.576746
16.342998
15.455484
15.347600
17.124414
17.006993
18.488765
19.058585
19.577742
18.738508
19.452572
18.419623
17.345548
16.348958
14.582872
14.605522
13.355613
12.893677
13.065934
11.798739
11.873841
11.754632
11.155605
11.362433
10.555983
10.539889
10.485649
9.965897
9.496808
9.481907
9.916425
9.606481
8.963943
9.425879
9.187460
9.816885
8.641481
9.654760
10.995865
9.316802
8.993745
8.663535
8.800626
8.817911
8.443594
8.356571
9.841919
11.719465
16.288757
27.596951
##ZVALUE=240
3.476739
3.412962
9.085536
24.094582
50.245523
115.775466
188.320875
312.575698
403.304696
501.535535
564.521551
556.681752
513.021946
396.844745
310.188532
204.117894
142.643452
108.422637
97.321868
109.620690
114.598870
117.926598
113.079548
101.823807
84.825754
61.470866
48.062801
30.706525
21.217465
13.010502
9.601712
7.949471
7.836819
7.851720
8.185506
7.854700
8.546710
8.771420
9.236932
9.360909
9.966493
10.744929
10.313988
11.653900
10.654926
10.493994
10.848641
12.657642
11.528730
12.465715
12.402534
13.021827
11.957884
12.514591
12.927651
13.024807
12.305975
12.158751
13.669729
12.875795
13.478994
14.843941
14.760494
15.841722
14.644861
15.105605
13.999939
15.321970
15.303493
15.956759
16.289949
17.303824
19.060969
20.156503
20.504594
20.130873
19.966960
18.843412
19.319654
17.906427
16.606450
16.045570
14.801621
14.695525
13.328791
12.068748
13.341904
12.369752
13.542771
12.333989
10.668635
11.209846
11.206865
10.950565
11.657476
11.179447
9.773970
10.719895
10.831952
10.552406
9.969473
9.448528
10.642409
10.173917
10.302663
10.799766
11.420846
10.234714
10.557771
9.458661
10.008812
9.543896
10.105968
9.830594
9.923577
10.044575
##ZVALUE=245
2.528429
2.156496
2.342463
2.840757
6.496906
16.495585
37.940741
101.069808
177.606940
307.507515
418.983698
571.834445
642.129779
669.451952
630.810857
524.510741
421.828628
282.101631
203.077793
126.166940
104.914904
99.439621
113.886595
129.795671
131.637454
126.447678
115.544796
92.501640
75.217485
50.693750
35.629869
21.929741
15.000701
10.119677
8.854866
8.520484
7.160902
9.544492
9.642839
9.651780
8.943677
9.744763
10.327697
10.110736
10.812879
10.035634
11.152625
11.567473
10.151863
10.704994
11.438727
10.839701
11.787415
11.985898
12.548566
11.375546
11.466742
11.964440
11.959672
11.474490
11.409521
11.116862
11.191964
10.564923
10.714531
11.110902
12.642741
12.267828
11.755824
13.242960
13.760924
15.620589
17.391443
15.273690
17.083883
16.958714
15.605688
14.404655
13.661981
14.509559
15.294552
12.695789
12.383461
11.040568
10.780692
11.231899
11.129975
10.105968
9.658933
9.086728
10.756850
9.850860
9.604692
8.808970
8.690953
9.310842
9.366870
9.618998
9.882450
9.291768
9.966493
7.661581
9.518862
9.277463
8.322597
8.967519
8.853674
8.832812
7.639527
8.928776
9.204745
9.020567
8.551478
8.532405
8.147955
8.551478
##ZVALUE=250
2.051592
2.142787
2.053976
2.231598
2.271533
2.536774
3.291965
11.089444
28.602481
79.863667
150.304437
290.387869
423.692465
584.350824
681.249499
751.777887
748.195648
658.556819
554.057956
378.193855
268.806815
161.358714
113.274455
98.723769
106.951594
125.290751
132.578611
139.337778
134.092569
124.520659
98.680854
80.887675
56.346655
37.144423
21.824837
14.835596
10.558963
9.517670
8.646846
8.344650
9.180903
9.575486
10.663867
10.439754
10.025501
10.585785
11.094809
10.172725
10.666847
10.928512
11.203885
10.518432
11.060834
10.984540
11.109710
10.278821
10.745525
10.090470
11.598468
10.493994
9.846687
10.584593
10.389686
11.160970
10.201931
10.600686
9.548664
9.822845
10.628700
11.012554
12.510419
11.613965
12.342930
13.376474
12.278557
12.969971
12.624860
12.455583
11.600852
11.717677
11.090636
8.578897
8.850694
10.227561
8.328557
8.472800
7.880926
7.463694
7.635951
7.263422
8.052588
6.879568
6.675720
7.454753
7.322431
7.795691
7.523894
7.355809
6.967783
7.202625
6.465912
6.627440
7.087588
7.277727
7.227659
7.517934
8.003712
7.252693
7.139444
8.277893
7.170439
7.799864
7.739663
7.309914
6.460547
7.714629
##ZVALUE=255
2.016425
2.047420
1.612902
1.815557
2.044439
2.193451
1.829863
2.115965
2.465844
5.711913
18.074512
58.817863
118.042827
249.892473
368.583798
567.677617
697.394013
824.424624
859.709978
785.002708
699.604750
513.934493
357.820988
205.526948
131.532550
90.453625
91.033578
102.834702
123.791695
139.332414
147.136450
145.401955
126.917958
109.220743
78.841448
58.126450
38.013458
24.502873
15.660524
12.283921
9.754896
9.677410
10.674000
10.893941
11.393428
10.897517
11.297464
11.201501
10.261536
11.016726
11.891723
11.195540
12.063980
11.634827
12.303591
11.363626
10.879636
11.746883
11.458993
11.230707
11.026859
10.209680
10.004640
9.690523
9.942651
9.387732
10.128617
9.649992
9.943843
9.919405
10.393858
10.080934
10.275841
11.110902
11.398792
10.855794
10.021925
9.801984
9.097457
9.271502
8.235574
7.729530
8.005500
7.325411
6.896853
6.716847
6.467700
6.591678
5.713701
5.550981
6.001592
5.940795
5.723834
5.664825
5.397797
5.660653
5.781651
5.542636
6.286502
6.088614
5.295873
5.441904
6.144643
6.199479
6.314516
5.991459
6.245971
6.195903
5.763769
5.951524
6.482601
6.036758
6.058812
6.041527
6.274581
5.891919
##ZVALUE=260
1.733899
1.464486
1.560450
1.781583
1.465678
1.857877
1.896620
2.001524
1.808405
2.152920
2.185702
3.437996
10.140538
39.710999
84.316730
190.952420
310.756564
505.583882
663.518906
857.259631
934.943557
925.813913
838.529468
649.300814
481.333733
286.341906
188.222528
123.020411
81.604719
83.497763
106.336474
125.715733
146.932602
155.111551
151.837468
139.687657
110.253692
90.251565
61.512589
42.867661
26.708841
19.551516
13.582706
12.761950
11.433959
12.772679
12.021661
12.133718
12.714863
12.054443
14.018416
12.705922
13.022423
12.538433
13.090968
12.844801
12.264848
12.368560
12.144446
12.018681
11.824965
10.704994
10.532737
11.068583
9.949803
9.843707
10.108948
9.218454
9.978414
9.342432
10.055900
9.731650
9.706616
9.469986
10.168552
9.920597
9.654760
8.513927
8.704662
7.839799
7.996559
7.476807
6.334782
6.503463
6.073713
6.035566
6.255507
6.697774
5.691648
5.684495
5.119443
5.441904
5.052686
5.042553
5.024672
4.974604
5.327463
5.356669
5.020499
5.044937
5.212426
5.382895
4.736781
5.119443
4.932880
4.659891
5.090833
6.200671
5.184412
5.253553
4.761815
4.891753
4.565716
5.002618
4.985929
4.402995
##ZVALUE=265
1.460910
1.500845
1.606941
1.338720
1.481771
1.494884
1.695752
1.449585
2.138615
1.617670
1.698732
2.090931
1.929998
2.684593
5.717874
24.361610
59.428811
148.869753
255.975723
478.134751
654.253960
878.733993
989.246964
1015.669703
949.425697
763.886571
606.653690
439.807773
250.585675
150.887966
83.105564
71.779490
87.138414
109.915733
138.801932
153.687000
160.238743
153.979659
136.283636
117.213726
87.494850
67.163706
41.963458
30.974746
21.145940
17.226934
15.445948
14.420748
14.639497
15.260577
14.910698
14.929771
14.876723
15.225410
15.612841
14.794469
14.165640
13.935566
13.530850
13.091564
12.888908
12.518764
12.112856
11.909604
10.816455
10.746717
11.254549
9.889603
10.219812
9.618998
9.771585
9.688735
9.909868
10.053515
9.966493
9.753704
8.875728
8.962750
7.491708
7.730722
7.190704
6.817579
5.983710
6.079674
5.875826
5.830526
5.666614
5.675554
5.500913
5.367994
5.190969
5.029440
5.207658
4.941821
4.690886
5.170703
4.739761
4.971623
4.428625
4.753470
5.131960
4.705787
4.445910
4.757643
5.141497
4.669428
4.833937
5.028844
4.981756
4.656911
4.703999
4.703999
5.054474
4.490614
4.687905
4.554987
##ZVALUE=270
1.404881
1.343489
1.517534
1.381636
1.258850
1.498461
1.633763
1.236796
1.243949
1.311898
1.656413
1.626611
1.686811
1.668930
2.079606
2.111793
3.245473
11.056662
33.876896
106.675625
199.690461
398.906469
595.375896
843.165517
998.474956
1015.669703
1015.669703
1005.421877
776.283741
579.620600
342.867970
213.781595
109.169483
70.678592
67.490935
85.652471
115.833879
138.568878
159.806609
164.277554
161.569715
145.834684
121.585727
92.556477
69.170594
46.963692
34.062862
24.176836
20.329952
18.812418
17.600656
17.794967
17.652512
17.159581
17.381907
17.288923
15.902519
16.052723
15.295744
15.430450
14.878511
14.729500
14.091730
13.767481
12.233853
12.448430
11.885762
11.748672
11.076927
11.506677
11.475682
10.813475
11.048913
10.402799
10.003448
10.273457
9.351969
9.162426
8.795857
8.014441
7.490516
6.924868
7.051826
6.793737
6.617904
6.588697
5.953908
5.973577
5.494952
5.332828
5.630851
5.178452
4.839897
5.089641
5.305409
5.146861
4.894733
5.102754
4.718900
4.645586
4.646778
4.546642
4.835725
4.873872
4.542470
4.804730
4.960895
4.438758
4.879832
4.657507
4.646778
4.697442
4.383922
4.440546
4.729629
4.400611
##ZVALUE=275
1.224875
1.254678
1.250505
1.266599
1.289845
1.351833
1.322627
1.493692
1.488924
1.264811
1.437664
1.527667
1.549721
1.701713
1.697540
1.844764
1.897812
1.856685
2.218485
5.898476
20.390749
71.922541
152.222514
331.046581
511.005521
774.810910
949.084759
1015.669703
1015.669703
1015.669703
919.656754
734.542012
472.235680
294.111967
142.586827
81.696510
55.184960
62.711835
90.806484
114.486814
143.534541
159.185529
166.721940
163.725615
145.049691
122.328997
96.527934
73.482990
50.895810
38.146973
26.784539
22.746921
19.750595
18.783808
18.140674
18.461943
18.008947
17.869473
16.941428
16.943812
16.025901
15.350580
14.691949
14.724731
13.563633
13.750792
12.346506
11.919737
11.400580
11.729598
12.067556
11.627674
11.313558
11.591911
11.724830
10.287762
10.829568
10.158420
9.040833
9.014606
8.512735
7.816553
7.431507
7.036924
6.849766
6.842613
6.411672
6.028414
5.730987
5.831718
5.726814
5.325675
5.540848
5.446672
5.169511
5.171895
5.238652
5.681515
5.381703
5.200505
5.108714
4.842877
4.943609
4.764795
5.077720
5.566478
5.306602
4.942417
4.965663
5.069971
4.793406
4.745722
4.880428
4.744530
4.782677
5.096793
##ZVALUE=280
0.994802
1.098514
1.048446
1.410842
0.954866
1.039505
1.348853
1.277924
1.209974
1.192689
1.206994
1.449585
1.317859
1.376867
1.481771
1.718998
1.469851
1.540780
1.823902
1.896620
1.908541
3.555417
12.383461
40.447712
124.951005
227.953792
425.718427
624.099970
891.530514
1015.669703
1015.669703
1015.669703
1003.336906
838.121772
560.978651
369.501710
187.444687
103.290677
53.761601
49.832463
65.330863
87.728500
115.795732
137.601495
156.332850
163.827538
159.876943
145.019889
118.951797
95.489621
68.911910
52.735806
36.088824
26.968718
21.169782
18.243790
16.893744
17.315745
16.506910
15.615821
15.042424
14.649630
14.335513
14.543533
13.831854
13.618469
13.250709
12.340546
12.228489
12.310743
11.799932
12.142658
11.787415
11.169910
11.125803
10.553598
10.411739
9.881854
9.907484
8.980632
9.070635
8.375645
7.661581
7.538795
7.700920
7.355809
6.664991
6.572604
6.694794
6.229877
6.109476
5.990863
5.745888
5.839467
5.480647
5.584955
5.650520
5.783439
5.478859
5.219579
5.239844
5.284548
5.373955
5.255938
5.199909
5.146861
5.166531
5.103946
5.024672
5.248785
4.900694
5.066991
4.984736
4.941821
4.816651
4.820824
##ZVALUE=285
1.189709
1.008511
1.112819
1.100898
1.167655
1.122952
0.944734
1.153946
1.163483
1.205802
1.255870
1.283884
1.346469
1.170635
1.255870
1.425743
1.500845
1.427531
1.580715
1.674891
1.877546
1.868606
2.027750
2.357960
6.179810
21.680593
72.090626
148.792863
322.653055
494.217873
757.114887
951.840878
1015.669703
1015.669703
1015.669703
964.945555
695.607662
485.148430
258.935690
149.010420
66.032410
40.902495
41.663647
55.540800
83.627701
105.945468
133.019686
147.909522
157.451630
154.098868
139.000416
121.661425
92.556477
72.785616
49.438477
35.250783
22.849441
18.374920
15.596747
15.181899
13.755560
13.433695
13.519526
12.934804
13.005733
12.532473
12.154579
12.093782
11.732578
11.774898
11.129975
12.140870
11.397600
10.934472
10.911822
10.697842
10.207891
10.213852
9.346604
9.085536
8.712411
8.000731
8.321404
7.976890
7.858872
7.471442
7.709861
6.802678
6.889701
7.065535
6.899834
6.749630
6.334782
6.031990
6.140471
5.934834
5.845428
5.573630
5.617738
5.668998
5.651712
5.601645
5.404949
5.700588
5.384684
5.794764
5.771518
5.501509
5.835891
5.612969
5.431771
5.390644
5.214810
5.038977
5.182624
4.971623
##ZVALUE=290
1.032948
1.050830
0.941753
1.061559
1.041889
1.029968
1.062751
1.058578
1.208782
1.125932
1.126528
1.035929
1.160502
1.128912
1.130700
1.118779
1.272559
1.152754
1.466870
1.235604
1.359582
1.289845
1.649857
1.768470
2.025962
2.218485
2.588630
12.191534
36.985874
89.967847
216.372609
362.989902
623.325706
852.138996
1015.669703
1015.669703
1015.669703
1015.669703
833.445787
609.474778
400.298834
199.747682
103.688836
41.488409
29.072762
37.912726
52.090883
74.941516
98.156929
119.673610
143.134594
150.046945
146.285892
135.526657
113.792419
92.530847
64.302683
47.304630
30.246973
22.192597
15.096664
12.584925
11.455417
11.042953
10.874867
10.747910
11.014938
11.052489
11.021495
10.299683
10.775924
10.949969
11.117458
10.698438
10.187626
10.050535
9.763837
9.609461
8.805990
9.064674
8.508563
8.768439
8.240938
8.141994
7.806420
7.756948
7.380843
7.582903
6.730556
6.939769
7.000566
6.588697
6.305575
6.638765
6.291866
6.324649
6.121993
6.318688
6.235838
6.277561
6.005764
6.384850
6.144643
5.903840
6.053448
5.711913
5.792975
5.824566
5.865693
5.648732
6.158948
5.789995
5.397797
5.044937
5.484819
5.288720
##ZVALUE=295
0.926852
0.948906
0.896454
1.047850
0.891685
0.935793
0.989437
1.009703
1.038909
0.974536
0.846982
1.053810
1.089573
0.956655
1.245737
1.029968
1.248717
1.200438
1.081824
1.165867
1.402497
1.470447
1.444817
1.612902
1.722574
1.685619
1.903772
2.108812
2.346635
3.867745
19.330978
52.859783
148.892999
283.730626
531.791449
744.935870
1000.272632
1015.669703
1015.669703
1015.669703
993.354917
722.454786
498.961806
261.427760
142.494440
51.975846
28.198957
22.648573
31.262636
43.823719
69.748759
89.560747
116.471648
133.271813
142.119527
139.118433
125.763416
109.171867
82.380772
64.888597
41.853786
29.541850
19.043684
13.954639
10.308623
9.468794
9.105802
9.136796
9.091496
9.252429
9.396672
9.371638
9.371638
9.559989
9.757876
9.206533
9.007454
9.148717
8.569956
8.572936
8.580685
8.163452
7.718801
7.708669
7.579923
7.415414
7.514954
6.960630
7.427931
6.722808
6.954670
6.386638
6.363988
6.484985
6.508827
6.244779
6.218553
5.925894
6.304979
6.383657
6.296635
6.091595
6.055832
5.826950
6.047487
6.278753
5.978942
5.784631
6.139874
6.193519
5.758405
5.807877
5.869865
5.790591
5.664825
5.675554
##ZVALUE=300
0.902414
1.013875
0.792742
0.804663
0.966787
0.939965
0.896454
0.875592
0.991821
0.999570
1.055598
1.049638
0.903606
1.030564
0.990629
0.953674
0.999570
1.162887
1.163483
1.164675
1.119971
1.061559
1.288652
1.368523
1.351833
1.508594
1.542568
1.580715
1.932979
1.724958
2.083778
2.158880
7.879734
29.733777
101.449490
200.752616
411.046743
620.749593
914.275646
1015.669703
1015.669703
1015.669703
1015.669703
837.024450
615.141988
338.020921
200.663805
91.388822
42.015910
20.611882
19.399524
26.884675
42.985678
58.765411
86.398721
104.268789
124.065876
132.957697
130.006671
123.044848
102.092624
83.291531
59.404969
43.747425
26.710629
18.905997
11.920929
9.839535
8.424520
8.018613
8.325577
8.421540
8.741617
8.512735
8.127689
8.450747
7.783771
8.064508
8.186698
7.787943
8.136630
7.571578
7.639527
7.136464
7.466674
6.897449
6.867647
6.950498
6.657839
6.913543
6.779432
6.762743
6.202459
6.496906
6.242990
6.078482
6.072521
6.457567
5.834699
6.242990
5.896688
5.920529
6.019473
5.869865
5.969405
6.229877
5.570650
6.158948
5.762577
5.964637
5.605817
5.980730
5.644560
5.432963
5.456805
5.250573
##ZVALUE=305
1.006722
0.842810
0.898838
0.804663
0.865459
0.836849
0.892878
0.924468
0.870824
0.948906
0.943542
0.992417
1.002550
0.955462
1.004934
1.038909
1.055598
1.067519
0.947714
1.081824
1.068711
1.154542
1.094937
1.181960
1.234412
1.216531
1.312494
1.621842
1.387596
1.587868
1.656413
1.966953
2.059937
2.374649
4.634857
16.105771
65.154433
143.326521
321.979523
513.424873
738.914609
1003.988981
1015.669703
1015.669703
1015.669703
912.202597
708.423853
446.780920
272.827744
148.442984
56.064725
25.560856
14.246702
16.801953
26.815534
38.326979
58.726668
78.073740
102.222562
116.098523
125.959516
125.602484
113.330483
99.357963
74.523687
58.060884
38.615465
26.766658
15.877485
11.792779
9.094477
8.259416
7.792711
7.768869
7.736683
7.574558
7.488728
7.398725
7.289648
6.988645
7.037520
6.765723
6.562471
6.652474
6.883740
6.602407
6.420612
6.564856
6.648898
6.063581
6.173849
6.152987
5.946755
5.831718
5.896688
5.919933
5.744696
5.570650
5.688667
5.702972
5.778670
5.848408
5.737543
5.455613
5.633831
5.489588
5.836487
5.802512
5.593896
5.684495
5.751848
5.874634
5.448461
5.390644
5.431771
5.333424
##ZVALUE=310
0.755787
0.743866
0.817776
0.952482
0.901818
0.859499
0.773668
0.761747
0.868440
0.782609
0.954866
0.981688
0.898838
0.945926
0.892878
0.939965
0.970960
0.905991
1.121759
0.917912
1.003742
1.028776
1.061559
0.966787
1.102686
1.147985
1.192689
1.258850
1.190901
1.368523
1.324415
1.495481
1.579523
1.688600
1.847744
2.072453
2.647638
6.914735
35.807490
84.425807
208.949447
363.278985
634.263754
858.063698
1015.669703
1015.669703
1015.669703
1015.669703
824.767947
607.119799
349.460840
206.096768
85.472465
39.610863
14.736652
11.577606
15.789866
21.623969
34.958720
48.423409
71.964860
89.112520
107.541680
115.148425
117.470622
110.445619
94.076991
77.324510
53.849816
38.569570
24.290681
16.767979
11.122823
8.710623
6.895661
6.762743
6.111860
6.475449
6.012917
5.560517
5.845428
5.830526
5.712509
5.978942
5.675554
5.596876
5.642772
5.655885
5.473495
5.516410
5.282760
5.385876
5.358458
5.285740
5.168915
5.041957
4.948974
4.903674
5.120635
4.976988
5.380511
4.946589
5.195737
5.265474
5.113482
4.903674
5.243421
5.119443
5.267859
5.290508
4.956722
4.923940
4.921556
5.059838
4.872680
4.649758
##ZVALUE=315
0.731945
0.774860
0.712872
0.820756
0.737906
0.803471
0.841618
0.830889
0.750422
0.827909
0.850558
0.787973
0.804663
0.742674
0.683665
0.768900
0.648499
0.926852
0.865459
0.937581
0.820756
0.940561
1.001954
1.041889
1.143813
1.163483
1.080632
1.067519
1.127720
1.245737
1.350641
1.319647
1.422763
1.323819
1.534820
1.627803
1.625419
1.901984
2.181530
4.277825
15.711784
62.652826
137.131810
311.314464
496.341586
792.550445
991.815925
1015.669703
1015.669703
1015.669703
972.082615
698.911548
484.994054
252.944827
134.769678
48.865676
20.996928
10.250807
9.880662
14.162660
20.161867
33.029914
46.781898
66.248775
82.812905
101.683736
109.004974
110.255480
103.845000
87.570548
72.049499
52.088499
37.783980
23.326874
15.509725
9.750724
7.309914
5.889535
5.441904
5.190969
4.818439
5.019903
4.936457
4.923940
4.815459
4.837513
4.870892
4.772544
4.954934
4.500747
4.537702
4.513860
4.532933
4.615784
4.514456
4.625916
4.606843
4.649758
4.288554
4.461408
4.542470
4.482865
4.474521
4.504919
4.589558
4.641414
4.666448
4.967451
4.565716
4.540682
4.486442
4.471540
4.404783
4.394650
4.039407
4.367828
##ZVALUE=320
0.757575
0.830889
0.732541
0.818968
0.813603
0.667572
0.775456
0.787973
0.826716
0.839829
0.752807
0.710487
0.877976
0.712872
0.782609
0.872612
0.731945
1.010895
0.872612
0.855923
0.972748
0.959635
0.991821
0.889897
1.039505
1.005530
1.070499
1.106858
0.942945
0.947714
0.965595
1.205802
1.133680
1.277924
1.432896
1.389980
1.317859
1.667738
1.605749
1.611710
2.030730
2.344847
8.578897
28.158426
99.528432
200.680494
403.176546
604.391694
893.517733
1015.669703
1015.669703
1015.669703
1009.595990
849.587917
569.161773
364.990830
167.828798
85.792542
30.494928
14.137626
8.712411
8.965731
12.608767
17.421842
28.491616
40.310621
58.880448
76.242685
93.956590
103.201866
104.173422
97.291470
83.514452
69.486499
49.236417
35.626888
22.132993
14.401674
8.626580
6.050467
5.181432
4.566908
4.040599
4.201531
4.002452
4.077554
3.894567
3.999472
4.000664
4.089475
3.836751
3.676414
3.816485
4.113913
3.877878
4.047751
3.827810
3.797412
4.039407
3.808737
3.621578
3.806949
3.704429
4.025698
3.826618
4.186630
3.994703
3.854632
3.948808
3.874898
3.901720
3.772974
3.824830
4.172921
3.809929
3.512502
##ZVALUE=325
0.693798
0.721812
0.780821
0.590682
0.504851
0.801682
0.647902
0.776649
0.859499
0.732541
1.069903
0.658631
0.660419
0.751615
0.812411
0.820756
0.871420
0.815988
0.974536
0.921488
0.834465
0.961423
0.882745
1.045465
1.002550
0.877976
1.054406
1.030564
0.965595
0.940561
1.013875
1.095533
1.072884
1.182556
1.207590
1.300573
1.143813
1.290441
1.482964
1.418591
1.658797
1.776814
1.816750
2.209544
5.047917
18.212795
69.849491
146.381855
327.188969
507.352948
790.454745
985.400677
1015.669703
1015.669703
1015.669703
924.285650
628.046989
429.226756
224.198699
120.956898
44.348836
18.387437
8.477569
7.737875
8.493662
10.701418
17.062426
25.686622
41.805506
57.244897
76.357722
87.523460
96.928477
98.114610
89.249611
79.013705
60.006976
45.424700
28.886795
20.312667
12.282729
8.355975
5.278587
4.486442
3.986955
3.889799
3.562570
3.577471
3.564954
3.427863
3.574491
3.501773
3.361702
3.260970
3.441572
3.345609
3.481507
3.569722
3.460646
3.639460
3.589988
3.602505
3.508925
3.821850
3.374815
3.503561
3.238916
3.561974
3.451705
3.385544
3.727674
3.414750
3.346801
3.378987
3.471971
3.057718
##ZVALUE=330
0.605583
0.599623
0.613928
0.564456
0.663996
0.793934
0.656843
0.583529
0.877976
0.856519
0.732541
0.729561
0.879765
0.608563
0.704527
0.758767
0.649691
0.811815
0.862479
0.689626
0.869632
0.682473
0.749826
0.849962
0.891685
0.903606
0.875592
0.805855
0.956655
0.922680
0.948906
0.916719
1.033545
0.993609
1.052618
1.243949
1.233816
1.374483
1.262426
1.277924
1.310706
1.550913
1.524687
1.714826
1.824498
2.212524
2.770424
8.468628
40.684938
96.406937
235.556960
388.873816
658.003688
864.574909
1015.669703
1015.669703
1015.669703
997.871757
750.835538
546.527505
300.513506
164.758563
64.162612
28.082728
10.116696
7.385612
7.120967
7.340908
10.724664
15.632510
26.541948
37.091970
54.118633
67.526698
82.742572
87.795854
89.456439
83.542466
70.381761
58.093667
41.167736
29.809475
18.689632
12.821555
7.913709
5.720854
4.171729
3.613830
3.513694
3.298521
3.191829
3.098845
3.140569
3.031492
3.008842
3.116727
2.955794
3.108978
3.407598
3.318787
3.191829
3.378987
3.242493
3.240705
3.252625
2.949834
3.320575
3.319979
3.462434
3.184676
3.065467
3.101826
3.206730
2.961755
2.990961
2.929568
##ZVALUE=335
0.728965
0.664592
0.656843
0.481606
0.673532
0.636578
0.659823
0.741482
0.780821
0.804663
0.602603
0.719428
0.824928
0.720620
0.731945
0.745654
0.804663
0.661612
0.810623
0.708699
0.748634
0.764728
0.884533
0.980496
0.897646
0.701547
0.915527
0.908971
0.793934
0.866652
0.832677
0.922680
0.981688
0.957847
1.033545
0.913739
1.247525
1.132488
1.004934
1.049638
1.232624
1.138449
1.291633
1.372695
1.381636
1.426935
1.680851
1.767874
1.970530
3.911853
21.337867
57.854652
160.714984
291.306973
532.687902
750.824809
1002.295017
1015.669703
1015.669703
1015.669703
861.735940
642.952919
373.830795
226.277709
96.405745
42.360425
13.107657
7.634759
6.585717
6.519556
7.522702
9.750724
15.103817
22.578835
35.471916
47.809482
64.505935
75.622797
83.663464
83.954930
77.032447
68.975687
53.210855
42.027831
28.567910
20.538568
12.020469
8.334517
5.261898
4.076958
3.402829
3.137589
3.099442
2.935529
2.730489
2.959967
3.033876
3.083944
3.036857
2.938509
2.974868
2.971888
2.887845
3.112555
3.095865
3.063679
3.122687
3.085732
3.176928
3.014803
3.181696
3.200769
2.991557
2.629757
2.769828
2.804995
##ZVALUE=340
0.747442
0.701547
0.652671
0.688434
0.608563
0.624657
0.711679
0.691414
0.563860
0.643730
0.615716
0.522733
0.642538
0.781417
0.707507
0.638962
0.628829
0.788569
0.608563
0.631809
0.815988
0.745654
0.750422
0.730753
0.710487
0.794530
0.886917
0.696778
0.838637
0.948906
1.007915
0.875592
0.959635
0.903606
0.980496
0.993609
0.895858
0.994802
0.988841
1.088977
0.882745
0.966787
1.082420
1.199841
1.101494
1.273751
1.187921
1.551509
1.361966
1.805425
2.026558
2.362728
10.825992
34.416914
110.733509
219.846964
453.473926
655.613542
917.466879
1015.669703
1015.669703
1015.669703
947.044492
754.123926
481.667519
298.368931
133.285522
61.929822
17.180443
8.398890
6.468892
5.900860
6.393790
7.125735
9.448528
13.522506
22.321939
31.569600
47.181845
59.323907
71.180463
77.372789
78.466535
74.034929
63.473582
53.465962
38.717985
29.332638
18.372536
12.665987
8.123517
5.477667
3.842711
3.380775
3.198981
3.037453
2.872944
2.993941
2.857447
2.698898
2.932549
2.848506
2.983809
2.926588
3.145933
2.906919
3.042817
3.014803
2.920628
3.044605
2.958775
2.913475
2.871752
3.002882
2.846718
2.839565
##ZVALUE=345
0.637770
0.591874
0.721812
0.698566
0.787973
0.660419
0.802875
0.671744
0.715852
0.655651
0.611544
0.652671
0.741482
0.693798
0.657439
0.740886
0.616908
0.767708
0.758767
0.683665
0.666976
0.717640
0.742674
0.673532
0.691414
0.761747
0.687838
0.799894
0.780821
0.816584
0.684857
0.912547
0.986457
1.011491
0.886917
0.855923
0.831485
1.002550
1.004934
0.975728
1.042485
1.003742
1.104474
1.153946
1.093745
1.135468
1.041889
1.281500
1.414418
1.250505
1.690984
1.609921
1.782775
1.940727
4.833937
18.333793
74.715614
152.632594
326.810479
506.512523
785.462856
983.110666
1015.669703
1015.669703
1012.908816
859.144926
579.358935
382.031798
175.654888
84.749460
26.190877
11.751652
6.845593
6.002784
5.860925
5.777478
6.262660
8.196831
13.417602
19.505620
30.644536
41.240454
54.611564
62.833428
70.854425
72.528720
69.300532
61.653852
50.208569
39.413571
26.735663
19.126534
11.592507
7.818937
5.487800
4.184842
3.445745
3.292561
2.927780
3.039837
2.892613
2.724528
2.752542
2.742410
2.918839
2.780557
2.929568
2.874732
2.984405
2.820492
2.859831
2.883673
2.879500
2.864599
2.923608
2.803802
##ZVALUE=350
0.651479
0.573993
0.808835
0.652671
0.682473
0.777841
0.647902
0.818968
0.687838
0.677705
0.684857
0.659823
0.581741
0.701547
0.727773
0.650883
0.607967
0.767708
0.778437
0.762939
0.708699
0.773668
0.674725
0.783801
0.797510
0.751615
0.843406
0.743866
0.825524
0.825524
0.831485
0.808835
0.784993
0.765920
0.736713
0.754595
0.874996
0.924468
0.778437
0.946522
0.867844
0.977516
0.920892
1.171827
1.129508
1.103878
1.031756
1.238585
1.236796
1.309514
1.157522
1.424551
1.441836
1.532435
1.866817
1.796484
2.985597
9.092689
41.913986
96.837878
239.673853
404.624939
682.618022
892.663002
1015.669703
1015.669703
1015.669703
970.698595
679.240823
459.694862
234.295726
128.930807
47.986507
18.095970
7.275939
6.137490
5.717874
5.073547
4.956722
5.339980
7.922649
11.524558
18.101931
25.315881
37.328601
46.336651
57.477951
63.114762
66.272616
63.705444
57.667494
48.349500
36.943555
27.764440
18.032789
13.108850
8.048415
5.708933
4.016757
3.695488
3.101826
3.125668
2.875924
2.854466
2.908707
3.098845
2.953410
2.921820
2.942681
3.082752
2.838969
2.831817
2.937913
2.909899
2.920628
2.809763
##ZVALUE=355
0.558496
0.657439
0.747442
0.899434
0.723600
0.654459
0.794530
0.714660
0.563860
0.590682
0.724792
0.745654
0.688434
0.536442
0.705719
0.692606
0.719428
0.590682
0.665784
0.706911
0.766516
0.630617
0.797510
0.842810
0.742674
0.795722
0.806451
0.988841
0.706911
0.774860
0.804663
0.857711
0.838637
0.764728
0.797510
0.833869
0.735521
0.715852
0.973940
0.699759
0.949502
0.972748
1.043677
0.970960
0.929832
1.058578
1.009703
1.072884
1.061559
1.069903
1.293421
1.171827
1.217723
1.251698
1.434684
1.607537
1.682639
1.874566
2.155900
4.012585
22.637844
63.511729
175.071955
306.359529
561.883450
788.616538
1015.669703
1015.669703
1015.669703
1014.699936
769.241452
562.919974
318.324566
180.307627
72.756410
29.838681
8.012652
5.713701
5.090833
4.780889
4.616976
4.696846
5.236864
6.402731
9.891987
14.764667
23.289919
30.866861
42.124987
50.544739
58.253407
60.134530
57.991743
53.315759
44.857860
37.215948
26.871562
19.761920
12.798905
8.923411
5.743504
4.414916
3.816485
3.259778
3.212690
3.109574
2.910495
3.117919
2.956986
2.798438
2.895594
2.787709
2.952814
2.778769
2.653599
2.565980
##ZVALUE=360
0.661612
0.639558
0.732541
0.729561
0.659823
0.642538
0.820756
0.773668
0.700951
0.801682
0.791550
0.763535
0.776649
0.695586
0.640750
0.661612
0.520945
0.797510
0.876784
0.686646
0.799894
0.628829
0.794530
0.829697
0.740886
0.784993
0.740886
0.701547
0.798702
0.800490
0.977516
0.762939
0.835657
0.893474
0.809431
0.818968
0.926852
0.863671
0.780821
0.936985
0.790954
1.021624
0.987649
1.069903
0.886917
1.098514
1.077652
1.033545
0.967979
1.148582
1.201630
1.256466
1.218915
1.361966
1.351833
1.282692
1.450777
1.418591
1.616478
1.710653
1.954436
2.989769
8.542538
38.934946
96.491575
243.884921
408.906937
687.468648
920.099616
1015.669703
1015.669703
1015.669703
942.220688
624.027848
407.592654
198.197961
99.125504
32.248497
12.898445
5.947948
5.246997
4.903674
4.797578
4.330873
4.380941
4.522800
5.570650
8.073449
11.345744
18.450618
25.385618
36.095977
43.085814
51.064491
53.617954
54.111481
50.998926
43.568611
36.646724
28.007627
21.401644
13.833642
9.742975
6.277561
4.830956
3.536940
3.409982
3.057718
2.956986
2.898574
2.967715
2.789497
2.718568
2.575517
2.772808
2.582669
##ZVALUE=365
0.649691
0.694990
0.714660
0.599623
0.540614
0.690818
0.730753
0.531673
0.638962
0.684857
0.630617
0.786781
0.764728
0.787973
0.710487
0.756979
0.809431
0.781417
0.643730
0.603795
0.646710
0.835657
0.720620
0.760555
0.748634
0.694990
0.836849
0.759959
0.718832
0.812411
0.670552
0.872612
0.809431
0.874996
0.700951
0.859499
0.848770
0.844598
0.838637
0.905991
0.890493
0.947714
0.854731
1.019835
0.995994
0.790954
0.990629
1.015663
0.869632
0.915527
1.061559
1.271963
0.987649
1.231432
1.388788
1.114607
1.315475
1.225471
1.450777
1.546741
1.638532
1.641512
2.017617
2.212524
5.035400
17.337799
65.638423
144.329667
340.361595
535.518527
813.956857
1003.042459
1015.669703
1015.669703
1013.382673
833.511949
517.711043
304.953456
123.902559
54.648519
15.419722
7.561445
5.159974
4.969835
4.448891
4.291534
4.017949
3.808737
3.931522
4.664660
6.597638
9.719729
15.363693
21.591783
30.784607
37.228465
45.256615
48.359632
50.062537
48.888922
43.242574
37.251711
28.005838
21.596551
14.468431
10.600686
6.688833
4.663467
3.848672
3.431439
2.830625
2.854466
2.673864
2.596974
2.563596
2.551675
##ZVALUE=370
0.726581
0.740886
0.606775
0.700951
0.722408
0.689626
0.751615
0.629425
0.749826
0.771880
0.634789
0.530481
0.657439
0.786781
0.584722
0.712872
0.576973
0.704527
0.624657
0.816584
0.731945
0.702739
0.673532
0.699759
0.698566
0.738502
0.716448
0.725985
0.679493
0.774860
0.841618
0.819564
0.813603
0.768900
0.770688
0.843406
0.962615
0.986457
0.846982
0.725985
1.005530
0.752807
0.853539
0.947714
0.801682
0.846982
0.850558
0.807643
0.857711
0.885725
0.917912
1.259446
0.975728
1.138449
1.136661
1.105666
1.004934
1.084805
1.091957
1.258850
1.253486
1.449585
1.437664
1.526475
1.893640
1.974702
2.966523
9.055734
44.872761
106.712580
247.578025
413.738489
698.972940
911.929011
1015.669703
1015.669703
1015.669703
947.062969
631.839037
402.996540
178.558826
86.211562
29.065609
11.662841
5.341768
4.777908
4.328489
4.226565
3.709793
3.591776
3.458858
3.526807
4.239678
5.692840
8.739829
12.601614
19.510984
24.945736
32.973886
39.042830
45.350790
47.133565
46.390891
41.950941
35.585761
29.271841
21.260977
14.571548
10.763407
7.858872
5.268455
4.073977
3.407598
2.862811
2.800822
2.322793
##ZVALUE=375
0.488758
0.590682
0.622869
0.621676
0.511408
0.561476
0.630617
0.580549
0.638962
0.669956
0.692606
0.764728
0.625849
0.654459
0.633597
0.656843
0.580549
0.780821
0.608563
0.751615
0.779629
0.625849
0.674725
0.689626
0.765920
0.693798
0.638962
0.734925
0.870824
0.628829
0.860691
0.716448
0.849962
0.783801
0.792742
0.719428
0.663996
0.838637
0.632405
0.704527
0.897646
0.878572
0.985861
0.819564
0.874996
0.867844
0.707507
0.725985
0.902414
0.891685
1.007915
0.952482
0.969768
0.818968
0.978708
0.869632
0.987649
1.110435
1.110435
1.010895
0.907779
1.082420
1.184940
1.275539
1.363754
1.296997
1.458526
1.832843
2.135634
5.169511
26.060939
65.616965
169.043541
303.290486
540.864468
736.223459
979.536772
1015.669703
1015.669703
1015.669703
787.172914
559.180975
307.931900
166.696906
57.044625
22.241473
6.786585
4.559755
4.264712
3.939867
3.484488
3.547668
3.337860
3.287792
3.360510
3.550649
4.816651
6.682873
10.696650
15.086532
22.829771
28.355718
36.709905
41.080713
44.171810
44.357777
40.928721
35.175681
30.149817
23.258924
17.755628
12.342930
8.916855
5.926490
4.401803
3.285408
##ZVALUE=380
0.649691
0.601411
0.483990
0.499487
0.645518
0.658631
0.604987
0.592470
0.660419
0.680685
0.590682
0.629425
0.564456
0.610948
0.541806
0.656843
0.604987
0.549555
0.716448
0.640750
0.677705
0.595450
0.595450
0.577569
0.709891
0.599623
0.737906
0.546575
0.603795
0.616908
0.738502
0.605583
0.737906
0.668764
0.841618
0.819564
0.804663
0.816584
0.761747
0.670552
0.726581
0.806451
0.841618
0.696778
0.701547
0.831485
0.678897
0.715852
0.721812
0.733733
0.826716
0.891685
0.694990
0.770688
0.679493
0.860691
0.822544
0.796914
1.016855
1.112819
1.049638
1.087785
0.977516
0.976920
1.205802
1.130700
1.222491
1.406670
1.559854
1.638532
2.126694
2.949834
14.392734
42.755008
122.193694
232.660770
450.619459
653.610826
905.987620
1015.669703
1015.669703
1015.669703
872.481465
687.211752
418.678522
248.739719
94.424486
37.046671
9.063482
4.914999
4.274845
3.794432
3.650784
3.557801
3.300905
3.134608
2.957582
3.005862
3.350973
3.932714
5.756617
8.420944
14.305711
19.501448
26.719570
32.824874
38.632751
42.202473
42.408705
40.316582
35.216808
30.467510
23.681521
18.496513
12.596846
8.202791
##ZVALUE=385
0.721812
0.555515
0.603795
0.545979
0.549555
0.579953
0.556707
0.570416
0.595450
0.345707
0.455976
0.617504
0.628829
0.654459
0.524521
0.606775
0.631809
0.505447
0.521541
0.633597
0.651479
0.662804
0.618696
0.567436
0.538826
0.617504
0.502467
0.601411
0.580549
0.589490
0.664592
0.659823
0.596642
0.697970
0.667572
0.826716
0.783801
0.723600
0.683665
0.887513
0.905991
0.770688
0.869632
0.783801
0.667572
0.813603
0.891685
0.888705
0.851750
0.742674
0.870824
0.792742
0.815988
0.810623
0.884533
0.901818
0.926852
0.775456
0.996590
1.019835
1.005530
0.928640
1.051426
1.014471
1.131892
1.037717
1.133680
1.219511
1.356602
1.424551
1.535416
1.595616
1.866817
2.001524
6.115437
20.938516
78.376532
166.772008
358.218551
547.086596
801.684856
939.875841
1015.669703
981.210470
819.581747
651.986599
411.573648
259.268880
117.309690
56.003928
17.352700
6.675720
4.283786
3.857613
3.659725
3.380775
3.268719
3.347993
3.168583
3.100634
2.962947
2.959967
3.549457
4.751682
7.651448
10.868907
16.265512
22.910833
28.412938
32.429695
37.345886
38.583875
37.968755
35.419464
30.010939
23.470521
##ZVALUE=390
0.512600
0.589490
0.588894
0.555515
0.610948
0.548959
0.679493
0.574589
0.704527
0.471473
0.592470
0.654459
0.573993
0.663996
0.553727
0.546575
0.587702
0.720620
0.643730
0.587702
0.690818
0.614524
0.718832
0.661612
0.681877
0.565648
0.427961
0.604987
0.579953
0.716448
0.638962
0.577569
0.574589
0.683665
0.687838
0.695586
0.687838
0.975728
0.760555
0.833869
0.824928
0.917912
0.874996
0.853539
0.845790
0.882745
0.885725
0.715852
0.933409
0.863671
0.856519
0.773668
0.775456
0.972748
0.893474
1.052618
0.874996
0.904799
0.759959
0.945926
0.917912
0.913739
0.940561
0.749826
1.011491
0.960827
0.951886
1.126528
1.277924
1.386404
1.373887
1.488924
1.531839
1.545548
1.673698
1.853704
2.980828
15.132427
45.525432
135.851502
256.723762
484.007597
668.329597
885.043740
990.607738
1009.965539
927.034616
742.757916
558.587909
314.878821
176.152587
69.065690
31.040907
9.770989
4.789829
3.942847
3.806949
3.640652
3.605485
3.451705
3.304482
3.198981
2.944469
2.963543
2.899766
3.472567
4.233718
6.091595
8.900762
13.294816
17.903447
24.362803
29.107928
34.223795
36.086440
36.455989
##ZVALUE=395
0.697970
0.551939
0.546575
0.632405
0.665784
0.554919
0.652671
0.612736
0.531673
0.558496
0.548959
0.541806
0.580549
0.731945
0.584722
0.638962
0.580549
0.539422
0.540614
0.713468
0.581741
0.583529
0.509620
0.520945
0.803471
0.778437
0.619888
0.692606
0.620484
0.625849
0.479817
0.578761
0.531673
0.717640
0.805855
0.774860
0.916719
1.071692
0.807643
0.897646
0.811815
0.952482
0.896454
0.826716
0.854731
0.979900
0.901818
0.850558
0.776649
0.963807
0.854731
0.818968
1.002550
0.962615
0.758767
0.821948
1.049638
0.834465
0.986457
0.959635
0.917912
1.028776
0.982881
0.787973
0.910759
1.043677
1.102686
1.124740
1.409650
1.467466
1.439452
1.410842
1.372695
1.300573
1.470447
1.405478
1.680851
1.645684
2.379417
7.117987
34.774542
84.432960
206.700563
343.934894
580.258965
762.627721
957.822800
1015.669703
986.953974
858.040452
608.711839
421.792865
219.814777
117.713809
45.823455
18.783808
6.016493
3.954768
3.864765
3.825426
3.568530
3.523827
3.663898
3.621578
3.394485
3.041625
2.881885
2.629757
2.955794
3.900528
4.761815
7.626414
10.465980
15.634894
20.688772
26.602745
##ZVALUE=400
0.717640
0.789762
0.704527
0.687838
0.640750
0.587702
0.576973
0.703931
0.508428
0.572801
0.539422
0.456572
0.486970
0.660419
0.580549
0.732541
0.414848
0.478625
0.557899
0.386834
0.516772
0.479817
0.638962
0.488758
0.689626
0.609756
0.594854
0.664592
0.547767
0.849962
0.657439
0.590682
0.709891
0.758767
0.754595
0.777841
0.760555
0.894666
0.713468
0.865459
0.942945
0.756979
0.724792
0.907779
0.811815
0.956655
0.952482
1.063943
0.984669
0.879765
0.899434
0.849962
0.960827
0.963807
0.830889
0.928640
0.858903
1.009703
0.897646
0.861883
0.943542
0.821948
0.830889
0.949502
0.907779
0.989437
1.041889
1.087785
1.147985
1.235604
1.434684
1.437664
1.463890
1.437664
1.388788
1.353621
1.449585
1.353621
1.463890
1.703501
1.880527
3.550649
17.563701
48.459768
138.899684
254.629850
475.058556
660.549998
891.050696
1005.434990
1011.106968
922.853947
715.007782
512.138605
285.083652
165.500641
68.085790
31.000972
10.488629
5.168915
3.698468
3.727674
3.760457
3.677607
3.725886
3.743768
3.655553
3.345609
2.951622
2.815723
2.673864
2.635717
3.282428
4.135966
6.374717
9.930730
##END
