##TITLE=9-2
##FORMAT=SPECTACLE-ASCII V-1.2
##DATA TYPE=ULTRAVIOLET SPECTRUM
##SECOND TYPE=ULTRAVIOLET SPECTRUM
##DATE=04/09/18
##TIME=12:00:11
##SPECTROMETER/DATA SYSTEM=SPECTACLE
##XUNITS=NM EM
##YUNITS=ENERGY
##YFACTOR=1
##FIRSTX=220
##LASTX=450
##NPOINTS=116
##3DDATA=Equidistant
##ZUNITS=NM EX
##FIRSTZ=210
##LASTZ=400
##ZPOINTS=39
##XYDATA=(Y..Y)
##ZVALUE=210
15.481710
15.521646
13.277531
12.401938
11.318922
10.129809
9.560585
8.525848
6.764531
6.220937
4.484653
4.787445
3.897548
3.411770
3.231764
3.520846
3.314614
3.543496
3.383756
3.829598
4.100800
4.201531
4.561543
4.018545
4.464984
4.470944
5.142689
5.398989
6.109476
5.085468
6.049871
5.692840
6.034970
6.717443
7.020831
6.739497
6.717443
7.227659
7.212758
7.609725
8.634925
7.150769
7.938743
8.414984
8.554459
8.624792
9.019971
9.216666
9.279847
8.769631
8.805990
8.849502
8.799434
8.948445
8.670688
9.538531
8.300543
9.083748
8.490682
8.517504
9.965897
9.135604
8.312464
9.071827
10.014772
8.942485
8.770823
9.255409
9.823442
10.566711
12.133718
13.880730
17.000437
17.484426
18.945932
18.057823
20.248890
19.354820
17.901659
17.325878
15.022755
14.394522
12.921691
12.874603
10.550618
8.702874
8.104444
8.209944
8.955598
9.053946
11.033416
14.099479
18.414855
22.462606
27.223825
28.819442
38.106441
39.359927
45.786500
49.809813
48.094988
52.573681
52.765608
54.180622
53.719878
48.976541
46.911836
41.606426
37.469864
33.679605
30.120611
22.259951
20.782948
15.100837
15.435815
14.626980
##ZVALUE=215
40.947795
41.200519
31.992793
27.427673
20.942688
17.489791
17.153621
15.984774
14.448762
14.374852
12.381673
10.083914
8.813739
5.690455
4.933476
4.241467
3.207922
4.140735
3.635883
3.971457
3.933907
4.460812
4.550815
4.839897
4.778504
4.285574
4.473925
5.558729
5.798936
4.944801
6.237626
6.919503
7.782578
7.049441
7.300973
7.877946
7.201433
7.806420
8.080602
8.697510
8.538961
8.494854
8.923411
9.360909
10.057688
8.711815
8.319616
9.650588
10.154843
10.512471
9.837747
9.692907
9.217858
11.069775
11.177659
11.177659
11.009574
10.737777
12.200475
11.341572
10.485649
10.792613
10.177493
9.891987
10.850430
9.157658
10.280609
9.979606
10.423660
11.895895
11.315942
14.852881
14.949441
15.179515
16.449690
16.213655
16.577840
16.392469
15.686750
13.750792
13.188720
12.870431
11.672974
10.629892
8.885860
9.053946
7.509589
7.063746
7.262826
7.260442
7.321835
7.838607
7.306933
7.782578
10.226965
11.497736
16.716719
22.896528
27.470589
33.903718
42.382479
49.983859
60.917735
62.528849
66.692829
73.039532
72.920918
74.605942
74.532628
71.410537
70.820451
66.699982
65.308809
53.230524
46.018958
36.733747
##ZVALUE=220
86.593628
84.294677
84.460974
78.934431
65.093637
48.433542
39.405823
29.003620
25.273561
24.947524
22.599697
24.718642
20.587444
17.000437
14.179945
11.833906
8.296967
6.195903
4.857779
4.137754
3.431439
4.397631
4.910827
4.305840
5.087852
4.573464
5.164742
5.290508
6.149411
5.892515
6.996989
7.248521
7.745624
7.593632
8.676648
8.700490
9.452701
9.158850
9.951591
9.673834
10.467768
10.512471
12.113452
10.330677
10.786653
11.359453
10.988712
11.859536
12.266636
14.908910
12.248755
12.601614
13.271570
14.606714
13.837814
14.034510
14.065504
14.823675
13.633966
15.205741
13.852715
13.695955
12.769699
14.216900
12.208819
13.917685
13.410449
12.509823
13.422966
14.648438
13.772845
15.759468
16.314983
18.782616
17.230511
18.335581
18.575788
16.837716
15.440583
14.705658
14.581680
13.021827
12.218952
11.203885
11.592507
9.154677
8.452535
9.083748
8.261800
7.377863
7.617474
7.489920
7.319450
7.275939
7.572770
6.799698
6.647706
8.643866
9.587407
12.593865
15.801787
22.780895
28.676987
42.524934
49.759746
62.344670
72.784424
85.395575
95.508695
100.764632
111.862421
122.503638
119.858980
117.837787
116.319656
110.794902
##ZVALUE=225
115.124583
119.694471
147.406459
152.502656
160.641670
141.523480
125.203729
91.295838
64.191818
50.092936
42.328835
38.422942
39.539933
37.712455
38.229823
32.938719
26.971698
21.627545
16.773939
10.029674
8.166432
5.990863
5.845428
6.011724
6.159544
6.122589
5.785823
6.577969
7.903576
7.930994
9.397864
8.893609
9.971857
10.535717
11.053681
10.872483
12.162924
12.191534
13.664961
12.976527
16.683936
14.356971
14.625788
15.696883
15.319586
15.444756
15.651584
15.772581
16.584992
16.998649
17.698407
17.749667
19.145608
19.027591
19.308925
18.342733
18.937588
19.203424
19.145608
21.083951
17.694831
19.083619
18.335581
16.966462
17.100573
17.505884
18.610954
16.298890
17.850995
19.697547
20.434856
20.650625
22.024512
23.850799
23.578405
22.709966
22.882819
22.284985
20.960569
19.319654
18.904805
18.873811
15.858412
14.359951
14.384985
13.007522
11.755824
11.404753
11.959672
11.049509
10.504723
10.386705
10.593534
10.014772
10.045767
10.758638
9.671450
10.255575
9.390712
8.263588
10.217428
9.083748
9.992719
11.750460
15.392900
20.723939
31.300783
43.007731
56.292415
76.389909
91.159940
105.629563
132.572651
151.570439
164.876580
174.397826
##ZVALUE=230
79.453588
87.025762
136.396885
177.317858
213.658810
259.278417
267.640948
250.627995
226.953626
165.797472
122.085810
77.099800
64.069629
57.821870
59.936643
60.385466
62.424541
55.119991
50.719976
38.701892
29.187799
19.683838
15.604496
9.997487
7.543564
7.358789
7.151961
6.875992
6.999969
7.474422
8.827448
9.005666
9.892583
10.787845
9.922981
12.261868
11.233687
13.450980
13.333559
13.925433
13.801455
13.736486
13.997555
15.166998
16.022921
16.179681
15.925765
14.972687
14.889836
14.727712
16.994476
17.853975
16.588569
17.925501
17.785430
17.705560
17.819405
19.040704
18.299818
20.137429
17.974973
18.291473
19.341707
17.778873
17.478466
17.404556
18.961430
18.062592
18.761754
19.112825
20.686984
20.247698
21.283627
23.787618
27.335882
26.270747
25.162697
24.487972
24.383664
23.800731
21.150708
21.721721
18.843412
18.778443
15.457869
14.245510
14.434457
13.087988
14.511943
12.633801
10.802746
11.858940
11.463761
11.494756
11.085868
11.729598
12.042522
10.852814
11.260509
11.207461
10.759830
10.993481
10.491610
10.828972
12.112856
10.410547
10.164976
12.290478
14.271736
19.949675
24.789572
36.902428
52.341819
76.313615
101.363659
133.903623
##ZVALUE=235
23.384690
25.724769
63.098669
109.389424
165.396929
259.134769
334.512591
416.004658
452.051759
438.319445
385.167599
285.423994
211.103559
132.261515
100.673437
79.764724
80.905557
82.221627
89.303851
85.414648
78.938603
130.141973
53.701997
40.936470
24.379492
16.646981
10.987520
10.149479
8.205771
8.591413
9.590983
8.482933
9.153485
9.874701
9.713769
10.794997
11.062622
12.478828
11.534691
11.511445
12.492537
14.058948
12.910962
13.421774
13.959408
13.556480
14.814734
14.081597
14.827847
14.107823
15.867949
14.509559
15.974641
16.818643
16.371608
16.195774
15.763640
17.682910
17.861724
17.344952
16.916990
17.168522
17.352700
19.432902
18.534660
17.618537
18.646717
18.403530
17.699599
20.451546
19.989610
20.979643
23.906827
24.710894
26.931763
26.987791
30.774474
29.435754
28.627515
27.844906
27.667880
24.492741
19.736886
20.028949
18.145442
18.718839
17.161965
16.818643
15.264750
16.186833
14.914870
14.633536
14.190674
13.606548
14.662743
13.382435
14.304519
14.526844
14.076829
13.652444
12.943745
15.176535
13.153553
13.727546
12.472868
13.825893
14.732480
14.108419
13.960600
14.392734
13.689995
14.363527
14.711618
16.479492
21.779537
33.651590
##ZVALUE=240
2.969503
3.257990
10.947585
25.711656
54.414868
126.259923
211.465955
362.225771
486.459732
634.884834
702.250600
697.043538
623.325706
474.093556
349.876881
211.113691
149.037838
110.271573
102.585554
105.270743
113.153458
117.696524
119.370818
103.294849
86.040497
66.367984
49.116611
33.541918
21.553636
14.939904
10.719895
8.317828
8.378625
8.258820
9.958744
10.041595
10.772943
10.712743
10.735989
11.979938
11.148453
12.300611
12.418628
12.681484
13.345480
11.852980
12.555718
13.421774
13.181567
15.143752
13.868809
14.221668
14.055967
14.786720
15.399456
15.734434
15.204549
15.338659
15.564561
15.466809
16.393661
16.264915
16.079545
15.462637
16.534925
16.878843
18.285513
18.931627
18.210411
18.070936
21.717548
21.956563
23.917556
24.693608
25.706887
26.578903
27.322769
26.226640
25.515556
24.051666
23.368597
21.720529
21.281838
19.204617
18.085837
18.025637
16.594529
17.432570
15.627742
17.262697
14.737844
16.957521
15.680790
15.671849
15.121698
15.406609
14.792681
16.099811
15.499592
14.698505
15.537739
14.598966
16.275644
16.032457
16.033649
16.481876
15.584826
15.643835
15.302896
16.279817
15.509725
15.126467
16.723871
15.884638
16.488433
15.364885
##ZVALUE=245
2.380610
2.548695
2.691746
2.873540
5.061626
16.754866
41.691661
105.027556
180.875659
321.072936
440.964699
589.626431
671.228766
679.478645
652.910471
536.562800
424.843431
286.177993
204.024911
128.982663
102.539659
99.473000
113.554597
128.025413
135.272741
122.430921
112.351775
97.067952
72.548985
54.040551
33.474565
24.899840
13.397932
9.863973
8.615851
9.394884
9.188652
8.550882
10.034442
10.608435
10.620952
10.716915
10.618567
11.385679
12.302995
12.054443
11.878610
11.241436
11.998415
12.158751
13.335943
12.227893
11.377931
13.058782
12.612939
13.570786
12.578964
13.328791
13.033748
12.967587
12.740493
13.353825
13.576746
13.049841
13.436675
13.650656
13.892651
14.259815
14.959574
15.643835
16.936660
18.441677
18.331409
19.714832
20.000935
19.457936
19.112825
18.617511
18.612742
17.850995
16.523600
17.045736
16.314983
16.563535
15.657544
14.614463
13.220906
14.882684
14.566779
14.192462
13.454556
12.647510
13.291836
13.827682
13.566613
14.221668
13.947487
14.098883
13.636947
14.119744
14.050603
14.534593
13.603568
14.261603
13.835430
13.749599
14.002919
14.231801
12.939572
14.517903
13.511777
14.275908
13.804436
14.416575
13.546944
13.944507
##ZVALUE=250
2.399683
2.029538
2.331734
2.224445
2.757907
2.799630
3.116727
11.042953
29.363632
81.890821
154.917836
294.783711
429.883003
595.753789
707.188845
775.565505
765.882730
675.819516
570.725799
387.268662
267.100930
157.591701
112.982988
94.990730
103.457570
125.999451
135.993958
139.996409
135.290623
121.772885
101.438761
80.217719
56.114793
39.683580
23.001432
16.516447
10.340810
9.767413
9.496808
9.184480
10.428429
10.549426
10.634661
11.218786
12.403727
11.530519
10.681748
11.919737
12.209415
11.966825
11.910796
12.350678
13.026595
13.013482
12.758970
12.667775
11.818409
11.235476
13.717413
13.116598
12.359619
11.571646
11.874437
11.638999
12.251735
12.219548
12.701750
13.283491
13.446808
13.652444
14.744997
15.428662
15.128851
16.759634
17.189980
16.915798
15.358925
15.167594
15.525818
14.764667
13.852715
13.808608
13.194680
12.024641
12.009740
12.451410
11.930466
12.458563
11.939406
11.804700
12.224913
12.407899
13.887882
13.915896
13.828874
14.940500
14.975667
14.713407
15.078783
15.080571
15.758872
15.922785
15.127659
15.739799
16.884804
17.097592
16.741753
15.788674
16.641617
15.495420
16.419888
16.942620
16.459823
15.581846
16.648769
15.937686
##ZVALUE=255
1.975894
1.753569
1.975894
2.306700
2.044439
2.290606
2.267957
2.501607
2.636909
5.794764
18.964410
60.743690
121.666789
256.389976
382.371545
582.681894
723.686814
841.832757
883.914828
827.863812
717.803836
531.057715
367.570519
209.419727
134.834647
90.956688
90.406537
103.086829
123.006701
138.905644
147.302747
140.806437
127.814412
106.502771
82.555413
59.551597
39.356947
24.773479
16.496778
13.512969
11.884570
11.170506
11.136532
11.594892
11.982918
12.723804
12.177825
12.782812
12.462735
13.849735
12.866855
13.342500
13.030767
12.720823
13.509989
12.834668
13.049841
13.664961
12.660623
13.250709
12.813807
12.972951
11.711717
12.787580
12.316704
12.287498
11.959672
12.285709
12.361407
13.607740
13.360977
13.493896
13.763905
13.401508
13.413429
14.553666
13.730526
13.310909
13.043880
12.419820
11.374950
12.143850
10.985732
11.123419
11.079907
11.100769
10.550618
11.069775
10.121465
11.073947
10.951757
11.629462
13.672709
14.249682
14.559627
14.125705
15.572906
15.602708
14.952421
15.571713
15.614629
15.578866
15.965700
15.969872
16.140938
16.369820
16.296506
16.803741
17.838478
16.339421
17.025471
16.196966
16.956925
17.022491
15.394688
15.160441
##ZVALUE=260
1.772642
1.767874
1.672506
1.567602
2.271533
2.018809
2.077818
1.977682
2.014637
1.942515
2.302527
3.652573
11.005998
38.708448
85.233450
200.435519
326.624513
532.504916
694.912672
892.001987
981.147885
967.418551
870.502591
667.706728
494.865775
294.998884
188.717842
124.887824
83.035827
82.630515
105.990767
125.756860
147.044659
153.330564
151.651502
134.994984
112.594962
89.684725
62.908530
43.585896
30.206442
21.442771
15.481710
14.079809
14.076829
13.641715
14.280677
13.974905
14.118552
14.521480
15.261769
15.308857
14.616847
15.166998
14.939904
14.636517
14.537573
13.719797
13.906956
13.975501
13.870597
13.754964
13.416409
13.277531
13.173819
13.225675
13.206601
12.071729
13.279915
12.631416
12.414455
13.197660
13.479590
14.268756
13.386607
12.620687
12.886524
12.394786
12.170672
11.836886
10.630488
10.820627
10.178685
10.265708
9.716749
9.452701
9.268522
9.522438
9.795427
9.596944
10.349751
10.211468
11.074543
11.702776
11.931658
12.037754
12.501478
12.741685
11.777878
12.993813
11.851788
12.506843
12.245774
12.161732
13.084412
12.821555
12.589693
13.758540
13.358593
12.487769
13.362765
12.705922
12.930632
12.632608
12.147427
11.688471
##ZVALUE=265
1.589656
1.807809
1.589656
1.664758
1.767874
2.017617
1.892447
1.891851
1.884699
1.915693
1.851916
2.153516
2.323985
2.768636
5.598664
24.903417
61.936975
152.938962
269.763470
490.923524
685.843825
901.761651
1013.776660
1015.669703
987.435579
804.656744
634.833574
453.471541
252.703428
152.782798
84.454417
70.400834
85.587502
107.158422
138.633847
155.586004
159.568787
154.503584
138.491988
118.067861
91.402531
67.864656
44.359565
32.913685
23.056865
18.275976
17.390847
17.112494
16.906857
16.868711
17.391443
17.197728
17.426610
16.589761
17.446876
15.552640
16.645789
15.736818
15.175939
15.811920
15.436411
15.199780
14.899969
14.061928
14.023781
13.530850
13.869405
12.740493
13.704896
13.838410
12.952685
13.729930
13.570786
13.034940
13.201833
14.036894
13.020635
12.305975
11.741519
11.149645
11.500716
10.937452
9.881854
10.335445
9.690523
9.908676
8.662939
9.736419
9.139776
9.447932
9.049773
9.032488
9.362698
8.900762
9.789467
9.632707
9.401441
9.770989
9.579659
9.639859
10.413527
10.234714
10.160804
9.351969
9.862781
10.301471
8.915663
9.942651
10.404587
9.705424
9.410977
10.171533
9.545684
9.355545
9.460449
8.870959
##ZVALUE=270
1.502633
1.298785
1.479983
1.510978
1.838803
1.623631
1.661777
1.777411
1.804829
1.891851
1.818538
2.012849
2.026558
2.126694
1.902580
2.543926
2.828836
12.302995
34.568906
107.307434
207.988620
410.213470
608.587861
879.247785
1011.689901
1015.669703
1015.669703
1008.364558
797.363520
602.084994
360.330939
220.250487
109.542608
68.741441
68.386793
83.016753
114.799738
136.333704
161.544681
164.403915
161.098838
148.229003
121.101737
98.322630
68.668723
51.200986
35.675764
27.465820
20.842552
19.801855
18.975735
19.503832
19.515753
19.123554
18.694997
18.409491
18.716455
18.410683
17.625690
17.229915
17.370582
16.507506
16.236901
15.464425
14.715791
15.575886
14.737844
14.608502
14.174581
14.193654
13.940930
14.455914
14.558434
14.030933
13.623834
13.659000
13.288856
12.600422
12.158751
11.694431
11.494756
10.811687
10.754466
10.070801
9.248853
9.599924
9.035468
9.467602
9.166598
9.111762
8.790493
8.794665
8.868575
8.054972
8.352995
8.569956
8.315444
8.455515
8.305907
8.624792
8.859634
8.189678
8.723736
8.218884
8.751750
8.384585
8.804798
8.798838
8.387566
8.406639
8.626580
8.444786
8.317828
7.882714
7.779598
7.731915
##ZVALUE=275
1.262426
1.205802
1.468658
1.417994
1.422763
1.462698
1.566410
1.511574
1.658797
1.617670
1.632571
1.683831
1.587868
1.650453
1.996756
1.795888
2.080798
2.248883
2.501607
6.100535
19.834638
7.832646
158.429742
295.910835
547.351837
740.743876
984.532833
1015.669703
1015.669703
1015.669703
932.008624
743.255019
471.508503
294.520855
144.103765
82.015991
57.764649
63.645840
91.663599
113.014579
141.111612
159.019828
168.670416
163.007975
144.802928
125.684738
97.906590
74.176788
51.575899
38.834810
28.154850
24.006963
21.695495
20.596981
19.270778
20.479560
19.146800
19.198656
18.850565
18.545985
18.144846
17.976761
17.099977
16.857982
16.635656
15.894771
15.138984
15.065670
14.567971
14.984608
14.251471
15.097857
14.151931
14.135838
14.641881
13.836622
13.163686
13.200641
11.993647
12.295842
12.044907
10.889769
10.711551
10.641813
10.209680
9.691715
9.700656
9.146929
9.134412
9.034872
8.662939
8.627772
8.176565
8.250475
8.577704
8.067489
7.910728
7.973909
8.196831
7.903576
7.498860
7.841587
7.596612
7.861853
8.059740
8.126497
7.714629
8.089542
7.419586
7.844567
7.487535
7.624626
7.099509
7.154942
7.741451
7.028580
##ZVALUE=280
1.311898
1.305938
1.493692
1.333952
1.222491
1.414418
1.165867
1.317859
1.314878
1.499653
1.444817
1.547933
1.518726
1.610518
1.749992
1.557469
1.745820
1.910925
1.971722
1.990795
2.662539
3.342628
11.762977
51.421523
113.621950
262.052417
421.549678
614.507794
889.709592
1015.669703
1015.669703
1015.669703
1015.669703
855.111480
569.496751
378.434658
193.596482
104.030967
55.890679
49.840808
66.642761
88.347793
118.604898
137.934685
159.108639
163.716674
158.528686
143.607855
118.415952
97.830892
70.074797
53.411722
36.313534
28.247833
23.123622
20.098686
19.086599
18.075705
17.875433
17.150640
17.209649
17.368793
16.902685
16.282797
15.991926
15.863776
15.064478
15.257597
14.972687
15.083551
15.165806
14.721751
14.874935
14.062524
13.742447
13.971925
13.836622
13.195872
12.775660
12.260675
11.662841
11.688471
10.733604
10.618567
9.834766
10.075569
9.348989
9.364486
8.981824
9.364486
8.839965
8.657575
8.194447
8.114576
7.953644
7.809997
7.902980
7.847548
8.276701
7.998943
8.341670
7.608533
7.585883
7.877946
7.658601
7.585883
7.501841
7.562637
7.610917
7.642508
7.595420
7.760525
7.522702
7.525682
7.315874
7.075667
##ZVALUE=285
1.207590
1.248717
1.299977
1.249909
1.159906
1.190901
1.335740
1.456738
1.457930
1.394749
1.320839
1.381636
1.353621
1.364946
1.396537
1.697540
1.461506
1.468658
1.764894
1.733899
1.873970
2.000928
2.329946
2.501607
5.459785
27.502775
67.591667
139.398575
304.606557
486.724973
767.966509
972.209573
1015.669703
1015.669703
1015.669703
998.605490
733.043551
506.507754
268.331766
156.964660
67.735910
42.545795
44.042468
57.295561
84.347725
106.688738
133.168697
147.284865
156.530738
154.492855
138.544440
121.885538
93.238950
72.387457
49.306750
36.181808
25.111437
20.503998
16.686916
16.340613
16.001463
16.046762
14.624000
15.289783
15.337467
14.357567
14.917850
14.398694
14.556646
13.999939
14.433861
14.021993
14.457703
14.082789
13.387799
13.415813
13.178587
12.700558
12.324452
12.072921
11.158586
11.009574
10.620952
10.425448
10.219812
10.015965
9.618998
9.270906
9.438992
9.097457
9.028912
8.846521
8.489490
8.858442
8.344650
8.370876
8.191466
8.204579
8.268952
7.918477
7.754564
7.463694
7.894635
7.853508
7.560849
7.503629
8.017421
7.912517
7.683635
7.791519
7.272959
7.264614
6.956458
8.061528
7.271767
7.382631
##ZVALUE=290
1.204610
1.181960
1.186728
1.204610
1.163483
1.043677
1.139641
1.288652
1.250505
1.162887
1.385808
1.309514
1.133680
1.166463
1.293421
1.406670
1.659989
1.716614
1.513958
1.479983
1.634955
1.688600
1.916885
2.113581
2.142787
2.203584
3.141761
9.402633
41.645765
94.970465
220.697522
371.781588
651.062727
879.867673
1015.669703
1015.669703
1015.669703
1015.669703
861.941576
639.081001
366.338491
215.750933
92.285872
46.112537
29.500723
36.214590
53.794980
71.840882
99.201798
120.742917
141.662955
149.981976
145.775676
135.393739
112.288594
89.094639
64.070821
47.185421
30.442476
23.372769
17.004609
14.332533
13.213754
12.792945
12.419820
12.263656
12.292862
12.465715
12.489557
12.914538
12.936592
13.032556
13.178587
12.461543
12.320876
12.499690
12.586713
11.684895
11.710525
11.331439
10.784864
10.576844
10.605454
10.574460
9.907484
9.886622
9.426475
9.743571
9.462833
9.446740
8.811951
9.314418
8.763671
8.791685
8.501410
8.204579
7.950664
7.900596
8.409619
8.274913
7.987618
8.208752
7.922649
7.932782
8.282661
7.848740
7.998943
7.619858
7.920861
7.849932
8.021593
7.746816
7.403493
7.490516
7.739663
7.199645
##ZVALUE=295
1.311898
1.086593
1.125932
1.056790
1.182556
1.141429
1.150966
1.204610
1.103878
1.121759
1.124740
1.248717
1.187921
1.276731
1.196861
1.542568
1.395941
1.411438
1.355410
1.412630
1.339912
1.475811
1.626611
1.585484
1.913905
1.992583
2.069473
2.340674
2.440810
5.063415
17.511845
70.019960
149.772763
329.125524
519.002676
814.967752
1007.591486
1015.669703
1015.669703
1015.669703
1011.219621
740.041733
511.871576
268.951654
144.744515
53.882599
28.737783
23.550987
30.721426
49.031973
67.042708
93.673468
111.470819
132.178664
139.362812
139.865875
125.116706
105.311871
86.119771
60.083866
44.344664
27.988553
19.969940
13.925433
11.847615
10.296702
10.490417
10.679960
10.617971
10.759830
11.119843
11.086464
10.547638
11.493564
10.997653
11.370778
10.702610
10.381937
10.276437
10.360479
10.162592
10.192990
9.871721
9.630919
9.700656
9.622574
9.086728
9.216666
9.462833
9.265542
8.849502
8.548498
8.659959
8.533597
8.429885
8.425713
8.390546
8.019805
8.389950
7.981658
8.415580
8.132458
8.079410
8.504987
7.990599
8.376837
8.171797
7.982850
8.102655
7.910728
8.176565
7.796884
7.871985
8.119941
7.476807
7.217526
##ZVALUE=300
1.045465
1.062751
1.059771
1.135468
1.147985
1.142621
1.127720
1.025796
1.028776
1.160502
1.098514
0.931621
1.176000
1.187921
1.167655
1.253486
1.429915
1.384616
1.364946
1.438856
1.419783
1.467466
1.381636
1.522899
1.677871
1.659989
1.792908
1.729727
2.102852
2.112985
2.384782
2.952814
7.922649
39.925575
96.857548
240.285397
404.308438
700.639486
913.695693
1015.669703
1015.669703
1015.669703
1015.669703
889.253616
657.394528
367.968678
213.379860
89.880824
41.942000
18.992424
18.055439
28.444529
40.662885
62.515736
82.057714
107.911825
121.749640
131.071806
131.551623
119.219422
103.951693
79.773664
61.653852
41.300654
29.908419
18.580556
13.305545
10.487437
9.551644
9.879470
9.617805
9.523630
9.473562
9.735823
9.772778
9.967685
10.081530
10.261536
9.771585
9.553432
9.623766
9.499788
9.691715
9.253621
9.183884
9.163618
8.657575
8.977652
8.827448
8.895993
8.478761
8.637905
8.586645
8.341670
8.428693
8.535981
8.166432
8.253455
8.712411
8.417964
8.562803
8.424520
8.326769
7.978678
8.423924
8.167624
8.163452
8.201599
7.927418
7.831454
7.911921
7.956624
7.775426
7.729530
7.321835
7.467866
##ZVALUE=305
1.114607
0.951886
1.052618
1.028776
1.192689
0.980496
1.052618
0.995994
1.020432
1.055598
1.135468
1.057982
1.036525
1.074672
1.115799
0.941753
1.003742
1.134872
1.143813
1.247525
1.368523
1.455545
1.525879
1.526475
1.476407
1.499653
1.685619
1.426935
1.729727
1.785755
1.753569
2.239943
2.158880
2.479553
5.105734
17.690659
71.278811
159.148574
353.143811
546.754003
840.814710
1015.669703
1015.669703
1015.669703
1015.669703
1000.393033
731.660724
510.790944
265.847445
144.675970
55.814981
25.706887
14.809966
17.182827
26.771426
39.421916
60.376525
78.352690
100.891590
114.511847
125.495791
124.773979
112.236738
99.251866
75.452924
59.586763
39.443970
27.674437
16.119480
12.679696
9.708405
9.526610
9.212494
9.351969
9.205937
9.270906
8.981824
8.867979
8.685589
8.872747
8.814931
8.968711
8.887649
8.572936
8.438826
8.658767
8.492470
8.294582
8.382797
8.154511
8.068681
7.926822
8.221865
8.155704
7.572770
7.652640
7.971525
7.957816
8.021593
8.414984
7.954836
8.395910
8.109808
8.259416
8.084774
7.864833
8.025765
8.172989
7.669926
8.180737
7.788539
7.777810
7.796884
7.405877
7.505417
7.104874
##ZVALUE=310
1.081824
1.004934
1.064539
1.038909
0.942945
1.018643
0.887513
0.928640
0.917912
1.098514
1.015663
1.091957
1.072884
1.136661
1.110435
1.200438
1.017451
1.111627
1.070499
1.100898
1.059771
1.188517
1.207590
1.237988
1.296997
1.396537
1.325607
1.416802
1.379848
1.511574
1.518726
1.538992
1.717806
2.051592
2.066493
2.231598
3.002882
7.704496
37.846565
90.555549
225.042701
384.573936
673.042536
901.784897
1015.669703
1015.669703
1015.669703
1015.669703
887.991786
651.514530
369.893909
217.343569
92.025995
41.878819
15.490651
11.999607
16.132593
22.383928
34.552813
49.234629
71.959496
87.539554
106.879473
115.383863
116.350651
111.515522
92.749596
78.468919
54.082870
39.470792
25.079846
17.999411
12.572408
10.348558
8.860826
8.373857
8.202791
7.982850
7.774830
7.775426
7.897615
7.658601
7.919669
8.017421
7.619858
7.719994
7.772446
7.832646
7.877946
7.664561
7.679462
7.770658
7.467866
7.500648
7.516742
7.631779
7.591844
7.430911
8.067489
7.301569
7.651448
7.587671
7.741451
7.679462
7.999539
7.529855
7.716417
7.715821
7.444620
7.740855
7.360578
7.438660
7.035732
7.182956
7.056594
6.820560
##ZVALUE=315
0.954866
0.996590
0.936985
1.015663
1.045465
0.919700
1.119971
0.828505
0.890493
0.976920
0.999570
0.994802
1.107454
1.047850
1.089573
1.104474
1.132488
1.000762
1.043677
1.149774
1.161695
1.012683
1.193881
1.235604
1.220703
1.326799
1.470447
1.345873
1.432896
1.411438
1.483560
1.444817
1.659989
1.600981
1.609921
1.694560
1.916885
2.115965
2.306700
3.592968
19.323826
54.732561
160.012841
295.012593
562.129617
794.506669
1015.669703
1015.669703
1015.669703
1015.669703
986.516476
778.394938
479.796529
296.643972
135.355592
62.745810
19.776821
11.089444
10.721684
12.962818
21.049976
30.330420
47.652721
63.027740
84.914565
97.824931
108.615756
110.256672
101.556778
89.591742
68.757534
53.305626
36.896467
25.633574
16.383529
11.962652
8.927584
7.992983
7.238984
7.362962
7.086992
6.793737
6.981492
7.381439
7.089972
7.184744
7.172823
7.344484
7.307529
7.262826
7.228851
7.323623
6.979704
7.142425
7.085800
7.339716
7.165670
7.132888
6.919503
6.971955
6.689429
7.217526
7.019639
7.270575
7.356405
7.409453
7.148981
7.120967
7.247925
7.481575
7.097721
6.995797
6.834865
6.762743
6.779432
6.383657
##ZVALUE=320
0.960827
0.865459
0.900626
0.847578
1.089573
0.941753
0.986457
0.919700
0.813603
0.855923
0.987649
0.954866
1.002550
0.888705
0.822544
1.044869
1.067519
1.018643
1.163483
1.171827
0.997782
0.993609
0.988841
1.063943
1.201630
1.157522
1.083612
1.221895
1.409650
1.234412
1.518726
1.363754
1.394749
1.530647
1.511574
1.486540
1.597404
1.550913
2.001524
2.032518
2.161860
2.543926
9.156466
29.528737
103.228688
209.442973
421.919823
633.969903
933.836699
1015.669703
1015.669703
1015.669703
1015.669703
913.928747
611.184835
390.629768
178.957582
91.571808
32.049417
14.206767
9.263754
9.706616
12.922883
18.486977
28.967857
41.109920
60.510635
76.733828
93.481541
101.162791
104.537606
97.830892
84.063411
70.548654
51.059723
36.792755
24.285913
16.502738
10.106564
8.645654
7.252693
6.733537
6.595850
6.732941
6.535649
6.467700
6.297827
6.372929
6.548762
6.186962
6.372929
6.541610
6.576777
6.428957
6.524920
6.769896
6.594658
6.553531
6.925464
6.411672
6.810427
6.604791
6.969571
6.700754
6.771684
7.005930
6.816983
6.547570
6.430745
6.433725
6.697774
6.440878
6.374717
6.195903
6.078482
6.113648
##ZVALUE=325
0.917912
0.802875
0.865459
0.880957
0.816584
0.942945
0.890493
0.796914
0.798702
0.946522
0.967979
1.029968
0.959635
0.824928
0.871420
1.051426
0.958443
0.905991
1.071692
0.897646
1.002550
0.974536
1.051426
1.156926
1.099706
1.119971
1.170635
1.208782
0.927448
1.332760
1.286864
1.457930
1.320839
1.177788
1.382828
1.366735
1.435876
1.467466
1.541972
1.733899
1.666546
1.967549
2.288818
1.951456
4.959702
17.311573
66.061616
144.217610
326.315761
522.219539
821.727514
1012.237668
1015.669703
1015.669703
1015.669703
998.385549
697.583556
481.222868
250.052810
135.127902
47.191978
19.245744
8.883476
8.083582
9.079576
11.492968
17.709732
25.728941
42.837858
56.651831
76.509714
87.918639
96.122622
97.817779
90.273619
79.305768
61.301589
46.546459
31.111836
22.500753
14.016628
10.445714
7.574558
6.906986
6.239414
6.453991
6.219745
6.078482
6.072521
6.101727
5.961657
6.084442
5.960464
6.320477
6.170869
6.107688
6.064773
6.118417
6.076694
6.483793
6.211996
6.313920
6.324649
6.175637
6.003976
6.259680
6.095767
6.127954
6.167889
6.094575
6.044507
5.911589
5.901456
5.750656
5.582571
5.744696
##ZVALUE=330
0.827909
0.754595
0.866652
0.957847
0.863671
0.882745
0.941753
0.820756
0.798702
0.848770
0.832677
0.903606
0.870824
0.949502
0.915527
0.870824
0.967979
1.006722
1.010895
1.027584
1.016855
0.891685
1.038909
1.098514
1.151562
0.964999
0.963807
1.146793
1.051426
1.077652
1.123548
1.155734
1.198649
1.105666
1.270771
1.291633
1.246929
1.303554
1.519918
1.467466
1.628995
1.618862
1.692772
1.711845
1.859665
2.052784
2.616644
10.098815
31.746626
82.198977
215.137005
377.925634
671.486855
909.912586
1015.669703
1015.669703
1015.669703
1015.669703
855.547786
629.236698
347.575545
195.753574
75.613856
31.596422
10.458827
7.947683
7.467866
8.166432
11.593699
16.424656
26.342869
37.112832
55.273771
68.034530
81.288815
89.824796
90.963840
85.589886
71.843863
59.327483
42.236447
31.611919
21.305680
14.835596
10.229945
8.278489
6.737709
5.984902
6.075501
5.811453
5.947948
5.946755
5.775690
5.787611
5.692840
5.839467
5.893707
6.093979
5.546808
5.802512
5.930662
6.062984
6.080866
6.052852
6.036758
6.128550
5.767941
5.821586
5.893707
5.751848
5.696416
5.787611
5.620718
5.348921
5.211830
5.273819
##ZVALUE=335
0.876784
0.798702
0.886917
0.851750
0.795722
0.937581
0.808835
0.905991
0.759959
0.897646
0.773668
0.904799
0.861883
0.821948
0.944734
0.925660
0.789762
0.881553
0.911951
0.931621
1.024604
0.987649
1.125932
1.091957
0.915527
0.971556
0.880957
0.941753
1.038909
1.115799
0.965595
1.154542
1.036525
1.109838
1.110435
1.212955
1.193881
1.186728
1.253486
1.344681
1.429915
1.468658
1.376867
1.492500
1.589656
1.680851
2.093911
2.055764
2.009869
4.145503
20.550489
55.717826
158.046484
287.239552
541.531444
782.627463
1015.669703
1015.669703
1015.669703
1015.669703
986.428857
757.910609
453.884006
280.185938
121.863484
53.598881
15.197992
8.375645
7.211566
7.282495
8.543730
10.621548
16.004443
23.178458
35.668612
48.401952
65.050721
75.928569
84.204674
85.002780
77.669621
69.716573
55.508614
43.841600
30.649900
22.338629
14.260411
10.590553
7.607937
6.693602
5.684495
5.628467
5.832911
5.351901
5.268455
5.361438
5.577803
5.292892
5.610585
5.530715
5.399585
5.372763
5.532503
5.520582
5.535483
5.472898
5.577803
5.451441
5.502701
5.685687
5.459785
5.361438
5.566478
5.339980
4.948974
4.852414
##ZVALUE=340
0.630617
0.743866
0.712872
0.789762
0.758767
0.788569
0.863671
0.802875
0.804663
0.867844
0.921488
0.828505
0.910759
0.754595
0.824928
0.760555
0.929832
0.912547
0.754595
0.775456
0.703931
1.017451
1.106858
0.955462
1.010895
1.012683
0.928640
0.909567
0.948906
1.049638
0.833869
0.931621
1.020432
1.060963
1.215935
1.108646
1.137853
1.139641
1.215935
1.231432
1.219511
1.335740
1.258850
1.470447
1.407862
1.538992
1.583695
1.639724
1.712441
1.728535
2.151728
2.523661
10.712743
33.235550
105.283856
214.682817
450.409055
662.685037
943.872929
1015.669703
1015.669703
1015.669703
1001.020670
822.650790
534.152985
342.079997
161.237717
78.277588
21.463633
9.272695
7.152557
7.006526
7.344484
7.675886
10.258555
14.766455
23.001432
33.379793
48.106909
59.101582
71.956515
77.950954
79.599619
75.532794
65.112710
55.322647
40.611625
31.407475
20.323992
14.758706
9.874701
7.549524
6.494522
5.652905
5.400777
5.018711
5.222559
5.024672
5.319715
5.147457
5.049706
5.230904
5.006790
5.229712
5.026460
5.384684
5.130768
5.346537
5.454421
5.379915
5.218983
5.116463
5.117655
5.049706
4.879832
4.790425
##ZVALUE=345
0.683665
0.737906
0.713468
0.838637
0.967979
0.965595
0.819564
0.812411
0.764728
0.793934
0.776649
0.571609
0.714660
0.858903
0.828505
0.756979
0.943542
0.802875
0.844598
0.835657
0.751615
0.925660
0.842810
0.870824
0.878572
0.897646
0.921488
0.963807
0.825524
0.934601
0.981688
1.007915
0.785589
0.874996
0.988841
1.082420
1.067519
0.871420
1.089573
1.149774
0.988841
1.274943
1.141429
1.236796
1.239777
1.524687
1.360774
1.206994
1.429915
1.532435
1.554489
1.779795
1.786947
2.044439
4.840493
16.889572
66.037774
143.149495
314.790010
495.730042
785.277486
988.788605
1015.669703
1015.669703
1015.669703
889.282823
599.891543
391.633511
179.498792
90.952516
33.692718
13.791919
7.365942
7.000566
6.826520
6.486773
6.859899
8.975863
13.568997
20.047426
31.932592
41.698813
54.605603
63.148737
71.226954
72.975755
69.597960
62.809587
50.623417
41.813850
29.237866
21.657944
14.056563
10.185838
7.111430
6.054640
5.351901
4.890561
4.991889
4.802942
5.016923
4.794598
4.976988
5.008578
4.906654
4.919767
4.737973
5.033612
4.996657
5.039573
4.601479
4.990697
4.878640
4.931688
4.781485
4.504919
##ZVALUE=350
0.748634
0.795722
0.720620
0.738502
0.820756
0.760555
0.818968
0.657439
0.749826
0.711679
0.797510
0.826716
0.638962
0.868440
0.807643
0.836849
0.835657
0.785589
0.757575
0.858903
0.709891
0.798702
0.790954
0.913739
0.892878
0.994802
0.795722
0.941753
0.756979
0.894666
0.790954
1.005530
0.947714
0.955462
1.101494
1.046658
1.111627
0.983477
1.026988
1.078844
1.126528
1.080632
0.981688
1.123548
1.126528
1.102686
1.465678
1.283884
1.177788
1.435876
1.352429
1.469851
1.429915
1.591444
1.769662
1.811981
2.777576
8.785725
39.106607
90.861917
225.282907
386.063457
660.490990
862.016678
1015.669703
1015.669703
1015.669703
956.524611
656.775832
435.078740
217.216611
117.231607
44.393539
18.076897
7.731915
6.458759
6.290674
5.583763
5.877614
6.502867
8.788705
11.825562
18.526912
25.620461
37.763715
47.042966
58.223605
63.488483
66.510439
63.861609
57.076812
48.486590
36.846995
29.290915
19.922853
15.049577
9.889603
7.619858
5.947948
5.308986
4.823804
4.831553
4.701614
4.653931
4.687905
4.687905
4.477501
4.574656
4.742742
4.719496
4.645586
4.390478
4.442930
4.710555
4.504919
4.430413
##ZVALUE=355
0.818968
0.773668
0.711679
0.662804
0.797510
0.739694
0.756979
0.852942
0.799894
0.829697
0.807643
0.873804
0.737906
0.686646
0.838637
0.988841
0.802875
0.678897
0.829697
0.871420
0.940561
0.904799
1.062751
0.885725
0.866652
1.096725
0.817776
0.769496
0.863671
0.806451
0.812411
0.953674
0.932813
1.072884
1.034737
1.026988
1.155734
1.096725
1.017451
1.090765
0.996590
1.136661
1.152754
1.138449
1.118779
1.230836
1.266599
1.172423
1.218915
1.151562
1.323819
1.475811
1.282692
1.411438
1.501441
1.504421
1.571774
1.797676
2.240539
4.102588
21.695495
61.262846
167.886615
293.514729
528.247952
737.728477
983.091593
1015.669703
1015.669703
996.347666
740.006566
532.192588
290.861726
154.402852
57.340860
24.672747
8.564591
6.212592
5.856752
5.586743
5.495548
5.371571
6.205440
7.191896
11.016726
15.341640
23.500919
31.153560
42.566657
50.224662
57.128668
60.629845
58.651567
54.292679
45.094490
37.782788
27.853847
20.829439
14.118552
10.632873
7.374883
5.851984
5.120635
4.811883
4.570484
4.645586
4.625916
4.470944
4.448891
4.560947
4.558563
4.384518
4.385710
4.271865
4.119873
4.076958
##ZVALUE=360
0.785589
0.696778
0.793934
0.854731
0.693798
0.857711
0.828505
0.737906
0.898838
0.775456
0.731945
0.649691
0.810623
0.821948
0.737906
0.867844
0.804663
0.818968
0.766516
0.786781
0.839829
0.751615
0.904799
0.823736
0.904799
0.854731
0.832677
1.026988
0.953674
0.869632
1.022816
0.938773
0.983477
1.090765
0.986457
0.870824
0.997782
0.824928
1.022816
1.042485
1.069903
1.222491
0.949502
0.924468
1.102686
1.111627
1.067519
1.351833
1.220703
1.036525
1.200438
1.190901
1.248717
1.252890
1.470447
1.439452
1.565814
1.463890
1.749992
1.818538
2.011657
2.609491
10.766983
32.563806
102.812648
200.466514
407.614708
604.009628
882.994533
1015.669703
1015.669703
1015.669703
892.335773
675.233006
392.979980
229.247808
90.958476
37.785769
11.282563
6.770492
5.867481
5.626678
5.211830
5.119443
5.014539
5.456805
6.678700
8.578897
13.071895
18.359423
26.631951
34.356713
44.571757
50.109625
54.335594
54.538846
50.763488
45.097470
36.098957
29.793978
20.795465
15.884638
10.606647
7.922649
5.839467
5.215406
4.836917
4.507899
4.415512
4.358888
4.146695
4.297495
4.270673
4.230738
4.096627
4.336834
##ZVALUE=365
0.703931
0.760555
0.569820
0.741482
0.843406
0.713468
0.802875
0.724792
0.821948
0.671744
0.712872
0.904799
0.872612
0.734925
0.770688
0.773668
0.809431
0.747442
0.667572
0.807643
0.760555
0.707507
0.741482
0.920892
0.769496
0.903606
0.921488
0.946522
0.645518
1.158714
0.840425
1.020432
1.027584
0.943542
0.813603
0.855923
1.139641
0.946522
0.886917
1.092553
0.993609
0.989437
1.021624
0.958443
1.103878
1.112819
0.966787
1.090765
1.092553
1.068711
1.128912
1.068711
1.274943
1.273751
1.284480
1.229644
1.360774
1.369715
1.504421
1.535416
1.749992
1.809597
2.014637
2.362728
4.863739
16.395450
63.643456
139.859915
320.842862
507.929921
773.112774
943.357944
1015.669703
1015.669703
989.305973
805.727839
498.796701
297.641754
121.779442
54.799914
17.201900
7.891655
5.645752
5.468726
5.147457
4.845858
4.634857
4.275441
4.731417
5.539656
7.608533
10.539889
16.064644
22.049546
30.489564
37.023425
44.734478
48.575997
50.773621
49.094558
43.391585
37.389994
29.734969
23.416877
15.779734
11.677742
8.296967
6.263852
5.307794
4.551411
4.369617
3.904700
3.940463
3.980994
3.830791
3.759861
##ZVALUE=370
0.816584
0.773668
0.787973
0.647902
0.745654
0.684857
0.781417
0.702739
0.613928
0.690818
0.745654
0.918508
0.930429
0.773668
0.862479
0.827909
0.883937
0.743866
0.818968
0.859499
0.652671
0.672936
0.769496
0.764728
0.935793
0.698566
0.817776
1.023412
0.941753
0.723600
0.937581
0.911951
0.792742
0.799894
0.947714
0.730753
0.837445
0.940561
0.895858
0.907779
0.878572
1.050830
0.993609
1.054406
1.021624
0.937581
0.901818
0.994802
1.066923
1.049638
1.058578
1.091957
1.162887
1.185536
1.288652
1.037717
1.113415
1.231432
1.304746
1.258850
1.366735
1.509786
1.515746
1.684427
1.768470
1.938939
2.955794
8.723736
43.154955
105.917454
253.260732
404.244661
655.938983
844.838619
1013.607979
1015.669703
996.285677
839.075446
571.179986
372.616649
179.382563
85.416436
28.027892
11.478662
5.712509
5.002618
4.757643
4.514456
4.265904
4.020929
4.111528
3.995895
5.139709
6.397963
9.257793
12.788773
19.621849
25.395751
34.404993
40.015578
45.635700
47.395825
46.426654
43.358803
36.614537
29.984713
22.662878
16.019940
12.499690
8.506775
6.685853
5.253553
4.681945
4.316568
3.986955
3.709793
##ZVALUE=375
0.709891
0.734925
0.837445
0.720620
0.785589
0.740886
0.608563
0.621676
0.667572
0.724792
0.713468
0.668764
0.753999
0.781417
0.755787
0.751615
0.842810
0.772476
0.692606
0.679493
0.715852
0.776649
0.827909
0.732541
0.934601
0.856519
0.836849
0.769496
0.780821
0.833869
0.961423
0.826716
0.829697
0.824928
0.825524
0.835657
0.872612
0.817776
0.858903
0.796914
0.776649
1.001954
0.913739
0.858903
0.754595
0.970960
0.819564
0.957847
0.958443
0.887513
1.027584
1.030564
1.176000
0.957847
1.046658
0.909567
1.079440
1.145601
1.164675
1.163483
1.214743
1.229644
1.233816
1.304746
1.517534
1.542568
1.737475
1.912713
2.274513
5.079508
25.706887
65.052509
169.250965
305.167437
548.505783
740.778446
956.525803
1015.669703
1015.669703
943.464637
705.371499
512.634516
294.801593
166.232586
60.653687
23.519993
7.104874
5.123615
4.336834
4.464984
4.187822
4.044771
3.936887
3.975630
4.242659
4.576445
5.781651
7.621646
11.734962
16.168952
23.061633
29.157996
37.046671
41.540861
45.067668
45.154691
42.505860
36.602616
31.449795
24.859905
19.305944
14.128685
10.994673
7.466674
6.024837
4.747510
##ZVALUE=380
0.717640
0.677705
0.722408
0.822544
0.708699
0.655651
0.733733
0.580549
0.666976
0.672936
0.690818
0.734925
0.886917
0.780821
0.776649
0.725985
0.722408
0.752807
0.657439
0.722408
0.812411
0.841618
0.850558
0.680685
0.853539
0.695586
0.892878
0.947714
0.743866
0.853539
0.643730
0.700951
0.712872
0.839829
0.775456
0.927448
0.895858
0.856519
0.918508
0.889897
0.926852
0.951886
0.885725
0.857711
1.033545
0.908971
0.898838
0.911951
0.909567
0.792742
0.991821
1.047850
1.020432
1.050830
0.954866
1.164675
1.061559
0.817776
1.037717
1.084805
1.131892
1.184940
1.272559
1.133680
1.215935
1.237988
1.437664
1.509786
1.672506
1.899600
2.179742
3.098845
14.770627
44.001937
133.050680
248.853564
467.931032
675.460696
920.020938
1015.669703
1015.669703
986.340642
804.253817
627.212524
390.529633
242.539644
104.901791
47.505498
11.983514
5.693436
4.732609
4.703999
4.617572
5.067587
4.626513
4.729629
4.716516
4.803538
5.349517
6.072521
8.354783
10.734797
15.385747
20.837784
27.949810
33.854842
39.801002
43.329597
44.332743
42.018890
39.077997
32.356977
27.586818
20.233989
15.795827
11.112690
##ZVALUE=385
0.663996
0.685453
0.777841
0.739694
0.596642
0.775456
0.740886
0.771880
0.709891
0.722408
0.664592
0.580549
0.654459
0.618696
0.745654
0.733733
0.638962
0.683665
0.773668
0.588894
0.708699
0.627637
0.759959
0.786781
0.700951
0.713468
0.822544
0.757575
0.766516
0.722408
0.768900
0.899434
0.668764
0.650883
0.851750
0.815988
0.915527
0.930429
0.869632
0.880957
0.838637
0.905991
0.905991
0.849962
0.894666
0.953674
0.905991
0.929832
0.840425
1.005530
0.855923
0.875592
0.881553
0.935793
0.814795
1.022816
0.913739
0.905991
0.996590
1.045465
1.010895
1.099706
1.144409
1.167655
1.110435
1.226664
1.275539
1.271963
1.537800
1.541972
1.943707
1.886487
2.017617
2.250671
6.503463
24.100542
91.190934
190.951824
397.119522
587.072968
831.988454
979.916453
1015.669703
1012.054682
858.422518
685.037971
441.786647
287.267566
135.937929
66.702962
20.057559
8.005500
5.187988
5.239844
5.011559
5.123615
5.423427
5.515814
5.554557
5.303621
5.455613
5.468726
6.144643
7.330775
9.916425
13.010502
18.441677
24.881959
29.850602
35.544634
38.930774
41.072965
41.145682
37.260652
33.711791
27.083755
##ZVALUE=390
0.714660
0.583529
0.680685
0.723600
0.522733
0.657439
0.544786
0.665784
0.576973
0.633597
0.694990
0.694990
0.703931
0.703931
0.745654
0.646710
0.843406
0.652671
0.685453
0.766516
0.640750
0.760555
0.720620
0.785589
0.607967
0.712872
0.752807
0.632405
0.749826
1.026988
0.732541
0.801682
0.834465
0.915527
0.869632
0.943542
1.026988
0.886917
0.856519
0.943542
1.015663
0.990629
0.982881
0.988841
1.096725
0.862479
0.951886
1.012683
1.059771
0.901818
0.951886
0.924468
0.949502
0.953674
0.927448
0.895858
0.977516
0.929832
1.079440
1.067519
1.169443
1.149774
0.907779
1.041889
1.195669
1.124740
1.128912
1.391768
1.416802
1.551509
1.585484
1.744628
1.891851
1.749992
1.852512
1.815557
3.400445
13.647676
60.814619
136.353970
301.879644
478.983521
736.091733
908.910632
1015.669703
1015.669703
956.732035
798.570514
538.804531
354.334712
166.883469
84.591508
29.001832
12.082458
5.900860
5.320907
5.330443
5.296469
5.421638
5.405545
5.224943
5.029440
5.092621
4.815459
4.874468
5.560517
6.767511
8.807778
10.993481
15.741587
20.327568
26.275516
31.066537
35.865903
37.369728
38.420558
##ZVALUE=395
0.625849
0.850558
0.696778
0.688434
0.771880
0.682473
0.564456
0.510812
0.713468
0.607967
0.632405
0.681877
0.619888
0.801682
0.752807
0.651479
0.655651
0.585914
0.801682
0.752807
0.653863
0.700951
0.582933
0.721812
0.670552
0.703931
0.677705
0.779629
0.685453
0.730753
0.718832
0.781417
0.864863
0.893474
0.861883
0.871420
1.101494
1.045465
1.155734
1.167655
0.962615
1.161695
1.139641
1.109838
1.103878
1.004934
1.018643
1.067519
0.978708
1.145601
0.962615
1.243949
1.011491
0.974536
1.028776
1.047850
1.222491
0.987649
0.978708
0.909567
1.201630
1.005530
1.190901
1.186728
1.051426
1.253486
1.091957
1.349449
1.447797
1.437664
1.568794
1.592636
1.649857
1.496673
1.546741
1.583695
1.780987
1.929998
2.439618
6.894469
34.731627
88.641644
216.834545
364.562869
619.705915
817.615986
1011.184454
1015.669703
1015.669703
900.255442
634.409785
434.518456
223.304629
118.781924
45.884848
20.268559
7.695556
5.832911
5.711913
5.385876
5.791783
5.715489
5.653501
5.851984
5.386472
5.308986
5.279779
5.289912
5.383492
6.428957
7.316470
10.114908
12.921691
18.381476
22.575855
29.099584
##ZVALUE=400
0.931621
0.824928
0.710487
0.548959
0.751615
0.611544
0.621676
0.697970
0.613928
0.713468
0.710487
0.787973
0.686646
0.713468
0.560880
0.765920
0.576973
0.629425
0.790954
0.581741
0.788569
0.545979
0.702739
0.677705
0.731945
0.730753
0.872612
0.746846
0.791550
0.877976
0.766516
0.771880
0.914931
0.785589
0.877976
0.860691
0.982881
0.960827
0.952482
1.053810
1.023412
1.129508
1.107454
0.977516
1.032948
1.044869
1.160502
1.028776
1.125932
1.049638
0.928640
0.737906
0.989437
0.941753
1.130700
1.067519
0.998974
1.028776
0.876784
0.970960
1.210570
1.135468
1.140833
1.177788
1.369715
1.099706
1.296997
1.333952
1.335740
1.502633
1.656413
1.532435
1.571774
1.681447
1.535416
1.527667
1.404881
1.527667
1.678467
1.745820
2.050996
3.702641
18.257499
51.306486
149.083734
274.965763
510.931611
709.986687
949.146748
1015.669703
1015.669703
970.391035
738.511682
532.015562
296.914577
174.026489
72.823763
34.173727
11.769533
7.665753
6.957650
6.813407
6.898642
6.859899
6.729960
6.954670
7.018447
6.668568
6.629825
6.719828
6.410480
6.580949
7.062554
7.966757
9.757876
12.957454
##END
