##TITLE=FSH751
##FORMAT=SPECTACLE-ASCII V-1.2
##DATA TYPE=ULTRAVIOLET SPECTRUM
##SECOND TYPE=ULTRAVIOLET SPECTRUM
##DATE=04/30/18
##TIME=14:54:17
##SPECTROMETER/DATA SYSTEM=SPECTACLE
##XUNITS=NM EM
##YUNITS=ENERGY
##YFACTOR=1
##FIRSTX=220
##LASTX=410
##NPOINTS=96
##3DDATA=Equidistant
##ZUNITS=NM EX
##FIRSTZ=210
##LASTZ=400
##ZPOINTS=39
##XYDATA=(Y..Y)
##ZVALUE=210
11.789799
12.496710
10.488629
8.889437
6.739497
7.126927
6.188750
6.229877
5.721450
4.851818
3.709793
3.651977
2.847910
2.986789
3.320575
3.287792
3.161430
3.467798
3.459454
3.581643
3.680587
4.306436
5.373955
5.282760
5.303621
6.814599
8.527637
10.131598
12.800694
13.386607
16.487837
18.049479
20.706654
20.899773
20.589828
24.677515
23.344755
23.387671
23.046732
20.096898
19.628406
20.443797
17.998815
17.650723
16.092658
15.864968
15.089512
13.689995
13.509989
13.392568
12.103915
12.738705
12.280941
10.702610
10.637641
10.656714
10.575652
10.562539
10.711551
10.387897
9.743571
9.633899
9.768605
9.371638
10.143518
10.362864
10.089874
11.727810
11.728406
15.179515
16.488433
20.811558
23.597479
28.287768
28.335452
31.063557
32.778978
32.482743
34.851432
32.634735
28.190613
26.784539
25.096536
19.828677
16.651750
14.565587
10.840893
9.940863
9.353757
10.414720
10.321736
11.700988
15.969872
17.984509
19.013882
21.542907
##ZVALUE=215
41.033626
37.630796
32.294989
23.762584
18.816590
14.772415
13.002753
12.682676
12.825727
11.965632
9.682775
8.276701
7.090569
6.010532
4.752874
4.355907
3.520846
4.075766
3.702641
3.538728
4.658699
4.719496
4.821420
5.274415
6.231666
8.035898
10.011792
12.617707
14.609694
19.030571
20.437837
24.518967
25.661588
27.968884
28.079748
29.638410
28.309822
28.079748
28.628707
27.089715
27.683973
25.764704
24.799705
22.895932
21.158457
20.285845
19.744635
18.589497
16.043782
16.011596
14.219880
13.257861
13.759732
14.570951
12.280941
13.002753
11.414886
11.304617
11.601448
11.007786
10.710955
10.552406
10.888577
10.874867
12.126565
11.231899
12.003779
12.625456
12.725592
13.904572
16.827583
19.228458
22.718906
25.321841
25.892854
27.964711
31.852722
30.854940
28.816462
28.365850
26.604533
22.485852
21.257997
17.430782
16.142726
12.995601
11.181831
10.052919
9.683967
9.873509
9.091496
9.902716
9.070635
9.559989
10.361671
13.428926
##ZVALUE=220
91.443658
90.140700
89.228749
82.176924
68.435669
53.426623
40.801764
28.098822
23.596883
21.165609
21.143556
21.679997
19.291639
16.356707
14.312863
10.612607
7.636547
6.315708
4.718900
4.208684
4.978776
5.230904
4.988909
5.047917
6.345510
9.408593
11.419654
13.896823
19.808412
22.150874
24.930835
30.273795
32.266974
34.448504
37.440658
38.059950
36.908984
39.115548
35.247803
33.127666
33.220649
30.971766
29.055476
28.809905
25.571585
23.206472
23.636818
22.447705
20.696521
19.214749
20.137429
17.979741
16.468763
16.346574
14.428496
15.760660
14.542937
13.362765
12.201667
12.240410
12.430549
11.375546
12.350678
12.908578
12.379885
11.316538
12.021661
11.062622
12.983680
13.866425
16.625524
18.345714
20.992756
23.874640
25.959611
25.454760
27.476549
25.727749
25.664568
23.956895
23.717880
21.443963
18.960834
14.890432
13.854504
11.181831
11.046529
8.988976
9.180903
8.773804
9.505749
8.576512
8.690953
7.646680
8.180737
8.409619
##ZVALUE=225
114.281774
116.235614
139.055848
162.746906
169.491768
159.416795
140.052438
103.826523
76.406002
61.252713
40.134788
35.236478
35.380721
37.391782
33.441782
32.016635
24.139881
21.408796
14.085770
10.438561
6.915927
5.477667
5.177855
5.783439
7.151961
9.628534
10.699630
16.909838
17.830729
22.328496
28.109550
30.085444
31.626821
35.123825
36.932826
35.694838
35.854578
34.551620
34.475923
33.115745
30.251741
31.006932
29.549599
26.876926
24.421811
22.757649
22.067428
21.394491
20.452738
18.630624
18.737912
18.517971
16.274452
14.801621
14.205575
15.800595
14.580488
14.065504
11.887550
13.226867
12.638569
11.622906
11.959672
12.262464
10.132790
11.763573
10.410547
12.932420
11.905432
12.902617
13.528466
16.008615
17.489791
17.410517
17.899871
18.128753
19.955635
19.170642
18.588901
16.779900
16.783476
15.956759
14.645457
11.560917
12.360811
11.164546
9.866953
10.128617
8.254647
8.048415
7.238984
7.349849
7.912517
7.401705
7.495880
8.227825
##ZVALUE=230
79.833865
86.664557
127.554536
189.402699
230.761766
264.923573
275.388956
253.866911
213.789940
173.926950
113.181472
84.281564
58.219433
51.660538
51.988959
56.155920
57.067871
56.600571
48.472881
38.570762
28.501749
19.209981
14.361739
9.385943
7.940531
7.950664
9.532571
11.127591
13.196468
17.244816
19.145608
20.372868
21.064878
25.272965
25.611520
25.103688
24.859905
25.448799
25.376678
24.022460
23.203492
22.973418
20.599961
20.554662
18.275976
18.467903
17.556548
15.457869
15.091896
15.057921
14.841557
14.007688
15.246868
14.166832
12.413859
12.110472
12.084842
12.221932
12.651682
11.677742
11.313558
11.104941
11.130571
11.699796
10.660887
10.589957
11.159778
11.696815
11.318922
11.876822
13.894439
13.927817
15.653968
16.562939
18.722415
17.266870
15.932918
16.216636
15.242696
15.441775
12.836456
13.458729
10.292530
11.234879
10.827780
8.686781
9.507537
8.823872
8.797646
8.777976
8.281469
8.577704
8.922815
7.777810
8.686781
7.092953
##ZVALUE=235
22.653937
24.178624
57.691932
102.964640
180.365443
251.755714
354.030728
425.771475
484.067798
477.290750
423.714519
345.480442
261.642933
156.856775
117.632747
83.811879
80.215931
83.609819
84.374547
86.905956
76.583624
71.823597
50.132871
35.974979
25.530457
19.122958
12.708902
9.959936
10.792613
10.892749
11.603832
13.419986
14.949441
15.688539
16.847849
15.875697
15.776753
15.561581
15.285611
15.816689
15.699863
15.585423
15.462637
13.780594
14.555454
13.623834
13.078451
14.327765
12.479424
11.729598
11.924505
11.098981
12.059808
13.543963
11.804700
11.065602
11.749864
11.335611
11.229515
11.939406
12.593865
11.485815
11.848807
12.048483
11.834502
11.767745
11.556745
12.478828
12.929440
14.460683
15.202761
15.952587
16.695857
18.194914
17.783642
20.066500
19.268990
17.523766
19.545555
18.320680
15.280843
14.292598
12.852550
11.653900
12.528896
11.900663
11.814833
10.688901
9.043813
9.789467
9.791851
9.195805
8.641481
10.287762
8.714795
9.332895
##ZVALUE=240
2.460480
2.251863
9.156466
23.352504
61.966777
115.077496
223.946571
322.063565
480.396748
565.575957
642.052889
628.841519
576.688647
460.191965
350.727439
224.754810
161.320567
113.457441
103.587508
102.987885
113.104582
118.502975
113.696456
104.950666
84.098577
67.987442
44.584870
34.393668
22.412539
15.952587
12.980700
11.309981
11.312962
11.321902
12.013912
12.891889
13.212562
11.009574
11.241436
13.958812
13.292432
13.849735
12.103915
12.724996
12.155771
13.303757
13.518929
12.755990
12.871623
12.838840
13.227463
12.774467
11.741519
10.756850
11.870861
10.408759
10.635853
12.405515
12.389421
10.550618
11.425614
11.573434
11.658669
10.698438
9.891987
10.807514
11.384487
11.670589
12.782812
13.767481
14.734864
14.968514
15.182495
15.754700
17.184615
16.967654
17.275810
16.532540
16.274452
15.603900
14.039874
14.442801
13.712645
12.364984
12.224913
11.354685
10.667443
11.024475
10.803938
11.367798
11.063814
10.070801
10.480881
10.527968
9.650588
9.441972
##ZVALUE=245
1.447797
1.875758
1.959801
2.354980
4.445910
13.678670
45.682788
91.986656
206.084847
311.923623
479.964614
590.022802
669.696927
688.654780
647.505522
535.633564
429.545641
282.034874
199.658871
125.917792
102.941990
98.418593
115.173459
122.808814
130.735636
126.754642
114.488602
98.074675
76.680779
54.262877
41.333437
26.442409
20.217896
14.964938
13.323426
12.760758
13.206601
13.800859
12.846589
15.239716
14.428496
13.227463
13.370514
14.007688
12.880564
13.471842
13.775826
12.954473
13.564825
12.606978
11.213422
12.193918
10.966659
11.161566
11.844635
11.104941
11.141896
10.639429
11.171699
10.635853
9.755492
9.735823
9.589791
9.259582
10.253787
10.255575
10.823607
9.332895
11.596680
12.585521
11.596680
12.407899
16.343594
13.578534
15.590787
16.429424
16.078949
15.080571
15.228987
14.174581
13.145804
12.543797
12.352467
11.477470
10.536909
10.578632
10.365844
10.667443
9.792447
9.589791
10.717511
9.592772
9.586811
9.946823
9.428859
9.383559
##ZVALUE=250
1.473427
1.222491
1.463890
2.123713
2.077818
1.922846
3.039837
8.219481
38.471818
86.269975
208.760500
343.460441
487.807989
678.812861
793.203712
853.768587
836.236477
727.053881
592.984557
408.314466
272.986889
177.478790
108.234882
97.050667
107.348561
120.755434
138.295889
141.672492
139.457583
128.543973
108.712912
85.953474
66.508651
43.382645
32.964945
23.089647
19.895434
18.845797
17.366409
17.114878
18.542409
18.240809
17.311573
15.935898
16.747713
15.813708
15.690923
14.241934
13.621449
14.614463
14.067888
12.587905
12.630820
11.988878
12.051463
11.804700
10.589957
10.591745
10.690689
10.101795
10.225773
9.394884
9.736419
8.863807
8.751750
9.456873
9.881854
9.715557
9.742975
11.660457
10.882616
12.582541
13.912916
13.869405
14.435649
14.456511
14.175773
14.356971
14.847517
13.616681
12.383461
12.688637
11.188984
10.711551
9.756684
9.472966
9.549856
10.094643
9.111762
9.674430
9.212494
8.570552
8.978844
8.894801
8.274913
9.225607
##ZVALUE=255
1.176000
1.351833
1.320839
1.366735
1.384616
1.522899
1.808405
1.788735
2.122521
4.797578
20.895600
62.010884
176.245570
308.973789
512.179732
695.860982
906.936526
971.947908
969.806910
906.558037
728.417635
560.556650
342.372656
220.889449
145.527720
96.619725
91.609955
108.017921
128.745437
147.153735
155.839920
153.004527
142.234564
120.121837
99.316835
73.399544
56.257844
37.773848
28.993487
25.628805
21.999478
22.810698
21.430850
20.808578
20.275712
18.577576
18.952489
17.011762
16.511679
16.370416
15.346408
14.129877
13.671517
13.549924
11.610985
12.007952
11.020899
10.249615
9.728670
9.842515
9.536743
8.706450
8.960962
8.506775
9.357929
8.219481
8.647442
8.754730
9.411573
9.383559
9.556413
11.812449
12.094975
11.856556
12.706518
12.354851
11.704564
12.584925
12.068748
11.682510
10.191798
10.039806
9.336472
8.770823
8.526444
8.220673
8.126497
8.265972
7.511973
8.063912
7.973909
7.453561
6.903410
7.327795
7.284880
7.580519
##ZVALUE=260
1.320839
1.113415
1.128912
0.923872
1.167655
1.341701
1.303554
1.586676
1.821518
1.730919
1.857877
2.923608
9.303689
41.025877
95.673800
236.815810
370.410681
590.523481
761.355758
929.427743
1001.373529
991.479754
854.319930
701.313019
465.977788
319.134593
184.805989
124.103427
89.842677
95.508695
114.825964
144.342780
160.221457
172.199607
174.072981
157.943964
138.449669
106.960535
82.651973
59.871674
46.493411
35.302639
28.920770
25.256872
24.982691
21.768808
21.466613
18.951893
18.733740
17.503500
17.306805
15.831590
14.029741
13.626814
13.718605
12.406707
11.611581
10.112524
9.718537
9.035468
8.971691
8.787513
7.909536
7.773638
7.984638
7.285476
8.089542
7.749796
8.278489
8.614659
8.289814
8.422732
9.200573
9.557605
8.910894
9.639859
9.147525
9.293556
8.196831
8.154511
8.607507
7.628798
7.675886
7.567406
6.939769
6.627440
6.531477
6.646514
6.654859
6.343722
6.405711
6.627440
6.975532
6.988645
6.508827
6.566644
##ZVALUE=265
1.226664
1.086593
1.196861
1.262426
1.151562
1.558661
1.120567
1.481771
1.381636
1.357794
1.529455
1.768470
1.845956
2.032518
4.851818
23.166537
55.652857
143.474936
251.985788
460.239649
648.109913
834.096670
999.405980
1016.240716
958.976746
824.986696
604.203939
434.335470
243.434906
158.841610
110.870004
91.138482
105.327964
137.468576
160.075426
178.142786
184.417963
177.498460
162.350535
133.003592
113.365650
82.150698
61.479807
42.323470
35.174489
26.375651
23.567677
21.598935
20.663738
18.795729
17.701983
16.711950
16.034842
14.545918
13.950467
13.365746
12.436509
11.398792
10.931492
10.289550
8.732677
8.889437
8.800626
8.191466
8.324981
8.193851
8.279681
7.708669
7.857680
8.107424
8.443594
8.773804
8.987784
9.120703
9.317994
8.979440
8.786917
8.659959
8.041859
8.397698
7.223487
7.418990
7.752776
7.418990
7.369518
6.917715
6.926656
6.728768
6.890893
6.537437
6.214976
6.467700
6.759763
6.562471
6.465912
6.487966
##ZVALUE=270
0.871420
0.900626
1.006722
1.015663
1.062751
1.119971
0.955462
1.224875
1.187921
0.999570
1.315475
1.306534
1.269579
1.342893
1.975894
1.663566
2.092719
10.040402
31.166673
98.866820
194.413662
333.590508
589.424968
805.994868
1016.030908
1016.030908
1016.030908
1016.030908
984.628797
753.818750
532.421470
290.723443
167.686939
92.691779
89.140534
113.371611
134.625435
160.969496
181.113482
185.443759
180.251598
158.701539
135.407448
104.708672
80.667734
53.903461
40.312409
30.348897
22.892952
19.511580
17.465949
16.700625
15.403628
15.247464
14.084578
12.359619
11.476874
11.707544
10.404587
10.161996
9.893775
9.383559
9.114742
7.942915
8.203983
8.359551
7.886887
7.713437
7.927418
7.526875
8.320808
8.361936
8.477569
8.799434
8.922815
8.707643
8.614659
8.131862
7.969737
7.565618
7.391572
6.745458
6.803870
6.212592
6.325841
6.371737
6.710887
6.358624
6.183982
5.817413
6.125569
5.859733
5.337000
5.460978
5.754828
5.597472
##ZVALUE=275
0.789762
0.805855
0.607967
0.694990
0.757575
0.847578
0.952482
0.972748
1.082420
1.127720
0.893474
1.128912
1.116991
1.488924
1.197457
1.287460
1.508594
1.754761
1.827478
4.619956
18.003583
52.599907
152.665973
280.785561
517.856479
709.411502
973.816514
1016.032696
1016.032696
1016.032696
1016.032696
997.740626
755.215883
423.838496
250.079632
111.589432
75.890422
78.982711
99.763870
128.430724
148.866773
166.782737
172.407627
166.830420
151.768923
119.283795
99.216700
70.066452
52.222610
32.744408
24.987459
17.788410
14.647841
12.353659
12.934804
11.583567
10.975599
10.288954
9.985566
9.499788
9.306669
8.718967
8.534789
8.640885
8.631945
7.819533
7.795691
7.692575
7.743835
8.457899
7.741451
8.133650
8.437634
8.842945
8.901954
8.575916
8.160472
8.080602
7.399917
7.350445
6.860495
6.807446
6.143451
6.404519
6.336570
5.744696
6.179810
5.847812
5.679727
5.725622
5.744696
5.342960
5.326867
5.694628
5.304813
5.508661
##ZVALUE=280
0.713468
0.767708
0.876784
0.868440
1.040697
0.648499
0.920892
0.850558
0.754595
0.910759
0.869632
1.256466
0.873804
1.046658
0.892878
1.295805
1.471639
1.268983
1.303554
1.538992
1.772642
2.477765
11.915565
39.140582
120.664835
221.566558
414.012671
611.792803
880.953670
1016.037464
1016.037464
1016.037464
1016.037464
1009.906530
802.157521
480.960608
294.423699
129.669905
69.394708
51.042438
62.139630
89.074969
111.856461
137.959719
154.264569
159.894824
154.586434
136.518478
116.408467
86.092949
66.028833
42.914748
29.536486
19.193888
13.393760
10.587573
9.666681
8.804798
9.252429
8.942485
8.593798
8.463860
8.597970
8.100867
8.399487
7.525682
7.721782
7.612705
7.978678
7.669926
8.124709
8.226633
8.406639
8.342862
8.609891
8.232594
8.535981
7.514954
7.423759
6.657839
7.058978
6.357431
6.812811
5.862713
5.883574
5.741715
5.729795
5.557537
5.864501
5.175471
5.412698
5.498528
5.714893
5.144477
4.966855
5.412698
##ZVALUE=285
0.674725
0.562668
0.509620
0.551939
0.571609
0.756979
0.642538
0.541806
0.839829
0.781417
0.717640
0.963807
0.881553
0.886917
0.892878
1.198649
1.002550
1.113415
1.009703
1.286864
1.321435
1.259446
1.499653
1.802444
5.361438
19.553900
68.233609
143.389702
311.873555
476.232767
732.944012
916.959643
1016.031504
1016.031504
1016.031504
938.245654
686.918497
484.109521
262.659788
153.142810
66.775680
39.339662
38.933754
52.257776
78.922510
99.055767
126.695633
140.376687
151.276588
148.197412
132.516623
114.376545
85.704923
65.092444
41.273832
28.079748
16.576648
12.441874
9.071827
8.287430
7.493496
7.586479
7.425547
7.588863
7.090569
7.290840
7.403493
7.206798
7.374883
8.167624
8.101463
8.002520
8.047819
8.389950
7.398725
7.868409
7.750988
7.249713
6.960630
6.527901
6.597638
6.280541
6.350875
6.118417
5.785823
5.705953
5.545616
5.206466
5.570650
4.710555
5.273819
5.039573
4.937649
4.984736
5.072951
4.745722
##ZVALUE=290
0.606775
0.529885
0.620484
0.476837
0.438690
0.592470
0.404716
0.630617
0.505447
0.707507
0.666976
0.760555
0.718832
0.753999
0.815988
0.884533
0.921488
1.003742
0.925660
0.950694
1.060963
0.893474
1.304746
1.207590
1.316667
1.868606
2.346635
8.359551
38.601756
89.199543
213.267803
358.273983
616.493821
820.540786
1016.066670
1016.066670
1016.066670
996.658802
766.627789
573.223829
339.771509
203.913450
89.473724
46.239495
27.745962
32.784939
51.521659
69.436431
96.084476
116.722584
138.135552
143.160820
141.538978
131.418705
107.842684
86.306930
57.919621
41.223764
25.339723
17.273426
11.333823
8.599758
8.180737
7.404685
7.038713
7.063746
7.043481
7.214546
7.516742
7.353425
7.434487
7.433891
7.471442
7.802844
7.600784
7.579923
7.071495
7.115602
6.766915
6.619692
6.184578
5.834699
5.666614
5.935431
5.676746
5.776882
5.297661
5.343556
5.498528
5.366802
5.243421
5.434752
5.016923
5.085468
4.724860
4.905462
##ZVALUE=295
0.407696
0.545979
0.563860
0.553727
0.415444
0.639558
0.593662
0.806451
0.402927
0.507832
0.751615
0.673532
0.756979
0.792742
0.679493
0.746846
0.793934
0.819564
0.885725
0.733733
0.913739
0.791550
0.988841
0.901818
1.122952
1.293421
1.392961
1.529455
1.914501
3.647804
19.413829
52.629709
150.537491
274.387002
511.910915
710.968971
960.123539
1016.032696
1016.032696
1016.032696
866.962671
681.520700
427.281857
266.092420
122.010708
60.245991
25.041699
21.410584
31.644702
45.351982
69.632530
88.899732
114.161968
127.162933
137.873888
137.949586
121.836662
105.596781
79.500675
61.022639
39.635897
27.370453
16.420484
12.103915
8.533597
7.306933
6.763935
7.031560
6.676912
7.053614
6.923676
6.983876
7.077456
7.528663
7.161498
7.013679
6.877780
6.647706
6.533861
6.245971
6.426573
5.908608
6.005764
5.912781
5.575418
5.281568
5.368590
5.428791
5.234480
5.074739
4.847646
4.664660
4.795790
4.570484
4.973412
4.676580
##ZVALUE=300
0.552535
0.446439
0.454783
0.510812
0.475645
0.427961
0.532866
0.626445
0.615716
0.593662
0.477433
0.567436
0.567436
0.592470
0.541806
0.629425
0.730753
0.521541
0.596642
0.816584
0.807643
0.883937
0.977516
0.926852
0.916719
1.099706
1.133680
1.252890
1.454949
1.278520
1.448989
1.948476
8.556843
30.223727
100.892782
195.436478
398.132801
599.100590
869.405866
1009.203792
1016.032696
1016.032696
973.663926
795.912743
530.033708
344.566703
173.539519
92.953444
35.104752
19.213557
19.148588
26.593804
43.055415
59.325695
84.104538
102.726817
123.341680
130.228996
128.863454
120.500922
100.332499
82.030892
57.555437
42.155981
26.180744
17.106533
10.593534
8.687973
6.956458
6.270409
6.786585
6.811619
6.896853
6.709695
6.448627
6.418824
6.583929
6.639957
6.044507
6.079674
5.777478
6.004572
5.781651
5.633831
5.284548
5.310774
5.130768
5.356669
5.219579
4.735589
4.739761
4.692674
4.570484
4.755855
4.747510
4.521608
##ZVALUE=305
0.440478
0.431538
0.389814
0.312924
0.513792
0.683665
0.529885
0.396967
0.472665
0.359416
0.403523
0.574589
0.591874
0.524521
0.578761
0.600815
0.644922
0.566840
0.530481
0.752807
0.576973
0.700951
0.759959
0.721812
0.705719
0.775456
0.813603
0.799894
1.020432
1.089573
1.201630
1.422763
1.422763
1.590848
3.553629
21.365881
59.227943
164.364576
289.621949
515.235662
711.366534
946.421027
1016.031504
1016.031504
1016.031504
839.336514
654.847622
404.099822
254.439712
119.497776
58.100820
20.811558
13.323426
16.956925
23.825765
40.575862
55.605769
80.546737
97.859502
115.075707
121.284723
121.591687
113.370419
95.078945
78.064799
54.851770
38.573742
23.211837
15.556812
10.046959
7.938743
6.649494
6.544590
6.649494
5.951524
6.358624
6.097555
5.977750
5.771518
5.434752
5.506873
5.522966
5.450845
5.087852
5.469918
5.383492
5.269647
5.150437
5.004406
4.823804
4.698634
4.898906
4.657507
4.510880
4.569888
4.280806
##ZVALUE=310
0.467896
0.425577
0.416636
0.460744
0.457764
0.220537
0.423789
0.346899
0.294447
0.376701
0.553727
0.511408
0.454783
0.529885
0.540614
0.597835
0.591874
0.487566
0.505447
0.554919
0.632405
0.695586
0.619888
0.622869
0.638962
0.687838
0.653863
0.917912
0.738502
0.979900
0.973940
1.037717
1.047850
1.336932
1.383424
1.676679
1.990795
8.261800
28.694868
96.714497
192.467570
389.216542
585.861802
848.261714
1005.102992
1016.031504
1016.031504
959.124565
791.992545
534.078479
355.730653
179.065466
95.999837
33.741593
15.697479
11.384487
14.300942
22.266507
32.542944
51.331520
67.817569
90.207458
104.150772
114.523768
115.825534
105.614662
93.358755
74.909925
55.539608
36.779642
25.947690
15.718937
11.210442
7.365942
6.343722
5.611777
5.595684
5.349517
5.047917
4.982948
4.994869
4.984736
5.148649
5.020499
5.083680
4.719496
4.969835
4.806519
4.694462
4.493594
4.668832
4.527569
4.402995
4.150867
4.078746
4.418492
##ZVALUE=315
0.249743
0.345707
0.518560
0.369549
0.391603
0.471473
0.548959
0.586510
0.428557
0.385642
0.352859
0.534654
0.476837
0.406504
0.293851
0.416636
0.675917
0.481606
0.596642
0.518560
0.587702
0.660419
0.802875
0.509620
0.660419
0.625849
0.731945
0.803471
0.738502
0.720620
0.786781
0.799894
0.993609
0.954866
1.131892
0.974536
1.269579
1.353621
1.601577
3.825426
14.107823
62.108636
139.562488
308.976769
490.326881
763.852000
930.825472
1016.031504
1016.031504
1014.037728
888.018012
642.017722
452.561975
242.412686
131.692886
48.775673
20.854473
9.913445
9.870529
13.575554
19.907951
32.833815
45.350790
65.764785
81.135631
100.278854
107.632875
109.775662
102.943778
86.411834
72.068572
50.984621
37.332773
22.252798
15.095472
8.976460
6.975532
5.661845
5.201697
4.635453
4.600883
4.546642
4.370809
4.572868
4.791617
4.571676
4.429817
4.445910
4.528761
4.253983
4.424453
4.469752
4.400611
4.433990
4.247427
4.058480
##ZVALUE=320
0.294447
0.289679
0.413656
0.620484
0.472665
0.350475
0.268817
0.346899
0.248551
0.266433
0.399947
0.457764
0.442863
0.358820
0.510812
0.356436
0.358820
0.525713
0.445843
0.386834
0.655651
0.392795
0.509620
0.548959
0.671744
0.606775
0.825524
0.677705
0.668764
0.867844
0.842810
0.832677
0.916719
0.872612
0.807643
0.872612
0.946522
1.012683
1.278520
1.226664
1.491904
2.181530
6.488562
34.981966
87.842941
231.324434
387.303829
636.183619
833.540559
1016.032696
1016.032696
1016.032696
986.143947
754.949450
556.810498
313.213468
177.815557
71.954727
33.038855
11.963844
8.335710
9.073615
11.323690
17.905831
26.747584
43.224692
57.392716
77.279806
89.575648
101.616979
102.714896
95.530748
85.302591
64.955950
50.383806
33.305883
22.712946
14.249682
9.353757
6.149411
5.104542
4.819632
4.856586
4.411936
4.222989
4.324913
4.398823
4.290938
4.169941
4.032850
3.921986
4.024506
4.203916
4.038811
3.908873
4.054904
##ZVALUE=325
0.255704
0.191927
0.340939
0.434518
0.476837
0.336766
0.417829
0.476837
0.530481
0.362992
0.201464
0.165701
0.418425
0.312924
0.332594
0.344515
0.485778
0.383854
0.472665
0.439882
0.594854
0.560880
0.540614
0.546575
0.510812
0.629425
0.560880
0.551939
0.691414
0.550747
0.649691
0.757575
0.625849
0.645518
0.791550
0.712872
0.702739
0.870824
1.140833
0.947714
0.996590
1.316667
1.393557
1.790524
3.646612
21.433830
57.654977
161.351562
299.236774
564.411879
780.063868
1010.145545
1016.031504
1016.031504
1016.031504
821.628571
624.085665
382.030606
232.030749
102.493763
48.927665
16.017556
8.334517
7.209778
7.889867
11.129975
16.250610
25.976896
38.700700
57.487488
70.943832
86.519718
94.783902
96.016526
90.274811
76.156855
61.516762
45.474768
31.722784
18.935800
12.880564
7.774830
6.186962
5.173683
4.375577
4.011989
4.050732
4.157424
4.203916
4.058480
4.008412
4.050732
4.015565
3.633499
3.758669
3.930926
##ZVALUE=330
0.391603
0.343919
0.212789
0.280738
0.242591
0.216961
0.291467
0.310540
0.425577
0.451803
0.344515
0.429749
0.406504
0.223517
0.315905
0.331998
0.481606
0.449419
0.460744
0.401735
0.278950
0.375509
0.422597
0.475645
0.503659
0.309944
0.471473
0.523925
0.512600
0.642538
0.604987
0.653863
0.613928
0.641942
0.878572
0.739694
0.761747
0.829697
0.791550
0.802875
0.973940
1.150966
1.115799
1.176596
1.341701
1.586676
1.939535
9.288788
29.909611
102.974772
204.995871
433.659554
656.622648
968.492627
1016.032696
1016.032696
1016.032696
954.464674
747.982860
478.658676
305.802822
141.599774
73.124766
25.549531
11.079907
6.738901
6.480813
7.850528
10.131001
16.267896
24.694800
38.960576
52.246451
70.532560
81.230998
88.842511
89.791417
83.294511
72.595477
55.556893
43.201447
27.945638
19.867420
12.732744
9.063482
6.160736
5.016923
4.349947
4.166961
3.993511
3.911853
3.690720
3.713965
3.399849
3.782511
3.658533
##ZVALUE=335
0.313520
0.237823
0.297427
0.440478
0.228882
0.456572
0.365973
0.135899
0.317693
0.371933
0.260472
0.271797
0.131726
0.301600
0.315905
0.331998
0.444651
0.287890
0.450611
0.370741
0.381470
0.350475
0.317693
0.522733
0.236630
0.420809
0.414848
0.440478
0.385642
0.366569
0.567436
0.523925
0.565648
0.464916
0.488758
0.680685
0.490546
0.774860
0.814795
0.899434
1.032948
0.999570
0.727773
1.078844
0.965595
1.084805
1.339912
1.500845
1.610518
4.187822
15.652776
61.970949
132.279992
303.646922
506.058931
842.409730
1016.032696
1016.032696
1016.032696
1016.032696
912.749767
596.338511
393.580794
200.943947
104.263425
35.966635
15.329719
7.258654
6.350875
6.577969
7.267594
10.170937
14.520884
24.145842
34.499764
50.778985
62.462687
76.240897
82.809925
83.261728
77.935457
65.879822
54.299831
41.374564
30.670762
19.656420
13.662577
8.326769
6.299615
4.848838
4.020929
3.986955
3.633499
3.531575
3.847480
3.510714
##ZVALUE=340
0.432730
0.400543
0.381470
0.445843
0.758767
0.519753
0.323653
0.465512
0.490546
0.450611
0.474453
0.407696
0.339746
0.618696
0.609756
0.474453
0.589490
0.380874
0.550747
0.508428
0.603795
0.452995
0.632405
0.611544
0.607967
0.568628
0.714660
0.514984
0.587702
0.606775
0.740886
0.514984
0.799894
0.868440
0.791550
0.814795
0.811815
0.692606
0.630617
0.810623
0.799894
0.798702
1.038909
1.030564
1.069903
1.100898
1.114607
1.346469
1.397729
1.357794
1.744628
2.454519
7.621646
37.300587
91.170669
228.756666
392.482877
670.036674
903.896689
1016.255021
1016.255021
1016.255021
1015.346646
745.167732
505.169630
251.527429
135.684609
53.723454
21.900535
8.180737
6.836653
6.358624
6.586909
7.491708
9.534955
15.250444
22.352934
34.521818
45.378804
60.906410
71.160793
77.771544
78.503489
72.983503
65.061450
51.423907
41.025877
27.828813
20.260811
12.891889
9.113550
6.028414
4.781485
4.223585
4.090667
3.821850
##ZVALUE=345
0.219941
0.305772
0.224710
0.288486
0.378489
0.232458
0.227690
0.358820
0.207424
0.160933
0.370741
0.145435
0.318885
0.329614
0.358820
0.266433
0.253916
0.095963
0.177622
0.174642
0.163913
0.318885
0.386834
0.404716
0.407696
0.446439
0.274777
0.410676
0.310540
0.391603
0.425577
0.361800
0.494719
0.516772
0.444651
0.388622
0.494719
0.662804
0.454783
0.659823
0.538826
0.563860
0.569820
0.782609
0.461936
0.683665
0.964999
0.853539
0.992417
0.921488
1.013875
1.135468
1.263618
1.502633
4.153848
16.646981
67.684650
138.330460
293.749571
458.216667
732.854009
939.446688
1016.031504
1016.031504
1016.031504
915.492773
609.644651
389.067531
170.707703
81.110597
26.571751
11.626482
6.929636
6.249547
5.958676
5.885959
6.349683
8.118749
13.215542
19.453764
30.983686
41.023493
54.183602
62.788725
71.002841
71.748495
68.685412
62.047839
50.291419
40.158629
27.865767
20.113587
12.272596
8.614659
5.743504
4.416704
##ZVALUE=350
0.236630
0.310540
0.177622
0.221729
0.274777
0.135899
0.280738
0.189543
0.284910
0.333786
0.232458
0.250936
0.319481
0.304580
0.188947
0.283718
0.278950
0.238419
0.332594
0.321865
0.511408
0.265837
0.343919
0.297427
0.356436
0.351667
0.400543
0.347495
0.451803
0.417829
0.454783
0.500679
0.463724
0.404716
0.487566
0.375509
0.452995
0.554919
0.534654
0.457764
0.580549
0.581741
0.536442
0.572801
0.713468
0.574589
0.809431
0.551939
0.603795
0.818968
0.812411
0.938773
1.047850
1.081824
1.057982
1.414418
2.070665
10.347962
32.847524
103.073716
194.717646
388.343930
567.003489
806.040764
966.324806
1016.031504
1016.031504
876.764655
675.748587
401.854515
244.619846
107.424855
48.364997
13.796687
7.185936
5.574822
5.382895
4.932880
4.928708
5.723834
7.492900
12.199879
17.550588
26.718974
35.803914
48.108697
56.581497
63.761473
65.412521
62.407851
57.485700
46.824813
38.448572
27.364492
20.613670
12.735724
##ZVALUE=355
0.341535
0.182986
0.174642
0.226498
0.003576
0.123978
0.248551
0.243783
0.213981
0.323653
0.385642
0.289679
0.344515
0.256896
0.076890
0.372529
0.302792
0.379682
0.266433
0.289679
0.347495
0.315905
0.329614
0.441670
0.427961
0.475645
0.320673
0.185966
0.136495
0.224710
0.222921
0.495911
0.433922
0.398755
0.424981
0.451803
0.395775
0.434518
0.443459
0.260472
0.479817
0.513792
0.587702
0.676513
0.579953
0.583529
0.754595
0.515580
0.628829
0.739694
0.675917
0.594854
0.818968
0.714660
0.858903
0.977516
1.171827
1.109838
1.578927
3.450513
20.180941
55.487752
147.655606
262.584686
481.187701
661.884546
878.689885
988.355875
1007.000804
903.360844
683.599710
502.538681
282.892585
155.280828
57.490468
23.869872
8.118749
5.709529
5.016923
4.841685
4.414916
4.737973
5.065799
6.425977
9.936690
14.393926
22.973418
30.532479
42.059422
49.925447
57.104826
59.355497
58.305860
53.625703
44.511557
36.688447
##ZVALUE=360
0.237823
0.290871
0.310540
0.267625
0.349879
0.134706
0.182986
0.242591
0.253916
0.308752
0.266433
0.378489
0.253916
0.289679
0.348687
0.180602
0.243783
0.214577
0.294447
0.218749
0.367761
0.264645
0.384450
0.420809
0.324845
0.328422
0.436902
0.512600
0.378489
0.433922
0.198483
0.305772
0.251532
0.237823
0.438690
0.366569
0.426769
0.457764
0.464916
0.466704
0.398755
0.479817
0.569820
0.628829
0.488758
0.709891
0.637770
0.612736
0.583529
0.617504
0.490546
0.619888
0.676513
0.509620
0.788569
0.931621
1.029968
1.032948
1.052618
1.145601
1.346469
1.791716
8.634925
28.148890
93.696713
181.074739
358.707905
529.984832
763.186812
896.925926
964.583755
925.274491
767.409801
593.995452
360.260606
215.092897
91.205835
37.993789
10.763407
6.109476
5.014539
4.772544
4.632473
4.361868
4.123449
4.579425
5.419850
7.233620
11.970997
17.478466
25.938749
33.943653
43.665767
49.468875
53.646564
53.668618
##ZVALUE=365
0.188947
0.238419
0.157952
0.152588
0.179410
0.208616
0.217557
0.254512
0.216961
0.228882
0.202656
0.237823
0.350475
0.238419
0.324845
0.191927
0.250936
0.224710
0.148416
0.321865
0.234842
0.401735
0.315905
0.309944
0.245571
0.303984
0.384450
0.366569
0.284910
0.336766
0.437498
0.340939
0.436902
0.510812
0.452995
0.358820
0.355840
0.439882
0.332594
0.565648
0.316501
0.462532
0.478625
0.406504
0.569820
0.508428
0.619888
0.394583
0.524521
0.464916
0.457764
0.570416
0.602603
0.607967
0.659823
0.639558
0.808835
0.724792
0.982881
0.833869
0.927448
1.308918
1.301765
1.561642
3.332496
18.679500
50.901771
136.182904
252.467990
466.830730
628.997684
804.584026
894.744992
881.284475
785.416961
580.827594
418.242812
234.766603
127.447844
45.534968
18.368959
6.098747
4.772544
4.456639
4.200935
3.846884
3.626943
3.839731
3.405809
4.414916
6.110668
10.095835
14.369488
22.451878
29.336810
37.669539
##ZVALUE=370
0.185966
0.288486
0.305772
0.194907
0.255704
0.172853
0.310540
0.156760
0.202656
0.293851
0.236630
0.417829
0.229478
0.266433
0.305772
0.133514
0.211596
0.215769
0.318885
0.157952
0.366569
0.332594
0.173450
0.222921
0.243783
0.408888
0.253916
0.387430
0.303984
0.385642
0.235438
0.258684
0.308752
0.444651
0.341535
0.400543
0.366569
0.356436
0.264645
0.351667
0.395775
0.246763
0.411868
0.291467
0.425577
0.469685
0.444651
0.455976
0.376701
0.634789
0.509620
0.540614
0.534654
0.500679
0.559688
0.616908
0.667572
0.481606
0.707507
0.719428
0.724792
0.754595
0.980496
1.030564
1.178980
1.276731
1.908541
9.388924
31.252503
102.041960
191.927552
364.731550
531.112552
745.818615
851.030946
882.565975
814.490914
641.441941
481.276512
272.096992
155.037642
61.877966
28.027892
9.561777
5.083680
4.224777
3.888607
3.730655
3.485680
3.122687
3.225803
3.152490
3.897548
5.800724
8.106828
13.028979
##ZVALUE=375
0.105500
0.050664
0.121593
0.256896
0.189543
-0.012517
-0.132918
0.073910
0.012517
0.102520
0.099540
0.017881
0.203848
0.168681
0.034571
0.254512
0.097752
0.192523
0.259876
0.118613
0.130534
0.018477
0.039935
0.194907
0.296831
0.211596
0.310540
0.324845
0.112653
0.187755
0.146627
0.165701
0.194907
0.184774
0.235438
0.192523
0.243783
0.337958
0.107884
0.066757
0.091791
0.222921
0.340939
0.036955
0.209808
0.223517
0.293851
0.377893
0.199676
0.333786
0.253916
0.345707
0.302792
0.197887
0.216961
0.370741
0.322461
0.365973
0.432730
0.360608
0.533462
0.570416
0.478625
0.636578
0.778437
0.660419
0.866652
1.072884
1.308918
4.522800
16.665459
60.697794
131.775737
291.365385
449.005961
663.849711
795.087814
882.400870
860.638022
716.654658
560.266972
344.972610
220.967531
108.644962
53.689480
16.812682
6.598830
3.805757
3.559589
3.072619
3.268719
3.046989
2.938509
2.782941
2.992749
3.257990
##ZVALUE=380
0.034571
-0.031590
0.047684
0.015497
-0.015497
0.045896
0.008941
0.164509
0.100732
0.128746
0.078678
0.096560
-0.001788
0.034571
0.015497
0.000596
0.006557
0.091791
0.107884
0.127554
0.074506
0.075698
0.033975
0.164509
0.190735
0.218749
0.240803
0.246763
0.148416
0.140667
0.131726
0.261664
0.173450
0.061989
0.282526
0.179410
0.268817
0.175834
0.337958
0.237823
0.225902
0.240803
0.295639
0.308752
0.184774
0.197887
0.347495
0.236630
0.333786
0.262856
0.176430
0.261664
0.115633
0.325441
0.403523
0.322461
0.426769
0.367761
0.310540
0.420809
0.228882
0.414848
0.490546
0.420809
0.466704
0.671744
0.583529
0.830889
0.928640
0.997782
1.267791
2.462864
9.946823
45.139790
101.505518
223.741531
365.804434
578.806996
731.073618
860.635638
872.367024
769.533515
639.207959
453.222990
308.756828
153.939724
79.157948
27.654767
10.805726
4.505515
3.384948
3.172755
3.014803
2.903938
2.707839
2.541542
##ZVALUE=385
0.192523
0.128746
0.139475
0.264645
0.323653
0.172853
0.041723
0.231862
0.091791
0.012517
0.193715
0.097752
0.223517
0.219941
0.265837
0.268817
0.215769
0.242591
0.064969
0.235438
0.295639
0.240803
0.249743
0.287890
0.300407
0.145435
0.441670
0.247955
0.173450
0.503659
0.492930
0.522733
0.706911
0.461936
0.498891
0.622869
0.480413
0.492930
0.511408
0.443459
0.513792
0.524521
0.582933
0.553727
0.561476
0.563860
0.447631
0.445843
0.377893
0.335574
0.409484
0.445843
0.339746
0.328422
0.521541
0.571609
0.325441
0.337958
0.359416
0.382662
0.378489
0.495911
0.427961
0.725985
0.599623
0.635982
0.740886
0.864863
0.765920
1.021624
0.952482
1.041889
1.166463
1.712441
4.338622
24.877787
64.365864
162.457824
282.822847
490.963459
652.382970
814.461708
874.699950
861.095786
781.736970
617.040992
474.165678
291.165709
165.838599
59.107542
21.482706
5.550981
3.710985
3.357530
2.906919
2.956986
##ZVALUE=390
0.265837
0.221729
0.266433
0.116825
0.159740
0.017881
0.133514
0.192523
0.160933
0.106692
0.091791
0.150800
0.167489
0.072718
0.241995
0.253916
0.123978
0.243783
0.214577
0.160933
0.250936
0.294447
0.132918
0.041723
0.299811
0.280738
0.409484
0.372529
0.599623
0.665784
0.709891
0.782609
0.877976
0.983477
1.016855
0.832677
0.839829
0.955462
0.843406
0.938773
0.785589
0.871420
0.692606
0.886917
0.792742
0.446439
0.708699
0.531673
0.588894
0.535846
0.454783
0.345707
0.493526
0.468493
0.482798
0.655651
0.419617
0.424981
0.391603
0.529885
0.535846
0.475645
0.567436
0.541806
0.619888
0.534654
0.589490
0.522733
0.643730
0.734925
0.832677
0.759959
1.063943
1.011491
1.278520
1.455545
2.181530
12.597442
39.893985
121.918917
228.909850
425.384641
573.167801
744.906664
841.664672
897.079706
864.147544
747.437477
620.065928
417.655706
261.400938
109.998584
45.422912
9.609461
4.130602
3.197789
##ZVALUE=395
0.027418
0.059605
0.114441
-0.019670
0.164509
0.207424
0.015497
0.000000
0.157952
0.226498
0.189543
0.036955
0.110865
0.112653
0.079870
0.246763
0.021458
0.146627
0.093579
0.173450
0.119805
0.154972
0.147820
0.186563
0.400543
0.247955
0.359416
0.489950
0.606775
0.701547
0.837445
1.016855
1.193881
1.277924
1.241565
1.289845
1.235604
1.326799
1.131892
1.100898
1.021624
1.151562
0.946522
0.919700
0.813603
0.802875
0.868440
0.616908
0.699759
0.654459
0.648499
0.496507
0.546575
0.552535
0.406504
0.492930
0.382662
0.321865
0.392795
0.368953
0.541806
0.300407
0.438690
0.341535
0.609756
0.679493
0.549555
0.505447
0.607967
0.774860
0.893474
0.807643
0.949502
0.938773
0.798702
0.956655
1.000762
1.184940
1.376867
7.192492
26.004910
87.998509
166.031718
316.570997
467.606783
677.400827
804.371834
896.348953
888.422728
787.702799
652.423501
443.753004
299.276710
143.088698
69.309473
19.863844
##ZVALUE=400
0.226498
0.308752
0.270605
0.231862
0.087619
0.161529
0.129938
0.192523
0.003576
0.168681
0.160933
0.215769
0.205636
0.148416
0.258684
0.152588
0.256896
0.225902
0.142455
0.091791
0.221729
0.146627
0.245571
0.108480
0.335574
0.459552
0.453591
0.614524
0.752807
0.787973
0.780821
1.297593
1.342893
1.388788
1.663566
1.462698
1.542568
1.487732
1.441836
1.366735
1.259446
1.240969
1.295805
1.110435
0.994802
0.918508
0.825524
0.827909
0.784993
0.797510
0.515580
0.798702
0.773668
0.638962
0.512600
0.411868
0.435710
0.440478
0.436902
0.499487
0.427961
0.592470
0.531673
0.554919
0.484586
0.544786
0.556707
0.594854
0.754595
0.659823
0.805855
0.974536
0.613928
0.846982
0.912547
0.685453
0.928640
0.749826
0.794530
0.980496
1.205802
3.857613
13.998747
50.619841
108.507872
244.324803
382.711887
587.615967
724.439621
838.733912
855.720639
767.702460
646.022558
451.330543
314.571857
172.303915
##END
