##TITLE=SH702
##FORMAT=SPECTACLE-ASCII V-1.2
##DATA TYPE=ULTRAVIOLET SPECTRUM
##SECOND TYPE=ULTRAVIOLET SPECTRUM
##DATE=04/30/18
##TIME=15:08:05
##SPECTROMETER/DATA SYSTEM=SPECTACLE
##XUNITS=NM EM
##YUNITS=ENERGY
##YFACTOR=1
##FIRSTX=220
##LASTX=410
##NPOINTS=96
##3DDATA=Equidistant
##ZUNITS=NM EX
##FIRSTZ=210
##LASTZ=400
##ZPOINTS=39
##XYDATA=(Y..Y)
##ZVALUE=210
2.074838
1.620650
1.774430
2.021790
2.077818
2.683997
2.194643
2.630949
2.619624
3.517866
3.470778
3.897548
3.861785
4.448891
4.452467
4.801750
4.683733
5.828738
6.038547
6.659627
6.813407
7.065535
8.795857
9.189844
9.422898
9.528995
10.401607
10.416508
10.702610
12.704730
11.967421
12.147427
12.645721
11.714697
13.707876
14.102459
15.168786
16.229749
15.965700
16.095638
16.448498
16.483665
16.901493
19.355416
19.963980
20.380616
21.057725
20.302534
21.813512
22.533536
22.326708
23.807883
23.795962
26.302934
25.354624
26.632547
26.686788
27.037859
28.983951
28.404593
29.018521
29.386878
29.452443
31.854510
33.381581
38.379431
38.428903
45.583844
54.224730
67.336559
78.364611
94.217658
108.019710
124.943852
139.504671
145.763755
146.855712
145.094991
144.211650
133.808851
129.739642
110.695958
95.907450
82.847476
72.568655
63.057542
58.008432
49.512982
49.019456
45.876503
45.009851
44.673681
45.395494
46.482682
49.452782
44.638515
##ZVALUE=215
4.462600
5.263686
4.468560
3.751516
3.719926
3.331900
3.482699
3.451705
4.949570
4.537702
5.577803
4.880428
4.032850
5.155802
4.984736
5.210638
6.180406
6.304979
6.375909
6.766915
7.281899
7.915497
8.211732
9.655952
10.500550
10.940433
10.951757
10.914803
12.824535
12.145638
12.075901
12.244582
13.113618
14.520884
15.334487
15.436411
16.470551
16.296506
16.177893
17.500520
17.501712
18.374920
19.626617
20.659566
21.782517
21.329522
20.803809
23.591518
23.814440
24.205446
22.711754
24.547577
24.626851
27.303696
28.098822
27.493834
28.792620
28.130412
28.047562
28.572679
29.216409
30.544996
30.934811
30.829906
31.200647
36.416650
37.651658
42.392612
48.902631
61.032772
71.444511
83.387494
100.544691
114.901662
119.117498
129.000545
133.234859
132.984519
128.811002
116.353631
109.355450
91.056824
88.930726
76.440573
67.159534
58.250427
51.803589
44.232607
43.941736
44.887662
41.391850
41.738749
41.254759
43.084621
43.864846
42.506456
##ZVALUE=220
18.903613
21.173954
22.331476
24.453998
22.890568
18.299818
15.703440
11.077523
9.258986
9.164810
8.858442
9.249449
9.502769
9.517670
8.004904
8.314848
7.123947
7.276535
6.962419
6.719828
8.304715
8.328557
8.668900
9.568930
10.184646
10.776520
11.469722
11.296868
11.454821
11.422634
12.297630
14.509559
14.643669
15.624762
15.161633
16.509891
16.136765
17.983913
18.231869
18.688440
18.637776
20.502806
20.379424
21.501780
22.981763
22.927523
23.000836
22.649765
24.863482
26.330948
24.847984
27.343631
28.603673
28.380752
28.854609
28.910637
31.292439
33.179522
32.531619
32.496452
33.840537
34.376979
33.582449
34.215450
35.530925
38.321614
39.222836
46.133995
49.847960
61.963797
70.792437
84.493756
101.092458
115.477443
123.495460
129.606724
134.476423
133.826733
127.076507
120.527744
114.123821
101.490617
94.328523
81.797838
72.846413
60.831904
54.192543
50.834417
48.002601
45.075417
44.520497
45.237541
44.458508
46.348572
45.395494
44.613481
##ZVALUE=225
41.796565
43.208599
60.326457
81.142783
97.758770
104.125738
99.852681
86.663961
66.628456
46.519637
28.749704
22.167563
21.134615
22.648573
22.497773
21.979809
20.409822
17.920732
15.356541
11.125803
10.536909
9.746552
11.070967
9.229779
11.021495
11.646748
11.777878
12.990832
13.180971
12.953877
13.692975
16.044974
16.709566
17.064810
17.025471
18.640757
18.624663
20.772815
21.925569
20.983815
23.492575
24.968982
24.338961
26.968718
27.156472
28.262734
29.988885
31.096935
31.182766
33.267736
31.004548
34.036636
35.703778
39.190650
36.644936
37.272573
37.398934
38.770437
40.617585
40.769577
41.440725
42.185783
41.759610
43.012500
41.181445
44.511557
46.438575
51.649809
56.641698
64.066648
80.721974
89.162588
100.225806
111.579895
118.611455
122.516751
122.746825
118.498802
110.991597
106.289983
98.772645
90.991855
83.203912
74.337721
65.834522
60.148835
57.865977
52.927732
52.242875
51.179528
49.680471
50.752759
51.552653
50.159693
51.742792
51.592588
##ZVALUE=230
43.125749
48.082471
78.215003
146.377683
199.746490
269.528627
308.801532
347.300768
322.920680
278.793573
205.385685
121.946931
82.656741
48.763752
40.716529
43.899417
45.800805
44.273734
41.216612
36.958456
28.792620
22.953749
15.805960
14.536977
12.649894
13.129711
13.120770
13.031960
13.927817
15.933514
17.316937
17.235875
17.775893
18.126965
20.296574
20.159483
22.546649
24.113655
24.133921
26.012659
25.707483
29.109716
28.642416
30.115843
31.986833
32.256842
35.373569
34.734607
37.203431
38.957000
42.104721
42.192936
43.674707
47.488809
45.979619
48.202872
47.856569
52.740574
49.899817
54.340959
52.134991
53.101778
52.077770
56.255460
56.731701
58.725476
62.443614
64.537525
68.304539
79.028606
88.733435
99.739432
111.190677
120.735765
129.175782
128.311515
129.399896
123.638511
124.327540
113.182664
104.388595
93.925595
90.823770
83.397627
75.547695
71.346760
67.079663
64.345598
64.460635
64.491630
61.734915
61.740875
59.544444
61.686635
60.200691
58.797598
##ZVALUE=235
15.374422
19.705892
45.785904
123.964548
210.210681
363.948941
507.573485
692.059994
790.569782
830.452442
762.294531
635.123849
447.555780
306.033492
178.662539
115.747452
78.734756
73.984861
74.983835
80.763698
74.765682
67.830682
54.997802
40.482879
30.851960
22.779703
18.904805
16.007423
16.237497
17.684698
17.279983
17.838478
19.925833
20.060539
19.702911
23.976564
24.870634
25.808811
24.702549
28.754473
29.478669
30.926466
32.957792
35.241842
35.135746
36.699772
37.383437
41.704774
39.168000
44.001937
44.265985
46.091676
46.896935
47.645569
51.909685
53.841472
53.175688
57.941675
59.337616
58.842897
58.460832
61.383843
61.742663
64.568520
67.040920
67.620873
69.967508
75.000525
82.449913
92.737675
98.427534
109.485984
120.171905
134.036541
138.172507
142.774582
141.263604
132.572651
130.730867
122.305751
119.414926
108.084679
102.696419
96.075535
90.203881
85.365772
83.920956
84.134936
78.164935
80.497861
78.802705
76.803565
80.762506
80.170631
78.337789
76.712966
##ZVALUE=240
3.159642
4.121661
9.828806
28.397441
94.099641
185.200572
397.078991
632.882714
980.626941
1016.230583
1016.230583
1016.230583
1016.230583
1016.230583
897.379518
555.641651
369.740725
207.454562
130.209923
103.507638
113.529563
114.927888
115.391612
111.470819
84.973574
73.853731
56.818724
41.228533
30.084848
24.813414
21.340847
21.115541
20.646453
20.586848
22.512674
22.876859
25.253892
26.949644
26.817918
26.397705
28.499961
29.947758
32.822490
32.482743
32.571554
35.117865
35.711527
38.639903
39.469600
39.938688
44.573545
44.695735
46.733618
49.628615
49.285889
53.800941
55.363774
56.803823
59.453845
60.065985
64.066648
63.379407
63.959956
67.076683
71.276426
72.219968
75.415969
82.221627
86.962581
97.715855
104.919672
117.829442
128.631592
141.095519
144.582987
147.007704
148.466825
150.541663
142.816901
139.725804
130.269527
123.646855
112.712979
111.987591
106.955767
102.515817
100.212693
92.054605
92.326999
91.217756
94.335675
92.924833
94.605684
91.916919
95.788836
93.077421
##ZVALUE=245
2.384782
2.272725
2.244711
3.302693
6.304979
30.461550
79.963803
223.087668
415.429473
675.729513
1016.031504
1016.031504
1016.031504
1016.031504
1016.031504
1016.031504
1016.031504
912.327766
594.573617
319.146514
191.093683
122.439861
116.795897
131.044984
134.065747
127.940774
119.659901
98.657608
81.977844
59.068799
46.042800
31.699538
24.865866
20.458698
20.084977
20.073652
20.849705
22.646785
21.378994
23.413897
24.802685
24.741888
26.630759
25.928617
29.050708
29.093623
30.231476
29.471517
32.935739
32.040477
35.368800
35.375953
37.506819
39.162636
41.275620
43.675900
43.975711
47.608614
46.976805
49.787760
52.547455
51.141977
52.648783
54.524541
53.343773
56.903958
63.227415
68.464875
72.956681
80.975890
88.170767
99.222660
107.694864
116.138458
123.542547
128.402710
128.458738
124.125481
121.991634
118.206739
111.229420
101.569891
102.939606
94.413757
93.297958
92.098713
87.749958
87.133646
88.361502
88.119507
89.485645
88.979602
88.201761
91.910958
92.329979
91.739893
##ZVALUE=250
2.541542
2.572536
2.242923
2.464652
3.108978
3.138781
4.922748
17.547607
81.959963
180.527568
445.792675
746.883750
1016.160846
1016.160846
1016.160846
1016.160846
1016.160846
1016.160846
1016.160846
1016.160846
832.464695
509.668589
239.280462
139.136910
114.750862
122.397542
136.348605
144.524574
141.182542
122.357607
110.238791
84.225535
66.269636
43.737888
34.865737
25.260448
19.515753
18.525720
19.282699
19.583702
21.274686
21.821856
22.230744
22.504926
25.124550
26.334524
26.296973
27.618408
29.149652
31.113625
32.010674
32.762885
35.514832
37.329793
38.711429
38.688779
39.549470
43.351650
42.419434
43.292642
43.215752
45.620799
47.291517
46.699643
50.868988
50.605536
55.505633
60.210824
63.700676
72.654486
75.499415
87.345839
92.150569
101.832747
105.656981
104.944706
111.270547
103.943944
101.463795
99.691749
93.829632
89.139938
90.686679
85.987449
79.658628
81.677437
80.403686
80.487728
78.719854
83.420873
83.044767
87.671876
87.384582
87.739825
88.813901
92.408657
##ZVALUE=255
1.993775
2.217889
2.009869
2.334714
2.433658
2.548695
2.597570
2.978444
3.828406
9.909868
58.832765
148.230791
317.355990
698.911548
1016.031504
1016.031504
1016.031504
1016.031504
1016.031504
1016.031504
1016.031504
1016.031504
1016.031504
781.700015
379.486680
206.867456
122.632980
112.613440
129.213929
143.727660
150.933862
148.844719
137.091875
109.868646
89.862943
65.944791
47.889948
32.447577
26.080608
22.363663
21.440983
22.078753
21.338463
23.331642
25.477409
26.118755
27.686954
28.246641
29.751658
31.448603
34.120679
34.940839
36.593676
37.469864
39.189458
40.897727
38.417578
42.087436
41.618943
42.640567
45.105815
45.114756
45.894980
47.809482
48.138499
49.104691
51.341653
55.939555
58.228970
62.203407
70.436597
76.241493
82.165003
88.187456
90.734959
92.112422
92.443824
89.281797
87.818503
83.751678
79.902411
79.920888
75.795650
73.525906
72.987676
72.323680
72.456002
73.451996
74.351430
77.262521
77.318549
77.118874
79.537630
84.598660
83.940625
87.623596
##ZVALUE=260
1.748800
2.141595
2.148747
2.286434
2.130866
2.053976
2.892613
2.302527
2.584457
3.406405
3.665686
6.313920
24.359822
108.410716
250.867605
601.648688
969.896913
1016.031504
1016.031504
1016.031504
1016.031504
1016.031504
1016.031504
1016.031504
1016.031504
1016.032100
617.515445
334.697962
146.442652
105.451941
108.593702
132.772923
151.022673
161.613822
156.315565
137.785673
119.352937
90.931654
73.376894
50.280690
38.905740
29.232502
27.159452
26.375651
26.329756
28.123856
30.407906
31.227469
33.860803
35.330653
38.107634
38.288832
40.092468
41.561723
42.242408
44.730902
45.111775
44.711828
48.180819
48.677921
47.907829
49.714446
49.524903
49.289465
49.285889
50.167441
51.496625
52.747726
57.499409
61.201453
65.586567
71.783662
75.339675
79.456568
82.264543
80.402493
82.529783
79.564452
77.449679
75.489879
73.016882
69.703460
68.233609
66.691637
65.752864
66.286922
64.469576
66.456795
67.036748
66.994429
68.642497
71.288943
72.868466
73.967576
75.778961
78.587532
##ZVALUE=265
1.647472
1.793504
1.919866
1.819730
1.755953
1.856685
2.294779
2.312660
2.613664
2.500415
2.970695
3.279448
3.840923
4.442930
11.980534
74.683428
193.672776
495.149493
875.111818
1016.031504
1016.031504
1016.031504
1016.031504
1016.031504
1016.031504
1016.031504
1016.031504
1016.031504
863.289833
492.979884
274.690986
113.683939
94.063878
118.998885
136.702657
156.754851
165.266991
158.509612
147.694945
120.298862
101.190805
74.105859
57.964921
42.826533
37.769675
34.607649
35.432577
36.876798
39.281845
42.225718
43.947697
46.718717
47.848821
48.700571
50.507784
51.883459
54.528713
54.025650
54.038763
55.674911
55.894852
56.070685
55.636764
56.764483
57.339668
58.429837
57.978630
58.645606
60.436726
63.252449
66.978931
70.342422
74.218512
76.077580
78.271627
76.896548
76.912642
74.366927
72.612762
68.923831
67.486763
65.352917
64.302683
62.743425
62.577724
61.348677
61.995983
60.879588
60.720444
61.665773
59.373975
61.120987
61.601996
62.964559
63.775778
62.200427
##ZVALUE=270
1.395941
1.548529
1.640916
1.697540
1.865625
1.730919
1.876950
1.914501
2.360940
2.514720
2.595782
2.966523
2.803802
3.382564
3.435612
4.399419
6.083846
32.008886
105.841756
363.881588
733.766556
1016.031504
1016.031504
1016.031504
1016.031504
1016.031504
1016.031504
1016.031504
1016.031504
1016.031504
1016.031504
709.158778
374.026895
142.317414
88.739991
96.306801
117.873549
148.581862
163.525939
169.630647
167.652965
150.945783
132.047534
106.721520
86.909533
65.511465
55.982471
49.898624
47.349930
48.169494
51.557422
52.289963
53.193569
55.625439
58.516860
58.598518
61.412454
61.794519
61.651468
62.173605
63.457489
62.715411
62.895417
62.985420
64.654946
62.077641
61.170459
62.327981
64.327717
66.984892
68.937540
72.114468
74.822903
77.530742
76.086521
75.518489
73.089600
72.300434
69.585443
67.971945
64.638853
62.594414
61.180592
59.892535
59.187412
58.880448
57.963729
58.871508
58.823824
58.962703
56.613684
58.798790
56.278706
57.357550
56.706667
57.798624
##ZVALUE=275
1.643896
1.833439
1.499653
1.651645
1.730919
1.933575
1.732707
1.988411
1.809597
2.053976
2.054572
2.214909
2.458692
2.409816
3.053546
3.363490
3.595948
4.332662
4.940629
13.325810
57.816505
182.687640
573.242903
1001.685858
1016.039848
1016.039848
1016.039848
1016.039848
1016.039848
1016.039848
1016.039848
1016.039848
1016.039848
959.426761
551.299453
211.318731
105.079412
78.639984
97.116828
123.644471
146.431923
168.167949
176.213980
172.157884
161.371827
135.635734
117.974877
94.802976
80.392957
67.344904
60.501695
59.689879
59.453845
61.672926
63.331723
65.179467
66.124797
68.493485
67.581534
69.453716
70.129633
68.952441
69.685578
68.824887
68.308711
67.740679
66.166520
67.603588
68.618655
69.650412
72.615743
73.243976
75.011849
75.992942
75.219870
76.126456
74.661970
71.774721
69.312453
68.579912
64.566731
61.514974
60.016513
58.506727
59.056878
56.839585
56.920648
56.193471
56.752563
56.936741
55.346489
53.834915
54.566860
54.232478
53.321719
52.953959
##ZVALUE=280
1.501441
1.458526
1.357794
1.804829
1.485944
1.384616
1.543760
1.695752
1.975894
1.794696
1.932979
2.233982
2.094507
2.649426
2.659559
2.756715
3.021955
3.389716
4.048944
4.205704
4.365444
7.991791
32.072663
163.162947
399.910808
946.768522
1016.031504
1016.031504
1016.031504
1016.031504
1016.031504
1016.031504
1016.031504
1016.031504
1016.031504
1016.031504
768.226981
313.529968
146.779418
72.791576
75.142980
104.289651
126.244426
154.248476
170.230865
179.584622
178.660750
162.397623
146.762729
123.347640
103.990436
86.942911
76.621771
69.289804
68.296790
67.252517
67.724586
68.283677
70.600510
70.361495
71.020722
70.356727
72.124600
69.451928
69.961548
69.338679
68.911910
69.870949
69.433451
71.507692
71.463585
74.709654
75.457692
76.357722
75.380802
74.249506
72.302818
70.640445
67.512989
64.071417
64.288974
61.180592
58.593750
57.475567
57.274699
55.832863
54.286718
53.862929
53.850412
52.546859
53.288937
52.738786
51.660538
52.622557
51.488876
52.202940
##ZVALUE=285
1.391768
1.202822
1.615882
1.399517
1.521707
1.543760
1.323819
1.734495
1.557469
1.759529
1.590848
1.859665
1.967549
2.072453
2.200603
2.296567
2.916455
2.758503
3.184676
3.626943
3.497601
3.793836
4.650950
5.424619
18.801689
68.775415
251.348019
547.934771
1016.031504
1016.031504
1016.031504
1016.031504
1016.031504
1016.031504
1016.031504
1016.031504
1016.031504
1016.031504
1010.933518
503.889918
247.347951
92.198849
62.149763
77.234507
97.422004
132.180452
150.573850
173.406005
180.334449
180.279613
172.185898
152.419806
134.869814
110.903978
95.141530
80.243945
73.725581
70.374608
69.426894
68.637729
69.729686
70.022941
70.633888
70.908666
69.450736
69.683790
69.621801
70.163608
71.840882
71.673989
73.334575
74.100494
74.567795
74.298978
73.238611
73.362589
70.509911
69.120526
65.689683
63.961744
62.592626
59.188604
59.071779
57.917833
54.852962
54.767728
54.786801
53.686500
52.756667
51.621795
51.721931
51.254630
50.535798
50.901771
50.050616
51.179528
##ZVALUE=290
1.536608
1.399517
1.154542
1.533628
1.529455
1.342893
1.308918
1.710653
1.343489
1.677871
1.567602
1.877546
1.561642
1.965761
2.273917
2.048612
2.043843
2.154708
2.546906
2.697706
2.807975
3.284812
3.922582
4.222989
5.108714
5.128980
8.507967
28.437972
142.463446
354.364514
720.939636
1016.031504
1016.031504
1016.031504
1016.031504
1016.031504
1016.031504
1016.031504
1016.031504
1016.031504
1016.032100
803.897977
413.265824
147.098899
69.875717
61.729550
76.158643
100.056529
121.945739
150.140524
166.637897
181.104541
179.897547
169.254541
153.370500
130.815506
111.787915
92.077851
84.393620
74.739456
73.188543
70.745945
69.511533
70.255995
69.868565
70.763826
70.689917
69.666505
71.959496
72.320700
73.223710
73.450804
74.345469
72.416663
72.306991
70.481896
69.395900
67.411661
64.859986
62.040687
60.737729
59.120655
58.718920
57.521462
56.372881
55.537820
53.698421
53.986907
52.892566
51.966906
51.635504
50.809979
49.873590
49.784780
50.551891
48.916936
##ZVALUE=295
1.252890
1.463890
1.206994
1.339912
1.502633
1.377463
1.711845
1.611710
1.426935
1.445413
1.595616
1.656413
1.779795
1.801848
2.102852
2.175570
2.061725
2.214909
2.174973
2.525449
2.578497
2.849698
3.290772
3.350973
3.710985
3.859997
4.682541
5.372763
6.234646
12.747645
52.187443
235.231519
546.575785
1016.033888
1016.033888
1016.033888
1016.033888
1016.033888
1016.033888
1016.033888
1016.033888
1016.033888
1016.033888
1016.033888
657.496452
225.256681
98.230839
50.250888
55.234432
73.186755
91.511607
120.484829
139.508843
160.064697
171.037912
170.115829
161.319971
145.453811
126.510859
106.083751
92.854500
76.839924
71.127415
66.264868
63.381791
62.754750
62.811971
64.114928
64.722896
66.743493
67.591667
68.753958
69.336891
69.255829
67.800879
66.827536
65.287948
63.523650
61.394572
60.497522
59.391856
58.361888
56.738853
56.322813
53.901672
54.096580
54.005980
53.380728
52.043796
51.753521
51.397681
50.540566
49.900413
49.177408
48.632622
48.674941
##ZVALUE=300
1.252890
1.266599
1.236796
1.362562
1.360774
1.453757
1.413822
1.514554
1.511574
1.448989
1.575947
1.655817
1.668930
1.750588
1.984835
1.843572
1.827478
2.080798
2.081990
2.221465
2.532601
2.801418
2.814531
3.024936
3.326535
3.369451
3.735423
3.945827
4.422665
4.879832
6.008744
7.574558
22.722483
145.313740
376.737714
954.458714
1016.032696
1016.032696
1016.032696
1016.032696
1016.032696
1016.032696
1016.032696
1016.032696
1016.032696
1016.032696
987.744927
433.980823
180.468559
56.815743
41.715503
51.047802
63.767433
87.213516
106.659532
132.950544
148.909688
159.619451
160.153508
148.741603
137.138963
115.855932
97.462535
79.642534
67.912936
58.153868
54.731965
52.568913
53.579807
54.490566
55.953860
58.754683
60.166717
60.923696
60.866475
60.169697
58.088899
56.599975
56.742430
56.162477
54.540634
53.917766
53.603649
53.546429
53.468943
52.573681
51.747561
52.608848
51.271915
50.604939
49.726963
49.507618
48.852563
49.148798
46.868920
46.709776
##ZVALUE=305
0.900626
1.125932
1.214743
1.396537
1.314878
1.431704
1.176596
1.161695
1.467466
1.309514
1.556873
1.409650
1.506805
1.365542
1.577735
1.376867
1.569986
1.813769
1.870990
2.140999
2.043843
2.064705
2.176762
2.356768
2.653599
3.029704
3.107786
3.420711
3.779531
3.997684
4.406571
4.609823
5.700588
6.838441
13.136864
87.353587
257.847905
753.536820
1015.947461
1015.947461
1015.947461
1015.947461
1015.947461
1015.947461
1015.947461
1015.947461
1015.947461
1015.947461
1015.947461
732.382536
328.939557
89.867711
40.974617
38.495660
45.901537
62.392950
78.164935
102.108717
120.983720
139.692426
147.093534
148.341656
140.999556
124.533772
108.876824
86.198449
72.635412
59.895515
53.769946
50.022602
50.217509
51.129460
52.573681
54.039955
53.802729
54.034591
52.604675
53.207874
52.605867
50.966740
51.613450
52.357912
52.000880
51.917434
51.612854
51.266551
51.310658
50.804615
50.270557
50.557852
48.739910
48.923492
48.582554
48.069954
47.816634
47.850609
##ZVALUE=310
1.185536
1.310706
1.141429
1.229644
1.259446
1.060963
1.158714
1.179576
1.334548
1.268983
1.225471
1.360774
1.458526
1.420975
1.686811
1.612902
1.797676
1.735687
1.919866
1.965761
1.895428
2.230406
1.988411
2.216697
2.619624
2.423525
2.551675
3.065467
3.328919
3.289580
3.438592
4.194975
4.689693
4.913807
5.816817
6.546974
7.990599
40.817857
143.483877
495.074987
955.585837
1016.031504
1016.031504
1016.031504
1016.031504
1016.031504
1016.031504
1016.031504
1016.031504
1016.031504
1016.031504
1016.031504
630.796552
196.476579
66.108704
31.848550
34.746528
43.141842
54.367781
73.655844
90.334415
113.546848
128.090978
139.374733
139.826536
132.248998
121.722817
103.021860
89.505911
72.731972
63.750744
56.028962
54.360628
52.644610
52.080750
51.105618
51.250458
50.542951
49.613714
50.879717
50.972700
50.901771
50.772429
51.489472
51.333904
51.024556
51.222444
50.232410
50.878525
51.448941
49.665570
48.800707
48.093796
48.907995
48.586726
47.523975
##ZVALUE=315
1.032948
1.143813
1.042485
1.332760
1.093745
1.234412
1.424551
1.338720
1.243949
1.440644
1.453757
1.393557
1.387596
1.721978
1.688600
1.607537
1.512766
1.585484
1.550913
1.677871
1.659989
1.611710
2.204776
2.039671
2.177954
2.302527
2.380610
2.523661
2.889633
2.983809
3.192425
3.405809
3.431439
4.022717
4.204512
4.881620
5.633831
6.602407
7.712841
19.493699
82.104802
347.774625
784.672499
1016.031504
1016.031504
1016.031504
1016.031504
1016.031504
1016.031504
1016.031504
1016.031504
1016.031504
1016.031504
1016.031504
928.118825
327.165723
111.357570
34.343600
30.565858
34.841895
40.386915
53.724647
67.509413
88.125467
104.234815
123.102665
132.493973
136.112571
130.701661
116.606951
105.234981
89.541674
78.145862
64.862967
58.614612
53.655505
50.637722
49.104691
49.217939
49.771667
49.813986
49.830675
51.120520
51.261783
51.381588
51.798820
51.624775
52.138567
50.766468
50.817728
50.632954
50.036907
49.371719
50.079823
48.708916
48.745871
##ZVALUE=320
1.205802
1.092553
1.136661
0.952482
1.120567
1.118779
1.383424
1.263618
1.240969
1.206994
1.282692
1.218915
1.472831
1.250505
1.584888
1.450777
1.573563
1.423955
1.569986
1.735687
1.691580
1.661777
1.958609
1.885891
2.004504
2.398491
2.161860
2.319813
2.425909
2.519488
2.675653
2.837777
3.332496
3.593564
3.844500
4.137754
4.575849
4.724860
5.294681
6.291866
6.908774
9.637475
33.706427
201.502442
526.472926
1016.039848
1016.039848
1016.039848
1016.039848
1016.039848
1016.039848
1016.039848
1016.039848
1016.039848
1016.039848
1016.039848
1016.039848
568.669438
235.190988
56.277514
31.435490
30.929446
33.372641
40.725470
49.277544
66.716671
82.476735
102.930665
118.539929
131.393671
134.486556
130.563974
122.152567
104.687810
91.669559
75.467825
64.806938
56.993961
51.678419
50.015450
48.855543
49.446821
49.753785
49.590468
50.520897
51.266551
51.716566
51.161647
51.376820
50.894618
51.308870
50.428510
50.149560
48.687458
48.723817
49.155951
##ZVALUE=325
0.808835
0.736713
0.805855
0.840425
0.863671
0.913739
0.807643
0.991821
0.792742
1.010895
0.853539
1.097918
1.058578
0.973940
1.165867
1.226664
1.028776
1.277924
1.201630
1.265407
1.429915
1.458526
1.539588
1.827478
1.495481
1.665950
1.654625
1.989603
1.788735
2.336502
2.297759
2.433658
2.497435
2.631545
2.878904
3.289580
3.320575
3.735423
4.334450
4.558563
5.233884
5.892515
6.683469
8.409619
18.816590
137.065649
376.236439
964.540839
1015.751958
1015.751958
1015.751958
1015.751958
1015.751958
1015.751958
1015.751958
1015.751958
1015.751958
1015.751958
1015.751958
761.106610
344.992876
88.299513
36.197901
29.754639
30.940771
34.389496
39.712787
52.239895
65.713525
87.344646
102.821589
121.536851
129.573941
131.401420
126.440525
113.309622
99.671483
83.730817
72.565675
61.080456
55.078864
51.961541
50.162673
50.010681
50.214529
50.735474
50.403476
50.408840
50.463676
49.951673
49.017668
49.739480
49.083829
48.403740
48.053861
48.645735
##ZVALUE=330
0.596642
0.555515
0.571609
0.437498
0.502467
0.620484
0.620484
0.615716
0.624657
0.537634
0.718832
0.635982
0.723600
0.854731
0.624657
0.661612
1.034737
1.022816
0.993609
0.960827
1.011491
1.029968
0.959635
1.102686
1.182556
1.286864
1.284480
1.345873
1.595616
1.544952
1.836419
1.733899
2.074838
2.126694
2.241731
2.463460
2.483726
2.960563
3.226995
3.527999
3.718734
4.247427
4.808903
5.596876
6.119609
7.778406
11.023879
62.589645
211.589336
723.753572
1015.459895
1015.459895
1015.459895
1015.459895
1015.459895
1015.459895
1015.459895
1015.459895
1015.459895
1015.459895
1015.459895
976.482630
519.991517
161.688924
56.396723
30.069947
29.626489
31.848550
35.610795
44.927597
53.864717
69.991946
84.325671
104.098916
115.405917
125.656724
124.930739
118.767619
110.315681
94.131827
83.182454
68.584681
61.039925
54.356456
51.248670
49.761534
48.585534
48.226714
48.909783
48.836470
47.406554
47.619939
48.391819
47.936440
46.976805
47.235489
##ZVALUE=335
1.079440
1.144409
1.039505
1.068711
1.017451
1.176000
1.161695
1.204610
1.010895
1.250505
1.217723
1.135468
1.213551
1.307726
1.258850
1.244545
1.247525
1.391768
1.430511
1.556873
1.640916
1.411438
1.642704
1.811981
1.511574
1.565814
1.823902
1.740456
1.835823
2.052784
2.065897
2.248883
2.506971
2.373457
2.653599
2.861619
3.125668
3.161430
3.044605
3.362894
3.744960
4.165769
4.371405
4.837513
5.241632
6.091595
6.958842
8.496642
9.164810
28.590560
115.402937
476.374030
968.478918
1016.033888
1016.033888
1016.033888
1016.033888
1016.033888
1016.033888
1016.033888
1016.033888
1016.033888
1016.033888
1016.033888
723.878741
224.486589
83.330870
35.387874
33.160448
34.617782
36.741495
41.138530
47.517419
58.397651
68.114996
85.221529
97.046494
110.465884
118.223429
118.779540
114.532709
103.429556
95.078945
80.571771
71.599483
61.413646
56.355596
50.968528
49.174428
48.353672
47.162771
47.100782
46.892762
46.931505
46.428442
45.915842
##ZVALUE=340
1.059771
1.100898
1.069903
0.962615
0.913739
1.079440
1.226664
0.974536
1.195669
1.111627
1.164675
1.278520
1.220703
1.099706
1.182556
1.297593
1.314878
1.456738
1.303554
1.560450
1.618862
1.301765
1.584888
1.519918
1.554489
1.718998
1.786947
1.703501
1.839995
1.959801
1.840591
2.155900
2.030730
2.421737
2.439618
2.521873
2.879500
2.870560
3.022552
3.082752
3.247857
3.531575
3.746748
4.148483
4.321933
4.954934
5.133748
5.771518
6.675720
7.486939
8.926988
14.498830
54.032803
299.218893
745.999813
1016.032696
1016.032696
1016.032696
1016.032696
1016.032696
1016.032696
1016.032696
1016.032696
1016.032696
1016.032696
1016.032696
960.874557
378.675461
137.720704
41.742921
34.998655
35.888553
36.036968
38.167834
40.664673
46.391487
53.055882
65.151453
76.511502
93.857646
103.797913
111.659765
113.227963
108.504891
101.776719
89.757442
80.548525
68.103671
60.806870
53.519607
49.638748
46.485662
45.139790
44.899583
44.481754
43.880939
##ZVALUE=345
1.161695
1.141429
1.097918
1.143813
1.144409
1.091957
1.061559
1.182556
1.063943
1.140833
1.204610
1.244545
1.281500
1.324415
1.259446
1.464486
1.210570
1.308918
1.325607
1.384616
1.482964
1.562834
1.445413
1.564622
1.464486
1.756549
1.457930
1.907945
1.802444
1.859665
1.802444
1.841784
1.884699
2.079606
2.123713
2.129674
2.283454
2.590418
2.529621
2.724528
2.824664
3.029704
3.207922
3.473759
3.880858
4.125834
4.411936
4.795790
5.224943
5.808473
6.393790
7.499456
8.392930
10.482669
24.003386
174.351931
502.691865
1016.031504
1016.031504
1016.031504
1016.031504
1016.031504
1016.031504
1016.031504
1016.031504
1016.031504
1016.031504
1016.032100
1016.031504
559.799671
227.152705
65.172911
38.526654
35.871863
35.200715
34.481883
35.162568
37.269592
41.043758
50.389767
60.132742
74.000955
85.071921
96.645951
101.951957
105.150938
103.914738
95.721483
87.521672
75.953603
66.273808
56.629777
51.298738
47.010779
44.576526
42.714477
##ZVALUE=350
1.225471
1.295805
1.177788
1.392961
1.280904
1.276731
1.246929
1.292825
1.311898
1.206994
1.392961
1.407862
1.225471
1.332760
1.522899
1.352429
1.321435
1.218915
1.563430
1.580715
1.464486
1.492500
1.631975
1.618862
1.675487
1.664758
1.818538
2.015829
2.001524
2.044439
1.746416
2.132654
2.032518
2.250671
2.150536
2.504587
2.539754
2.508759
2.685785
2.662539
2.840757
2.780557
3.171563
3.250837
3.481507
3.558993
3.826618
4.229546
4.638433
4.991889
5.226731
5.720854
6.654859
7.419586
8.276701
9.760857
14.217496
90.377927
303.012729
932.603478
1016.031504
1016.031504
1016.031504
1016.031504
1016.031504
1016.031504
1016.031504
1016.031504
1016.031504
1016.031504
1016.032100
896.656513
380.140543
92.504621
41.825771
34.054518
32.405853
31.485558
31.563640
32.877922
35.403967
41.049719
46.727657
57.184696
65.728426
78.818798
88.288784
95.874667
98.123550
96.838474
91.242790
80.894828
72.620511
61.256886
54.509640
47.785640
##ZVALUE=355
1.426935
1.464486
1.372695
1.412630
1.455545
1.432896
1.382828
1.414418
1.392961
1.149774
1.437664
1.620650
1.473427
1.744628
1.688600
1.707673
1.858473
1.734495
1.844764
1.715422
1.803637
1.820922
1.807809
1.897812
1.888871
1.953840
1.832843
1.924634
2.004504
2.210736
2.200603
2.421737
2.245903
2.464652
2.441406
2.416968
2.334714
2.737641
2.774596
2.658963
2.880692
3.051758
3.033876
3.290772
3.395677
3.748536
3.790855
4.072785
4.453659
4.650950
4.966855
5.463958
5.996823
6.366968
7.006526
7.877946
8.175969
9.703636
11.440516
35.098791
148.576498
644.994974
1016.031504
1016.031504
1016.031504
1016.031504
1016.031504
1016.031504
1016.031504
1016.031504
1016.031504
1016.031504
1016.031504
1016.032100
561.863780
147.744417
52.567720
33.386946
31.846762
30.765533
30.778646
31.392574
32.476783
34.875870
37.950873
44.059753
51.294565
60.475469
70.130825
80.787539
87.334514
89.425445
90.552568
83.969831
78.251958
68.480968
##ZVALUE=360
1.574755
1.555681
1.555681
1.737475
1.658797
1.558661
1.582503
1.592636
1.671910
1.690984
1.683831
1.680851
1.669526
1.922846
1.663566
1.693964
1.823902
1.848936
1.971722
1.887679
2.069473
1.994967
2.045631
2.153516
1.973510
2.084970
2.119541
2.189875
2.270937
2.485514
2.405643
2.388954
2.522469
2.434850
2.765656
2.653599
2.678633
3.083944
2.979636
3.193617
3.159642
3.081560
3.310442
3.474951
3.397465
3.698468
3.984571
3.906488
4.215837
4.414916
4.777908
5.230904
5.312562
5.728602
6.287694
6.727576
7.311702
7.946491
8.854866
10.524988
11.952519
19.413829
66.837072
331.579447
849.111676
1016.032696
1016.032696
1016.032696
1016.032696
1016.032696
1016.032696
1016.032696
1016.032696
1016.032696
1016.032696
1016.032696
937.450528
320.562720
103.793740
35.867691
31.585693
30.649900
30.087829
29.496551
29.906631
30.525923
31.132698
34.741759
38.020611
45.124888
52.369833
62.730908
70.440769
78.334808
80.774426
81.031919
##ZVALUE=365
1.737475
1.698732
1.623631
1.724958
1.664758
1.616478
1.660585
1.582503
1.693964
1.822710
1.734495
1.727939
1.733899
1.866817
1.733899
1.910925
1.973510
1.958609
1.990795
1.917481
2.071857
2.064705
1.963973
1.920462
2.145767
2.179742
2.339482
2.274513
2.344847
2.236962
2.145767
2.308488
2.402663
2.516508
2.579689
2.772808
2.782941
2.797842
3.094673
2.993941
3.273487
3.137589
3.169775
3.250837
3.519654
3.503561
3.743768
3.950000
4.106760
4.033446
4.389882
4.765987
4.995465
4.960895
5.349517
5.787611
6.164908
6.726980
7.059574
8.082986
9.169579
10.611415
12.155771
14.706850
30.832887
195.410848
551.687479
1016.039848
1016.039848
1016.039848
1016.039848
1016.039848
1016.039848
1016.039848
1016.039848
1016.039848
1016.039848
1016.039848
1016.039848
494.737625
173.773766
41.868687
30.587912
28.834939
28.683543
26.899576
27.111769
27.033687
27.690530
28.827786
30.350685
33.790469
38.275719
46.178699
52.934885
62.376857
##ZVALUE=370
1.506805
1.580715
1.680851
1.530647
1.608729
1.592636
1.563430
1.582503
1.634955
1.610518
1.679659
1.607537
1.697540
1.755953
1.716614
1.628995
1.810789
1.804829
1.694560
1.908541
1.876950
1.939535
2.006888
1.984835
1.903772
2.128482
1.937747
2.092719
2.052784
2.196431
2.134442
2.281666
2.262592
2.409816
2.339482
2.367496
2.606511
2.583861
2.509952
2.663732
2.901554
2.880692
2.886653
2.993941
3.038645
3.105998
3.083944
3.596544
3.446937
3.477931
3.597736
3.997684
3.835559
4.242659
4.499555
4.630685
5.020499
5.305409
5.627871
6.076694
6.901622
7.500648
8.338690
9.540915
10.599494
12.438893
17.848611
107.748508
374.455452
1016.031504
1016.031504
1016.031504
1016.031504
1016.031504
1016.031504
1016.031504
1016.031504
1016.031504
1016.031504
1016.031504
1016.031504
768.821836
309.925675
73.053837
33.037663
26.878715
26.578903
25.474429
25.260448
24.997592
24.646521
24.753809
25.170445
26.989579
30.010939
34.477711
##ZVALUE=375
1.427531
1.434684
1.611710
1.325607
1.350641
1.331568
1.420975
1.368523
1.301765
1.634955
1.489520
1.542568
1.502633
1.557469
1.428723
1.580715
1.307726
1.557469
1.460910
1.660585
1.584888
1.621842
1.696944
1.729727
1.862645
1.770854
1.667738
1.834631
1.875758
1.863837
1.785755
1.892447
1.800656
1.933575
2.043843
2.049804
2.126694
2.077818
2.062917
2.354980
2.248883
2.410412
2.376437
2.467632
2.493858
2.580881
2.654791
2.659559
2.817512
2.818704
3.017783
3.296733
3.340840
3.408790
3.499985
3.762841
3.850460
4.041791
4.562736
4.707575
4.911423
5.637407
5.934834
6.491542
7.218719
8.287430
9.588599
11.207461
13.598800
48.998594
187.785625
729.719996
1016.017795
1016.017795
1016.017795
1016.017795
1016.017795
1016.017795
1016.017795
1016.017795
1016.017795
1016.017795
1016.017795
1016.017795
654.947758
172.639489
55.176616
27.048588
25.049448
23.719668
23.410916
22.508502
22.481680
22.311807
22.588968
23.175478
##ZVALUE=380
1.164675
1.436472
1.513958
1.170635
1.382828
1.421571
1.396537
1.222491
1.211762
1.181960
1.254678
1.318455
1.411438
1.376867
1.127720
1.291633
1.349449
1.336932
1.398921
1.346469
1.479983
1.401901
1.416802
1.558661
1.434684
1.506805
1.585484
1.540780
1.827478
1.704693
1.661777
1.717806
1.715422
1.614690
1.757741
1.838803
1.828671
1.839995
1.975894
1.843572
2.024770
2.274513
2.101660
1.982450
2.144575
2.283454
2.276897
2.267957
2.403855
2.472997
2.758503
2.883673
2.850890
2.912879
3.063679
3.315806
3.389716
3.720522
3.634691
3.992915
4.199743
4.620552
4.853606
5.258918
5.707741
6.344914
6.918907
8.699894
10.136962
12.082458
13.569593
26.136637
103.098750
537.995696
1016.031504
1016.031504
1016.031504
1016.031504
1016.031504
1016.031504
1016.031504
1016.031504
1016.031504
1016.031504
1016.031504
1016.032100
926.780701
327.576995
110.238791
29.970407
24.002790
23.183823
22.045970
21.825433
20.980835
20.971894
##ZVALUE=385
1.119971
1.136661
1.161695
1.204610
1.090765
1.122952
1.198649
1.031756
1.159906
1.217723
1.204610
1.107454
1.097918
1.161695
1.208782
1.276731
1.057982
1.184940
1.196861
1.238585
1.260638
1.208782
1.186728
1.394749
1.411438
1.279712
1.369715
1.374483
1.310706
1.296997
1.577735
1.561642
1.532435
1.524687
1.609921
1.619458
1.802444
1.709461
1.643896
1.738667
1.862645
1.867414
1.865625
1.966953
2.033710
2.011657
2.197623
2.166629
2.271533
2.400875
2.451539
2.534986
2.703667
2.664924
2.730489
2.930760
2.896786
3.064871
3.238916
3.437996
3.461838
3.985763
4.190803
4.611611
4.743934
5.493760
5.986691
7.132888
7.866621
9.300709
10.524988
11.711717
12.903810
16.427636
47.746301
302.122831
832.378864
1016.032696
1016.032696
1016.032696
1016.032696
1016.032696
1016.032696
1016.032696
1016.032696
1016.032696
1016.032696
1016.032696
1016.032696
590.685010
206.202865
43.156743
24.427772
21.565557
20.884871
20.209551
##ZVALUE=390
0.970960
0.957847
0.919700
1.168847
0.881553
0.998974
1.089573
1.013875
1.020432
1.136661
1.245737
1.147985
1.031756
1.056790
1.140833
1.218915
1.223683
1.213551
1.376867
1.084805
1.394749
1.332760
1.113415
1.149774
1.333952
1.162887
1.181960
1.278520
1.217723
1.293421
1.325607
1.450777
1.384616
1.364946
1.467466
1.656413
1.434684
1.505613
1.731515
1.658797
1.740456
1.728535
1.641512
1.715422
1.884699
1.889467
1.995564
2.233982
2.085567
2.223849
2.257824
2.613664
2.487898
2.514720
2.786517
2.722740
2.845526
3.111959
3.160834
3.398657
3.349781
3.476739
3.565550
4.143715
4.374981
5.035996
5.583763
6.260872
7.106662
8.088946
8.890629
9.828806
10.404587
11.203885
11.754632
13.476610
24.923682
163.422823
537.238717
1016.031504
1016.031504
1016.031504
1016.031504
1016.031504
1016.031504
1016.031504
1016.031504
1016.031504
1016.031504
1016.031504
1016.031504
928.970575
411.942005
98.979473
32.672882
21.925569
##ZVALUE=395
0.933409
1.052618
0.891685
1.088977
0.997782
1.072884
1.080632
1.115799
1.118779
1.203418
1.196861
1.036525
1.125932
1.189709
1.184940
1.262426
1.273751
1.075864
1.172423
1.271963
1.211762
1.272559
1.189709
1.167655
1.112819
1.259446
1.364946
1.359582
1.434684
1.335740
1.395941
1.468658
1.539588
1.485944
1.451969
1.496673
1.653433
1.400709
1.480579
1.620650
1.546741
1.775622
1.697540
1.933575
1.908541
2.030730
1.996756
1.967549
2.083778
2.090931
2.299547
2.460480
2.297759
2.538562
2.696514
2.592802
2.720952
2.831817
3.038645
3.054738
3.330708
3.572702
3.771782
3.874898
4.098415
4.485846
5.131960
5.705953
6.448627
7.618666
7.890463
8.555651
9.117723
9.145737
9.387732
10.377765
11.107922
12.932420
16.480684
89.449883
352.660418
1016.031504
1016.031504
1016.031504
1016.031504
1016.031504
1016.031504
1016.031504
1016.031504
1016.031504
1016.031504
1016.031504
1016.031504
1016.031504
705.582500
191.880465
##ZVALUE=400
1.123548
0.986457
1.073480
1.219511
1.164675
1.180768
0.966787
1.138449
1.155734
1.016855
1.105666
1.141429
1.135468
1.139641
1.181960
1.152754
1.270771
1.203418
1.146793
1.063943
1.199841
1.325607
1.048446
1.202822
1.302958
1.318455
1.248717
1.343489
1.312494
1.409650
1.502633
1.319647
1.496673
1.439452
1.463890
1.340508
1.513958
1.658797
1.651645
1.690984
1.763701
1.699924
1.778603
1.879930
2.021790
1.930594
1.769662
2.099872
2.159476
2.237558
2.078414
2.186894
2.388954
2.223849
2.564788
2.449751
2.525449
2.695918
2.836585
3.116727
2.996922
3.315806
3.639460
3.607869
4.068613
4.441738
4.842877
5.603433
6.155968
6.769896
7.734895
7.595420
7.949471
8.107424
8.181930
8.536577
8.943677
10.046959
10.890961
12.834668
14.778972
44.971704
195.134878
826.541781
1016.031504
1016.031504
1016.031504
1016.031504
1016.031504
1016.031504
1016.031504
1016.031504
1016.031504
1016.031504
1016.031504
1016.031504
##END
