##TITLE=SH701
##FORMAT=SPECTACLE-ASCII V-1.2
##DATA TYPE=ULTRAVIOLET SPECTRUM
##SECOND TYPE=ULTRAVIOLET SPECTRUM
##DATE=04/30/18
##TIME=15:04:39
##SPECTROMETER/DATA SYSTEM=SPECTACLE
##XUNITS=NM EM
##YUNITS=ENERGY
##YFACTOR=1
##FIRSTX=220
##LASTX=410
##NPOINTS=96
##3DDATA=Equidistant
##ZUNITS=NM EX
##FIRSTZ=210
##LASTZ=400
##ZPOINTS=39
##XYDATA=(Y..Y)
##ZVALUE=210
1.545548
1.634955
1.563430
2.122521
2.046824
1.770854
2.356768
2.105832
2.317429
2.988577
2.885461
3.196597
3.263950
3.626943
3.475547
3.773570
4.650950
3.962517
4.298687
5.259514
5.473495
7.056594
5.722642
6.572604
6.828904
7.845759
7.317662
8.207560
8.371472
8.626580
10.746717
10.378957
9.815693
11.157990
9.898543
11.256933
12.739897
11.730790
12.929440
13.805628
14.796853
13.358593
14.831424
14.947653
14.772415
15.286803
17.453432
17.891526
18.474460
16.947985
18.372536
19.049644
19.760728
20.138621
19.652843
19.545555
21.005869
21.337867
21.146536
21.270514
23.225546
22.456646
24.387836
24.725795
26.192665
27.008653
29.121637
30.828714
39.914846
49.110651
60.354471
70.312619
82.965493
92.321634
104.118586
111.216903
110.361576
110.697746
105.962753
101.308823
96.520782
89.480877
76.231956
68.078637
56.954622
48.394799
43.077469
36.466718
34.402609
34.078956
34.993887
34.739971
33.885837
34.053922
33.379793
35.028458
##ZVALUE=215
5.432963
5.346537
4.558563
4.151464
3.013611
3.150702
3.526807
3.970861
4.025698
4.877448
4.066825
4.695654
4.492998
3.733635
4.804730
4.717708
4.415512
5.765557
5.673766
5.436540
5.674958
7.111430
6.870627
8.344650
8.011460
7.643700
9.259582
9.016991
10.351539
8.874536
9.899735
10.472536
11.591911
11.134744
11.809468
13.560653
12.688637
13.156533
13.067722
12.928843
15.331507
15.495420
16.035438
16.347766
17.253757
18.180609
17.306805
18.862486
19.512773
18.677711
19.308925
19.791722
21.105409
22.093654
20.074844
23.109913
21.275878
23.821592
23.925900
23.056865
25.220513
25.754571
25.572777
27.035475
26.484728
27.718544
30.867457
31.579733
37.330985
50.498843
56.522489
65.960884
74.437857
86.874962
95.599890
101.089478
101.537704
99.565983
98.463893
91.341734
85.382462
76.590776
70.521832
57.852864
53.821802
45.355558
40.945411
38.040876
35.824776
36.224723
35.586953
34.211874
34.836531
35.926700
34.550428
35.260916
##ZVALUE=220
17.118454
18.476844
20.774603
21.068454
19.907951
18.154979
15.732646
11.337996
8.936524
7.586479
10.153651
9.260774
9.325743
9.366870
8.726716
7.156730
7.047653
7.042885
6.067753
7.036924
6.775856
7.516742
7.603765
8.331537
8.277893
8.186698
10.061860
9.425879
9.002686
9.755492
10.604858
11.795759
12.151599
13.377666
12.958646
13.091564
13.768673
14.854670
15.621781
15.090704
14.585853
16.923547
16.904473
16.100407
18.091798
19.381642
18.886924
19.602776
19.380450
21.721721
19.921660
21.359921
21.920800
23.110509
22.930503
23.222566
24.131536
24.152994
25.984645
26.631951
24.583936
28.393865
29.139519
28.389692
28.441548
30.527711
32.131672
34.850836
38.267970
45.008659
53.608418
64.441562
74.818730
87.080002
88.245869
97.519755
95.894933
98.193884
90.797544
87.977648
82.153678
76.591969
69.723725
58.841705
55.946708
47.226548
40.326715
39.734840
37.532449
37.146807
37.897825
34.706593
34.945607
35.649538
34.324527
35.424829
##ZVALUE=225
32.748580
36.402941
54.014921
68.419576
87.539554
88.625550
84.559917
74.264407
54.387450
40.084720
26.352406
21.717548
18.903613
21.019578
21.104813
23.092628
19.450784
15.284419
13.158917
11.099577
9.982586
8.507967
8.696914
8.843541
9.683967
10.023713
9.836555
9.557605
11.755824
10.783672
12.567639
11.637807
13.394952
13.923645
14.959574
14.545918
16.604662
16.166568
17.625690
18.082857
17.396808
18.316507
20.395517
21.839738
20.429492
22.753477
23.276806
23.254752
23.503900
26.111603
25.081635
26.549697
27.830601
30.283928
30.433536
28.859973
29.662848
32.432675
31.984448
31.972528
31.980872
33.281446
34.195781
33.689737
36.462545
36.872625
37.386417
42.901635
45.708418
51.420927
57.786703
67.189932
75.285435
85.808635
87.998509
93.089938
94.695687
89.751482
86.399913
80.517530
74.615479
70.901513
66.380501
57.574511
53.327680
47.276616
42.721629
45.026541
43.364763
40.628910
41.933656
41.064620
38.421750
40.723681
39.518476
42.378902
##ZVALUE=230
35.621524
42.382479
68.858862
122.603774
174.051523
235.872865
271.945000
298.944712
275.895596
246.918797
177.027583
122.081637
71.050525
49.453974
41.556954
44.268966
45.727491
43.357611
42.441487
35.305619
29.630661
21.140575
18.379688
12.564659
10.344982
11.231899
12.591481
12.756586
11.226535
12.183785
13.088584
14.390945
16.062856
15.062690
16.940832
17.416477
18.384457
19.234419
21.907687
20.713806
24.743676
23.423433
23.475885
25.923848
25.712848
27.301908
27.533770
29.678941
33.514500
32.292604
33.870935
33.241510
35.070777
36.062598
37.550926
39.278865
39.041638
41.468740
41.266680
41.568875
44.364929
46.794415
43.814778
44.317842
46.179891
46.712756
51.323771
52.967668
55.753589
65.836906
69.374442
78.961849
87.619424
94.442964
98.539591
100.992918
101.675987
98.728538
94.078779
87.677836
84.103942
75.873733
73.088408
66.688657
64.211488
61.520934
56.978464
56.306720
53.557754
52.660704
52.816868
52.715540
52.381754
52.091479
53.913593
51.541924
##ZVALUE=235
13.584495
16.901493
44.243932
91.968775
174.865723
304.077864
417.681932
582.039952
668.740869
708.513856
657.304525
539.337993
408.178568
246.928930
172.221661
101.865530
78.044534
73.687434
79.527497
80.169439
78.756809
69.457889
53.149462
41.807890
28.705597
22.079945
18.183589
15.571713
13.255477
14.240742
15.941858
15.490651
16.939640
14.864802
16.925931
18.919706
20.408630
21.103621
21.861792
22.074580
23.037791
24.719834
27.187467
29.068589
27.184486
28.972626
32.056570
32.553673
35.075545
36.470890
36.588907
37.585497
39.821863
40.708780
43.967962
43.052435
43.257475
46.299696
49.320459
46.600699
48.799515
49.107671
50.537586
51.895976
54.184794
54.674745
59.404969
62.665939
67.857504
72.752833
79.312921
92.956424
99.481940
104.692578
111.530423
114.114881
114.850998
113.698840
106.017590
99.412799
94.618797
89.364648
87.890625
81.623793
77.651739
72.780848
71.717501
67.889690
69.787502
69.621801
70.240498
70.167780
68.230629
70.664883
67.108870
66.674948
##ZVALUE=240
2.554655
2.895594
9.995699
24.640560
77.713728
150.753856
323.612690
517.101884
821.916461
1005.686522
1015.945673
1015.945673
1015.945673
985.652804
773.347020
496.106744
328.314900
186.378956
127.931833
108.374953
110.316873
119.121671
115.366578
105.834603
91.748834
72.049499
50.297976
37.852526
25.443435
22.572875
18.532872
17.372966
16.783476
18.134713
18.174648
18.974543
19.127727
21.104813
21.547675
21.105409
22.236705
24.271607
26.326776
25.860667
26.867986
27.962923
29.602647
28.056502
31.629801
33.480525
34.541488
36.712885
37.435889
41.142702
42.219758
44.205785
45.564771
46.240687
48.591495
48.147440
48.853755
50.020814
50.802827
54.989457
59.711933
57.913661
64.375997
67.319870
69.633722
82.667470
86.724758
98.993778
108.080506
115.730762
120.072961
121.372938
123.970509
121.997595
117.926598
113.720894
105.703473
106.866956
96.782446
95.189810
89.726448
85.453987
84.960461
85.233450
80.748796
81.237555
79.589486
81.178546
81.566572
80.957413
81.362724
78.722835
##ZVALUE=245
2.625585
2.215505
2.701879
2.408624
7.033944
20.986795
78.593493
169.801712
393.539667
631.040931
993.953943
1016.031504
1016.031504
1016.031504
1016.031504
1016.031504
1016.031504
766.744614
522.480011
274.926424
171.268582
124.158859
113.425851
127.485991
134.853721
133.283734
120.096803
101.036429
77.533722
61.275959
46.453476
32.553673
23.592710
18.888712
17.243624
17.944574
17.517805
18.426776
17.511845
19.409657
19.067526
20.125508
20.159483
22.971630
23.891926
25.376678
25.687814
26.285648
27.056932
29.670000
28.722882
30.923486
33.533573
33.506751
33.675432
38.235784
36.579967
40.092468
40.722489
42.309761
42.133927
45.053959
45.326948
47.004819
49.348474
51.837564
54.035783
58.419704
63.451529
68.080425
76.701641
85.897446
91.196895
102.143884
102.957487
105.711818
110.002756
108.429790
104.137659
101.687908
97.395778
96.294880
87.913871
84.167719
83.674788
84.435940
81.957579
79.488754
81.160665
81.069469
81.831813
79.169869
80.376863
78.289509
80.481768
79.684854
##ZVALUE=250
1.948476
1.883507
1.806617
1.841784
1.876950
2.143979
4.204512
14.183521
69.569945
156.830549
393.685699
653.290749
979.889631
1015.790701
1015.790701
1015.790701
1015.790701
1015.790701
1015.790701
1015.790701
729.081631
464.162827
229.253769
142.309666
110.647678
123.494864
134.355426
141.156912
138.535500
129.711628
113.760829
87.012649
66.559911
44.196844
31.695962
21.436810
17.906427
17.616749
16.703606
17.769933
18.972754
18.088818
19.044876
19.348860
20.874739
22.085905
23.881793
24.755597
24.956465
27.725697
28.434992
29.573441
29.991865
32.458901
30.877590
32.270551
32.861829
34.866929
35.193563
36.662817
38.221478
40.471554
39.081573
41.498542
42.229891
47.056675
44.716001
50.563812
55.418611
60.194731
66.668987
74.717999
80.372691
85.392594
91.378689
94.988942
92.511773
92.123747
89.638829
88.323951
84.625483
82.269907
80.780983
78.199506
75.991750
73.888898
71.308613
73.918700
71.566701
73.725581
73.308945
70.583820
74.187517
73.904991
74.386001
76.118708
##ZVALUE=255
2.021790
2.133846
2.238750
2.061725
2.255440
1.964569
2.780557
3.079772
3.153682
6.605983
40.787458
115.294456
317.006707
559.752584
975.675583
1016.031504
1016.031504
1016.031504
1016.031504
1016.031504
1016.031504
1016.031504
1016.031504
599.170923
351.821780
165.327787
116.606951
110.193491
125.548840
144.788623
150.765777
145.247579
135.254860
112.254620
93.282461
65.542459
48.217773
30.270815
25.378466
19.865632
19.513965
18.228889
20.076632
21.021962
22.009611
23.631454
23.869872
25.489926
26.715994
26.944876
28.451681
31.062961
30.322671
31.623840
33.008456
33.666492
34.781694
36.190748
35.351515
36.864877
38.636923
40.787458
40.416718
41.444898
42.718649
42.703748
44.447780
47.995448
52.037835
56.252480
60.348511
66.789985
70.777535
77.759624
79.132915
80.506802
81.484914
79.040527
78.632832
76.791644
73.514581
74.163675
70.240498
68.075657
68.125725
68.628788
69.782734
67.433715
67.771673
69.570541
66.587925
67.537427
67.446828
68.366528
67.193508
68.047643
##ZVALUE=260
1.564622
1.994967
1.931787
1.987815
2.049804
1.977682
2.445579
2.639890
2.773404
3.140569
3.411770
5.575418
21.341443
97.153783
211.890936
511.268973
849.663615
1016.020775
1016.020775
1016.020775
1016.020775
1016.020775
1016.020775
1016.020775
1016.020775
970.551968
541.201830
310.901999
140.123963
102.193952
108.287930
131.914616
145.109892
154.449940
157.508850
141.527653
123.368502
93.387961
73.463917
51.893592
37.594438
27.614832
24.054646
23.471713
23.738742
24.941564
24.966598
27.040839
29.384494
31.886697
31.954646
34.698844
34.063458
36.156774
36.920905
37.876964
39.643645
40.314794
42.317510
41.800737
42.291880
42.083859
44.472814
43.551922
45.133829
44.927001
46.957731
49.506426
49.922466
53.464770
56.023002
63.590407
67.396760
69.701672
72.560906
73.492527
73.724985
72.264671
72.340965
71.791410
68.372488
65.378547
63.657761
63.310862
63.209534
62.104464
61.768889
62.904954
61.957836
61.321855
62.157512
63.163638
61.387420
61.533451
62.809587
62.781572
##ZVALUE=265
1.603961
1.662970
1.848936
1.840591
1.582503
1.913905
1.754761
2.102852
2.300739
2.149940
2.802610
3.019571
3.554821
4.064441
12.153983
48.459768
188.225508
377.527475
675.527453
1016.031504
1016.031504
1016.031504
1016.031504
1016.031504
1016.031504
1016.031504
1016.031504
1016.031504
841.560960
416.224599
227.381587
104.499459
91.237426
115.648508
137.209892
155.802965
162.813663
155.589581
145.018697
119.264722
97.871423
72.303414
55.785775
40.039420
34.172535
31.876564
31.139851
32.039881
33.985972
36.249757
38.073659
39.407611
40.532947
42.625666
42.988658
44.233799
44.805408
46.230555
47.553778
48.312545
47.933459
48.123002
48.400760
49.061775
48.904419
48.839450
50.326586
51.747561
52.988529
56.107640
59.235692
61.654449
66.181421
68.003535
70.078969
70.110559
69.970489
69.584846
66.010952
65.061450
62.512755
61.088800
61.454773
58.736801
59.945583
57.568550
58.697462
58.725476
59.074759
58.677793
58.619976
56.764483
58.294535
57.971478
57.507753
60.693622
##ZVALUE=270
1.586676
1.322627
1.510978
1.648664
1.436472
1.545548
1.856685
2.103448
2.025962
2.050996
2.460480
2.679825
2.660751
2.865791
3.347993
4.176497
5.589724
27.279854
90.720654
305.963755
609.426498
1001.566648
1016.032696
1016.032696
1016.032696
1016.032696
1016.032696
1016.032696
1016.032696
1016.032696
1016.032696
711.379647
382.885933
148.610473
89.934468
92.401505
115.134716
142.523646
157.985687
168.868899
166.999698
151.903629
132.717490
105.308890
83.870888
64.267516
51.335692
43.113828
41.424632
41.807890
43.578744
44.755936
45.454502
48.221946
47.948956
51.654577
51.831603
52.859783
52.177906
54.264665
53.335428
53.557754
53.247809
54.854751
53.726435
52.951574
54.339767
54.992437
57.208538
59.917569
60.034990
64.406991
67.181587
69.883466
69.596767
69.462657
67.122579
66.891909
64.954758
62.309504
61.512589
59.869885
56.997538
57.002902
56.532621
55.437684
54.921508
55.755973
55.820942
55.786967
55.236816
54.490566
55.456758
55.682659
54.035783
55.332780
##ZVALUE=275
1.473427
1.455545
1.482964
1.771450
1.553893
1.652837
1.689792
1.950860
1.775622
1.808405
2.067685
2.313852
2.360940
2.335906
2.942681
3.153682
3.501773
3.900528
4.412532
10.305643
49.333572
213.305950
461.127758
981.100798
1016.031504
1016.031504
1016.031504
1016.031504
1016.031504
1016.031504
1016.031504
1016.031504
1016.031504
957.485437
566.039681
228.844881
109.922886
75.454712
92.630982
121.818781
142.214894
163.799524
173.472762
170.381665
160.320997
138.255954
115.351677
93.878508
75.893998
62.404871
56.090951
51.963925
52.187443
53.256750
54.176450
56.510568
57.079792
56.490898
57.246685
57.854652
58.092475
57.709813
59.278607
57.757497
58.522820
57.370663
58.013797
58.102608
59.041977
62.090755
63.909888
67.185760
68.952441
69.216490
69.846511
69.688559
70.073605
67.402720
64.679980
62.823892
61.721802
58.079958
57.824850
55.335760
54.710507
54.059625
53.334832
53.820610
53.300858
53.448677
51.999688
53.777695
52.858591
52.068830
53.113699
52.658916
##ZVALUE=280
1.354814
1.690984
1.545548
1.361966
1.471639
1.545548
1.510978
1.681447
1.866817
1.929998
1.813769
2.004504
2.143979
2.214909
2.359748
2.519488
2.600551
2.892613
3.374815
3.843904
4.436970
5.756617
36.627650
129.275918
419.513583
773.126483
1016.031504
1016.031504
1016.031504
1016.031504
1016.031504
1016.031504
1016.031504
1016.031504
1016.031504
1016.031504
777.592659
329.364538
153.222680
72.358847
71.867704
99.119544
120.442510
150.345564
167.821646
177.896619
174.110532
161.297917
148.214698
121.210814
101.950765
82.815886
70.942640
61.714649
58.902502
58.811903
57.885647
60.775876
59.898496
60.086846
61.704516
60.294867
61.772466
60.548782
60.214996
60.717463
60.834885
60.525537
61.487556
62.564611
65.446496
64.891577
68.692565
68.606734
68.802834
69.020987
69.784522
66.596866
62.245727
62.271953
58.734417
57.941675
55.721998
55.837631
54.230690
53.548813
53.698421
51.869750
52.176714
51.777959
51.367879
51.165819
50.929785
48.462749
50.140619
49.897432
##ZVALUE=285
1.357794
1.412630
1.487732
1.239777
1.258850
1.501441
1.628995
1.289845
1.326799
1.800656
1.665950
2.092719
1.843572
1.911521
2.177954
2.335906
2.370477
2.532601
2.853870
3.441572
3.269911
3.712773
4.428625
5.314946
16.746521
65.120459
246.485472
524.757504
1016.031504
1016.031504
1016.031504
1016.031504
1016.031504
1016.031504
1016.031504
1016.031504
1016.031504
1016.031504
1016.031504
546.494722
269.323587
93.790889
60.308576
74.790716
95.035434
125.745535
146.311522
169.483423
175.678730
178.329945
170.090795
147.994757
129.681826
106.354952
88.853836
74.737668
65.895915
61.411858
60.387850
59.977770
61.204433
62.194467
61.227679
61.361790
62.340498
60.700774
60.792565
61.705709
61.919689
62.822700
64.642429
66.097975
66.972971
66.815615
67.742467
66.137910
64.612627
63.567758
61.830878
59.870481
57.975650
56.503415
55.157542
54.344535
53.732991
53.126812
52.598715
53.109527
51.743984
50.875545
50.620437
49.558878
49.299002
48.147440
48.630834
49.589872
##ZVALUE=290
1.335740
1.121759
1.291633
1.445413
1.616478
1.480579
1.355410
1.565814
1.529455
1.696944
1.638532
1.647472
1.538992
1.931787
1.666546
2.029538
2.155900
2.392530
2.494454
2.638698
2.930760
2.744794
3.802776
4.070997
4.628897
4.989505
7.602572
25.169849
136.325359
343.002677
694.188476
1016.023755
1016.023755
1016.023755
1016.023755
1016.023755
1016.023755
1016.023755
1016.023755
1016.023755
1016.023755
811.857581
419.605970
147.991776
66.941977
57.060719
69.453716
95.132589
117.476583
146.195889
163.286924
175.870657
176.602006
165.108442
149.652958
123.138428
106.493831
85.387826
73.726773
63.933730
60.698986
58.278441
58.133602
57.510734
56.977868
57.884455
57.493448
58.384538
59.212446
59.942603
62.042475
64.636469
64.844489
64.393878
63.963532
62.222481
62.431693
61.364770
58.461428
57.196617
56.714416
55.354834
54.762959
53.739548
52.388906
52.338839
51.632524
50.908923
49.711466
50.694942
49.195886
48.330426
47.789812
47.339797
46.768785
46.863556
##ZVALUE=295
1.139641
1.182556
1.145601
1.428723
1.268983
1.171827
1.448989
1.525879
1.540780
1.639724
1.532435
1.509786
1.795888
1.702905
1.717806
1.913905
1.915693
2.123713
2.152920
2.413988
2.707839
2.686977
2.767444
3.109574
3.957748
4.144907
4.486442
4.807711
5.920529
10.832548
45.156479
225.076675
520.771742
1016.032696
1016.032696
1016.032696
1016.032696
1016.032696
1016.032696
1016.032696
1016.032696
1016.032696
1016.032696
1016.032696
634.446740
227.435827
97.698569
47.689676
50.405860
68.186522
86.413622
113.965869
134.423971
155.129433
165.777802
163.908601
156.456828
137.563944
118.993521
94.423890
81.841946
65.976977
59.312582
54.275990
52.457452
51.056743
51.408410
52.440763
54.391623
56.253672
58.007836
59.644580
59.562922
60.503483
60.420632
60.210824
58.545470
57.240725
55.424571
54.038763
54.788589
53.925514
53.475499
51.602721
51.606894
51.161647
50.549507
50.479770
49.593449
49.716830
48.801899
48.522949
47.353506
47.038794
45.947433
46.603680
##ZVALUE=300
1.327991
1.270771
1.331568
1.426935
1.298785
1.184940
1.473427
1.422763
1.416802
1.428723
1.511574
1.441836
1.553893
1.658797
1.671910
1.721978
1.977682
1.903772
1.864433
2.212524
2.204776
2.118945
2.445579
2.382994
2.870560
3.331900
3.489852
3.757477
4.206896
4.926920
5.781651
6.853938
19.926429
139.560699
369.423628
939.787626
1016.032696
1016.032696
1016.032696
1016.032696
1016.032696
1016.032696
1016.032696
1016.032696
1016.032696
1016.032696
938.625932
410.872698
184.568763
57.237744
38.573742
46.318769
58.136582
80.314875
99.395514
126.336813
141.321421
153.416991
154.096484
144.358873
131.414533
108.840466
92.817545
73.207617
62.002540
51.168799
46.811700
46.564937
46.379566
48.507452
49.747825
52.632689
53.417683
55.124760
54.142475
53.790808
54.094791
52.763820
51.967502
51.398873
51.487684
51.064491
51.392913
50.247908
50.399899
50.223470
50.038695
49.199462
48.350692
48.543811
47.735572
47.285557
46.620965
45.870543
46.455860
45.609474
##ZVALUE=305
1.176000
1.132488
1.199841
1.409650
1.302958
1.264811
1.208782
1.359582
1.342893
1.156926
1.303554
1.236796
1.539588
1.461506
1.536608
1.702905
1.666546
1.775622
1.747608
2.030730
2.034903
2.251863
2.266765
2.548695
2.694726
2.915859
2.852678
3.255606
3.485680
3.893971
4.416704
5.030632
5.503893
6.415844
11.883974
84.562898
257.435441
752.229691
1016.027927
1016.027927
1016.027927
1016.027927
1016.027927
1016.027927
1016.027927
1016.027927
1016.027927
1016.027927
1016.027331
634.367466
302.932858
90.098977
38.808584
34.757853
41.605830
56.687593
73.376894
97.293854
115.821958
134.926438
143.587589
143.599510
138.414502
122.251511
105.621815
86.075664
69.056749
56.287646
50.149560
46.855807
46.214461
46.564937
48.495531
50.061941
50.756931
51.141977
51.284432
50.384998
49.595833
49.274564
48.460960
49.296618
49.835443
50.480962
49.604774
49.796700
49.367547
49.335957
49.356818
48.750639
48.779845
46.905875
47.341585
46.990514
46.392679
46.231747
##ZVALUE=310
1.073480
1.026988
1.123548
1.200438
1.202822
1.233816
1.265407
1.235604
1.220703
1.364946
1.244545
1.396537
1.346469
1.364946
1.415610
1.572967
1.642704
1.674891
1.570582
1.851916
1.936555
1.646876
2.129674
2.175570
2.270937
2.421737
2.590418
2.790689
2.899766
3.192425
3.504753
3.775954
4.350543
4.916787
5.556941
6.360412
7.612705
34.275651
132.946372
479.552746
943.554640
1016.041636
1016.041636
1016.041636
1016.041636
1016.041636
1016.041636
1016.041636
1016.041636
1016.041636
1016.041636
971.257687
545.483828
185.800791
65.400600
29.144883
30.579567
39.718747
48.730969
68.580508
84.812641
109.317899
123.972893
135.433674
138.754845
132.417679
120.953918
102.781653
88.176727
70.111752
61.477423
54.070950
50.431490
49.525499
48.816800
48.060417
48.567653
48.375726
48.632622
48.339963
48.619509
48.383474
49.136877
50.295591
50.647855
50.479770
50.422549
50.422549
49.781799
49.274564
48.824549
49.058795
48.503876
47.452450
47.652721
46.703815
##ZVALUE=315
1.061559
1.054406
1.119971
1.109838
1.039505
1.064539
1.286864
1.122952
1.445413
1.435876
1.403689
1.174808
1.408458
1.642704
1.690984
1.327991
1.507998
1.687407
1.532435
1.651645
1.708865
1.721978
1.987815
2.179742
2.120733
2.269745
2.623796
2.497435
2.695918
2.831817
3.012419
3.454685
3.595948
3.792644
4.089475
5.016923
5.396605
5.976558
7.316470
16.243458
69.019794
325.846076
728.824735
1016.035676
1016.035676
1016.035676
1016.035676
1016.035676
1016.035676
1016.035676
1016.035676
1016.035676
1016.035676
1016.035676
784.226060
276.747942
102.768540
33.116937
27.195811
30.846596
36.962628
49.716830
63.855648
83.352923
101.302862
120.550990
130.487680
134.401917
130.490661
118.773580
105.254650
88.071823
76.158643
63.302517
56.713820
51.695704
49.073696
48.206449
47.518611
47.523975
48.145652
48.449636
49.108863
50.365925
49.879551
49.950480
49.678683
50.504804
49.354434
49.928427
49.273968
48.362613
47.818422
48.455000
47.940612
47.053695
##ZVALUE=320
1.110435
1.225471
1.098514
1.297593
1.103878
1.342893
1.298785
1.420975
1.471639
1.289845
1.373887
1.636744
1.513958
1.594424
1.455545
1.395941
1.428723
1.577735
1.738667
1.596808
1.626611
1.796484
1.955628
2.047420
2.131462
2.127886
2.202988
2.258420
2.706647
2.576709
2.914667
2.914667
3.333688
3.399849
3.742576
3.926754
4.390478
4.893541
5.428791
6.089807
6.712675
9.104609
30.806661
193.914771
500.187874
1016.149521
1016.149521
1016.149521
1016.149521
1016.149521
1016.149521
1016.149521
1016.149521
1016.149521
1016.149521
1016.149521
1004.674435
443.424582
192.287564
53.138733
29.391646
28.553605
30.729771
37.577748
46.589971
62.551498
79.190731
99.783540
115.916729
129.698515
134.583712
131.134987
121.169686
103.799701
91.158748
75.382590
63.740611
54.459572
51.047802
48.400760
49.105883
48.076510
49.114823
49.539804
49.440861
50.390959
50.440431
49.735904
50.142407
49.300790
49.466491
48.820972
49.014688
48.108697
48.101544
48.125982
##ZVALUE=325
1.099706
1.082420
1.233816
1.304746
1.210570
1.181960
1.112819
1.354814
1.286864
1.328588
1.334548
1.311898
1.474619
1.519918
1.551509
1.510978
1.416802
1.672506
1.530647
1.576543
1.844764
1.920462
1.518726
1.830459
2.005696
1.848936
2.085567
2.280474
2.381802
2.456903
2.470613
2.551675
2.733469
3.032684
3.102422
3.400445
3.587604
4.008412
4.320741
4.626513
5.140901
5.974770
7.036924
8.257627
16.335845
118.921399
340.119600
926.131010
1016.160846
1016.160846
1016.160846
1016.160846
1016.160846
1016.160846
1016.160846
1016.160846
1016.160846
1016.160846
1016.160846
678.045750
317.157507
85.587502
36.056638
28.051734
28.795600
32.601953
37.584901
49.902797
62.473416
84.616542
100.301504
118.541718
129.132867
131.152868
127.602816
114.386678
101.379752
84.530711
72.595477
60.999990
54.751635
50.763488
49.914718
49.422979
49.911737
48.947930
49.102902
49.892664
49.480796
48.970580
48.763752
47.789812
48.226714
48.252940
47.875643
47.612786
##ZVALUE=330
0.931621
0.875592
1.019835
1.166463
1.087785
0.992417
1.221895
1.127720
1.153946
1.096725
1.070499
1.211762
1.106858
1.380444
1.398921
1.278520
1.255870
1.298785
1.380444
1.380444
1.355410
1.507998
1.591444
1.446605
1.768470
1.847744
1.826882
1.791716
2.097487
2.329946
2.229810
2.283454
2.510548
2.514720
2.830625
2.781749
2.860427
3.198981
3.464818
3.720522
4.110932
4.600883
5.312562
5.797744
6.314516
7.904768
9.640455
52.396059
192.859769
661.204457
1016.031504
1016.031504
1016.031504
1016.031504
1016.031504
1016.031504
1016.031504
1016.031504
1016.031504
1016.031504
1016.031504
950.459838
498.856902
164.559484
58.872700
28.992891
28.585792
31.063557
34.144521
42.392612
51.384568
67.540407
82.113743
102.225542
113.647580
124.282837
125.681758
119.183660
110.244751
95.088482
82.653761
68.773627
61.489940
54.292679
51.285625
48.830509
48.499703
47.815442
47.664642
47.850609
47.743917
47.287941
46.503544
47.206879
46.681762
46.589971
##ZVALUE=335
1.047850
1.034737
1.023412
1.070499
1.019835
0.873804
1.079440
0.963807
1.121759
1.022816
1.253486
1.162887
0.987649
1.120567
1.084805
1.315475
1.272559
1.238585
1.439452
1.275539
1.305938
1.406670
1.286864
1.530647
1.585484
1.462698
1.695752
1.716614
1.775622
1.879930
2.186894
2.305508
2.148747
2.386570
2.378821
2.409816
2.648830
2.994537
3.098845
3.200769
3.476739
3.572702
4.081726
4.496574
5.033612
5.774498
6.337762
7.137656
8.381605
21.943450
90.637803
410.328507
902.164578
1016.035676
1016.035676
1016.035676
1016.035676
1016.035676
1016.035676
1016.035676
1016.035676
1016.035676
1016.035676
1016.035676
756.871700
250.618458
91.561675
34.096837
30.458570
32.266974
33.542514
38.344860
43.515563
53.959489
64.883828
80.938935
93.576908
108.129978
115.943551
118.829608
114.465952
103.341937
93.599558
81.286430
70.598722
60.611963
54.376721
50.348639
48.827529
46.767592
46.811700
45.569539
46.187639
45.524836
45.213699
45.504570
##ZVALUE=340
0.951886
0.886917
0.913739
0.927448
0.950694
0.968575
1.058578
0.930429
1.165867
1.200438
1.019835
1.107454
1.097918
1.131892
1.090765
1.213551
1.294613
1.161695
1.431704
1.324415
1.324415
1.320839
1.297593
1.486540
1.402497
1.698732
1.535416
1.753569
1.697540
1.787543
1.827478
1.903772
1.881719
2.080798
1.983643
2.281666
2.444983
2.509952
2.763867
2.668500
3.312826
3.168583
3.289580
3.874898
3.934503
4.558563
4.943609
5.311966
6.187558
6.626844
7.901788
10.256767
53.586960
207.715631
749.361515
1016.031504
1016.031504
1016.031504
1016.031504
1016.031504
1016.031504
1016.031504
1016.031504
1016.031504
1016.031504
1016.031504
937.338471
458.782911
120.476484
45.660734
33.152699
33.232570
34.822822
35.579801
38.375854
41.971803
50.887465
61.292648
77.092648
89.720488
103.812814
110.493898
111.823678
110.518932
101.057887
91.758966
78.487992
69.027543
58.105588
53.076744
47.760606
45.563579
44.537783
43.853521
43.219924
43.640733
##ZVALUE=345
0.941753
0.883937
0.895858
0.945926
1.112819
1.043677
1.101494
1.128912
1.054406
1.260638
1.000762
1.208782
1.242757
1.161695
1.001954
1.312494
1.146793
1.288652
1.271963
1.198649
1.246929
1.453757
1.283884
1.359582
1.532435
1.354814
1.635551
1.444817
1.557469
1.703501
1.469851
1.596808
1.747608
1.947880
2.034903
2.111793
2.379417
2.256632
2.321601
2.657771
2.583861
2.747774
3.205538
3.501773
3.525615
4.043579
4.010797
4.404783
4.830956
5.383492
5.926490
6.919503
7.462502
9.088516
19.394755
138.449669
416.475534
1016.031504
1016.031504
1016.031504
1016.031504
1016.031504
1016.031504
1016.031504
1016.031504
1016.031504
1016.031504
1016.031504
1016.031504
605.252981
259.428620
70.835948
37.045479
33.723712
33.039451
32.634735
33.153892
35.016537
39.536953
47.335625
56.291819
71.376562
82.798004
95.589757
102.140903
104.350448
103.069544
95.983744
88.104606
76.132417
66.543818
56.453943
50.375462
45.136809
43.565631
41.929483
##ZVALUE=350
1.191497
1.204610
1.131892
1.148582
1.124740
1.239777
0.901818
1.143813
1.157522
1.134872
1.189709
1.309514
1.317859
1.195669
1.153946
1.411438
1.141429
1.188517
1.279712
1.292825
1.424551
1.436472
1.365542
1.441836
1.617670
1.652837
1.464486
1.539588
1.702905
1.626611
1.685619
1.735687
1.809597
1.972914
1.929998
2.007484
2.095699
2.451539
2.310872
2.537966
2.500415
2.580881
2.847910
2.925992
3.249645
3.266931
3.786683
3.802776
4.129410
4.478693
4.606843
5.472898
5.665421
6.260872
7.412434
8.801818
12.045503
71.431398
240.084529
798.739791
1016.031504
1016.031504
1016.031504
1016.031504
1016.031504
1016.031504
1016.031504
1016.031504
1016.031504
1016.031504
1016.031504
904.101729
410.280824
104.786754
41.105747
31.006932
30.118823
29.443502
29.621720
31.379461
33.260584
38.753748
44.609904
54.340959
63.629746
76.954961
85.476637
94.658732
97.075701
95.362663
91.190934
80.002546
70.734620
60.430765
54.264665
47.068000
##ZVALUE=355
1.218915
1.190901
1.228452
1.306534
1.355410
1.384616
1.193881
1.251698
1.275539
1.337528
1.369715
1.331568
1.132488
1.440644
1.329780
1.512766
1.436472
1.610518
1.505613
1.519918
1.682639
1.811981
1.468658
1.574755
1.623631
1.681447
1.831651
1.559854
1.820922
1.911521
1.911521
1.819730
1.844764
2.119541
2.048612
2.142787
2.150536
2.215505
2.565980
2.379417
2.574921
2.596974
2.697706
2.915859
3.156662
3.118515
3.510714
3.608465
3.844500
3.945827
4.450679
4.593730
5.213618
5.602837
5.878806
6.856918
7.612705
8.948445
9.954572
32.156706
127.601624
548.628569
1016.032696
1016.032696
1016.032696
1016.032696
1016.032696
1016.032696
1016.032696
1016.032696
1016.032696
1016.032696
1016.032696
1016.032696
563.259721
158.864856
54.792762
30.299425
29.266477
28.312802
29.008985
29.127598
30.534863
32.825470
35.664439
41.903853
48.813820
59.263706
67.622662
77.802539
84.112883
88.469982
88.063478
83.527565
77.127814
68.117976
##ZVALUE=360
1.389980
1.391768
1.452565
1.401901
1.460910
1.447797
1.338720
1.539588
1.483560
1.552701
1.654625
1.436472
1.543760
1.700521
1.575947
1.470447
1.670718
1.605749
1.798868
1.708865
1.632571
1.854897
1.794696
1.768470
1.919866
1.902580
1.936555
2.084970
2.075434
2.122521
2.240539
2.086759
2.124906
2.014637
2.219677
2.293587
2.297759
2.496839
2.493858
2.600551
2.804995
2.735853
2.969503
3.120899
3.168583
3.242493
3.262758
3.466606
3.929734
3.809929
4.260540
4.681945
4.783869
5.130768
5.155802
5.813837
6.289482
7.045865
7.571578
9.064674
10.257959
16.388893
54.863691
283.617973
737.558007
1016.031504
1016.031504
1016.031504
1016.031504
1016.031504
1016.031504
1016.031504
1016.031504
1016.031504
1016.032100
1016.032100
912.383795
300.204754
101.756454
32.637715
28.257966
28.119683
27.205944
27.416945
27.378798
28.213859
29.444695
32.766461
36.151409
42.714477
50.030947
60.600638
68.376660
76.389909
79.406500
80.672503
##ZVALUE=365
1.392961
1.340508
1.335740
1.347661
1.437664
1.475811
1.312494
1.355410
1.690984
1.574755
1.567602
1.597404
1.721978
1.524687
1.580715
1.585484
1.797676
1.836419
1.711845
1.635551
1.622438
1.887679
1.998544
1.757741
1.895428
1.928806
1.801848
1.901984
1.930594
1.977682
2.182722
2.124906
2.137423
2.159476
2.408624
2.203584
2.368689
2.355576
2.675653
2.613664
2.650619
2.759695
2.912879
2.824664
2.833605
3.102422
3.123879
3.295541
3.383756
3.575683
3.925562
4.108548
4.182458
4.703999
4.886985
5.039573
5.499721
5.825758
6.493926
7.047653
8.131862
9.222627
10.422468
12.410879
25.323629
160.854459
469.207764
1016.023755
1016.023755
1016.023755
1016.023755
1016.023755
1016.023755
1016.023755
1016.023755
1016.023755
1016.023755
1016.023755
1016.023755
490.381718
175.480843
40.774941
27.804971
26.573539
25.826693
24.774671
25.391579
25.070906
25.405884
26.498437
28.767586
31.936765
36.667585
44.879913
52.391887
61.358809
##ZVALUE=370
1.374483
1.123548
1.297593
1.316667
1.251698
1.442432
1.419783
1.307726
1.490712
1.454949
1.586676
1.582503
1.591444
1.561642
1.620650
1.414418
1.599789
1.654625
1.877546
1.675487
1.583695
1.792908
1.582503
1.390576
1.696944
1.943707
1.628995
1.789927
1.894832
1.983643
2.122521
1.951456
1.945496
1.926422
2.102852
2.068877
2.206564
2.279878
2.249479
2.316833
2.400875
2.375841
2.494454
2.661943
2.703667
2.605915
2.938509
2.933741
3.110766
3.137589
3.190637
3.497601
3.382564
3.706813
3.979802
4.118681
4.381537
4.599690
4.977584
5.691648
5.931854
6.777644
7.521510
8.114576
9.172559
11.121631
15.556812
88.658333
311.018825
956.385732
1016.031504
1016.031504
1016.031504
1016.031504
1016.031504
1016.031504
1016.031504
1016.031504
1016.031504
1016.031504
1016.032100
733.407736
309.989452
73.766708
31.959414
24.885535
24.356842
23.834705
23.298860
23.058653
23.199916
23.422837
24.084449
26.173592
28.461814
33.566952
##ZVALUE=375
1.212955
1.261830
1.469851
1.447797
1.196861
1.381636
1.310706
1.329780
1.304746
1.202822
1.380444
1.260638
1.224875
1.484752
1.266599
1.500845
1.382828
1.418591
1.384616
1.460910
1.507998
1.439452
1.490712
1.598597
1.565814
1.504421
1.544952
1.577735
1.673698
1.741648
1.729727
1.812577
1.842976
1.612902
1.701713
1.787543
1.993775
2.095699
1.890659
2.031922
1.888871
1.955628
2.126694
2.126694
2.147555
2.425909
2.284646
2.463460
2.540946
2.693534
2.727509
2.786517
3.052950
2.973676
3.191829
3.421903
3.568530
3.634691
4.069805
4.297495
4.584789
4.778504
5.426407
5.819798
6.456971
7.482767
8.480549
10.232925
12.535453
41.570663
160.888433
640.919805
1016.021967
1016.021967
1016.021967
1016.021967
1016.021967
1016.021967
1016.021967
1016.021967
1016.021967
1016.021967
1016.021967
1016.021967
659.346581
182.767510
56.489706
25.509000
24.016500
22.639632
22.115707
21.599531
21.542907
21.344423
21.442771
22.633672
##ZVALUE=380
1.161695
1.248717
1.102686
1.267791
1.182556
1.138449
1.095533
1.239777
1.181960
1.176596
1.202822
1.122952
1.098514
1.312494
1.129508
1.135468
1.229644
1.230836
1.448989
1.300573
1.386404
1.425743
1.333952
1.541972
1.365542
1.285672
1.252890
1.394749
1.407862
1.477599
1.548529
1.459718
1.673698
1.611710
1.705885
1.616478
1.736879
1.454949
1.848936
1.737475
1.885891
1.925826
1.988411
2.053976
2.085567
2.026558
2.179742
1.898408
2.331734
2.312660
2.342463
2.263784
2.571940
2.764463
3.062487
3.041625
3.195405
3.158450
3.599524
3.694892
3.927946
4.037619
4.537702
4.987717
5.167723
5.910993
6.728768
7.849932
9.030700
11.071563
12.823939
22.994876
89.217424
477.381349
1014.635563
1016.031504
1016.031504
1016.031504
1016.031504
1016.031504
1016.031504
1016.031504
1016.031504
1016.031504
1016.031504
1016.031504
946.891308
328.985453
111.382604
30.603409
23.723841
21.827817
20.914674
20.572543
20.279884
20.297766
##ZVALUE=385
0.942945
1.013875
1.055598
0.911951
1.128912
0.825524
1.003742
0.930429
1.129508
1.081824
1.174808
1.162887
1.160502
1.176000
1.147985
1.077652
1.010895
1.167655
1.224875
1.111627
1.161695
1.200438
1.314878
1.147985
1.296997
1.328588
1.341701
1.392961
1.441836
1.327991
1.271963
1.480579
1.497865
1.299977
1.317859
1.564622
1.668930
1.777411
1.450777
1.536608
1.730919
1.690984
1.804829
1.738667
1.894832
1.888871
1.863837
2.002716
2.047420
2.313852
2.239943
2.278686
2.365708
2.484918
2.636909
2.837777
2.725720
2.977848
3.047585
3.269911
3.371835
3.717542
3.719926
4.213452
4.535913
5.160570
5.354881
6.469488
7.260442
8.689761
9.682775
10.829568
11.939406
14.806986
41.002035
273.099542
757.474899
1016.038656
1016.038656
1016.038656
1016.038656
1016.038656
1016.038656
1016.038656
1016.038656
1016.038656
1016.038656
1016.038656
1016.038656
709.553957
265.474916
50.017834
24.155974
21.410584
20.373464
19.837618
##ZVALUE=390
0.975728
0.950694
0.951886
0.979900
0.874996
0.843406
1.047850
0.937581
1.126528
1.094937
1.165867
1.186728
0.955462
1.057982
1.139641
1.176596
1.013875
1.018643
1.019835
1.099706
1.257658
1.289845
1.158714
1.323819
1.456738
1.188517
1.455545
1.313686
1.269579
1.273751
1.376867
1.330972
1.334548
1.524687
1.541972
1.428723
1.597404
1.590848
1.531839
1.569986
1.600981
1.540780
1.814961
1.819730
1.823902
1.812577
2.009869
1.899600
1.944900
2.040863
2.142787
2.359748
2.214909
2.423525
2.499819
2.683997
2.742410
2.928972
2.969503
3.210902
3.197789
3.327727
3.740788
3.990531
4.317760
4.620552
5.359650
5.915761
6.770492
7.922649
8.652806
9.384751
9.884834
10.518432
11.182427
12.789965
21.905899
144.803524
499.028563
1016.013026
1016.013026
1016.013026
1016.013026
1016.013026
1016.013026
1016.013026
1016.013026
1016.013026
1016.013026
1016.013026
1016.013026
987.640619
479.421616
102.868676
32.378435
21.459460
##ZVALUE=395
1.018643
0.923872
0.987649
0.948906
1.138449
0.996590
1.032948
1.168847
1.150966
1.104474
0.990629
1.015663
1.114607
0.963807
1.066923
1.060963
1.154542
1.109838
1.446605
1.283884
1.173615
1.143813
1.210570
1.259446
1.407862
1.245737
1.172423
1.318455
1.333952
1.423955
1.466870
1.532435
1.389980
1.573563
1.439452
1.549721
1.516938
1.673698
1.486540
1.700521
1.638532
1.842976
1.835823
1.785755
1.728535
1.636744
1.728535
1.931787
2.001524
2.066493
2.125502
2.198815
2.412796
2.438426
2.554655
2.600551
2.740622
2.894998
2.868772
2.949834
2.877712
3.270507
3.508925
3.766418
3.979802
4.547834
4.841685
5.730987
6.524920
7.485747
7.732511
8.363724
8.806586
9.341836
9.661913
10.036826
10.620952
12.489557
15.415549
76.791644
312.981009
1016.031504
1016.031504
1016.031504
1016.031504
1016.031504
1016.031504
1016.031504
1016.031504
1016.031504
1016.031504
1016.031504
1016.031504
1016.031504
824.087858
239.920616
##ZVALUE=400
0.964999
0.759959
0.818968
0.834465
0.888705
0.819564
0.882745
0.792742
0.886917
0.745654
0.932813
0.930429
0.854731
0.847578
1.014471
1.044869
0.843406
1.145601
1.047850
0.950694
1.063943
1.026988
1.176000
1.127720
1.059771
0.983477
1.180768
1.088977
1.309514
1.142621
1.133680
1.365542
1.384616
1.422763
1.429915
1.372695
1.266599
1.322627
1.359582
1.514554
1.516938
1.631975
1.564622
1.674891
1.882911
1.793504
1.865625
1.881719
1.807809
1.835823
1.872778
2.082586
2.005696
2.342463
2.077818
2.313852
2.404451
2.453923
2.691746
2.950430
3.147721
3.056526
3.280640
3.331900
3.760457
4.122853
4.473925
5.021691
5.781651
6.513000
7.000566
7.536411
7.717609
7.658601
7.806420
8.050799
8.404851
9.018779
10.461807
11.897683
14.417768
42.665601
172.292590
711.888671
1015.895605
1015.895605
1015.895605
1015.895605
1015.895605
1015.895605
1015.895605
1015.895605
1015.895605
1015.895605
1015.895605
1015.895605
##END
