##TITLE=SH752
##FORMAT=SPECTACLE-ASCII V-1.2
##DATA TYPE=ULTRAVIOLET SPECTRUM
##SECOND TYPE=ULTRAVIOLET SPECTRUM
##DATE=04/30/18
##TIME=14:50:49
##SPECTROMETER/DATA SYSTEM=SPECTACLE
##XUNITS=NM EM
##YUNITS=ENERGY
##YFACTOR=1
##FIRSTX=220
##LASTX=410
##NPOINTS=96
##3DDATA=Equidistant
##ZUNITS=NM EX
##FIRSTZ=210
##LASTZ=400
##ZPOINTS=39
##XYDATA=(Y..Y)
##ZVALUE=210
13.350844
14.095902
10.737777
9.132624
7.419586
8.098483
8.143783
6.628633
5.842447
4.707575
4.094839
4.159808
4.152656
4.152656
3.884435
4.226565
3.807545
4.025698
4.711747
4.905462
5.500913
5.527735
5.518794
5.503893
5.732775
5.981922
5.559921
6.879568
6.448627
7.133484
7.668734
7.484555
8.197427
7.732511
9.164810
8.992553
8.070469
8.562803
8.780956
8.773804
9.582639
9.911656
9.785891
9.640455
9.925961
9.191632
10.598898
10.381937
9.441972
10.659695
9.794831
11.094809
12.541413
10.973811
13.769865
12.359619
12.480617
12.877584
12.258887
12.515783
11.967421
12.518764
12.450814
12.792945
11.318922
12.900829
13.964772
15.882850
18.724799
20.843744
23.932457
27.505755
33.114552
36.897659
39.420724
43.632984
45.189857
47.805905
46.908855
46.877861
43.178797
36.750436
33.665895
29.510856
24.712682
20.803809
16.779900
16.467571
14.746785
14.143586
15.801787
16.915798
19.446611
22.193789
24.176836
26.422739
##ZVALUE=215
46.154857
45.073628
37.959814
28.213859
23.623705
17.204881
14.463663
12.102723
12.812614
11.942983
10.661483
9.442568
7.654428
6.668568
4.910827
4.125834
4.415512
4.649758
4.192591
4.987717
5.466938
5.821586
6.048679
6.455779
6.649494
7.259846
6.783605
7.198453
9.181499
8.767843
8.533597
9.011626
9.388924
10.531545
9.100437
9.093881
9.434819
11.054873
9.458661
11.775494
10.954738
11.807680
10.557771
11.493564
11.635423
12.580752
12.280941
10.709763
13.018847
12.758970
12.030602
13.171434
12.900829
13.069510
12.677908
13.226867
14.619827
13.905764
14.547706
13.790727
14.266968
13.276935
14.530420
14.544725
14.099479
15.030503
16.318560
18.432736
19.463897
22.331476
23.702979
31.113625
35.801530
39.089918
46.557784
48.031807
48.225522
47.129989
46.688914
43.688416
44.721961
37.941933
33.258796
28.561950
25.001764
21.211505
20.395517
15.194416
14.555454
13.971925
14.004707
12.699962
13.273954
14.236569
14.002919
18.465519
##ZVALUE=220
134.733915
138.412714
137.827992
119.861960
100.607872
76.390505
57.720542
38.237572
27.681589
22.111535
21.795630
22.429824
19.424558
20.276904
15.545487
12.140870
9.162426
7.174611
5.907416
5.844831
5.783439
6.183982
7.662773
7.765889
6.997585
7.104874
7.359982
9.173751
8.695722
9.354949
8.856654
10.875463
9.096861
10.145903
11.475682
10.566711
9.681582
11.176467
11.585951
11.856556
11.442900
12.016892
12.127757
11.768937
11.743903
12.228489
13.051629
13.309717
13.871789
13.131499
11.861920
14.081597
13.423562
14.525652
14.094710
12.950897
14.332533
14.272928
15.039444
15.688539
14.305711
14.955997
15.097857
15.813708
15.314817
14.976859
16.336441
18.310547
19.022822
23.112893
24.644732
28.717518
31.965971
40.594935
45.149922
46.376586
47.689676
50.314665
48.041940
44.428706
40.129423
35.941601
30.907989
24.616718
22.075772
19.247532
17.238855
15.271902
13.222694
14.292598
13.905764
12.442470
13.475418
12.438893
14.110804
12.256503
##ZVALUE=225
175.581574
191.024542
229.541659
271.012783
279.826522
260.520577
229.214430
165.076852
121.628642
79.679489
53.584576
38.875937
37.030578
36.582947
38.357973
34.099817
28.030872
21.250844
17.312765
13.388991
8.931756
8.371472
7.680655
7.196665
8.486509
7.966757
9.467602
9.468794
9.196997
9.975433
10.418892
10.473728
10.843873
11.531711
10.161996
12.591481
12.232661
12.719631
12.317896
12.268424
12.581944
11.919737
12.139678
11.994839
12.681484
13.634562
14.414787
13.843775
13.138652
14.937520
13.477802
14.376640
15.122890
15.056729
14.359951
15.092492
15.760660
14.464855
14.222860
15.686750
15.020967
16.357899
16.044974
17.791986
15.925765
16.847849
18.289685
17.090440
19.730926
23.193955
24.858713
29.852986
32.742620
35.259724
38.868785
39.400458
39.564967
38.501620
37.250519
36.498904
34.056902
30.783415
29.199719
25.390983
24.348497
19.990802
17.047524
16.636848
15.766621
14.568567
14.100671
14.282465
13.928413
13.433695
15.138984
13.456941
##ZVALUE=230
116.987824
129.288435
196.148753
321.936011
407.157540
494.949818
524.259806
499.286652
436.962843
332.531929
240.711570
160.735846
96.669793
70.300698
56.908727
59.951544
61.820745
53.635836
49.508810
44.644475
31.847954
24.072528
15.448928
12.704730
10.609627
9.871721
10.710955
11.288524
11.243820
12.481809
11.218786
12.752414
12.123585
12.803674
11.870861
11.186600
13.029575
13.105869
13.564825
15.529990
14.185905
14.420748
14.925599
13.049841
14.810562
13.792515
14.610887
15.189648
15.712976
16.548634
17.377734
17.357469
15.503764
16.582608
16.827583
17.934442
16.193986
18.974543
18.960834
18.649697
17.946959
18.047690
16.846657
19.804835
19.602776
18.737912
20.640492
21.910667
24.140477
26.573539
29.494762
34.786463
37.523508
42.914748
43.382645
45.523643
45.538545
46.489835
44.521689
40.929914
38.975477
34.673810
34.621954
28.033853
23.973584
23.039579
20.964742
18.361807
19.034743
16.954541
16.526580
14.921427
16.667843
15.455484
16.293526
15.860796
##ZVALUE=235
44.724941
52.354932
106.377602
238.484740
388.036966
613.088608
797.695518
987.510681
1016.031504
1012.943983
848.612785
677.648783
436.441898
292.072892
172.021985
114.625692
85.756779
86.385608
90.905428
91.083646
84.209442
69.533587
57.727695
40.835738
30.137897
20.469427
16.414523
13.622642
12.057424
11.555552
11.715889
12.688637
12.926459
13.266802
13.002753
13.445616
13.644695
13.757944
13.066530
14.525652
14.630556
14.292598
14.496446
14.880896
15.686750
17.859936
16.460419
16.468763
15.675426
15.870929
16.738772
16.712546
17.965436
17.437935
15.538931
17.392635
18.029809
18.434525
18.540621
18.212795
17.971992
17.441511
19.314885
19.713640
19.221902
19.403696
22.456646
21.819472
26.427507
27.102828
31.577945
35.427809
38.275719
40.568709
44.773817
45.546889
44.605732
43.266416
41.385889
38.500428
37.362576
30.417442
28.661489
27.263761
22.738576
21.444559
19.622445
19.358993
18.050671
16.930699
15.510917
17.708540
16.498566
15.148520
14.846921
14.973879
##ZVALUE=240
3.620982
3.742576
13.448596
54.231882
118.786693
274.057984
451.353788
760.211945
995.007753
1016.031504
1016.031504
1016.031504
1016.031504
912.767649
627.799034
420.184731
224.635601
151.911974
111.177564
107.701421
115.833879
122.548938
122.326612
110.237002
90.848804
66.300631
50.675869
35.283566
25.841594
16.837716
14.903545
12.279749
12.854934
12.761950
13.090968
12.487769
11.727810
12.272596
12.875795
12.016892
12.079477
13.384819
13.921857
13.506413
12.312531
13.504624
14.206767
13.085604
13.370514
14.627576
13.798475
14.162660
14.053583
14.723539
15.059710
14.416575
15.151501
15.960932
15.554428
15.892982
16.556978
15.065670
15.223622
15.945435
15.815496
16.243458
16.358495
18.637776
20.749569
22.012591
26.746988
28.297901
31.483769
35.038590
37.138462
36.956668
37.378669
37.349463
35.983920
32.200813
29.418468
25.487542
22.207499
20.547509
18.898845
17.243624
16.321540
16.113520
15.706420
16.380548
16.617775
13.829470
14.863610
14.139414
14.134645
13.376474
##ZVALUE=245
2.142787
1.890659
2.808571
3.315806
8.611679
24.110675
84.539652
166.615844
363.622904
554.496050
861.752629
1016.032696
1016.032696
1016.032696
1016.032696
970.175862
783.153772
503.872633
342.833400
194.988847
129.685998
110.720992
117.283463
127.138495
132.895708
130.202770
117.216706
102.019906
73.083639
57.443976
39.242506
25.586486
16.726851
12.743473
10.353923
9.747744
9.776950
8.343458
9.443760
10.660887
10.346770
10.056496
9.472966
9.247661
9.951591
9.984970
10.944605
9.903908
10.639429
10.368824
9.614825
11.659861
11.476874
10.794997
10.891557
10.875463
10.570884
11.634827
11.066794
11.372566
11.073947
10.607839
10.562539
11.418462
12.046695
11.221766
14.305711
12.835860
14.408827
17.192960
19.251704
20.750761
21.271706
24.382472
25.834441
25.323629
23.177862
24.009943
21.979809
21.330714
19.238591
17.102957
15.874505
14.151931
14.422536
14.795661
11.857748
12.148619
12.400746
11.591911
11.628866
12.158751
11.611581
12.053847
11.366606
11.173487
##ZVALUE=250
1.660585
1.772642
1.586676
2.069473
1.711845
1.767874
2.750754
12.349486
36.082864
81.203580
196.141601
352.204442
597.432852
774.303675
958.378911
1016.031504
1012.403965
918.947458
773.983002
529.880524
361.116529
197.243690
132.429004
101.769567
105.070472
126.214623
134.764910
140.056610
136.661530
119.377971
104.320645
77.810884
57.846904
35.106540
23.980737
15.537739
11.392832
8.864999
7.822514
7.975698
8.103848
8.384585
8.283854
8.092523
8.106828
8.320808
7.731915
8.238554
8.505583
8.600950
8.148551
8.576512
8.625984
7.871985
7.735491
9.302497
8.953810
7.863641
8.222461
8.989573
8.751750
8.659959
8.396506
8.865595
9.359717
9.078979
10.321736
10.441542
11.642575
12.664795
13.556480
16.396642
16.529560
19.596815
19.178987
18.858910
19.146800
17.048717
17.392635
16.405582
15.180707
14.581680
13.988614
13.482571
12.378693
11.308789
11.525750
11.035800
10.830760
10.425448
11.299849
11.033416
10.238886
10.614991
10.252595
9.677410
##ZVALUE=255
1.468658
1.660585
1.716614
1.755953
1.710653
1.902580
1.818538
2.271533
2.243519
7.177591
23.621917
64.693689
172.401667
305.099487
568.293929
856.699944
1016.025543
1016.025543
1016.025543
1016.025543
1016.025543
998.129845
628.993511
391.275883
178.432465
115.760565
97.278953
104.706883
129.425526
140.985847
151.677728
144.351721
133.077502
105.438828
85.648894
59.428811
41.078925
23.369789
17.073750
11.574626
8.490682
8.764863
8.292794
7.743835
8.129478
8.601546
9.231567
8.944869
8.669496
8.729696
8.799434
8.327961
9.024739
8.959770
9.509921
9.564757
9.042621
9.385943
8.634925
8.717775
8.398890
8.998513
8.682609
9.169579
8.996725
9.674430
9.635687
10.977983
10.638833
12.429953
14.181733
15.749931
17.655492
19.015670
20.523667
20.294785
21.259785
20.412803
19.986629
20.100474
18.721819
17.714500
16.034842
15.116930
14.345646
12.698770
11.913776
10.473728
10.052919
10.159612
10.212660
10.927916
10.872483
9.835958
10.413527
10.995865
##ZVALUE=260
1.507998
1.769662
1.534820
1.432896
1.678467
1.779795
1.851916
2.474785
1.832843
2.106428
2.178550
3.421903
10.938644
45.428872
106.006861
261.071920
437.440872
796.740651
1016.031504
1016.031504
1016.031504
1016.031504
1016.031504
1016.032100
930.515528
613.565445
307.762623
166.018605
93.312860
89.244843
100.937486
129.406452
144.705772
153.698921
152.438879
135.170817
114.451647
84.479451
63.025951
40.654540
26.318431
16.224980
11.464953
8.953810
9.336472
9.416938
8.263588
8.038878
8.469820
8.608699
8.696914
9.046793
8.433461
9.299517
8.595586
9.100437
8.779764
8.825660
9.402633
9.369850
8.881688
8.152723
8.179545
8.236766
8.958578
9.246469
9.274483
10.121465
10.100603
12.440681
12.363791
14.591813
15.464425
17.576814
17.624497
18.016696
18.754601
18.216968
18.186569
17.206669
16.646981
14.336705
13.441443
11.633635
11.311769
10.101795
9.491444
9.566545
8.969903
9.366870
8.708835
9.298921
10.148883
10.568500
10.160804
10.272861
##ZVALUE=265
1.253486
1.332760
1.343489
1.210570
1.279712
1.519918
1.326799
1.448989
1.656413
1.812577
1.756549
1.825690
1.912713
2.361536
7.637739
41.031837
95.484853
228.929520
397.340655
742.091537
1016.013026
1016.013026
1016.013026
1016.013026
1016.013026
1016.013026
1016.013026
798.478723
425.703526
234.720707
126.945972
77.673793
83.790421
113.062859
134.163499
154.752731
160.077810
149.698853
137.182474
111.651421
87.823868
57.402849
40.783882
23.355484
16.611814
10.756850
8.707643
8.394718
8.482933
8.719563
8.121729
8.995533
8.847713
8.762479
8.508563
8.079410
8.044839
8.319616
7.602572
8.093715
8.085966
7.671714
7.846951
7.709861
7.406473
7.859468
7.872581
8.069873
8.596778
9.525418
10.639429
11.833906
12.413859
13.500452
14.366508
13.928413
14.385581
12.899637
12.408495
11.840463
10.575652
9.530783
9.284616
9.102821
8.807778
8.268952
8.136630
7.569790
8.530617
7.589459
7.780790
8.441806
7.955432
8.380413
7.975698
8.896589
##ZVALUE=270
1.203418
1.052618
0.961423
1.144409
1.145601
1.114607
1.201630
1.185536
1.389980
1.469851
1.761913
1.791716
1.658797
1.775622
1.933575
2.392530
3.302693
17.542839
52.245855
170.663595
352.457762
617.107749
1010.601521
1016.029716
1016.029716
1016.029716
1016.029716
1016.029716
1016.029716
809.281468
542.222857
275.097489
152.160525
77.145696
65.546632
84.527731
108.334422
134.424567
150.597692
159.247518
156.182647
135.486722
113.961697
83.234906
61.987638
37.672520
25.033951
15.389919
11.528730
9.049773
8.106828
7.620454
7.761717
7.946491
8.032918
6.967783
7.845759
7.602572
7.142425
7.382631
7.087588
7.147789
7.099509
7.197857
6.896853
6.745458
6.693602
7.030964
7.694960
8.608699
9.499788
10.499954
11.200905
11.177659
12.384653
11.602640
10.956526
11.170506
9.999871
9.552836
8.780956
8.490682
7.793903
7.463694
7.349849
6.958842
6.875992
6.732941
6.176829
7.522702
7.084608
6.671548
6.867647
6.963611
6.732941
7.032752
##ZVALUE=275
0.892878
0.972748
0.876784
1.004934
1.090765
1.054406
1.115799
1.379848
1.040697
1.340508
1.394749
1.220703
1.282692
1.482964
1.788735
1.858473
2.227426
2.379417
2.665520
6.778836
29.026866
86.856484
269.075036
517.188907
960.847735
1016.030908
1016.030908
1016.030908
1016.030908
1016.030908
1016.030908
999.207497
718.573928
372.961760
210.832953
90.769529
58.512688
62.437654
81.165433
110.181570
131.951571
151.534677
155.233741
151.333809
137.188435
107.442737
86.227655
58.911443
42.083859
24.346709
15.920997
10.048747
7.643700
6.741881
6.987453
6.548762
6.540418
6.201863
5.996823
6.337762
6.334782
6.583929
5.923510
5.593896
5.948544
6.090999
5.636811
6.557703
6.785989
8.172989
8.377433
9.371638
9.598732
10.515451
10.412931
10.597706
9.752512
9.338856
8.661747
7.956624
7.681847
7.249713
7.051826
6.158948
6.204844
5.772710
6.322861
6.201863
5.978942
5.998611
5.933642
5.830526
6.054640
6.551743
6.102920
6.840825
##ZVALUE=280
0.911951
0.987649
0.854731
0.954866
1.031756
0.865459
0.969768
1.063943
1.033545
1.223683
1.358986
1.202822
1.263618
1.228452
1.347661
1.260638
1.738667
1.860857
1.777411
2.186894
2.367496
3.329515
17.427802
59.807897
197.908878
380.173922
742.594004
1016.032696
1016.032696
1016.032696
1016.032696
1016.032696
1016.032696
1016.032696
927.033424
507.201552
293.162465
125.458837
66.364408
46.806931
56.658983
81.265569
106.006861
133.047700
145.902634
155.297518
148.552656
130.052567
111.575723
82.400441
61.584711
37.793517
25.335550
14.826655
10.902882
6.995797
6.867647
5.979538
6.529689
6.213784
6.139874
5.801916
6.114841
5.888939
5.991459
6.222725
6.149411
5.934834
6.628633
7.074475
7.783771
8.365512
8.825660
9.086728
9.157658
8.799434
9.007454
7.952452
7.704496
7.106662
6.975532
6.439686
5.750656
6.162524
5.715489
5.751848
5.584955
5.638599
5.265474
5.542636
6.091595
5.818605
5.749464
6.290674
6.734729
6.992817
##ZVALUE=285
1.009703
0.873804
0.962615
0.645518
1.077652
0.819564
0.985861
0.987649
0.857711
0.905991
1.011491
1.172423
1.097918
1.101494
1.168847
1.214743
1.264811
1.498461
1.517534
1.661777
1.854897
1.851916
1.955628
2.421737
8.501410
31.069517
105.209947
222.871304
487.141609
788.356662
1016.031504
1016.031504
1016.031504
1016.031504
1016.031504
1016.031504
1016.031504
753.035545
460.975766
206.092596
100.278854
43.884516
38.000941
55.304766
74.728727
104.267597
122.715831
143.113732
148.531795
144.230723
133.798718
108.763576
88.938475
59.143901
43.128729
24.227500
15.927553
9.657741
7.759929
6.231666
6.106496
5.673766
5.702972
5.649924
5.697608
5.619526
5.761981
6.107688
6.057620
6.589890
6.736517
7.801652
8.555651
8.543730
8.273721
7.733703
7.714629
7.634759
7.062554
6.626844
6.361604
6.316900
6.178617
5.293489
5.141497
5.068779
5.337000
4.986525
5.207658
5.453825
5.313754
4.951954
5.435944
5.823970
6.090999
6.142855
##ZVALUE=290
0.797510
0.805855
0.864863
1.032948
0.643730
0.662804
0.797510
0.789762
0.933409
0.811815
0.891685
0.921488
1.029968
1.013875
0.996590
1.083612
0.901818
1.225471
0.915527
1.329780
1.285672
1.375675
1.791716
2.045631
2.328753
2.605915
3.495812
13.955832
66.646934
151.227713
287.237763
615.890026
958.281755
1015.979648
1015.979648
1015.979648
1015.979648
1015.979648
1015.979648
988.526940
659.664869
309.244990
151.513815
54.881573
30.807853
35.941601
49.569607
74.248910
94.368458
119.274855
137.231946
144.772530
142.664909
127.445459
109.598637
80.960989
60.604811
37.855506
25.753975
14.618635
9.928942
6.596446
5.968809
5.413890
5.589724
5.631447
5.725622
5.711913
5.643964
6.262660
6.543994
7.301569
7.104874
7.623434
7.190704
7.162690
6.806850
6.627440
6.199479
5.781651
5.480647
4.909635
5.469918
5.037785
5.091429
4.865527
4.627705
4.981756
4.835725
4.923940
4.938841
5.137920
5.209446
5.325675
5.446672
5.576611
##ZVALUE=295
0.535846
0.681877
0.600815
0.716448
0.653863
0.759959
0.714660
0.777841
0.861883
0.771880
0.733733
0.793934
0.998974
0.940561
0.949502
1.050830
1.104474
0.973940
1.035929
0.982881
1.051426
1.058578
1.333952
1.580715
1.529455
1.586676
1.899600
2.334714
2.658963
4.990697
19.649863
87.035894
198.441744
469.668508
764.552951
1016.038656
1016.038656
1016.038656
1016.038656
1016.038656
1016.038656
1016.038656
787.161589
411.965847
216.043591
75.721741
35.131574
23.253560
30.690432
47.791600
64.592957
91.858506
109.424591
129.562616
136.824846
134.575963
122.758746
102.418661
81.817508
56.468844
40.437579
23.585558
15.624762
9.427667
7.144809
5.609989
5.289912
5.200505
5.568862
6.370544
5.888939
6.603599
6.566644
6.608963
6.660819
6.593466
6.674528
5.938411
5.698800
5.285740
5.142689
4.682541
4.778504
4.795790
4.553795
4.736781
4.518628
4.253983
4.520416
4.393458
4.363656
4.047751
4.038811
4.013777
4.456639
4.199743
##ZVALUE=300
0.498891
0.635982
0.672936
0.532866
0.508428
0.920892
0.494719
0.650883
0.818968
0.890493
0.714660
0.934601
0.613928
0.814795
0.844598
0.593662
0.798702
0.747442
1.014471
0.949502
0.854731
1.078844
1.112819
1.316667
1.206994
1.519918
1.446605
1.663566
1.745820
1.969934
2.261996
2.660751
12.864470
46.801567
162.842870
318.892002
657.231808
980.548859
1016.031504
1016.031504
1016.031504
1016.031504
1016.031504
1016.031504
911.687613
595.001578
298.296809
160.179734
57.438612
24.243593
20.042658
27.167797
42.765737
57.840943
83.949566
102.068782
122.160912
129.788518
129.023790
118.863583
98.992586
80.190897
56.778789
41.464567
23.351908
15.637875
9.335876
7.183552
5.498528
5.779862
5.653501
5.977750
6.092787
6.179810
5.944967
6.093979
5.831718
5.493760
5.139709
5.200505
4.859567
4.824996
4.464984
4.469752
4.430413
4.365444
4.556775
4.273653
4.252791
4.221797
3.892779
3.813505
3.768802
3.648996
3.951788
4.081726
##ZVALUE=305
0.411868
0.622869
0.499487
0.648499
0.603795
0.558496
0.588894
0.641942
0.688434
0.650883
0.671744
0.645518
0.723600
0.811815
0.758767
0.870824
0.766516
0.845790
0.921488
0.772476
0.869632
0.847578
0.917912
1.006722
1.264811
1.143813
1.423955
1.610518
1.523495
1.614690
1.615882
1.921654
2.192855
2.449751
4.908442
31.746626
92.390776
266.259909
480.103493
890.254974
1016.035676
1016.035676
1016.035676
1016.035676
1016.035676
1016.035676
1016.035676
744.621754
461.709499
206.962824
99.656582
32.792687
16.774535
18.011928
25.186539
41.040778
56.798458
80.220699
97.396970
115.202665
122.251511
121.702552
112.944841
94.622970
76.297522
52.110553
37.358999
23.422837
14.951825
9.142756
7.388592
6.327629
6.354451
5.934834
6.004572
5.467534
5.391836
4.853606
4.370809
4.690886
4.534721
4.359484
4.757643
4.366636
4.116893
3.959537
4.232526
4.229546
3.802776
3.993511
3.818870
3.903508
3.733635
3.811717
3.601909
3.483891
##ZVALUE=310
0.652671
0.461936
0.411868
0.421405
0.609756
0.575781
0.600815
0.478625
0.564456
0.752807
0.668764
0.717640
0.590682
0.788569
0.664592
0.600815
0.739694
0.725985
0.620484
0.922680
0.903606
0.830889
0.925660
0.899434
1.156926
1.202822
0.879765
1.082420
1.256466
1.279712
1.619458
1.343489
1.607537
1.922846
2.039671
2.348423
3.190637
10.896921
61.005950
149.573684
375.749469
645.479560
1016.032696
1016.032696
1016.032696
1016.032696
1016.032696
1016.032696
1016.032696
988.107920
581.037998
350.889564
148.825645
67.651868
20.969510
12.796521
16.131997
22.533536
35.516620
48.336983
71.448684
87.802410
105.665922
113.986731
115.291476
109.908581
93.101859
76.121688
52.784681
37.426949
22.760630
15.869737
10.390878
7.722974
6.518960
6.084442
5.493760
4.663467
4.466772
4.218817
4.305840
4.103780
4.015565
4.053712
4.056692
4.230738
3.980994
3.793836
3.978610
3.866553
3.969669
3.797412
3.747940
3.491640
3.600717
3.426671
##ZVALUE=315
0.571609
0.676513
0.645518
0.751615
0.663996
0.695586
0.639558
0.543594
0.644922
0.624657
0.714660
0.680685
0.843406
0.840425
0.782609
0.886917
0.821948
0.904799
0.992417
1.003742
0.977516
0.957847
0.891685
0.980496
1.117587
1.124740
1.131892
1.222491
1.157522
1.391768
1.507998
1.355410
1.558661
1.600981
1.721978
1.922846
2.115965
2.287626
2.758503
6.239414
25.699735
111.925602
243.541598
552.422404
895.711780
1016.210914
1016.210914
1016.210914
1016.210914
1016.210914
1016.210914
1016.210914
854.814649
448.499918
236.241817
82.056522
30.943751
12.043715
11.363626
14.860630
20.364523
33.548474
46.325922
65.765977
82.931519
100.803971
107.708573
109.495521
102.841854
86.298585
71.463585
52.677989
38.594604
23.410916
15.684962
9.732842
7.413626
5.710721
5.207658
4.733801
4.914999
4.429817
4.354715
4.197955
4.249811
4.131794
4.176497
4.258752
4.174709
4.246831
4.043579
4.113913
4.038811
3.854632
4.025698
3.853440
##ZVALUE=320
0.502467
0.472665
0.589490
0.543594
0.443459
0.575781
0.573993
0.472665
0.585914
0.508428
0.553727
0.645518
0.423789
0.712872
0.604987
0.631809
0.640750
0.741482
0.534654
0.626445
0.763535
0.789762
0.577569
0.652671
0.891685
0.820756
0.889897
0.882745
0.922680
1.156926
1.120567
1.253486
1.030564
1.411438
1.298785
1.443624
1.544952
1.921654
1.796484
2.332926
2.374649
3.263950
11.500716
65.039992
164.656043
433.133841
733.269453
1016.032696
1016.032696
1016.032696
1016.032696
1016.032696
1016.032696
1016.032696
1016.032696
601.326823
329.793692
126.723647
53.521991
15.924573
10.560751
10.547638
12.588501
19.245744
27.999878
43.561459
58.846474
77.396631
92.165470
103.607774
104.452968
97.389817
86.025000
66.373944
51.112771
32.990575
23.512840
13.888478
9.643435
5.979538
5.073547
4.426837
4.073977
4.066825
3.930926
3.778934
3.860593
3.582835
3.887415
3.684759
3.585815
3.591776
3.659725
3.540516
3.648996
3.719926
##ZVALUE=325
0.807643
0.829697
0.821948
0.800490
0.764728
0.729561
0.741482
0.871420
0.796914
0.758767
0.886917
0.880957
0.866652
0.689626
0.854731
0.699759
0.878572
0.862479
0.903606
0.924468
0.963807
1.112819
1.121759
1.000762
0.986457
1.067519
1.184940
1.012683
1.263618
1.025796
1.377463
1.235604
1.254678
1.409650
1.439452
1.503825
1.514554
1.572967
1.621842
1.759529
1.919866
2.357960
2.679825
3.086925
6.114841
41.591525
111.716986
300.971866
548.488498
987.104774
1016.345620
1016.345620
1016.345620
1016.345620
1016.345620
1016.345620
1016.345620
754.498839
446.826816
187.965631
83.629489
23.332834
11.194944
9.186864
9.952784
13.232827
17.784834
28.725863
39.980412
59.583783
74.358582
88.864565
95.622540
97.413659
90.849996
76.014996
63.175559
44.900775
32.413602
19.773841
13.318658
8.125901
6.251931
4.831553
4.449487
4.551411
4.266500
4.048944
4.020929
3.869534
3.908873
3.969669
3.640652
3.734827
3.660917
3.638864
##ZVALUE=330
0.364780
0.532866
0.386834
0.323653
0.604987
0.428557
0.428557
0.483990
0.385642
0.469685
0.520945
0.553727
0.537634
0.641942
0.503659
0.648499
0.672936
0.563860
0.450611
0.600815
0.572801
0.544786
0.517964
0.665784
0.691414
0.706911
0.765920
0.800490
0.970960
0.947714
0.876784
0.901818
0.993609
0.849962
0.878572
0.897646
1.215935
1.035929
1.171827
1.462698
1.529455
1.569986
1.774430
1.739860
2.111793
2.626777
3.601909
19.188523
64.982772
218.263865
424.772501
860.481858
1016.032696
1016.032696
1016.032696
1016.032696
1016.032696
1016.032696
1016.032696
914.538503
584.167838
268.904567
133.809447
42.497516
15.594959
8.517504
8.283854
9.207726
11.231899
17.762780
25.388002
39.073825
52.162409
71.166754
81.384778
89.315772
90.453625
82.945824
73.028803
55.613518
42.776465
27.858615
19.533634
12.238622
8.725524
5.805492
4.589558
4.169941
3.895760
3.451705
3.482699
3.275871
3.256798
3.238916
3.346801
3.484488
##ZVALUE=335
0.241995
0.327826
0.413656
0.332594
0.377893
0.361800
0.343919
0.398755
0.401735
0.296831
0.543594
0.557899
0.491738
0.544786
0.291467
0.567436
0.568628
0.415444
0.354648
0.591874
0.428557
0.488758
0.647902
0.699759
0.595450
0.544786
0.638962
0.681877
0.708699
0.652671
0.659823
0.861883
0.709891
0.673532
0.771880
0.915527
0.752807
1.015663
1.050830
1.138449
1.211762
1.384616
1.451969
1.498461
1.547933
1.684427
2.074838
2.302527
2.609491
8.525848
35.110712
137.013793
281.578898
609.702468
957.710743
1016.031504
1016.031504
1016.031504
1016.031504
1016.031504
1016.032100
990.405679
697.574615
362.421870
190.326571
62.248707
22.833943
9.221435
7.697940
7.872581
8.419752
10.893941
15.394688
25.420785
34.783483
51.318407
63.522458
75.633526
82.832575
84.355474
77.525973
65.142512
54.955482
41.071773
30.748844
19.449592
13.376474
8.184910
5.948544
4.325509
3.681779
3.394485
3.350973
3.282428
3.307462
3.047585
##ZVALUE=340
0.354648
0.209808
0.247955
0.319481
0.166893
0.327826
0.372529
0.430942
0.503659
0.586510
0.359416
0.483990
0.454783
0.399947
0.442863
0.415444
0.270605
0.524521
0.517964
0.371933
0.369549
0.317693
0.507832
0.505447
0.581741
0.498891
0.416636
0.513792
0.636578
0.647902
0.780821
0.578761
0.564456
0.717640
0.617504
0.738502
0.788569
0.861883
0.766516
0.940561
1.036525
1.046658
1.155734
1.188517
1.260638
1.464486
1.519918
1.797676
1.632571
2.008677
2.352595
4.038811
16.032457
85.449815
202.174783
490.236878
804.819465
1016.031504
1016.031504
1016.031504
1016.031504
1016.031504
1016.031504
1016.032100
811.000466
429.464579
228.838921
82.931519
32.205582
10.456443
7.885695
7.648468
7.626414
8.475780
10.183454
15.798807
22.208691
34.544468
45.280457
60.973763
70.273876
77.691674
78.336596
71.948767
64.886808
51.112771
40.630698
27.184486
19.811988
12.769699
8.354783
5.563498
4.016757
3.573895
3.403425
3.377795
##ZVALUE=345
0.295639
0.232458
0.354648
0.420809
0.418425
0.442863
0.392795
0.454783
0.366569
0.380874
0.463724
0.519753
0.382662
0.291467
0.426769
0.309944
0.409484
0.385642
0.464916
0.447631
0.337958
0.278950
0.518560
0.473857
0.399947
0.561476
0.321865
0.517964
0.602603
0.619888
0.622869
0.606775
0.608563
0.608563
0.559688
0.666976
0.776649
0.748634
0.702739
0.747442
0.876784
0.879765
1.095533
1.120567
1.173615
1.230836
1.287460
1.379848
1.415610
1.636744
1.787543
1.827478
2.018809
2.676845
6.233454
43.190718
126.231909
338.481665
604.207516
1015.795469
1016.031504
1016.031504
1016.031504
1016.031504
1016.031504
1016.031504
976.825953
560.701489
307.318568
114.295483
48.791766
15.422702
8.834600
7.903576
7.287860
6.902814
7.031560
9.252429
13.263822
21.559000
29.716492
43.502450
52.757859
63.796639
69.770813
71.460605
68.819523
60.351491
52.215457
39.512515
28.939843
18.745661
13.464689
8.088946
5.760789
4.069805
##ZVALUE=350
0.365973
0.358820
0.282526
0.438690
0.337958
0.395775
0.516772
0.393987
0.357628
0.338554
0.436902
0.447631
0.434518
0.350475
0.477433
0.568628
0.470877
0.359416
0.414848
0.445843
0.517964
0.492930
0.591874
0.384450
0.553727
0.536442
0.384450
0.511408
0.521541
0.711679
0.543594
0.617504
0.643730
0.609756
0.554919
0.598431
0.622869
0.729561
0.859499
0.780821
0.768900
0.970960
0.862479
0.903606
1.193881
0.936985
1.161695
1.105666
1.181960
1.335740
1.503825
1.460910
1.666546
1.918674
2.197623
2.444983
3.767610
21.699667
71.198940
226.764679
431.891680
869.639516
1016.031504
1016.031504
1016.031504
1016.031504
1016.031504
1016.032100
1016.031504
747.202635
445.924997
198.964477
87.517500
22.706985
10.203719
7.576942
6.775856
6.073713
6.156564
6.574988
7.903576
12.782812
17.899871
27.774572
36.105514
47.882795
56.051612
63.680410
65.843463
63.909888
58.150887
46.774745
37.860870
27.344823
20.203590
12.757778
##ZVALUE=355
0.266433
0.219941
0.406504
0.300407
0.208616
0.430942
0.492930
0.431538
0.565648
0.512600
0.402927
0.514984
0.509620
0.366569
0.476837
0.310540
0.481606
0.406504
0.526905
0.517964
0.405908
0.487566
0.590682
0.589490
0.571609
0.462532
0.570416
0.713468
0.531673
0.544786
0.591874
0.594854
0.559688
0.725985
0.635982
0.744462
0.693798
0.886917
0.844598
0.709891
0.839829
0.720620
0.878572
0.987649
0.926852
1.105666
1.005530
1.199841
1.105666
1.287460
1.449585
1.495481
1.502633
1.627803
1.866817
2.124906
2.449751
2.808571
3.059506
10.779500
42.548776
167.058706
342.754722
726.635456
1016.032696
1016.032696
1016.032696
1016.032696
1016.032696
1016.032696
1016.032696
997.376442
640.624762
270.396471
124.395490
34.501553
13.058782
7.499456
6.961823
6.392598
6.081462
5.911589
6.322861
7.644892
10.205507
16.028881
22.318959
32.653809
40.374994
50.657988
56.391954
59.839487
58.693886
52.948594
45.771599
35.450459
##ZVALUE=360
0.662804
0.529885
0.375509
0.628829
0.328422
0.531673
0.477433
0.335574
0.334978
0.445843
0.473857
0.427961
0.458956
0.561476
0.628829
0.666976
0.617504
0.631809
0.688434
0.614524
0.710487
0.555515
0.548959
0.589490
0.530481
0.614524
0.609756
0.610948
0.582933
0.691414
0.882745
0.760555
0.622869
0.667572
0.733733
0.806451
0.800490
0.838637
0.946522
0.831485
0.841618
0.868440
0.875592
0.928640
1.047850
1.020432
0.950694
1.074672
1.329780
1.289845
1.273751
1.424551
1.480579
1.630783
1.601577
1.794696
1.960993
2.204776
2.306700
2.727509
3.220439
5.112886
17.680526
90.150833
221.220851
550.583005
914.679766
1016.031504
1016.031504
1016.031504
1016.031504
1016.031504
1016.031504
1016.031504
845.021605
408.237576
206.231475
70.113540
24.094582
8.692741
7.398725
6.432533
6.092787
5.618930
5.552769
5.677938
6.155968
8.938909
12.076497
18.942952
25.621653
36.131740
43.551922
50.747991
53.392649
53.936839
##ZVALUE=365
0.401735
0.410676
0.421405
0.406504
0.464916
0.360608
0.485778
0.365973
0.297427
0.395775
0.395775
0.378489
0.536442
0.482798
0.322461
0.403523
0.627637
0.437498
0.531673
0.472665
0.398755
0.538826
0.609756
0.684857
0.463724
0.471473
0.616908
0.465512
0.513792
0.668764
0.545979
0.356436
0.635982
0.527501
0.838637
0.637770
0.684857
0.745654
0.787973
0.722408
0.848770
0.853539
0.930429
0.870824
0.796914
0.919700
1.011491
0.994802
1.124740
0.969768
0.976920
1.333952
1.214743
1.326799
1.372695
1.392961
1.633763
1.581907
1.920462
2.065897
2.294779
2.446771
2.926588
3.396869
6.968975
42.423606
130.705833
366.841555
662.438869
1016.036868
1016.036868
1016.036868
1016.036868
1016.036868
1016.036868
1016.036868
966.707468
523.903966
280.234814
101.396441
37.890673
9.772778
6.585717
6.156564
5.350709
5.260706
4.676580
4.503727
4.650950
5.392432
6.811619
10.837913
14.456511
22.026896
28.748512
37.982464
##ZVALUE=370
0.298619
0.326633
0.198483
0.378489
0.445843
0.355840
0.460744
0.502467
0.464916
0.487566
0.398755
0.447631
0.228882
0.433922
0.298619
0.195503
0.290871
0.381470
0.457764
0.504851
0.588894
0.499487
0.385642
0.506639
0.565648
0.611544
0.600815
0.601411
0.398755
0.557899
0.531673
0.681877
0.686646
0.501871
0.593662
0.698566
0.628829
0.611544
0.706911
0.713468
0.618696
0.707507
0.828505
0.862479
0.855923
0.942945
0.890493
0.795722
0.894666
0.895858
0.931621
0.925660
0.936985
1.194477
1.275539
1.230836
1.315475
1.373887
1.554489
1.642704
1.842976
1.820922
2.058744
2.344847
2.535582
2.977848
4.223585
21.403432
76.099634
266.885757
511.339903
967.611670
1016.032696
1016.032696
1016.032696
1016.032696
1016.032696
1016.032696
1016.032696
657.392740
360.945463
137.282014
60.423613
17.208457
7.643700
5.976558
5.184412
4.851818
4.525781
4.228950
4.147887
4.166961
4.748702
6.128550
8.618832
13.444424
##ZVALUE=375
0.332594
0.328422
0.284910
0.275970
0.296831
0.340939
0.275970
0.381470
0.242591
0.330806
0.300407
0.361800
0.307560
0.326633
0.499487
0.393987
0.358820
0.408888
0.533462
0.556707
0.385642
0.326633
0.456572
0.432730
0.296831
0.376701
0.525713
0.401735
0.455976
0.609756
0.509620
0.546575
0.450611
0.628829
0.424981
0.483990
0.601411
0.614524
0.609756
0.684857
0.671744
0.714660
0.624657
0.759959
0.589490
0.903606
0.705719
0.673532
0.701547
0.731945
0.769496
0.916719
0.914931
0.902414
1.136661
0.900626
1.032948
1.114607
1.020432
1.185536
1.407862
1.113415
1.545548
1.619458
1.746416
1.968741
2.277493
2.603531
3.305674
13.504624
46.708584
161.869526
351.911783
792.291760
1016.031504
1016.031504
1016.031504
1016.031504
1016.031504
1016.031504
1016.032100
877.621770
544.909835
259.044766
124.450922
35.684705
12.180805
5.975962
5.339980
4.878640
4.382730
4.152656
3.801584
3.525615
3.765821
4.170537
##ZVALUE=380
0.280738
0.181794
0.344515
0.374913
0.261664
0.458956
0.299811
0.252724
0.256896
0.409484
0.465512
0.282526
0.366569
0.329614
0.238419
0.290871
0.300407
0.233650
0.262856
0.370741
0.305772
0.396967
0.381470
0.418425
0.540614
0.404716
0.354648
0.261664
0.264645
0.247955
0.428557
0.562668
0.404716
0.479817
0.571609
0.402927
0.416636
0.458956
0.571609
0.562668
0.405908
0.497699
0.513792
0.513792
0.485778
0.583529
0.658631
0.719428
0.472665
0.665784
0.703931
0.646710
0.810623
0.652671
0.858903
0.815988
0.919700
0.926852
1.020432
0.809431
0.883937
0.892878
1.163483
1.244545
1.316667
1.551509
1.667738
1.965761
2.246499
2.606511
2.854466
6.406903
29.916763
137.882829
301.210880
652.099848
980.909467
1016.032696
1016.032696
1016.032696
1016.032696
1016.032696
1016.032696
986.361504
668.885708
317.493677
159.623623
52.122474
19.027591
6.319880
5.148649
4.566908
4.337430
4.068613
3.688931
3.536940
##ZVALUE=385
0.246763
0.360608
0.287890
0.215769
0.240803
0.308752
0.216961
0.282526
0.253916
0.045896
0.235438
0.292659
0.136495
0.244975
0.322461
0.208616
0.374913
0.224710
0.321865
0.346899
0.424981
0.284910
0.451803
0.326633
0.243783
0.280738
0.422597
0.354648
0.299811
0.403523
0.540614
0.455976
0.382662
0.293851
0.226498
0.384450
0.420809
0.719428
0.559688
0.576973
0.397563
0.418425
0.405908
0.307560
0.332594
0.362992
0.384450
0.605583
0.543594
0.517964
0.677705
0.610948
0.642538
0.722408
0.717640
0.690818
0.665784
0.804663
0.702739
0.917912
0.782609
0.880957
0.969768
1.102686
0.963807
1.193881
1.375675
1.518726
1.534820
1.882911
2.040863
2.410412
2.611876
3.528595
10.512471
69.366693
180.762410
449.977517
768.123865
1016.026735
1016.026735
1016.026735
1016.026735
1016.026735
1016.026735
1016.026735
848.277807
450.657010
250.510573
97.968578
36.678910
8.476973
4.957914
4.372597
4.057884
3.860593
##ZVALUE=390
0.100732
0.154972
0.184774
0.262856
0.192523
0.158548
0.140667
0.147820
0.100732
0.106692
0.166893
0.098944
0.076890
0.168681
0.202656
0.231862
0.318885
0.257492
0.258684
0.184774
0.089407
0.172853
0.198483
0.291467
0.366569
0.055432
0.325441
0.262856
0.284910
0.091791
0.338554
0.292659
0.303984
0.331998
0.300407
0.328422
0.478625
0.286698
0.320673
0.339746
0.367761
0.323653
0.221729
0.513792
0.387430
0.436902
0.495911
0.422597
0.443459
0.505447
0.435710
0.357628
0.556707
0.510812
0.719428
0.510812
0.534654
0.752807
0.621676
0.675917
0.587702
0.609756
0.633597
0.745654
0.848770
0.893474
1.125932
1.246929
1.481771
1.725554
1.852512
2.178550
2.393723
2.247691
2.349615
2.552867
4.617572
32.264590
104.792714
318.856835
594.657660
1015.947461
1015.947461
1015.947461
1015.947461
1015.947461
1015.947461
1015.947461
1015.947461
664.320588
373.905897
144.606829
61.200857
14.443994
5.901456
4.429817
##ZVALUE=395
0.296831
0.085831
0.260472
0.211596
0.084639
0.228882
0.163913
0.150800
0.193715
0.138879
0.312924
0.087619
0.314713
0.351667
0.330806
0.262856
0.257492
0.287890
0.244975
0.218749
0.198483
0.302792
0.157952
0.223517
0.302792
0.448823
0.422597
0.382662
0.260472
0.212789
0.293851
0.324845
0.281930
0.366569
0.232458
0.440478
0.530481
0.374913
0.348687
0.377893
0.339746
0.390410
0.340939
0.387430
0.456572
0.536442
0.483990
0.439882
0.576973
0.651479
0.461936
0.574589
0.546575
0.749826
0.660419
0.619888
0.555515
0.679493
0.727773
0.542998
0.699759
0.759959
0.781417
0.846982
0.964999
1.070499
1.127720
1.221895
1.412630
1.611710
1.799464
1.735687
1.761913
1.694560
1.898408
1.898408
1.991987
2.378821
3.222823
17.477870
66.895485
235.096812
445.777774
844.641924
1016.000509
1016.000509
1016.000509
1016.000509
1016.000509
1016.000509
1016.000509
774.009824
463.480949
192.779899
86.164474
25.433898
##ZVALUE=400
0.351667
0.196695
0.264645
0.159740
0.242591
0.315905
0.135899
0.176430
0.295639
0.245571
0.157952
0.238419
0.150800
0.227690
0.335574
0.208616
0.186563
0.201464
0.229478
0.265837
0.436902
0.182986
0.257492
0.408888
0.457764
0.305772
0.369549
0.213981
0.432730
0.151992
0.352859
0.435710
0.336766
0.397563
0.391603
0.342727
0.338554
0.459552
0.420809
0.492930
0.483990
0.565648
0.435710
0.369549
0.467896
0.367761
0.441670
0.499487
0.442863
0.512600
0.589490
0.730753
0.624657
0.735521
0.695586
0.791550
0.739694
0.699759
0.620484
0.764728
0.738502
0.715852
0.759959
0.620484
0.922680
0.988841
0.933409
1.269579
1.388788
1.592636
1.531839
1.662970
1.549721
1.508594
1.770854
1.662970
1.609921
1.919866
2.093911
2.313852
2.470613
8.952618
35.584569
142.336488
307.306647
674.010515
1006.874442
1016.023755
1016.023755
1016.023755
1016.023755
1016.023755
1016.023755
957.895517
617.136955
296.958685
##END
