##TITLE=AAI0551
##FORMAT=SPECTACLE-ASCII V-1.2
##DATA TYPE=ULTRAVIOLET SPECTRUM
##SECOND TYPE=ULTRAVIOLET SPECTRUM
##DATE=04/30/18
##TIME=15:43:39
##SPECTROMETER/DATA SYSTEM=SPECTACLE
##XUNITS=NM EM
##YUNITS=ENERGY
##YFACTOR=1
##FIRSTX=220
##LASTX=410
##NPOINTS=96
##3DDATA=Equidistant
##ZUNITS=NM EX
##FIRSTZ=210
##LASTZ=400
##ZPOINTS=39
##XYDATA=(Y..Y)
##ZVALUE=210
3.180504
3.601909
3.340840
3.424883
3.534555
3.885627
3.621578
3.247857
3.927946
3.107786
2.798438
2.208948
2.006888
1.868606
2.136827
2.515912
3.053546
2.667904
2.580881
2.822876
3.662705
2.806783
3.113747
3.060699
3.660917
2.767444
3.232956
3.109574
3.234744
3.439784
3.435612
4.046559
4.409552
3.465414
4.264712
4.282594
4.540682
4.066825
4.840493
4.930496
5.555749
5.186796
4.219413
5.543828
5.678535
4.574656
5.585551
4.400611
4.428625
4.869699
4.960895
5.602837
4.858971
5.254745
5.768538
4.620552
5.337000
6.122589
5.444884
5.115867
5.876422
5.326867
5.741715
6.105900
5.572438
4.980564
5.881786
7.003546
6.968975
7.613897
11.166930
11.862516
14.271736
15.842915
14.840961
18.292665
19.285679
19.324422
16.370416
14.220476
14.167428
12.079477
10.838509
9.598732
7.718801
7.206798
5.928874
5.841851
5.334616
5.512834
5.381703
6.344914
5.734563
6.124973
6.484985
7.228851
##ZVALUE=215
13.011694
11.449456
9.319782
8.374453
8.002520
7.388592
6.982684
7.200837
7.267594
7.525682
6.694794
6.191730
4.179478
3.987551
3.848672
3.392696
2.591610
2.445579
2.930760
2.707839
3.096461
3.156662
3.533959
2.787709
3.374815
4.070997
3.632903
3.630519
4.232526
3.909469
3.296733
4.239678
3.937483
3.903508
3.936887
4.409552
4.521608
4.050732
4.889965
4.349947
4.781485
5.186796
4.840493
5.268455
5.360842
5.326867
4.228950
5.150437
5.528927
6.304979
5.653501
4.462600
4.474521
5.061626
5.399585
5.186796
5.824566
5.389452
5.202889
5.839467
4.542470
5.974770
5.321503
4.992485
5.856752
5.906820
6.168485
7.308722
7.480979
8.424520
10.182858
11.156797
11.799932
13.734698
15.511513
15.918612
16.273856
14.805794
16.108751
13.860464
12.940764
11.370778
11.157990
9.220839
7.561445
6.731749
6.169677
6.237626
5.111694
5.542636
5.719662
4.579425
5.103946
5.447865
5.277991
6.051660
##ZVALUE=220
34.889579
35.576820
34.582615
35.799742
30.526519
26.051998
20.068884
16.837716
14.566779
15.451908
15.950799
15.040636
14.538765
13.244748
11.337996
8.968711
6.437898
4.013777
4.580617
3.074408
2.958775
3.279448
3.500581
4.718900
3.823638
3.466606
4.163980
4.724860
4.625916
4.422665
4.793406
4.685521
5.114675
5.317926
5.499721
5.817413
4.743934
5.544424
5.571842
6.260872
5.604625
5.657673
6.661415
5.280972
5.459785
6.202459
6.002784
6.553531
4.893541
5.636811
5.838871
6.219745
6.277561
6.724596
5.821586
5.897880
5.897880
5.800724
4.638433
5.678535
6.300807
6.627440
6.348491
6.789565
6.553531
6.696582
7.525682
7.401705
7.610917
9.799600
9.434819
12.898445
11.963844
14.295578
16.075969
14.976859
15.772581
14.141798
15.813708
13.539791
13.703704
12.089610
11.112690
9.377599
7.539988
7.138848
6.712675
6.181598
5.685687
5.988479
5.765557
5.283952
5.330443
5.413890
5.275607
5.212426
##ZVALUE=225
59.628487
60.698986
78.024864
90.760589
94.677806
88.698864
80.637932
62.952638
47.043562
39.032698
29.986501
26.481748
29.834509
29.430985
27.607679
27.375817
22.587776
15.818477
12.344718
8.815527
6.459951
4.155636
4.094839
4.404783
4.511476
3.895760
4.927516
4.726648
4.915595
4.966855
5.231500
6.039739
5.734563
5.287528
6.365776
5.195737
5.578995
6.484985
5.043745
5.437732
6.793737
5.838871
5.480647
6.189942
5.766749
5.937815
6.855726
6.193519
5.345941
6.417632
5.906820
6.787777
6.305575
5.879998
6.229877
5.792975
6.254911
6.621480
6.440878
6.958842
6.583929
7.066727
7.252693
6.477833
7.931590
7.413626
6.681681
7.900000
8.567572
9.140968
10.804534
11.612773
12.889504
14.189482
14.666915
14.942884
14.616847
14.664531
14.038682
13.086796
11.858940
10.314584
10.500550
9.545684
8.467436
7.852912
7.927418
7.321835
6.297827
6.547570
6.359816
5.619526
6.466508
7.135868
6.009936
5.256534
##ZVALUE=230
46.046972
53.696632
81.293583
123.130679
160.587430
185.075998
198.413730
195.549726
171.083808
140.480995
99.133849
71.489811
51.852465
47.638416
49.333572
55.495501
51.658750
49.293637
45.980811
37.250519
28.176904
18.786788
12.016892
8.048415
5.069971
5.268455
4.765987
5.422831
5.165935
5.490780
5.375743
5.554557
5.602837
6.039739
5.939603
5.902648
5.923510
6.416440
6.015897
5.108714
6.558895
7.972717
7.048845
6.381869
6.077886
6.161928
6.091595
6.517768
5.961657
6.108880
6.410480
6.918907
5.662441
7.693768
6.578565
6.725788
6.797910
7.975698
7.175803
5.888939
6.977916
7.903576
7.496476
7.901788
7.125735
7.228851
7.629991
7.551908
10.472536
9.831786
11.135936
13.397932
13.742447
15.195608
14.196634
16.301870
14.539957
15.319586
15.132427
13.025999
12.703538
10.876656
10.296702
10.715723
8.467436
8.307695
8.283854
7.888675
7.127523
7.314682
7.643700
7.982850
6.951690
7.384419
8.070469
7.872581
##ZVALUE=235
15.717745
17.484426
43.885708
77.258945
128.751993
214.618444
272.679925
330.523849
356.912017
341.086984
308.352709
235.663652
182.550550
119.735003
93.004704
72.406530
72.912574
81.743002
84.457994
84.336996
77.007413
67.987442
50.790906
37.926435
24.627447
15.687943
10.315776
7.336736
5.788803
5.899668
6.329417
6.052852
6.827712
6.514788
6.796718
5.953908
6.257892
5.823970
5.929470
6.597638
6.281734
6.058812
6.407499
6.515980
6.813407
6.908774
6.211996
5.936623
6.422997
7.155538
6.956458
7.440448
7.646680
7.394552
6.533861
8.396506
7.819533
6.788969
7.379651
8.347631
7.719994
8.921623
8.191466
8.026958
9.390712
9.041429
9.099841
9.215474
10.055900
11.215806
13.425946
13.803840
15.178919
14.760494
16.840696
16.007423
17.438531
16.030669
15.925765
13.977885
13.639927
11.561513
11.248589
9.892583
10.510683
10.393858
9.198785
9.920597
8.923411
8.044839
8.488894
7.835627
7.989407
8.172989
7.046461
8.128881
##ZVALUE=240
1.518726
2.297759
7.055998
18.763542
52.360892
96.712708
185.221434
279.877782
405.531526
489.560962
557.016730
555.976629
512.699485
412.565470
318.261981
205.024481
150.962472
109.052658
95.446706
100.965500
108.704567
113.640428
106.327534
99.142790
79.580545
65.315962
45.674443
30.449629
18.649697
13.323426
10.350943
8.282661
7.753968
7.442832
6.951690
6.890893
6.655455
6.460547
6.995797
6.482601
7.062554
6.587505
6.978512
7.072687
6.686449
6.526709
7.675886
7.895827
7.802844
7.824898
6.883740
8.088946
6.955862
7.561445
7.385612
8.652806
8.931756
7.930994
7.526875
7.487535
7.312894
8.807778
8.583665
10.278821
9.378791
9.075999
9.330511
10.561943
10.692477
12.615919
14.236569
15.708804
15.504956
17.142892
19.230843
17.883778
17.609596
17.829537
16.168952
15.544891
14.783740
11.861920
13.020635
12.289882
11.860728
11.077523
10.786653
10.641813
10.349751
11.520982
9.693503
10.137558
9.283423
10.401607
9.687543
8.948445
##ZVALUE=245
1.710653
1.598597
1.647472
2.062917
2.957582
15.976429
37.314892
101.046562
174.685717
302.204490
426.002741
564.081669
640.699863
663.474798
628.716946
533.086658
427.246690
289.861560
198.690891
131.364465
106.981993
100.315809
112.538934
122.011900
127.029419
123.907924
108.588934
92.342496
70.410967
51.184893
31.909943
21.681786
14.256835
8.978844
6.813407
7.190704
6.421804
7.106662
7.032752
6.354451
6.141663
6.326437
6.643534
5.877614
6.673932
6.391406
5.989671
6.015897
6.974936
6.750822
6.647706
7.086992
8.111596
6.957650
6.992817
6.863475
6.888509
6.785989
7.418990
7.840991
7.461905
7.402897
7.501841
7.674694
7.650852
8.770823
8.952618
8.307695
8.960962
11.374950
11.924505
12.375712
14.582872
14.742613
15.554428
16.163588
15.413761
14.550686
13.294816
13.578534
13.870597
13.446808
11.365414
10.280609
11.133552
9.991527
9.378791
9.480715
8.811951
9.689927
9.090900
9.816885
8.831620
9.111762
8.203983
9.361506
##ZVALUE=250
1.480579
1.293421
1.317859
1.194477
1.181960
1.601577
2.331734
8.216500
33.673644
68.625808
172.250867
284.332633
406.709909
579.712987
685.617924
773.581862
759.648681
679.364800
581.699610
401.690006
277.549624
184.577703
112.107992
93.570948
103.798509
118.128657
135.259628
138.834715
127.580762
120.593905
104.917884
74.609518
55.749416
33.407807
20.480752
12.876987
8.101463
6.553531
5.985498
6.510615
6.157756
6.273985
6.034970
6.017685
6.216764
6.393790
6.306767
5.657673
6.032586
6.082654
6.192923
5.352497
5.451441
6.328821
6.729960
5.722642
5.901456
5.500913
6.557703
5.856752
6.133914
6.344914
6.740689
6.625652
6.687641
6.902814
7.378459
7.414818
8.094907
9.445548
9.727478
11.348724
11.273623
12.199879
13.319850
12.929440
13.335943
12.778640
11.825562
10.933876
10.173917
10.354519
9.026527
9.103417
8.864999
8.430481
8.333921
8.626580
8.606911
8.998513
8.858442
7.749796
8.025765
8.520484
7.885695
7.716417
##ZVALUE=255
1.082420
1.163483
0.814795
1.203418
0.971556
1.094937
1.485944
1.515746
1.918674
4.303455
21.984577
53.838491
111.445785
239.862800
374.381542
571.911931
712.248683
838.396549
870.759487
820.802450
717.471838
575.903654
373.993516
244.636536
142.057538
101.427436
88.364482
97.252727
122.861862
137.183666
147.461891
139.713883
128.481984
102.435946
81.817508
51.715970
37.118793
20.809770
12.610555
6.754994
6.309748
5.702972
5.476475
5.976558
5.522966
5.524755
5.660653
5.317926
5.559921
5.086660
5.116463
5.460978
5.114675
4.669428
5.054474
5.052686
4.978776
5.393624
5.493760
5.136728
5.438924
5.348921
5.255938
6.118417
5.612969
6.229877
5.912781
7.151961
7.442832
8.149743
7.683635
9.570718
9.501576
10.595918
10.949969
11.166930
9.980798
10.412931
9.898543
9.645820
8.387566
8.433461
7.410645
7.512569
7.302761
8.435845
6.692410
6.822944
7.216930
6.889701
7.765889
7.153749
7.154942
6.635785
7.850528
7.357597
##ZVALUE=260
1.100898
1.072884
0.934601
0.984669
1.020432
0.904799
1.143813
1.323819
1.310706
1.233816
1.577735
2.215505
8.086562
36.581755
81.156492
194.761753
317.588449
522.354841
682.846904
874.405503
971.630812
972.696543
866.153836
711.745024
472.121835
332.370996
190.272927
124.172568
82.441568
81.238747
104.000568
125.672817
137.197971
148.218870
145.316720
128.563643
108.112693
80.146790
59.032440
36.458969
22.621751
13.146996
8.532405
5.978942
5.629659
5.276799
5.208850
4.748702
5.091429
5.054474
5.061626
5.076528
5.042553
5.050898
4.828572
4.786849
5.247593
4.885793
4.247427
4.881620
4.879832
4.847646
4.333854
5.270839
5.016923
5.734563
5.253553
5.419850
6.058812
6.601810
7.392764
7.571578
8.774996
9.394884
9.810925
9.687543
8.834600
9.085536
7.967949
7.915497
7.611513
6.943941
6.741881
6.646514
6.727576
6.736517
6.170869
5.932450
6.382465
6.601810
6.474853
5.916953
5.914569
6.529689
6.325841
6.519556
##ZVALUE=265
0.860691
0.598431
0.670552
0.984669
0.686646
0.969768
0.799894
1.069903
1.082420
1.114607
0.959635
1.148582
1.548529
1.894832
4.089475
24.759769
58.513880
152.395964
266.931653
494.127870
684.284568
870.350003
1016.030908
1016.030908
978.409648
838.108659
614.055395
436.715484
240.115523
151.487589
98.468661
71.674585
79.501867
107.496977
127.521753
148.166418
154.509544
143.553615
131.360888
107.407570
83.500743
52.405596
37.971735
20.881891
12.314916
6.918907
5.778670
4.851818
5.057454
4.588962
4.384518
4.253983
4.812479
4.478693
4.980564
4.590750
4.962683
4.440546
4.368424
4.192591
4.377961
3.760457
4.061460
4.378557
4.568696
4.672408
4.902482
5.212426
5.545616
5.650520
6.578565
6.646514
7.552505
7.831454
7.608533
7.752776
7.422566
7.337928
7.435679
6.640553
6.638765
6.416440
5.870461
6.446838
6.036758
5.515814
5.166531
5.604625
5.072951
5.606413
5.566478
5.459785
5.584955
5.294681
5.361438
5.160570
##ZVALUE=270
0.680685
0.720620
0.804663
0.596642
1.046658
0.748634
0.668764
0.722408
0.961423
1.243949
1.016855
1.291633
1.275539
1.321435
1.390576
1.593828
2.231598
11.054873
34.095645
110.591650
217.943788
379.440784
658.345819
869.444609
1016.033888
1016.033888
1016.033888
1002.320647
790.195465
588.158965
405.650735
211.709738
122.569799
65.406561
61.298609
82.166791
103.875995
131.084919
145.783424
154.122710
148.549676
132.609606
111.471415
80.537796
57.383776
34.171939
22.081733
11.949539
8.131862
5.308986
4.636645
4.709959
4.942417
4.702806
4.638433
4.464984
4.100800
4.292727
3.945827
4.711747
4.680753
4.124641
4.364848
4.211664
3.895760
4.373789
4.549623
4.514456
4.909635
5.054474
5.964637
6.470680
6.638765
7.255673
7.530451
6.717443
7.153749
6.598830
6.621480
6.379485
5.595684
5.386472
5.202889
5.111694
4.759431
4.924536
4.884601
4.691482
5.101562
5.188584
4.982948
5.305409
4.918575
5.286932
5.168915
4.896522
##ZVALUE=275
0.350475
0.497699
0.574589
0.428557
0.460744
0.375509
0.742674
0.508428
0.769496
0.836849
0.786781
0.949502
0.997782
0.648499
0.974536
1.084805
1.393557
1.407862
1.582503
4.890561
19.574761
58.001876
169.715881
316.456556
587.491989
794.565678
1011.371613
1015.859842
1015.859842
1015.859842
1001.399755
742.748976
518.927574
274.113417
157.141685
71.210861
50.681829
57.335496
76.552629
104.976892
127.888918
146.585703
150.569677
144.168735
129.888654
104.239583
83.334446
56.841969
38.120747
22.487640
13.577938
7.393956
5.665421
4.749894
4.120469
4.306436
3.855824
3.801584
4.431605
3.705621
4.257560
3.929734
3.660917
3.695488
4.083514
3.692508
4.041791
3.751516
4.739761
4.746914
5.413890
6.030798
5.713701
6.513000
6.128550
6.533861
6.466508
6.414652
5.812645
5.291700
5.321503
4.481673
4.780889
4.539490
4.322529
4.111528
4.404783
4.467964
4.462600
4.220605
4.554987
4.584789
4.221797
4.122853
4.366636
4.489422
##ZVALUE=280
0.720620
0.644922
0.682473
0.454783
0.764728
0.611544
0.566840
0.535846
0.616908
0.851750
0.783801
0.685453
0.741482
0.780821
0.737906
0.916719
1.199841
1.199841
1.482964
1.442432
1.519918
2.687573
10.727644
52.949786
122.784972
285.177827
455.584526
736.661553
945.409536
1016.031504
1016.031504
1016.031504
1016.031504
833.776593
613.351464
353.163481
206.182003
89.464784
50.717592
41.250587
53.663850
79.905987
102.476478
128.593445
143.490434
147.760510
144.645572
124.726892
107.810497
78.450441
58.852434
35.573840
22.580624
12.130737
7.769465
4.923940
4.557967
4.130602
4.002452
4.204512
3.822446
4.030466
3.758669
4.307628
3.784895
4.306436
3.963709
4.253983
4.610419
4.597902
4.924536
5.647540
5.335808
5.821586
6.191730
6.321669
5.923510
5.803704
5.639791
5.322695
5.083680
4.417896
4.293919
4.685521
4.200935
4.037619
4.052520
4.052520
3.708601
4.238486
4.245639
4.417896
4.147887
4.191995
4.240870
4.134774
##ZVALUE=285
0.520945
0.451803
0.610948
0.642538
0.507832
0.541806
0.680685
0.562668
0.734925
0.578761
0.631809
0.592470
0.599623
0.714660
0.827909
0.777841
0.839829
0.974536
1.056790
1.151562
1.112819
1.205802
1.672506
1.850724
6.097555
22.592545
78.608990
164.768696
359.141827
560.797453
726.459622
1016.031504
1016.031504
1016.031504
1016.031504
999.001861
788.348913
491.845608
303.272009
139.311552
70.423484
34.225583
35.765767
53.561926
73.042512
102.464557
120.630860
137.809515
145.592690
143.709779
129.832625
105.276704
83.855987
57.026744
39.558411
21.489859
13.480783
7.343888
5.654693
4.289746
4.160404
3.587604
4.121661
4.056692
3.760457
3.925562
4.215837
4.270673
4.519820
4.776716
4.832745
5.248785
5.251765
5.784631
5.655885
5.352497
5.014539
5.245805
4.900694
4.816651
4.308820
4.448891
4.443526
4.397631
4.051924
3.891587
4.017949
4.067421
4.191995
3.994703
4.065633
4.067421
3.675818
4.028678
3.763437
3.964901
##ZVALUE=290
0.271797
0.256896
0.250936
0.236630
0.376701
0.301600
0.510812
0.427961
0.425577
0.365973
0.537634
0.376701
0.534654
0.492930
0.474453
0.572801
0.489950
0.818968
0.785589
0.730753
0.834465
1.098514
1.157522
1.036525
1.366735
1.458526
2.272725
8.766651
43.262839
102.655888
201.410651
424.857736
660.358667
987.465978
1015.840769
1015.840769
1015.840769
1015.840769
943.880677
633.617640
410.770774
202.580690
104.801655
40.054917
25.900602
33.350587
47.147870
69.846511
90.463758
117.038488
131.095648
141.184926
139.299631
123.131871
105.111003
78.258514
57.455897
34.956932
23.675561
12.786984
8.572936
4.980564
4.424453
3.660917
3.308654
3.531575
3.781915
3.744960
3.910661
4.412532
4.700422
5.012751
4.879832
4.976988
4.900694
4.881620
4.728436
4.451871
4.212856
4.021525
4.166961
4.037619
3.509521
3.882647
3.658533
3.886819
3.567934
3.531575
3.902912
3.640652
3.754497
3.511906
3.698468
3.448725
3.324747
3.555417
##ZVALUE=295
0.029802
0.258684
0.264645
0.374913
0.442863
0.250936
0.252724
0.340939
0.345707
0.501871
0.333786
0.539422
0.430942
0.491738
0.336766
0.392795
0.498891
0.487566
0.399947
0.604987
0.718832
0.814795
0.811815
1.028776
1.074672
0.995994
1.121759
1.449585
1.737475
3.481507
21.013618
62.811971
147.696733
356.040597
579.181910
915.752649
1015.842557
1015.842557
1015.842557
1015.842557
1015.842557
772.783756
530.129671
275.906920
151.190758
55.105686
27.030706
21.145940
27.854443
46.045780
62.947869
89.456439
108.049512
127.495527
134.822726
130.501986
118.759871
97.768903
77.839494
54.214597
37.722588
21.770000
13.508797
8.085966
5.041957
4.272461
4.021525
4.071593
3.860593
3.835559
4.435778
4.416704
4.513860
4.584789
4.642606
4.532933
4.625916
4.445910
4.367828
3.948808
3.820658
3.872514
3.575683
3.718734
3.619790
3.203750
3.573895
3.607869
3.607869
3.794432
3.686547
3.360510
3.119707
3.494620
3.393888
3.183484
##ZVALUE=300
0.461936
0.232458
0.304580
0.335574
0.475645
0.442863
0.476837
0.394583
0.527501
0.436902
0.623465
0.565648
0.682473
0.434518
0.644922
0.499487
0.525713
0.607967
0.743866
0.791550
0.551939
0.769496
0.916719
0.978708
0.994802
1.138449
0.964999
1.213551
1.362562
1.415610
1.730919
2.248883
8.544922
32.777786
115.909576
234.352946
486.079454
729.926825
1016.031504
1016.031504
1016.031504
1016.031504
1016.031504
981.152654
649.526715
421.457887
208.053589
109.085441
37.945509
19.387603
18.268824
25.084615
41.295886
56.698918
80.963969
100.263953
119.534731
124.896765
126.285553
115.031004
96.576810
77.128410
52.486658
38.594604
22.351742
14.263988
8.385777
5.928874
4.543662
4.198551
4.170537
4.501939
4.583597
4.555583
4.878640
4.604459
4.615784
4.326701
4.032850
4.249811
3.756881
3.833771
3.797412
3.765821
3.627539
3.720522
3.599524
3.913641
3.910661
3.685951
3.551841
3.772974
3.532767
3.511906
3.415942
3.543496
##ZVALUE=305
0.342727
0.247955
0.336766
0.449419
0.381470
0.252724
0.337958
0.398755
0.339746
0.389814
0.533462
0.420809
0.385642
0.402927
0.443459
0.583529
0.558496
0.532866
0.692606
0.760555
0.763535
0.608563
0.719428
0.637770
0.927448
0.889897
0.959635
0.961423
0.986457
1.218915
1.296997
1.509786
1.560450
1.862645
3.730655
21.568537
63.662529
192.568898
347.650647
649.796724
908.139944
1016.031504
1016.031504
1016.031504
1016.031504
1016.031504
818.689466
501.650572
314.854980
143.967867
70.302486
23.018718
13.312697
16.609430
24.077892
39.609671
54.591894
78.881979
95.927715
113.355517
120.268464
118.367672
108.234882
91.550946
74.626803
51.501989
35.126805
21.151900
13.407469
8.391738
6.087422
5.206466
4.870892
5.132556
4.603863
4.439950
4.304647
4.053712
4.110932
3.924966
3.874898
3.838539
3.999472
3.953576
3.759861
3.862977
3.347993
3.583431
3.594756
3.772974
3.491640
3.405809
3.403425
3.339648
3.349781
3.302693
##ZVALUE=310
0.399947
0.391603
0.273585
0.371933
0.392795
0.371933
0.395775
0.403523
0.415444
0.256896
0.452995
0.390410
0.372529
0.466704
0.610948
0.398755
0.317693
0.436902
0.493526
0.652671
0.500679
0.489950
0.687838
0.586510
0.808835
0.717640
0.838637
0.668764
0.849962
0.947714
1.066923
0.939965
1.163483
1.444817
1.398921
1.844764
2.178550
9.324551
32.218695
110.022426
225.255489
476.400852
738.527775
1016.032696
1016.032696
1016.032696
1016.032696
1016.032696
1016.032696
719.261765
476.061702
233.989954
122.177601
40.472746
16.759634
11.155605
13.938546
21.953583
32.646656
50.917864
66.537857
88.359714
102.635622
112.231970
113.794804
105.763674
91.283917
70.861578
54.239631
34.865737
23.736954
14.353991
9.878874
6.597638
5.540848
4.683733
4.471540
4.296899
3.902912
3.821850
3.718734
3.875494
3.717542
3.778934
3.644824
3.616810
3.624558
3.586411
3.398657
3.558993
3.412962
3.454685
3.155470
3.362894
3.417730
3.254414
##ZVALUE=315
0.368953
0.326633
0.226498
0.216961
0.259876
0.295639
0.284910
0.330806
0.351667
0.289679
0.213981
0.425577
0.480413
0.497699
0.510812
0.306964
0.452995
0.412464
0.453591
0.584722
0.510812
0.467896
0.556707
0.434518
0.515580
0.637770
0.773668
0.847578
0.666976
0.670552
0.676513
0.936985
0.816584
1.048446
1.119971
1.172423
1.358986
1.665950
1.879930
4.289746
16.709566
69.162846
155.163407
357.522964
592.075586
970.505476
1016.031504
1016.031504
1016.031504
1016.031504
1016.031504
834.699869
581.748486
305.588841
162.569880
57.776570
23.382902
9.698868
9.687543
13.264418
19.139647
31.280518
44.643879
63.937902
80.281496
97.935796
105.454922
105.758905
100.126863
83.259940
68.983436
49.890876
35.796762
21.700859
14.083982
8.379817
5.998611
4.804730
4.147887
3.866553
3.812909
3.675818
3.740788
3.562570
3.513694
3.748536
3.612638
3.408790
3.428459
3.685951
3.448725
3.463626
3.044605
3.733635
3.117919
3.452897
##ZVALUE=320
0.322461
0.257492
0.130534
0.303984
0.235438
0.370741
0.325441
0.349879
0.299811
0.209808
0.348687
0.415444
0.273585
0.244975
0.169873
0.287890
0.366569
0.318885
0.374913
0.510812
0.511408
0.397563
0.476837
0.494719
0.575781
0.483990
0.748634
0.644922
0.665784
0.561476
0.732541
0.839829
0.777841
0.785589
0.853539
1.018643
0.987649
1.240969
1.329780
1.275539
1.748800
2.030730
9.273887
32.343864
114.796758
234.872699
487.357974
742.564797
1016.031504
1016.031504
1016.031504
1016.031504
1016.031504
1012.998819
693.689585
440.721512
202.372670
102.248788
35.273433
14.542937
8.408427
8.642673
11.653900
16.398430
27.975440
39.849877
58.471560
73.636770
90.736747
100.287795
100.747943
95.331669
81.933737
67.047477
47.580600
34.554601
21.277666
13.650656
7.819533
5.627871
4.382730
4.206896
3.844500
3.605485
3.574491
3.695488
3.286600
3.463626
3.464818
3.598928
3.352761
3.308654
3.288984
3.278852
3.380775
3.254414
##ZVALUE=325
0.235438
0.336766
0.133514
0.144839
0.335574
0.208616
0.320673
0.368953
0.222921
0.376701
0.298619
0.256896
0.342727
0.274777
0.224710
0.403523
0.381470
0.290871
0.366569
0.321865
0.469685
0.464916
0.453591
0.332594
0.432730
0.453591
0.415444
0.489950
0.577569
0.508428
0.676513
0.685453
0.718832
0.560880
0.807643
0.910759
0.826716
0.949502
1.074672
1.013875
0.999570
1.289845
1.453757
1.905560
4.038811
25.465488
68.908930
192.667842
357.123613
689.737797
964.977741
1016.031504
1016.031504
1016.031504
1016.031504
1016.031504
828.758478
496.530533
296.346545
126.812458
58.759451
17.660856
8.856654
7.327795
8.163452
11.544824
15.963912
26.089549
38.449764
57.921410
70.664883
86.047649
92.953444
94.545484
89.016557
74.948668
60.561895
43.552518
30.616522
18.606782
12.301803
7.472634
5.488992
4.241467
3.934503
3.742576
3.379583
3.640652
3.320575
3.317595
3.270507
3.299713
3.260970
3.321767
3.242493
3.171563
##ZVALUE=330
0.375509
0.299811
0.302792
0.156760
0.330806
0.162721
0.278950
0.207424
0.256896
0.369549
0.265837
0.362992
0.076890
0.281930
0.329614
0.264645
0.353456
0.361800
0.457764
0.312924
0.293851
0.467896
0.359416
0.452995
0.308752
0.378489
0.537634
0.528693
0.727773
0.495911
0.676513
0.611544
0.520945
0.586510
0.605583
0.774860
0.671744
0.828505
0.939965
0.970960
0.971556
1.139641
1.489520
1.232624
1.419783
1.678467
2.332926
10.832548
36.461949
124.859810
246.353745
511.332750
766.654611
1016.049981
1016.049981
1016.049981
1016.049981
1016.049981
982.431769
636.764765
405.878425
184.942484
90.596676
30.096769
11.780858
6.978512
6.806850
7.651448
10.328889
16.523600
23.931861
37.161708
50.723553
68.500638
80.033541
87.199807
87.782741
81.572533
71.498752
54.657459
41.537881
27.579665
19.125938
12.121797
8.407831
5.504489
4.231930
3.661513
3.473759
3.257990
3.251433
3.173947
3.303885
3.104806
3.307462
3.121495
##ZVALUE=335
0.141859
0.248551
0.255704
0.159740
0.223517
0.170469
0.197887
0.245571
0.094771
0.222921
0.316501
0.200868
0.383854
0.238419
0.332594
0.122786
0.084639
0.273585
0.230670
0.265837
0.221729
0.346899
0.226498
0.475645
0.456572
0.386834
0.457764
0.364780
0.408888
0.407696
0.404716
0.444651
0.528693
0.510812
0.527501
0.654459
0.529885
0.580549
0.643730
0.710487
0.790954
0.707507
0.803471
0.910759
0.984669
1.218915
1.351833
1.392961
1.802444
5.002618
17.887950
73.389411
159.357786
371.851921
607.305765
974.192023
1016.032696
1016.032696
1016.032696
1016.032696
1016.032696
788.697600
533.199906
271.661878
140.237808
45.183897
16.940832
7.752776
6.782413
7.160902
7.485747
10.159612
14.755726
24.033785
34.862757
49.525499
61.714649
74.859858
81.063509
82.529783
77.294707
63.558817
53.087473
40.614605
29.509664
18.831491
13.050437
7.958412
5.688667
4.277825
3.582835
3.218651
3.149509
3.144741
3.022552
2.915859
##ZVALUE=340
0.333786
0.311732
0.130534
0.217557
0.066757
0.059605
0.194907
0.252724
0.202656
0.182986
0.319481
0.364780
0.299811
0.205636
0.271797
0.279546
0.230670
0.212789
0.244975
0.263453
0.252724
0.298619
0.220537
0.395775
0.274777
0.348687
0.288486
0.466704
0.382662
0.493526
0.471473
0.482798
0.655651
0.499487
0.423789
0.627637
0.584722
0.642538
0.712872
0.630617
0.683665
0.879765
0.787973
0.793934
0.812411
0.939965
0.950694
1.265407
1.415610
1.506805
1.620650
2.609491
8.920431
44.640899
110.701919
284.301639
493.725538
824.409723
1016.031504
1016.031504
1016.031504
1016.031504
1016.031504
910.968781
645.702481
343.281627
184.800625
66.218972
26.175976
8.622408
6.663799
6.465912
6.553531
7.360578
9.392500
15.099645
21.617413
33.460855
44.579506
60.418844
68.280697
76.610446
76.251626
70.407987
63.048005
50.160885
39.795637
27.047992
19.353628
12.261868
8.298755
5.224943
4.225969
3.548861
2.947450
2.876520
##ZVALUE=345
0.139475
0.253916
0.338554
0.120997
0.081658
0.201464
0.087619
0.356436
0.228882
0.331998
0.164509
0.172853
0.155568
0.232458
0.182986
0.145435
0.099540
0.248551
0.348687
0.194907
0.335574
0.262856
0.340939
0.263453
0.354648
0.285506
0.143647
0.268817
0.443459
0.424981
0.350475
0.355840
0.439882
0.406504
0.447631
0.463724
0.292659
0.416636
0.524521
0.546575
0.519753
0.519753
0.568628
0.589490
0.674725
0.735521
0.848770
0.821948
0.929832
0.913739
1.317859
1.524687
1.305938
1.668930
3.993511
24.237633
70.024729
195.375681
344.716907
633.214712
892.276764
1016.031504
1016.031504
1016.031504
1016.031504
983.859897
741.776824
432.827473
242.569447
91.972947
38.510561
11.568666
6.927848
6.309748
5.841851
5.710721
6.236434
8.257627
11.821985
20.452738
28.753877
42.719841
52.288771
63.071847
68.147779
70.673823
67.975521
59.366822
50.119758
38.255453
28.665662
18.328428
12.524724
7.452965
5.403757
4.007816
##ZVALUE=350
0.273585
0.207424
0.092983
0.158548
0.117421
0.273585
0.227690
0.275970
0.300407
0.252724
0.320673
0.242591
0.397563
0.238419
0.228882
0.228882
0.266433
0.232458
0.070930
0.412464
0.235438
0.142455
0.263453
0.291467
0.430942
0.376701
0.290871
0.320673
0.277758
0.176430
0.297427
0.317693
0.292659
0.354648
0.395775
0.402927
0.329614
0.277758
0.492930
0.453591
0.426769
0.466704
0.497699
0.497699
0.648499
0.642538
0.845790
0.628829
0.706911
0.770688
0.939965
0.988841
1.018643
1.221895
1.484752
1.696944
2.306700
12.762547
41.809678
130.000710
253.584981
515.405536
753.292441
1016.044617
1016.044617
1016.044617
1016.044617
1016.044617
910.688639
545.555949
328.133702
141.308904
60.876608
16.582608
7.908940
5.938411
5.320907
5.299449
5.277991
5.732775
7.278919
12.348890
17.063618
26.537776
34.610629
47.398806
55.046678
63.215494
65.328479
62.456727
56.710839
45.863986
37.115812
25.713444
18.714666
11.826754
##ZVALUE=355
0.332594
0.318885
0.326633
0.202656
0.353456
0.509620
0.312924
0.400543
0.367761
0.363588
0.404716
0.442863
0.428557
0.451803
0.566840
0.409484
0.386834
0.541806
0.485778
0.447631
0.415444
0.281930
0.477433
0.600815
0.351667
0.446439
0.464916
0.448823
0.528693
0.590682
0.465512
0.480413
0.627637
0.621676
0.466704
0.587702
0.569820
0.612736
0.538826
0.737906
0.712872
0.710487
0.785589
0.742674
0.713468
0.694990
0.809431
0.720620
0.833869
0.855923
0.837445
1.228452
0.992417
1.306534
1.493692
1.527667
1.505613
1.745820
1.890659
5.950928
21.464825
85.199475
172.716975
373.398662
603.131652
971.204638
1016.196609
1016.196609
1016.196609
1016.196609
1016.196609
712.609887
440.250635
185.515881
84.055662
25.597811
9.944439
6.133914
5.738735
5.419850
5.140901
4.923940
5.358458
7.082820
9.252429
15.495420
21.507740
31.804442
40.127635
50.073862
56.106448
59.519410
58.208704
51.734447
45.266747
34.181476
##ZVALUE=360
0.207424
0.131726
0.212789
0.220537
0.291467
0.194907
0.063777
0.143647
0.342727
0.156760
0.209808
0.238419
0.326633
-0.018477
0.163913
0.274777
0.383854
0.292659
0.313520
0.338554
0.258684
0.205636
0.330806
0.388622
0.358820
0.270605
0.303984
0.291467
0.227690
0.227690
0.349879
0.444651
0.521541
0.504851
0.364780
0.280738
0.253916
0.384450
0.388622
0.457764
0.388622
0.527501
0.508428
0.585914
0.444651
0.477433
0.699759
0.568628
0.822544
0.721812
0.841618
0.722408
0.826716
0.800490
0.879765
1.118779
1.036525
1.261830
1.339912
1.360774
1.682639
2.891421
9.277463
45.311451
108.528733
272.529721
456.238985
761.101842
1002.143025
1016.031504
1016.031504
1016.031504
1016.031504
774.434805
520.694852
257.818699
133.339763
44.334531
15.288591
6.180406
5.188584
5.079508
4.509687
4.201531
4.239678
4.690886
5.392432
8.024573
11.121631
17.730594
24.454594
34.956932
41.889548
48.827529
52.459836
52.516460
##ZVALUE=365
0.391603
0.334978
0.552535
0.346899
0.387430
0.363588
0.517964
0.229478
0.288486
0.332594
0.243783
0.327826
0.327826
0.390410
0.379682
0.306964
0.415444
0.370741
0.411868
0.292659
0.359416
0.528693
0.433922
0.427961
0.390410
0.544786
0.460744
0.510812
0.582933
0.474453
0.536442
0.533462
0.672936
0.674725
0.409484
0.625849
0.601411
0.455976
0.739694
0.521541
0.619888
0.791550
0.709891
0.640750
0.696778
0.682473
0.538826
0.640750
0.712872
0.873804
0.810623
0.991821
0.904799
0.946522
0.994802
1.099706
1.162887
1.264811
1.276731
1.507998
1.701713
1.810789
2.042651
2.572536
4.845858
27.236938
73.223710
194.572806
368.433595
723.863840
998.580456
1016.182899
1016.182899
1016.182899
1016.182899
1016.182899
757.588744
393.820405
206.055641
68.121552
24.937987
7.773638
5.821586
5.295873
4.990697
4.749894
4.455447
4.382730
4.604459
5.201697
6.770492
10.938644
14.798641
22.457838
29.135942
37.601590
##ZVALUE=370
0.364780
0.363588
0.506639
0.266433
0.445843
0.455976
0.355840
0.340939
0.424981
0.331998
0.319481
0.338554
0.450611
0.316501
0.419617
0.214577
0.285506
0.310540
0.383854
0.337958
0.526905
0.540614
0.551939
0.501871
0.245571
0.517964
0.503659
0.503659
0.372529
0.392795
0.459552
0.456572
0.473857
0.413656
0.469685
0.510812
0.499487
0.478625
0.506639
0.468493
0.539422
0.577569
0.690818
0.599623
0.687838
0.640750
0.540614
0.699759
0.725985
0.795722
0.781417
0.676513
0.648499
0.758767
0.868440
0.830889
0.878572
0.943542
0.986457
1.035929
1.192689
1.106858
1.360774
1.567602
1.614690
1.868606
2.383590
12.227893
42.053461
135.181546
257.653594
504.748821
753.826499
1016.176939
1016.176939
1016.176939
1016.176939
986.997485
734.874010
409.272909
227.961540
86.945891
36.799908
11.757612
5.793571
4.758835
4.472733
4.051924
3.825426
3.598928
3.383756
3.589988
4.250407
5.755424
8.141994
13.226867
##ZVALUE=375
0.197887
0.223517
0.104904
0.250936
0.082850
0.137687
0.207424
0.026822
0.228882
0.145435
-0.036955
0.218749
0.124574
0.174642
0.220537
0.296831
0.240803
0.328422
0.112653
0.076890
0.241995
0.215769
0.207424
0.129938
0.238419
0.151992
0.298619
0.334978
0.430942
0.051856
0.227690
0.203848
0.251532
0.385642
0.140667
0.332594
0.260472
0.317693
0.275970
0.407696
0.283718
0.436902
0.324845
0.276566
0.380874
0.190735
0.389814
0.264645
0.439882
0.316501
0.303984
0.321865
0.513792
0.592470
0.490546
0.509620
0.372529
0.602603
0.426769
0.497699
0.641942
0.735521
0.822544
0.845790
0.912547
1.159906
1.100898
1.327991
1.718998
5.962849
21.182895
79.315901
173.133016
390.403867
604.216456
918.578506
1016.031504
1016.031504
1016.031504
1013.394594
821.060538
501.496792
317.322016
154.177547
74.396729
21.542907
7.846951
4.404783
4.188418
3.680587
3.559589
3.321767
3.084540
3.048778
2.998710
3.537536
##ZVALUE=380
0.088811
0.018477
0.179410
0.178814
0.042915
0.179410
0.174642
0.193715
0.283718
0.129938
0.249743
0.224710
0.123978
0.059605
0.170469
0.180602
0.276566
0.181794
0.190735
0.208616
0.197887
0.186563
0.139475
0.263453
0.197887
0.275970
0.178814
0.184774
0.245571
0.199676
0.171661
0.161529
0.101924
0.266433
0.299811
0.128746
0.235438
0.250936
0.236630
0.257492
0.204444
0.298619
0.253916
0.352859
0.373721
0.332594
0.240803
0.377893
0.287890
0.457764
0.378489
0.420809
0.263453
0.377893
0.419617
0.341535
0.442863
0.508428
0.481606
0.467896
0.508428
0.685453
0.552535
0.623465
0.810623
0.856519
0.872612
0.995994
1.259446
1.509786
1.615882
3.552437
13.502836
62.791705
139.464736
307.135582
505.803823
816.622972
1012.334824
1016.031504
1016.031504
1016.031504
941.073895
665.830970
449.987650
221.949816
113.226771
38.633943
14.280677
5.083680
4.068613
3.694892
3.379583
3.182888
2.921820
2.873540
##ZVALUE=385
0.084639
-0.004768
0.223517
0.151992
0.255704
0.080466
-0.011921
-0.085831
0.049472
0.035763
0.081658
0.099540
0.076890
0.116825
0.284910
0.000000
0.281930
0.140667
0.135899
0.225902
0.130534
0.125766
0.216961
0.147820
0.159740
0.231862
0.157952
0.194907
0.191927
0.086427
0.195503
0.200868
0.073910
0.064969
0.164509
0.270605
0.082850
0.222921
0.219941
0.203848
0.242591
0.198483
0.346899
0.217557
0.191927
0.169873
0.303984
0.338554
0.234842
0.281930
0.366569
0.182986
0.197887
0.287890
0.378489
0.333786
0.380874
0.337958
0.404716
0.536442
0.583529
0.527501
0.470877
0.626445
0.537634
0.830889
0.884533
0.823736
1.010895
1.191497
1.197457
1.393557
1.606941
2.128482
6.169677
34.051538
86.441636
222.726464
386.266708
679.650903
909.930468
1016.031504
1016.031504
1016.031504
1016.031504
842.939019
617.602468
360.820889
203.222632
74.796677
28.739572
6.885529
4.029870
3.555417
3.497601
3.109574
##ZVALUE=390
0.076890
0.072718
0.082850
0.129938
0.144839
0.175834
0.094771
0.196695
0.108480
-0.112653
0.183582
0.080466
-0.012517
0.087619
0.133514
0.258684
0.184774
0.043511
0.110865
0.227690
0.299811
0.224710
0.012517
0.154972
0.091791
0.079870
0.105500
0.147820
0.110865
0.147820
0.023842
0.117421
0.415444
0.276566
0.174642
0.246763
0.206828
0.130534
0.318885
0.170469
0.347495
0.254512
0.351667
0.415444
0.223517
0.160933
0.314713
0.253916
0.378489
0.304580
0.190735
0.271797
0.291467
0.319481
0.353456
0.400543
0.356436
0.411868
0.310540
0.350475
0.529885
0.494719
0.455976
0.418425
0.564456
0.660419
0.841618
0.897646
0.778437
0.991821
1.098514
1.242757
1.314878
1.304746
1.262426
1.761913
2.998710
19.581914
60.921907
182.544589
332.711935
611.705780
825.353861
1016.031504
1016.031504
1016.031504
1016.031504
975.352526
762.434006
476.087928
282.461643
117.701888
51.515698
12.128949
4.652739
3.700852
##ZVALUE=395
0.116825
0.056624
0.040531
0.053644
0.225902
0.106692
0.158548
0.140667
0.081658
0.230670
0.239611
0.017881
0.097752
0.146627
0.239611
0.056624
0.246763
0.274777
0.244975
0.050664
0.212789
0.188947
0.005960
0.068545
0.065565
0.122786
0.008941
0.196695
0.193715
0.333786
0.239611
0.254512
0.206828
0.178814
0.227690
0.286698
0.144839
0.141859
0.347495
0.377893
0.175834
0.208616
0.237823
0.151992
0.223517
0.116825
0.358820
0.287890
0.278950
0.388622
0.413656
0.442863
0.319481
0.248551
0.293851
0.280738
0.267625
0.320673
0.388622
0.397563
0.395775
0.456572
0.629425
0.582933
0.602603
0.601411
0.554919
0.750422
0.730753
0.954866
0.979900
1.103878
1.041889
1.105666
1.114607
1.133680
1.009703
1.492500
1.744628
9.823442
36.166906
122.984648
233.169794
444.234610
664.609671
967.582464
1016.035676
1016.035676
1016.035676
1016.035676
832.193494
518.121719
322.343707
141.124725
67.326427
20.414591
##ZVALUE=400
0.130534
0.125766
0.093579
0.040531
0.140667
0.043511
0.053644
0.131726
0.205636
0.035763
0.202656
-0.009537
0.030994
-0.023842
0.153780
0.095963
0.114441
0.161529
0.141859
0.114441
0.113845
0.167489
0.129938
0.152588
0.220537
0.238419
0.104904
0.238419
0.151992
0.120997
0.142455
0.292659
0.161529
0.178814
0.333786
0.223517
0.096560
0.260472
0.237823
0.164509
0.168681
0.206828
0.314713
0.152588
0.280738
0.158548
0.402927
0.169873
0.235438
0.138879
0.216961
0.426769
0.329614
0.253916
0.299811
0.297427
0.378489
0.397563
0.433922
0.346899
0.506639
0.491738
0.339746
0.473857
0.624657
0.618696
0.618696
0.720620
0.931621
0.862479
0.930429
0.858903
1.010895
0.938773
0.986457
0.981688
0.969768
1.111627
1.319647
1.342893
1.504421
5.093813
19.795895
72.063804
153.606534
346.753597
554.097891
848.886967
1016.032696
1016.032696
1016.032696
1016.032696
891.308784
587.601662
380.994678
188.944936
##END
