##TITLE=AAI0502
##FORMAT=SPECTACLE-ASCII V-1.2
##DATA TYPE=ULTRAVIOLET SPECTRUM
##SECOND TYPE=ULTRAVIOLET SPECTRUM
##DATE=04/30/18
##TIME=15:23:22
##SPECTROMETER/DATA SYSTEM=SPECTACLE
##XUNITS=NM EM
##YUNITS=ENERGY
##YFACTOR=1
##FIRSTX=220
##LASTX=410
##NPOINTS=96
##3DDATA=Equidistant
##ZUNITS=NM EX
##FIRSTZ=210
##LASTZ=400
##ZPOINTS=39
##XYDATA=(Y..Y)
##ZVALUE=210
3.697872
3.688931
3.473759
3.386736
3.446937
3.542900
3.735423
3.078580
3.231764
2.992749
3.384948
2.593994
2.779961
2.488494
2.404451
2.966523
3.473759
3.209710
3.016591
3.613830
3.555417
3.760457
3.676414
3.803968
4.205704
4.192591
5.350709
5.021691
5.217791
5.207658
5.945563
6.112456
5.944967
5.610585
5.597472
6.049871
5.927682
7.337928
6.251931
6.844997
6.785989
5.757809
7.420778
7.386804
7.225871
7.341504
6.987453
6.219745
8.065701
7.788539
7.602572
7.735491
8.848906
9.021759
8.284450
7.634759
8.609891
9.229779
9.575486
9.749532
9.975433
8.331537
9.530783
8.568764
8.766651
10.461807
10.283589
11.483431
13.750792
14.176965
20.285845
23.116469
26.102662
29.899478
33.348799
31.289458
33.239722
34.700632
34.156442
32.154918
29.019713
28.958917
21.112561
19.715428
14.903545
12.480617
11.682510
9.740591
9.628534
9.533763
8.093715
9.342432
10.062456
10.046959
10.982752
11.822581
##ZVALUE=215
12.817979
15.213490
12.618899
9.307861
8.442998
8.395910
7.320642
6.871819
8.095503
7.587671
7.422566
5.903840
4.794598
4.217625
3.393888
3.404617
3.833771
3.174543
3.749728
3.725886
3.622770
4.062653
4.208684
4.597902
4.546642
5.111694
4.396439
4.842877
5.440712
5.319715
5.201697
5.678535
6.416440
6.632805
6.936789
6.954670
7.498860
7.309914
6.463528
6.573796
7.559657
7.327795
7.036924
8.238554
8.012652
7.929802
8.807778
8.408427
8.806586
8.843541
9.375811
8.597970
9.183884
9.207726
8.915663
8.584857
9.312630
9.450912
10.086894
10.828972
10.102987
9.682775
10.740757
9.793639
9.792447
10.254979
11.347532
11.193752
13.594627
16.130805
18.997788
22.076964
25.066733
31.851530
31.139851
30.900836
34.087896
33.362508
30.135512
26.828647
27.963519
21.840930
20.458698
16.481876
14.787912
13.388991
11.663437
11.912584
10.345578
10.986924
9.049773
10.007620
8.813739
9.884834
9.371638
10.330677
##ZVALUE=220
44.500828
44.445992
46.910644
44.719577
39.665699
30.605793
24.366975
19.054413
16.606450
15.263557
15.068650
14.495850
15.184879
12.354851
11.168718
8.903742
7.074475
5.347729
5.081892
4.639626
3.940463
3.893971
4.355907
4.809499
4.867911
6.083846
4.722476
5.610585
5.864501
6.560683
5.831718
7.039905
6.897449
6.784797
6.765723
7.085800
7.334948
6.671548
8.291602
7.553697
8.137822
8.023977
9.004474
8.316636
9.001493
8.983612
8.088946
8.281469
8.615851
10.344982
8.549690
8.580685
8.885860
10.236502
9.670854
9.435415
9.604692
9.328723
9.212494
9.072423
8.870959
9.636879
10.782480
10.669827
10.956526
10.948777
11.239648
12.858510
13.534427
15.425682
19.022822
20.634532
22.369623
25.982857
27.147532
28.972626
31.070709
27.899742
27.506948
27.091503
23.335814
19.497871
19.711852
16.708970
14.639497
12.564659
11.625886
11.086464
10.240674
9.662509
10.059476
9.300709
8.583665
10.073781
8.731484
9.880662
##ZVALUE=225
69.440603
65.580606
86.400509
106.922984
119.591951
108.850002
99.399686
77.036619
55.720806
44.764876
29.697418
27.406812
27.294755
29.842854
29.672980
28.712749
23.474693
18.785000
14.309883
9.349585
7.744431
5.236864
4.204512
5.107522
5.639791
6.029606
6.184578
6.092787
5.422831
6.934404
6.775856
6.712675
7.306933
7.517934
6.908774
8.592606
7.385612
8.205771
8.451939
8.611679
8.266568
8.192658
9.344816
8.171797
9.068847
9.517670
8.806586
8.525848
9.853840
9.669662
8.819699
9.291768
10.142922
8.687973
10.005832
10.495782
9.791851
10.944605
10.659695
10.687709
10.020733
10.943413
10.984540
10.102987
10.904670
12.219548
12.970567
13.151765
13.449788
15.709996
17.701983
20.360947
23.305416
26.182532
25.453568
27.739406
26.534796
26.078820
24.635792
23.964643
19.835830
19.008517
17.007589
17.914772
13.753772
13.215542
12.181997
11.121631
11.228919
11.788607
10.189414
9.736419
11.421442
10.336637
11.720657
11.401772
##ZVALUE=230
55.310726
60.660839
90.621710
147.907734
193.725824
230.390429
246.424675
240.198970
213.877559
178.200006
121.940970
87.027550
57.221651
52.382946
51.019788
54.216981
55.672526
49.750805
43.582916
36.400557
29.536486
19.770861
14.359951
9.404421
6.687641
5.870461
6.744862
6.957650
6.260872
7.786751
7.247925
7.852912
7.785559
8.731484
8.819699
8.827448
9.693503
9.515882
9.685755
10.177493
10.454655
9.653568
10.642409
9.560585
11.178851
10.011792
11.210442
10.104775
10.879636
10.621548
10.607839
10.932684
10.373592
10.897517
12.229681
12.360811
11.968613
12.811422
11.712909
12.906790
12.962818
11.000633
13.937950
14.306903
13.690591
12.725592
13.522506
16.005635
16.164780
19.678473
20.801425
23.904443
26.381612
28.893948
29.199719
28.771758
27.174950
27.892590
26.843548
24.717450
23.068786
21.942854
19.166470
18.728971
17.002821
14.661551
14.798641
14.063716
13.133883
13.739467
13.656616
12.801886
15.184879
12.609959
13.650656
14.419556
##ZVALUE=235
17.668605
19.370914
49.429536
90.138912
167.798996
239.198804
346.875787
418.288708
464.474559
451.627970
398.028493
325.516462
245.414972
156.850815
117.496848
81.144571
72.913766
75.329542
82.711577
83.159804
79.403520
69.348812
53.072572
38.650632
25.475621
15.866756
11.645555
9.462833
8.169413
8.369684
7.604957
9.603500
9.637475
8.366704
10.340810
8.945465
9.610653
10.268688
10.934472
9.425879
11.268854
10.117888
10.589957
12.588501
11.144876
11.927485
11.584759
11.594892
10.848641
11.966825
12.297630
12.613535
10.976791
11.819601
12.998581
11.403561
13.317466
14.609694
14.096498
13.715625
13.116598
14.063716
15.269518
15.608668
14.580488
15.948415
16.307831
16.326904
20.475984
19.546747
22.645593
25.773644
29.580593
29.370785
31.620860
31.444430
31.674504
29.803514
28.124452
25.966763
25.776625
23.334622
22.097826
21.265745
18.822551
17.952919
17.529726
18.126965
17.850995
16.538501
17.941594
17.986894
17.944574
16.769767
17.915964
17.104745
##ZVALUE=240
1.874566
1.968741
6.116629
25.944710
56.568980
125.954747
220.191479
370.655656
494.537950
604.559779
712.741613
720.724463
649.060607
553.984642
412.478447
293.563008
182.269812
131.614804
104.907751
105.892420
110.700727
120.370984
119.008422
102.814436
88.054538
61.887503
49.305558
30.603409
22.489429
15.163422
12.142658
9.221435
8.976460
9.407997
9.376407
10.546446
10.198951
9.299517
10.307431
10.372996
10.195971
10.484457
11.037588
10.469556
10.356903
12.284517
11.992455
10.444522
12.111664
12.191534
11.475682
12.226701
11.404753
12.014508
13.094544
13.178587
13.721585
12.355447
14.690757
12.982488
13.046861
13.827682
14.043450
14.077425
15.438795
14.329553
15.670657
18.089414
19.656420
20.967722
22.957921
25.342703
28.230548
30.072927
30.540824
29.171705
30.555725
30.761957
29.296875
27.352571
25.547743
24.478436
21.459460
20.892620
20.808578
20.649433
19.274950
17.828941
19.435883
18.480420
17.570853
19.131899
18.419623
19.653440
18.589497
17.362833
##ZVALUE=245
1.910925
1.972914
2.089739
1.912713
5.519986
15.958548
52.487850
106.055737
233.099461
364.698768
571.533442
716.279745
820.871592
894.752741
861.700773
718.590617
581.851006
395.059586
270.056725
157.302618
117.747784
100.471973
112.361908
121.838450
131.083727
126.975775
110.460520
94.395876
71.128607
54.144859
38.967729
23.864508
15.536547
11.119843
8.370876
9.475946
8.713603
9.568930
9.818673
8.655787
8.370876
9.081960
9.017587
8.975863
9.281635
9.314418
9.680986
10.095835
9.806752
9.409785
10.173917
10.511875
10.832548
11.124611
10.505915
10.981560
11.263490
11.066794
10.860562
10.983944
10.883808
12.962818
12.902617
13.212562
13.425946
13.958812
15.140772
15.976429
16.382933
17.721653
18.900633
22.149682
23.611784
26.879907
26.707649
26.699901
27.233958
24.496913
26.232600
23.275614
22.132993
20.613670
21.218657
19.109845
18.051863
16.990900
18.000603
16.975999
17.474890
16.441941
17.582774
16.814470
18.472672
17.015934
18.322468
18.917918
##ZVALUE=250
1.580715
1.495481
1.191497
1.743436
2.015829
1.874566
2.753735
9.525418
38.987994
86.849928
208.660960
349.322557
519.567728
747.258663
912.667513
1016.031504
1013.085842
926.721692
784.132481
544.993877
373.884439
238.345861
136.395693
101.255774
104.322433
122.221708
132.994652
138.525963
130.359530
123.728514
101.610422
76.551437
59.892535
37.854910
24.617910
14.711618
10.776520
9.328723
9.899735
9.055734
8.315444
8.749962
8.920431
7.919669
8.179545
8.761883
8.383989
8.535981
8.346438
9.755492
9.082556
8.808970
9.894967
9.613633
10.564923
9.654760
10.227561
10.209680
9.780526
10.278821
9.823442
11.015534
10.579824
11.683702
11.365414
12.527704
13.370514
13.777614
14.602542
15.986562
17.471910
18.897653
21.134615
21.547675
22.901893
23.064613
23.215413
21.430850
21.945834
20.799637
18.271804
19.279718
16.899705
17.518997
16.412735
16.045570
15.275478
14.936924
16.172528
15.092492
15.922785
15.584826
15.621781
15.828609
15.755892
15.755892
##ZVALUE=255
1.574755
1.137853
1.117587
0.994802
1.385808
1.564622
1.697540
1.872778
2.175570
4.545450
26.972890
66.766739
139.270425
301.115513
473.553538
750.747919
952.454805
1016.031504
1016.031504
1016.031504
996.136069
810.028911
533.855557
348.200798
185.468793
122.413635
98.723769
103.077888
125.488639
138.949752
144.476891
140.999556
129.230618
103.831887
85.002780
56.636930
41.346550
23.906827
15.774965
11.068583
9.138584
8.825660
8.876920
8.739829
9.523630
9.327531
9.048581
9.312630
9.588599
9.760857
9.463429
10.028481
9.861588
10.146499
9.439588
10.336637
10.177493
10.384917
9.422898
9.433627
10.498762
10.060668
10.651946
11.153817
11.198521
12.226701
12.346506
13.194680
14.409423
15.461445
16.820431
19.101501
18.639565
20.698905
22.028685
22.416711
21.128654
20.853877
19.741654
19.670725
18.031597
16.754866
15.772581
16.741753
15.197992
14.465451
14.061928
13.865829
14.811754
15.624762
15.271902
15.649796
14.394522
14.813542
16.550422
14.982820
##ZVALUE=260
1.041889
1.282692
1.356602
1.318455
1.041889
1.450777
1.436472
1.394749
1.425743
1.457930
2.069473
3.246665
11.117458
49.204826
105.201602
248.817801
414.357781
702.896714
929.829478
1016.031504
1016.031504
1016.031504
1016.031504
1016.031504
767.775774
553.058982
321.093798
203.146935
108.720660
88.073611
108.671784
126.329660
143.932700
154.019594
152.377486
133.212805
112.521648
84.353685
64.002872
39.415956
27.678609
16.950965
11.955500
9.798408
9.639859
8.989573
9.072423
9.097457
10.362864
10.154843
9.927750
9.417534
9.841919
10.140538
10.360479
9.699464
9.907484
10.251999
10.752678
10.356903
10.993481
10.717511
11.226535
10.936856
12.411475
12.005568
11.807680
12.276769
13.733506
15.378594
14.756918
16.924739
16.784668
18.261671
19.089580
19.078851
19.286871
17.832518
17.719865
15.755892
16.080737
15.378594
14.494658
14.651418
14.172792
13.974905
12.629628
14.014840
13.286471
13.594627
13.388991
13.661981
13.245940
14.840961
14.880896
14.873743
##ZVALUE=265
1.099706
1.170635
1.246929
1.076460
1.186728
1.441836
1.206994
1.272559
1.437664
1.344681
1.835823
1.681447
1.814961
2.239943
5.465746
29.737949
75.057745
195.514560
347.606540
664.692521
938.885808
1016.031504
1016.031504
1016.031504
1016.031504
1016.031504
1016.031504
790.472627
457.628965
270.783901
153.262615
81.795454
84.187984
111.114979
129.821897
150.093436
157.831907
152.170658
139.893889
111.365914
86.929798
61.022639
43.138862
26.481748
17.758608
12.868643
10.985732
10.399818
10.872483
10.332465
9.898543
10.391474
11.355877
10.305643
11.125803
10.899901
11.726618
11.127591
10.540485
11.493564
10.691881
10.502934
10.953546
11.437535
11.510849
12.529492
11.171699
12.289882
12.230873
13.228655
14.842749
15.601516
17.203689
17.421842
17.870665
17.389655
17.918944
17.551780
16.180873
15.288591
14.665723
14.123917
14.379621
13.054609
13.246536
13.207793
12.706518
13.358593
13.247728
13.859868
13.552904
13.333559
14.053583
13.700724
14.275908
14.616847
##ZVALUE=270
0.709891
1.071692
1.079440
1.060963
1.185536
0.924468
0.967979
1.033545
1.362562
1.274943
1.203418
1.449585
1.672506
1.929998
1.993775
2.258420
2.948642
9.672642
49.399734
119.299889
295.703411
525.764823
930.972695
1016.031504
1016.031504
1016.031504
1016.031504
1016.031504
1016.031504
877.801776
593.591928
301.198959
166.078806
81.211925
66.079497
84.695816
107.740760
135.390759
153.603554
160.575509
152.948499
135.971904
116.422772
86.672902
64.859986
40.739775
28.514862
18.874407
13.943911
11.296868
10.646582
10.557771
10.883808
10.696650
10.603666
10.539889
10.380745
10.381937
10.467768
11.291504
10.463595
10.289550
10.035634
10.296702
10.795593
9.685755
11.539459
10.844469
12.023449
12.520552
13.463497
13.529658
15.482903
16.098619
15.441775
15.608668
15.234947
14.645457
13.512969
13.408661
12.466908
11.751652
11.813641
11.858940
11.668801
10.819435
11.725426
11.099577
11.356473
11.665821
11.600852
12.018681
12.477636
12.359619
12.817979
13.162494
##ZVALUE=275
0.844598
0.794530
0.706911
0.670552
0.905991
0.888705
1.050830
1.010895
1.096725
1.006722
1.085997
1.202822
1.307726
1.232624
1.469851
1.737475
1.871586
2.052784
2.377629
6.363988
25.378466
75.655580
231.446624
437.706709
824.602842
1016.031504
1016.031504
1016.031504
1016.031504
1016.031504
1016.031504
1016.031504
760.681629
401.741862
229.616761
100.011826
63.074827
62.427521
81.404448
110.973716
130.711794
150.676966
156.655908
152.277946
140.014887
110.856891
90.536475
63.016415
45.720935
27.635694
20.085573
14.139414
11.791587
10.142922
10.456443
9.612441
9.768605
9.937882
10.115504
9.757876
9.885430
9.852648
9.722710
10.095835
10.212660
9.443760
10.660887
10.196567
10.544658
11.512637
11.494756
13.026595
13.649464
14.556646
14.210939
13.842583
13.952851
12.838840
12.774467
12.498498
11.829734
11.562705
10.663867
10.485649
10.386705
10.338426
10.186434
10.443926
10.465980
11.141896
11.038780
11.857748
11.430979
11.088848
12.678504
11.867881
##ZVALUE=280
0.774860
0.918508
0.851750
0.742674
0.799894
0.995994
0.870824
0.910759
1.144409
0.998974
0.875592
1.070499
1.050830
1.118779
1.135468
1.423955
1.363754
1.458526
1.637936
1.988411
2.136827
3.090501
15.967488
58.317780
188.052654
349.915028
667.102933
971.029997
1016.032696
1016.032696
1016.032696
1016.032696
1016.032696
1016.032696
953.689814
548.982620
328.639746
145.306587
75.912476
48.814416
58.453679
84.916949
105.009675
131.515861
147.867799
154.703856
148.303509
131.264925
113.140941
83.248615
62.873960
41.041970
28.453469
17.849803
13.248920
10.241866
10.198951
9.714961
8.888841
9.169579
9.778738
8.919835
9.467602
8.868575
9.821653
9.366870
10.050535
10.143518
10.003448
10.775924
10.869503
11.862516
12.499690
12.689829
12.493730
12.909770
12.603998
11.910796
11.595488
11.257529
10.662675
10.700822
10.357499
9.882450
10.338426
9.946823
10.021925
10.021925
9.834766
10.270476
10.132790
10.100603
10.795593
10.807514
11.525750
11.293888
##ZVALUE=285
0.762939
0.470877
0.801682
0.919700
0.569820
0.729561
0.744462
0.673532
0.776649
0.879765
0.992417
0.851750
1.010895
1.010895
1.153946
1.196861
1.157522
1.173615
1.403689
1.687407
1.765490
1.713634
2.058744
2.578497
7.759929
30.044913
107.612610
224.364996
484.395623
780.339837
1016.029716
1016.029716
1016.029716
1016.029716
1016.029716
1016.029716
1016.029716
752.082467
471.962690
217.712522
109.606981
46.479702
39.229989
56.804419
76.262951
105.791688
123.622417
143.837929
150.547624
145.442486
133.200884
109.834671
89.389682
61.912537
44.231415
26.930571
19.115806
12.930632
10.724664
9.044409
9.161830
9.235740
8.811951
9.053946
9.011626
9.485483
8.729696
9.625554
9.503961
9.972453
10.539889
11.960864
11.876822
12.221932
12.391806
12.288690
11.902452
11.506677
10.980964
10.696650
10.353923
10.089874
9.988546
9.403825
9.382963
10.000467
9.533763
9.526610
9.713769
10.162592
10.454655
10.552406
10.285974
10.779500
10.347962
11.344552
##ZVALUE=290
0.619888
0.755787
0.749826
0.953674
0.659823
0.772476
0.747442
0.835657
0.779629
0.748634
0.785589
0.883937
0.887513
0.807643
1.069903
1.029968
1.077652
1.144409
1.162887
1.120567
1.354814
1.655817
1.570582
1.825690
1.982450
2.374649
3.631711
12.745857
64.375401
148.171782
350.142717
594.640970
993.118882
1016.070843
1016.070843
1016.070843
1016.070843
1016.070843
1016.070843
990.908742
585.714579
344.151855
144.867897
66.408515
30.899644
33.890605
52.139759
68.729520
95.881820
116.184950
138.272643
143.204927
141.534805
129.728913
107.986927
86.627603
58.371425
42.725801
27.183890
19.199848
12.354851
10.430813
8.628964
8.263588
8.594990
8.660555
8.273721
8.929968
9.739995
10.353923
10.233521
11.297464
11.151433
11.069775
11.543632
11.589527
10.841489
10.418892
10.375977
9.870529
9.660721
9.259582
9.107590
9.070635
9.147525
9.024739
9.067655
9.049773
9.567738
9.639859
9.333491
9.942651
10.051727
10.197759
10.805726
10.167956
##ZVALUE=295
0.724792
0.712872
0.583529
0.721812
0.544786
0.673532
0.639558
0.677705
0.781417
0.737906
0.819564
0.732541
0.960827
1.069903
0.984669
0.957847
0.817776
1.080632
0.958443
1.194477
0.920892
1.393557
1.433492
1.658797
1.560450
1.893640
2.146959
2.397895
2.633929
7.463694
28.573871
114.967823
240.970850
538.112521
848.583579
1016.031504
1016.031504
1016.031504
1016.031504
1016.031504
1016.031504
1016.031504
826.356411
436.307788
240.120888
85.136890
37.891865
23.906827
30.506849
47.733784
65.349936
90.685487
108.281970
129.017830
137.814879
133.058429
124.459863
102.030635
82.801580
57.134628
40.704608
25.765896
17.838478
12.006760
9.946823
8.639693
8.242726
8.050799
8.371472
8.879900
9.287596
9.997487
10.376573
10.901690
11.269450
10.705590
10.598898
9.809732
9.897947
9.174943
9.376407
8.528829
9.051561
8.568764
8.650422
8.799434
9.021759
8.645654
8.978844
8.682609
8.911490
9.487867
9.587407
9.237528
9.860992
9.602904
##ZVALUE=300
0.601411
0.753999
0.442863
0.661612
0.700951
0.748634
0.705719
0.594854
0.624657
0.826716
0.679493
0.894666
0.754595
0.616908
0.892878
0.836849
0.811815
0.858903
0.819564
0.993609
0.865459
1.098514
1.142621
1.308918
1.366735
1.520514
1.446605
1.639724
1.934767
2.143979
2.465844
3.091693
17.552972
65.357685
202.425718
381.626487
761.078000
1016.032696
1016.032696
1016.032696
1016.032696
1016.032696
1016.032696
1016.032696
999.556780
672.114491
331.291556
166.291595
54.828525
25.035739
20.605922
27.238727
43.574572
58.653951
81.920624
101.991892
121.789575
130.167603
129.020810
120.079517
101.254582
81.267953
56.942701
42.443871
26.859641
17.855763
11.967421
9.825826
8.692741
8.751750
9.206533
9.848475
10.058880
10.340810
10.291934
10.494590
10.058880
9.636879
9.565949
9.617805
8.739829
9.117723
8.741617
8.692741
8.869767
8.733869
8.818507
8.889437
9.108782
8.517504
8.951426
8.814931
8.653998
9.165406
9.305477
9.403825
##ZVALUE=305
0.642538
0.659823
0.605583
0.594854
0.651479
0.576973
0.521541
0.588894
0.637770
0.697970
0.776649
0.685453
0.640750
0.729561
0.868440
0.849962
0.756979
0.957847
1.060963
0.830889
0.974536
1.039505
1.089573
1.069903
1.046658
1.324415
1.491904
1.542568
1.768470
1.848936
1.975894
2.458692
2.507567
2.764463
7.169843
56.738853
143.631697
356.802940
604.469776
1005.497575
1016.084552
1016.084552
1016.084552
1016.084552
1016.084552
1016.084552
1016.084552
822.119713
507.046580
225.955844
108.036995
33.308864
17.281771
18.579960
25.426745
41.198730
56.594610
78.825951
96.869469
114.337802
121.796727
119.468570
112.589002
95.621943
77.324510
54.918528
40.090680
25.358796
18.107891
12.206435
10.516644
9.954572
9.790659
9.901524
9.673834
9.632707
9.076595
9.074807
8.704662
8.502603
8.879900
8.747578
8.568764
8.447766
8.658767
8.733869
8.763671
9.110570
8.679628
9.159446
9.025931
9.227991
9.111762
9.261966
8.963943
9.252429
##ZVALUE=310
0.412464
0.626445
0.610948
0.752807
0.672936
0.723600
0.735521
0.675917
0.715852
0.812411
0.920892
0.761747
0.686646
0.683665
0.773668
0.841618
0.828505
0.943542
1.000762
1.016855
0.932813
1.118779
1.011491
0.961423
0.952482
1.269579
1.174808
1.448989
1.391768
1.799464
1.572967
1.702905
1.975894
2.063513
2.231598
2.745986
3.740788
34.653544
113.263726
301.399827
515.386462
920.989513
1016.159654
1016.159654
1016.159654
1016.159654
1016.159654
1016.159654
1016.159654
997.115374
685.060024
343.421698
179.932714
59.504509
23.240447
13.578534
16.138554
24.948716
33.690929
51.877499
67.734718
90.304613
104.022622
114.396811
117.103457
107.931495
96.237659
75.649619
58.588982
39.097667
28.000474
18.798709
14.226437
11.468530
10.107756
9.688735
9.283423
8.922815
8.740425
8.435845
8.405447
8.645654
8.701682
8.867979
9.101629
8.465648
8.694530
8.902550
8.766651
8.717775
8.871555
9.050965
9.027719
9.198785
9.319782
9.562969
##ZVALUE=315
0.741482
0.701547
0.536442
0.550747
0.688434
0.642538
0.618696
0.729561
0.748634
0.506639
0.760555
0.937581
0.767708
0.797510
0.658631
0.782609
0.847578
0.760555
0.772476
0.801682
0.807643
0.685453
1.043677
0.774860
1.142621
0.912547
1.034737
1.463890
1.156926
1.435876
1.583695
1.439452
1.582503
1.817942
1.867414
2.297759
2.347827
2.982616
3.392696
19.627810
96.194744
313.057899
551.725030
958.071947
1016.108990
1016.108990
1016.108990
1016.108990
1016.108990
1016.108990
1016.108990
1016.108990
925.033689
486.721992
262.859464
91.253519
35.049915
13.395548
12.384653
15.487671
20.818710
33.771992
45.474768
65.587759
82.150698
100.197792
108.578801
109.646916
103.019476
88.103414
73.306561
55.065751
41.553974
26.322603
19.074678
13.072491
10.946989
9.235740
8.605719
8.297563
8.453727
8.295774
8.283854
8.154511
8.455515
8.259416
8.556843
8.478761
8.885860
8.698702
8.817911
9.190440
9.314418
9.422898
9.221435
9.259582
##ZVALUE=320
0.422597
0.512600
0.500679
0.289679
0.445843
0.622869
0.580549
0.683665
0.479817
0.644922
0.596642
0.617504
0.586510
0.478625
0.618696
0.579953
0.776649
0.681877
0.657439
0.850558
0.748634
0.709891
0.771880
0.817776
0.777841
0.838637
0.848770
1.092553
0.970960
1.124740
1.344681
1.266599
1.372695
1.411438
1.510978
1.791716
1.847744
2.042651
1.990795
2.658963
2.969503
6.023645
39.205551
227.079988
456.411839
845.945477
1016.031504
1016.031504
1016.031504
1016.031504
1016.031504
1016.031504
1016.031504
1016.031504
1016.031504
651.013851
367.877483
148.396492
64.995885
19.144416
11.559725
11.616945
13.760924
20.218492
28.084517
43.233633
58.445930
78.989863
91.887712
103.129745
104.499459
98.530650
86.885691
68.474412
53.891540
36.521554
26.457906
17.718673
13.111830
9.865761
9.531975
8.679628
8.415580
8.271933
8.404851
8.657575
8.208752
8.564591
8.800626
8.762479
8.495450
8.878708
9.052753
8.990765
9.346604
9.809732
##ZVALUE=325
0.341535
0.415444
0.375509
0.425577
0.289679
0.396967
0.409484
0.490546
0.205636
0.357628
0.441670
0.602603
0.452995
0.422597
0.552535
0.452995
0.421405
0.592470
0.579953
0.590682
0.722408
0.495911
0.615716
0.672936
0.673532
0.661612
0.772476
0.864863
0.933409
0.964999
0.945926
0.927448
1.057982
1.058578
1.100898
1.198649
1.545548
1.549721
1.719594
1.971722
2.076626
2.379417
2.745986
3.554821
8.940697
78.760982
207.258463
466.091633
743.779540
1015.947461
1015.947461
1015.947461
1015.947461
1015.947461
1015.947461
1015.947461
1015.947461
750.715733
457.404852
202.587843
94.084740
26.321411
12.294650
9.709001
10.532737
13.493896
18.398762
28.283000
40.526986
59.863925
73.748827
88.104606
97.135901
97.591877
91.941953
78.475475
65.614581
47.595501
35.752654
22.979975
16.477704
11.372566
9.543896
8.506775
8.136630
8.263588
8.132458
8.092523
8.274913
8.073449
8.380413
8.439422
8.916855
8.951426
8.465648
9.093881
##ZVALUE=330
0.507832
0.377893
0.449419
0.428557
0.457764
0.546575
0.387430
0.355840
0.414848
0.317693
0.376701
0.454783
0.399947
0.548959
0.497699
0.437498
0.588894
0.381470
0.747442
0.574589
0.547767
0.740886
0.791550
0.547767
0.760555
0.821948
0.609756
0.918508
0.831485
1.008511
0.772476
1.008511
1.057982
1.034737
1.060963
1.172423
1.138449
1.216531
1.458526
1.577735
1.689792
1.768470
1.920462
2.528429
2.701879
2.877712
4.407763
22.459626
72.358847
223.127604
422.264934
830.397010
1016.031504
1016.031504
1016.031504
1016.031504
1016.031504
1016.031504
1016.032100
942.306519
606.826544
287.516713
143.016577
46.376586
17.348528
9.502769
9.009838
10.342598
12.602806
19.057989
26.907921
40.003657
53.708553
71.784854
82.430840
91.030598
91.905594
84.952712
74.220896
58.862567
45.520663
31.282902
23.153424
16.213655
12.679696
9.756684
9.129643
8.326769
8.366704
7.995963
8.100867
8.012652
7.913709
8.448958
8.450747
8.870959
##ZVALUE=335
0.387430
0.238419
0.183582
0.347495
0.427961
0.347495
0.298619
0.629425
0.541806
0.289679
0.400543
0.459552
0.537634
0.341535
0.539422
0.427961
0.584722
0.519753
0.504851
0.426769
0.496507
0.628829
0.511408
0.402927
0.630617
0.643730
0.572801
0.728965
0.718832
0.557899
0.710487
0.770688
0.697970
0.997782
0.939965
1.026988
1.025796
1.113415
1.146793
1.110435
1.273751
1.322627
1.454949
1.738667
1.904964
1.887679
2.354980
2.597570
3.054738
7.847548
30.561686
128.348470
277.145505
631.353855
988.290906
1016.031504
1016.031504
1016.031504
1016.031504
1016.031504
1016.031504
1016.031504
785.135627
409.313440
209.122896
68.132877
26.008487
10.416508
9.241700
9.201765
10.299683
12.907982
17.585754
27.499795
37.822723
52.138567
64.125657
78.415871
83.878636
84.712505
80.252886
67.730546
58.042407
44.271946
34.350753
22.901893
17.105937
11.695623
10.179877
8.713603
8.161664
7.945895
8.291602
8.279681
8.280873
8.496642
##ZVALUE=340
0.397563
0.458956
0.518560
0.496507
0.416636
0.483990
0.414848
0.386834
0.401735
0.418425
0.405908
0.374913
0.225902
0.305772
0.245571
0.369549
0.477433
0.453591
0.562668
0.349879
0.487566
0.249743
0.562668
0.461936
0.477433
0.535846
0.661612
0.675917
0.597835
0.662804
0.623465
0.555515
0.768900
0.823736
0.812411
0.859499
0.923872
0.811815
0.900626
0.963807
0.905991
0.957847
1.302958
1.152754
1.433492
1.636744
1.557469
1.896620
2.050996
2.375841
2.436638
4.181862
14.263988
77.792406
197.754502
504.423976
862.752795
1016.031504
1016.031504
1016.031504
1016.031504
1016.031504
1016.031504
1016.031504
950.053930
494.821668
269.571543
106.481910
40.149689
12.154579
9.611845
9.105802
9.319782
10.188818
12.068748
17.629862
23.926497
35.312772
46.849847
61.917901
72.117448
79.381466
79.344511
74.375868
66.709518
53.749681
43.508410
31.221509
23.633838
16.717911
12.621880
9.874701
9.061694
8.246899
8.152723
8.028746
##ZVALUE=345
0.365973
0.260472
0.343919
0.325441
0.344515
0.300407
0.296831
0.342727
0.519753
0.462532
0.445843
0.239611
0.382662
0.452995
0.324845
0.275970
0.417829
0.456572
0.364780
0.383854
0.617504
0.501871
0.441670
0.482798
0.588894
0.453591
0.714660
0.528693
0.595450
0.625849
0.610948
0.565648
0.634789
0.552535
0.638962
0.857711
0.844598
0.893474
0.857711
0.938773
0.881553
0.892878
0.927448
1.104474
1.186728
1.204610
1.236796
1.562834
1.447797
1.472831
2.016425
2.186894
2.262592
3.029704
6.084442
43.205619
131.992698
368.018746
649.588704
1016.032696
1016.032696
1016.032696
1016.032696
1016.032696
1016.032696
1016.032696
1016.032696
691.692829
392.723680
155.010819
66.163540
18.616915
10.449886
9.181499
8.912683
8.406639
8.555651
11.248589
14.549494
22.432804
31.544566
45.652986
55.656433
65.750480
72.298646
74.730515
71.653724
64.072609
54.220557
42.532682
33.088923
22.660494
17.390847
12.324452
9.916425
8.810759
##ZVALUE=350
0.284910
0.243783
0.238419
0.515580
0.461936
0.418425
0.437498
0.456572
0.442863
0.351667
0.411868
0.580549
0.372529
0.472665
0.414848
0.363588
0.323653
0.404716
0.370741
0.385642
0.332594
0.527501
0.549555
0.516772
0.611544
0.565648
0.635982
0.476837
0.602603
0.745654
0.469685
0.655651
0.638962
0.720620
0.511408
0.705719
0.763535
0.937581
0.693798
0.878572
0.912547
0.786781
0.806451
1.012683
1.002550
1.085997
1.009703
1.184940
1.290441
1.402497
1.667738
1.778603
1.868606
2.216697
2.192855
2.707839
3.842711
21.284819
73.701739
243.013501
479.855537
957.236886
1016.032696
1016.032696
1016.032696
1016.032696
1016.032696
1016.032696
1016.032696
862.200856
530.643463
244.963765
110.550523
27.868748
11.922717
8.763671
8.314848
7.554889
7.741451
8.368492
10.197759
14.923811
20.240545
28.510690
36.956668
49.606562
57.737827
64.799786
67.778826
66.205859
60.425997
50.097704
41.266680
30.489564
23.052692
16.475916
##ZVALUE=355
0.393987
0.265837
0.307560
0.290871
0.375509
0.262856
0.487566
0.341535
0.455976
0.369549
0.468493
0.420809
0.447631
0.425577
0.476837
0.477433
0.471473
0.519753
0.240803
0.469685
0.480413
0.480413
0.712872
0.451803
0.541806
0.460744
0.554919
0.671744
0.672936
0.713468
0.698566
0.645518
0.564456
0.889897
0.724792
0.652671
0.855923
0.660419
0.810623
0.850558
0.976920
0.871420
0.832677
1.113415
0.893474
0.968575
1.021624
1.039505
1.146793
1.181960
1.293421
1.648664
1.661777
1.762509
1.882911
2.007484
2.308488
2.764463
3.241897
10.565519
39.255619
158.202648
333.048701
720.570683
1016.031504
1016.031504
1016.031504
1016.031504
1016.031504
1016.031504
1016.031504
999.751091
666.221976
295.249820
140.792727
39.438605
14.638901
8.351803
7.948875
7.353425
7.075667
7.103682
7.629991
9.199977
12.112856
17.474890
24.006963
34.098625
42.465925
52.849650
58.418512
62.273741
61.045885
55.752993
48.696995
38.928986
##ZVALUE=360
0.434518
0.440478
0.408888
0.407696
0.385642
0.341535
0.408888
0.482798
0.446439
0.452995
0.363588
0.472665
0.390410
0.523925
0.490546
0.478625
0.438690
0.566840
0.557899
0.427961
0.549555
0.474453
0.534654
0.548959
0.555515
0.521541
0.611544
0.593662
0.438690
0.579953
0.615716
0.668764
0.526905
0.631809
0.705719
0.787973
0.857711
0.685453
0.760555
0.826716
0.937581
0.896454
0.837445
0.984669
1.022816
1.069903
1.009703
1.181960
1.145601
1.114607
1.279712
1.368523
1.413822
1.502633
1.701713
1.797676
2.020597
2.203584
2.384782
2.708435
3.164411
4.186630
21.364689
68.546534
233.367682
469.064713
953.828692
1016.032696
1016.032696
1016.032696
1016.032696
1016.032696
1016.032696
1016.032696
816.089511
484.791994
206.960440
87.993741
22.009611
9.691715
7.969737
7.130504
7.175803
6.629825
6.415844
6.709695
8.027554
10.328889
14.719963
19.687414
28.478503
36.227703
45.531988
51.939487
55.807829
56.170821
##ZVALUE=365
0.359416
0.325441
0.429749
0.537634
0.379682
0.444651
0.402927
0.444651
0.556707
0.405908
0.489950
0.452995
0.576973
0.336766
0.576973
0.527501
0.442863
0.441670
0.653863
0.515580
0.538826
0.492930
0.737906
0.598431
0.488758
0.524521
0.710487
0.577569
0.565648
0.722408
0.712872
0.622869
0.593662
0.485778
0.612736
0.760555
0.671744
0.854731
0.690818
0.709891
0.834465
0.768900
0.919700
1.061559
0.942945
1.090765
1.057982
1.112819
1.115799
1.115799
1.194477
1.243949
1.168847
1.249909
1.408458
1.520514
1.740456
1.799464
1.729727
2.105832
2.264977
2.561808
3.080964
3.454685
7.050633
44.111609
124.580860
351.668596
683.274865
1016.031504
1016.031504
1016.031504
1016.031504
1016.031504
1016.031504
1016.031504
1008.518934
578.619838
309.355855
109.150410
41.734576
11.031628
7.663965
6.719828
6.742477
6.132722
6.068945
5.936623
5.962849
6.841421
8.502603
12.295842
16.531944
24.293661
30.724406
39.333701
##ZVALUE=370
0.454783
0.394583
0.245571
0.392795
0.378489
0.340939
0.345707
0.527501
0.386834
0.286698
0.507832
0.431538
0.405908
0.330806
0.459552
0.472665
0.437498
0.383854
0.474453
0.317693
0.525713
0.392795
0.534654
0.438690
0.440478
0.460744
0.377893
0.567436
0.511408
0.618696
0.513792
0.460744
0.771880
0.507832
0.596642
0.481606
0.574589
0.579953
0.606775
0.623465
0.764728
0.659823
0.685453
0.717640
0.878572
0.755787
0.693798
0.837445
0.745654
0.812411
0.836849
0.863671
0.967979
0.969768
1.109838
1.087785
1.296997
1.287460
1.447797
1.544952
1.623631
1.828671
2.067685
2.311468
2.350807
2.882481
4.794598
17.321706
96.901655
242.537856
596.321821
964.172482
1016.032696
1016.032696
1016.032696
1016.032696
1016.032696
1016.032696
1016.032696
733.503699
329.058766
160.946846
55.494905
20.883679
7.906556
6.865859
6.081462
5.870461
5.632639
5.491972
5.372763
5.405545
6.289482
7.517934
11.064410
14.344454
##ZVALUE=375
0.238419
0.345707
0.251532
0.334978
0.197887
0.354648
0.395775
0.300407
0.361800
0.355840
0.394583
0.459552
0.455976
0.361800
0.348687
0.473857
0.362992
0.420809
0.412464
0.275970
0.220537
0.353456
0.390410
0.420809
0.471473
0.465512
0.387430
0.433922
0.258684
0.615716
0.504851
0.389814
0.597835
0.656843
0.481606
0.540614
0.568628
0.578761
0.545979
0.574589
0.612736
0.619888
0.551939
0.757575
0.522733
0.645518
0.761747
0.708699
0.688434
0.642538
0.839829
0.761747
0.892878
1.021624
1.068711
0.939965
0.914931
1.176000
1.306534
1.147985
1.200438
1.489520
1.383424
1.500845
1.710653
1.910925
2.170801
2.669692
3.692508
10.199547
60.631633
154.634714
401.730537
724.384785
1016.031504
1016.031504
1016.031504
1016.031504
1016.031504
1016.031504
1016.031504
954.436660
510.165691
280.793905
101.687908
40.154457
10.991693
6.848574
6.018877
5.788803
5.370975
5.215406
5.053878
5.036592
5.198717
5.444884
##ZVALUE=380
0.483990
0.525713
0.392795
0.533462
0.454783
0.320673
0.350475
0.435710
0.346899
0.367761
0.508428
0.352859
0.443459
0.408888
0.497699
0.569820
0.442863
0.428557
0.377893
0.267625
0.336766
0.363588
0.458956
0.494719
0.595450
0.424981
0.554919
0.645518
0.426769
0.625849
0.353456
0.475645
0.598431
0.456572
0.687838
0.670552
0.671744
0.574589
0.762939
0.567436
0.662804
0.728965
0.684857
0.659823
0.686646
0.549555
0.794530
0.768900
0.769496
0.765920
0.787973
0.731945
0.789762
0.935793
0.780821
0.998974
1.003742
0.905991
1.088977
1.063943
1.131892
1.305938
1.301765
1.278520
1.442432
1.465678
1.938939
2.194643
2.390742
2.786517
3.470778
4.972816
27.606487
89.123845
281.997919
533.853769
990.937948
1016.145945
1016.145945
1016.145945
1016.145945
1016.145945
1016.145945
1016.145945
699.801445
398.588777
154.496431
65.694451
15.827417
7.513762
5.710721
5.381703
5.683899
5.112886
5.084872
4.830956
##ZVALUE=385
0.220537
0.209808
0.192523
0.213981
0.328422
0.465512
0.361800
0.322461
0.111461
0.339746
0.204444
0.233650
0.200868
0.428557
0.345707
0.285506
0.282526
0.328422
0.291467
0.345707
0.251532
0.314713
0.569820
0.195503
0.409484
0.376701
0.455976
0.322461
0.338554
0.308752
0.390410
0.233650
0.260472
0.342727
0.377893
0.553727
0.358820
0.448823
0.515580
0.444651
0.456572
0.475645
0.523925
0.528693
0.478625
0.591874
0.486970
0.509620
0.529885
0.597835
0.406504
0.602603
0.691414
0.618696
0.641942
0.829697
0.626445
0.692606
0.792742
0.906587
0.985861
1.002550
0.970960
1.049638
1.166463
1.235604
1.383424
1.776814
1.782775
1.865625
2.227426
2.633929
2.848506
3.359914
9.614825
59.660673
161.173940
422.656536
764.718652
1016.030908
1016.030908
1016.030908
1016.030908
1016.030908
1016.030908
1016.030908
978.845954
518.773794
281.290412
106.683969
39.632916
9.512901
6.238818
5.271435
5.053878
4.838705
##ZVALUE=390
0.324845
0.390410
0.274777
0.401735
0.430942
0.370741
0.385642
0.250936
0.358820
0.334978
0.371933
0.425577
0.331998
0.259876
0.518560
0.402927
0.303984
0.328422
0.426769
0.258684
0.378489
0.389814
0.296831
0.348687
0.304580
0.290871
0.486970
0.460744
0.478625
0.530481
0.333786
0.501871
0.486970
0.402927
0.323653
0.513792
0.460744
0.488758
0.499487
0.618696
0.527501
0.687838
0.684857
0.559688
0.611544
0.492930
0.557899
0.573993
0.636578
0.613928
0.471473
0.711679
0.786781
0.771880
0.835657
0.796914
0.710487
0.805855
0.800490
0.857711
0.867844
0.865459
0.936985
1.012683
1.094937
1.214743
1.433492
1.455545
1.636744
1.893640
2.146959
2.311468
2.319813
2.545714
2.630949
3.027916
5.046725
31.010509
102.418661
317.331553
605.407953
1016.106009
1016.106009
1016.106009
1016.106009
1016.106009
1016.106009
1016.106009
1016.105413
742.184520
413.070917
163.425803
69.496632
16.961694
7.062554
5.477667
##ZVALUE=395
0.257492
0.310540
0.220537
0.251532
0.270605
0.291467
0.177622
0.266433
0.386834
0.279546
0.198483
0.238419
0.195503
0.262856
0.340939
0.231862
0.194907
0.309944
0.301600
0.220537
0.172853
0.359416
0.423789
0.439882
0.204444
0.346899
0.422597
0.338554
0.480413
0.347495
0.371933
0.291467
0.335574
0.232458
0.355840
0.549555
0.480413
0.542998
0.373721
0.416636
0.567436
0.523925
0.360608
0.613928
0.561476
0.303984
0.573993
0.525713
0.632405
0.644922
0.646710
0.518560
0.701547
0.531673
0.552535
0.625849
0.655651
0.629425
0.659823
0.779629
0.602603
0.822544
0.836849
0.980496
0.955462
1.065731
1.227856
1.330972
1.467466
1.673698
1.749992
1.990795
2.033710
1.911521
1.885891
1.940727
2.226830
2.643466
3.264546
18.015504
71.350932
246.874690
461.089611
871.640444
1016.031504
1016.031504
1016.031504
1016.031504
1016.031504
1016.031504
1016.031504
947.523713
566.154718
230.766535
104.849935
30.846000
##ZVALUE=400
0.347495
0.247955
0.288486
0.320673
0.182986
0.217557
0.040531
0.188947
0.275970
0.211596
0.113845
0.281930
0.189543
0.319481
0.246763
0.385642
0.140667
0.250936
0.236630
0.139475
0.285506
0.258684
0.313520
0.404716
0.395775
0.324845
0.138879
0.195503
0.359416
0.305772
0.304580
0.387430
0.256896
0.269413
0.285506
0.389814
0.265837
0.408888
0.354648
0.479817
0.310540
0.415444
0.275970
0.469685
0.430942
0.496507
0.409484
0.551939
0.547767
0.540614
0.594854
0.514984
0.650883
0.560880
0.589490
0.645518
0.686646
0.567436
0.594854
0.583529
0.703931
0.645518
0.856519
0.903606
1.050830
0.828505
1.349449
1.297593
1.492500
1.548529
1.754761
1.536608
1.583695
1.623631
1.743436
1.846552
1.877546
1.982450
2.114773
2.661943
2.976656
5.518794
102.244616
127.834678
500.103831
642.312765
1016.031504
1016.031504
1016.031504
1016.031504
1016.031504
1016.031504
1016.031504
1016.031504
446.779728
346.760750
##END
