##TITLE=AAI0501
##FORMAT=SPECTACLE-ASCII V-1.2
##DATA TYPE=ULTRAVIOLET SPECTRUM
##SECOND TYPE=ULTRAVIOLET SPECTRUM
##DATE=04/30/18
##TIME=15:20:19
##SPECTROMETER/DATA SYSTEM=SPECTACLE
##XUNITS=NM EM
##YUNITS=ENERGY
##YFACTOR=1
##FIRSTX=220
##LASTX=410
##NPOINTS=96
##3DDATA=Equidistant
##ZUNITS=NM EX
##FIRSTZ=210
##LASTZ=400
##ZPOINTS=39
##XYDATA=(Y..Y)
##ZVALUE=210
3.314614
3.466606
3.329515
3.276467
2.794862
3.738999
3.575683
3.367662
2.814531
3.104806
2.973676
2.119541
2.456903
1.887679
2.080798
2.186894
2.291799
2.109408
2.428889
3.883839
3.043413
3.129840
3.157854
3.086925
4.763603
4.300475
3.857613
4.202724
3.607869
4.340410
4.922748
5.292892
4.467964
4.378557
6.076694
5.216599
5.321503
5.423427
5.563498
5.971789
5.323887
6.684661
5.190969
6.642938
5.308986
6.446838
7.155538
6.245971
6.515980
6.612539
7.389784
6.665587
7.181764
7.193685
7.754564
7.144809
7.408857
7.929802
6.429553
7.152557
6.963611
8.393526
7.621646
8.504987
7.770658
8.368492
9.174943
10.141730
10.229945
13.929605
15.917420
20.021796
21.960735
24.312735
26.657581
27.434826
29.468536
29.510856
29.559731
27.430654
24.786592
20.666718
19.109845
17.075539
13.313890
11.216998
9.896755
9.024739
8.780956
7.360578
7.338524
8.802414
8.550882
9.011626
8.797646
9.493828
##ZVALUE=215
13.604760
13.809800
11.998415
10.334849
9.235740
6.835461
6.785989
7.662773
7.948875
7.310510
6.936789
6.771684
4.058480
4.335642
3.334880
3.033876
2.775788
3.484488
3.166795
3.013611
3.819466
3.660917
4.244447
4.728436
4.497766
5.000830
4.617572
5.128980
5.660653
5.235672
5.925894
6.499887
6.479621
5.600452
6.173849
6.660819
6.854534
7.087588
6.066561
6.686449
7.701516
7.679462
7.321835
7.694960
8.373857
7.841587
7.469654
8.428693
7.823706
8.189678
8.817911
8.806586
8.468628
9.069443
7.976890
7.923841
9.939671
8.795857
9.624958
8.366704
9.391904
10.831952
9.682775
9.955764
11.216998
10.185838
10.409951
13.177991
13.182759
15.439987
17.651916
21.520853
24.650693
24.613738
28.568506
28.339624
27.758479
27.839541
27.919412
28.329492
25.760531
21.062493
20.561814
15.036464
14.735460
13.487935
12.175441
11.008978
10.286570
9.383559
9.253621
10.344982
9.813905
9.558797
9.383559
10.955930
##ZVALUE=220
42.451620
41.229725
43.923855
41.812658
39.284825
31.083822
24.940968
18.871427
14.906526
15.214682
15.143752
15.746951
14.228821
14.550686
10.503531
8.238554
6.832480
6.121993
4.014969
4.418492
4.236698
4.383922
4.228950
4.936457
4.538894
6.276965
5.320907
6.315708
5.972981
7.247925
5.290508
7.412434
6.781816
7.296801
6.559491
7.041693
7.615685
8.000731
8.869767
8.363724
7.786751
8.754730
8.107424
8.259416
9.795427
8.639693
9.575486
9.724498
9.891987
9.718537
9.163618
10.251999
10.003448
10.660887
10.275841
10.874867
10.127425
10.139942
11.184812
9.800792
12.019873
10.815859
10.115504
10.407567
11.280775
11.650920
12.248755
13.241768
14.676452
17.989874
19.623637
22.340417
25.185943
29.752851
29.696822
28.956532
31.304955
28.797984
26.681423
25.990605
25.977492
22.431612
20.551682
18.338561
16.263723
14.659762
13.040900
10.999441
10.968447
9.946823
9.655952
10.226965
10.695457
11.078715
10.185838
9.433627
##ZVALUE=225
69.860816
71.438551
94.013810
105.642676
114.816427
112.926960
103.983879
78.593493
59.505701
42.471886
32.493472
27.553439
29.688478
30.705929
30.646920
26.534796
23.664832
17.165542
13.909936
9.753704
7.790923
5.366802
5.473495
5.370975
5.611777
5.309582
6.353855
6.128550
6.535649
7.311702
7.212758
7.470846
7.716417
8.526444
7.989407
8.304715
8.893609
9.013414
9.687543
10.145903
9.458661
10.643601
9.042621
10.082722
10.050535
9.614825
9.473562
11.902452
11.032820
9.906888
11.603832
10.688901
9.156466
11.590719
11.186600
11.502504
11.804700
12.384653
11.214614
11.231899
12.098551
12.881756
11.589527
11.759996
13.110638
12.707710
12.097955
12.968779
15.185475
16.946793
20.509958
22.569895
25.656819
28.304458
29.913783
29.784441
27.358532
29.199719
26.809573
26.887655
22.599697
20.557642
17.321706
18.146634
16.286969
15.204549
13.524890
13.102889
12.999773
12.107491
12.690425
10.769963
11.108518
12.460947
11.922717
12.760758
##ZVALUE=230
56.996942
60.413480
93.010664
151.096582
198.154449
236.407518
254.519582
244.181752
223.958492
185.152888
129.143000
91.370940
58.893561
52.767992
53.649545
52.102804
56.760907
51.348805
48.711896
38.719773
28.217435
18.162727
13.857484
8.604527
7.611513
6.981492
6.623864
5.844831
7.612705
7.992983
7.858872
8.386970
8.439422
9.085536
7.922649
9.233952
10.027885
10.465980
9.456873
10.846853
10.622740
10.385513
9.591579
11.811852
11.081696
10.129809
11.024475
11.472702
11.540651
12.599826
11.421442
11.278987
11.980534
13.087988
12.548566
12.981892
11.908412
12.312531
13.462901
14.511943
13.259649
12.840629
13.020635
14.403462
14.784932
15.339851
14.951825
16.445518
18.006563
20.655990
21.757483
24.773479
26.279688
30.187964
28.165579
30.806661
30.524731
29.400587
28.683543
24.552941
24.200678
22.304654
20.194650
19.691586
18.089414
15.878677
14.096498
15.220642
15.113950
14.869571
14.952421
14.409423
15.107989
15.168786
13.829470
13.468862
##ZVALUE=235
17.438531
19.213557
44.810772
101.792812
160.936713
259.663463
329.357982
421.013832
458.822846
460.466743
410.417914
334.984660
231.127739
164.956450
108.679533
85.874796
77.598691
81.073642
86.704493
85.204840
76.247454
65.122843
52.926540
37.570596
27.652979
16.575456
12.559891
8.926988
8.283854
7.643700
9.983778
8.824468
8.831620
9.678602
10.187626
9.500980
9.378791
10.088682
9.191632
9.775758
9.838939
10.495782
11.078715
10.813475
11.777878
10.992885
11.922717
10.709763
12.255907
11.420846
12.579560
11.634827
12.719631
12.423992
12.421608
13.072491
13.652444
13.967752
13.814569
13.609529
14.474988
15.013814
15.288591
16.051531
15.776753
15.719533
17.068982
16.357899
19.021630
22.341609
25.244951
24.328828
29.651523
29.366612
31.369925
30.721426
31.524897
31.633973
28.799772
27.232766
26.689768
24.043918
23.118854
19.809604
19.782782
19.039512
18.078685
16.067624
16.393661
15.868545
16.976595
16.712546
17.062426
16.252995
17.948747
15.615821
##ZVALUE=240
2.345443
2.531409
7.656813
22.320747
63.653588
117.429495
230.064988
350.240469
508.446693
612.926483
697.530508
695.676804
652.601719
523.852706
397.641659
257.121921
178.367496
120.226741
100.081563
99.115968
113.855600
116.180778
115.358829
102.759600
85.669756
67.591667
46.052933
33.302903
19.847751
14.561415
10.761619
10.204911
9.145737
8.941889
9.421706
9.351969
9.615421
9.047985
11.484623
9.661913
9.723902
10.388494
9.854436
10.541677
10.987520
10.245442
11.527538
11.641979
11.609793
11.267662
11.894703
11.188984
12.194514
12.221932
12.294650
13.083816
12.950897
13.279915
13.820529
13.975501
14.472604
14.673471
15.261769
15.738606
15.077591
16.215444
17.051697
18.433928
19.847751
23.340583
23.145676
26.772618
28.812885
32.286644
34.721494
32.527447
33.859611
31.826496
28.161407
27.974844
24.928451
26.068687
23.303628
23.130774
20.673871
19.760728
18.944740
17.145872
18.468499
19.557476
18.645525
17.338991
19.162893
19.408464
18.898845
20.095706
##ZVALUE=245
1.859665
1.711845
1.813769
1.605749
5.174875
15.553832
48.502684
107.508898
240.292549
363.327861
560.722947
695.033669
803.248882
847.692490
815.115571
690.063834
551.893711
370.039940
253.264904
149.771571
115.183592
103.571415
113.141537
124.929547
128.924847
124.148726
111.558437
95.790625
74.054003
52.682757
37.838817
23.271441
15.573502
11.320710
8.466840
8.247495
8.954406
8.536577
8.381605
10.099411
9.357929
8.861423
8.633733
9.409785
8.908510
9.038448
8.620620
10.054708
9.609461
10.436773
11.247993
10.917783
10.936856
10.297894
10.719895
11.718869
12.003779
11.315942
11.277795
12.027621
12.383461
13.412833
12.787580
12.829900
14.079809
15.000701
15.931726
16.641617
17.581582
19.477606
20.682812
24.665594
24.505854
27.037859
29.365420
27.922988
26.975870
29.085875
25.086999
25.016665
25.012493
23.651719
22.094846
20.137429
19.248724
18.463731
18.262863
18.312931
17.031431
16.753674
16.869903
17.901659
16.644597
17.409921
16.813874
17.267466
##ZVALUE=250
1.491904
1.250505
1.551509
1.747608
1.980662
2.308488
2.812743
12.036562
35.145879
80.149770
203.405619
342.084765
580.056906
741.139650
916.137695
995.465517
981.431007
903.518796
785.107613
543.723702
364.869833
202.000737
135.037899
98.923445
102.296472
122.905970
132.574439
137.489438
132.921934
119.430423
102.966428
76.739788
56.314468
34.263730
23.514628
14.931560
10.694861
9.290576
8.076429
8.718967
8.378625
8.788705
8.387566
8.858442
8.819699
9.010434
9.338856
9.359717
9.342432
9.493828
9.707808
9.456873
10.089874
9.685755
10.362864
10.690689
11.148453
10.420680
10.979772
10.674596
10.876656
11.399984
11.896491
13.208985
11.855960
12.190938
13.703704
14.104843
16.005635
18.067956
19.075871
22.913814
22.552609
23.946762
24.963617
25.150776
24.161935
24.311543
22.413731
20.423532
20.281672
19.100904
19.629598
18.219948
17.411709
16.714931
16.478896
16.319752
15.349984
15.837550
15.339851
15.286803
15.662909
16.775727
16.191602
15.849471
##ZVALUE=255
1.480579
1.364946
1.253486
1.490712
1.423955
1.765490
1.694560
2.002716
2.225637
5.368590
27.021766
69.299936
146.407485
311.382413
485.740900
745.257735
926.754475
1016.031504
1016.031504
1016.031504
942.544937
751.840472
472.734571
301.450491
154.874921
109.328628
93.510747
102.962852
123.265982
138.973594
145.588517
140.820742
128.686428
105.507970
85.505843
56.780577
38.185716
23.372769
16.846657
10.457635
9.030700
8.181930
8.799434
8.908510
8.434653
8.365512
8.725524
8.663535
9.073615
9.646416
9.476542
8.997917
8.822680
9.740591
9.281635
9.348989
10.596514
10.050535
10.162592
10.398626
10.221601
11.071563
11.467934
11.336803
11.074543
11.182427
12.364984
12.642741
14.421940
14.979839
16.481876
18.981695
19.206405
19.436479
20.348430
21.340847
20.904541
19.184947
18.889904
18.070936
19.137859
16.787648
15.531778
15.460849
14.765859
13.984442
14.528632
14.034510
14.335513
14.596581
15.037656
15.134811
13.744831
14.825463
14.663935
15.795827
##ZVALUE=260
0.933409
1.320839
1.199841
1.074672
1.411438
1.409650
1.342893
1.631975
1.411438
1.492500
2.052784
2.900958
10.142922
47.071576
104.424953
257.336497
421.788692
697.155595
928.310752
1016.031504
1016.031504
1016.031504
1016.031504
953.094959
630.263686
428.425670
239.900947
144.765973
89.179873
86.927414
99.605918
126.592517
142.159462
152.285695
151.151419
134.164691
112.327933
84.724426
62.137842
38.116574
26.902556
15.696883
11.371970
9.880662
8.495450
8.982420
8.621812
9.442568
8.636713
9.217858
9.211898
9.585619
8.813739
8.917451
9.471774
9.458661
9.248853
10.202527
9.984970
10.242462
10.542870
10.586977
11.055470
10.633469
10.501742
11.192560
11.426806
12.137890
13.526678
14.648438
14.631748
15.922785
16.823411
18.098950
19.261837
18.897653
18.224716
18.194914
17.208457
15.966892
16.015768
15.046000
14.379621
12.614727
13.145804
13.243556
13.891459
13.147593
13.368726
13.604760
12.819767
13.212562
13.153553
13.992786
13.701916
14.235973
##ZVALUE=265
1.073480
1.072884
1.043677
1.186728
1.053810
1.170635
1.056790
1.387596
1.501441
1.115799
1.854897
2.120733
1.773834
2.249479
5.834699
31.512976
78.213811
203.228593
364.964008
675.631762
950.194001
1016.031504
1016.031504
1016.031504
1016.031504
1016.031504
842.728615
589.025617
324.083567
193.260908
115.082860
77.070594
82.529783
111.096501
131.619573
151.386857
157.413483
150.851607
138.157606
110.683441
86.073875
58.615804
40.947795
25.065541
16.901493
11.375546
10.188818
9.798408
9.462833
9.479523
9.695888
9.913445
9.800792
10.269880
9.654760
9.554625
10.005832
10.026693
9.917617
9.475946
9.952784
9.411573
9.826422
9.949803
10.962486
10.175705
11.459589
11.368990
11.508465
13.589859
13.952851
15.010834
15.974641
16.386509
16.895533
16.468763
15.883446
15.540719
15.176535
14.534593
14.129877
13.015866
12.869835
12.197495
12.286901
12.392998
13.039708
11.748672
12.515783
11.929870
12.939572
13.376474
13.559461
13.616681
13.759732
12.823939
##ZVALUE=270
0.785589
1.016855
0.872612
0.887513
1.138449
1.031756
1.125932
1.339912
1.419783
1.252890
1.414418
1.546741
1.664758
1.903772
2.010465
2.090931
2.690554
13.711452
42.034984
141.450763
289.197564
514.815450
911.095738
1016.031504
1016.031504
1016.031504
1016.031504
1016.031504
1016.031504
813.370943
550.418496
285.545588
159.097910
78.198910
65.395832
86.016655
109.008551
136.742592
152.954459
160.071850
152.962804
137.008429
116.065741
86.599588
64.048767
39.651990
28.393865
17.461777
13.109446
11.056662
11.360645
10.363460
10.130405
10.147691
10.165572
9.859800
10.394454
10.192990
10.147691
10.604858
9.650588
10.185838
10.016561
9.918809
9.969473
10.635853
10.515451
11.639595
11.889935
12.608767
13.034940
13.795495
15.100837
15.401840
15.614629
15.565753
14.522672
14.780760
14.538765
12.979507
12.167692
12.456775
11.899471
11.628866
11.515617
11.207461
10.903478
11.535883
10.984540
12.059808
11.298656
11.798739
12.267828
13.075471
12.359619
12.720823
##ZVALUE=275
0.814795
0.806451
0.893474
0.754595
0.921488
0.932813
1.056790
1.047850
0.931621
1.122952
1.211762
1.132488
1.327991
1.278520
1.474619
1.578927
2.049804
1.968741
2.430677
6.368756
25.569797
77.810884
230.744481
436.598659
833.429694
1016.032696
1016.032696
1016.032696
1016.032696
1016.032696
1016.032696
1016.032696
764.771104
406.218767
232.372880
105.415583
64.506531
64.225793
82.185864
109.697580
132.739544
151.965618
159.427524
150.221586
138.015747
108.592510
88.184476
62.765479
45.576692
28.619766
19.964576
13.926625
11.321902
10.984540
10.303855
10.454655
10.128617
10.343790
10.470748
10.330677
10.060668
10.084510
9.783506
9.682775
9.975433
10.446906
11.005998
10.465980
11.191964
12.037754
12.779832
13.874769
14.119744
15.184879
15.363693
15.135407
14.354587
14.155507
13.479590
12.047887
12.471676
11.414886
11.990666
10.880828
11.189580
10.446906
11.161566
10.976791
10.483861
11.850595
11.502504
11.410713
11.401772
11.748672
11.931658
12.670755
##ZVALUE=280
0.939965
0.815988
0.666976
0.742674
0.907779
0.832677
0.822544
1.005530
1.152754
0.857711
1.101494
0.875592
1.023412
1.334548
1.332760
1.391768
1.489520
1.415610
1.736879
1.895428
2.171993
3.109574
19.426942
62.214732
146.569610
358.778834
606.795549
995.572805
1016.031504
1016.031504
1016.031504
1016.031504
1016.031504
1016.031504
932.796001
532.650948
316.969752
134.332776
71.201921
48.128963
58.470964
85.876584
107.984543
133.165717
148.440003
154.633522
149.662495
134.273767
114.132762
83.674788
64.402819
41.847825
29.113889
18.563867
13.181567
10.942817
10.751486
9.935498
9.915829
9.822845
9.673834
8.904934
9.896755
10.019541
9.719729
10.068417
10.020733
10.708570
10.240674
11.437535
12.163520
12.814999
13.169646
13.651848
13.199449
13.631582
13.454556
12.911558
12.719631
11.826754
11.518598
10.732412
10.810494
10.999441
10.483861
10.618567
10.277629
10.621548
10.265708
10.472536
10.495782
11.029840
11.044741
11.534691
11.317730
11.890531
##ZVALUE=285
0.615716
0.706911
0.735521
0.788569
0.719428
0.739694
0.715852
0.701547
0.854731
0.814795
0.846982
1.082420
0.999570
1.380444
1.151562
1.232624
1.245737
1.268983
1.528859
1.541972
1.468658
1.963973
2.259612
2.638698
8.737445
30.061603
103.176832
220.856667
493.515730
778.819919
1016.025543
1016.025543
1016.025543
1016.025543
1016.025543
1016.025543
1016.025543
735.249519
455.368757
212.934613
106.760859
45.557618
38.920641
56.860447
77.579618
106.114745
123.791695
143.146515
148.678422
143.235922
133.585930
108.798742
88.721514
61.557889
44.621825
27.075410
18.407702
13.315678
10.389686
9.712577
9.331703
9.416938
9.095669
9.439588
9.442568
9.370446
9.275675
10.238886
9.855628
10.618567
11.064410
11.925697
11.855960
13.017654
12.855530
12.273788
11.762977
11.417866
11.219978
10.742545
10.369420
10.112524
10.126829
10.063648
10.004640
9.654760
9.626746
9.859800
10.011792
10.537505
10.027885
10.388494
10.789633
10.842681
11.125803
11.111498
##ZVALUE=290
0.746846
0.592470
0.712872
0.713468
0.876784
0.653863
0.699759
0.683665
0.751615
0.849962
0.985861
1.034737
1.112819
0.957847
1.226664
1.102686
1.111627
1.211762
1.190901
1.404881
1.569986
1.592636
1.749992
1.859665
2.374649
2.655983
4.420877
17.926693
74.595809
164.497495
313.192606
640.614033
968.192816
1016.036868
1016.036868
1016.036868
1016.036868
1016.036868
1016.036868
986.057520
663.071871
318.349600
163.370967
59.384704
33.009648
37.052631
50.605536
74.257851
94.665885
120.516419
137.383938
145.983696
142.173767
129.581690
111.330748
81.814528
61.389804
41.010976
28.322935
17.859936
12.594461
9.994507
8.961558
8.512735
8.648634
8.873940
8.288622
8.926988
9.175539
9.986758
11.289716
11.270642
11.694431
12.289882
11.966825
11.507869
11.367798
10.912418
10.418892
9.871721
10.031462
9.732842
9.379983
9.670854
9.634495
9.684563
9.785891
9.859800
9.758472
10.099411
9.743571
9.547472
10.206699
10.279417
10.207891
10.684729
##ZVALUE=295
0.577569
0.611544
0.739694
0.651479
0.597835
0.871420
0.720620
0.666976
0.524521
0.965595
0.697970
0.822544
0.849962
0.997782
0.698566
0.913739
0.923872
1.094937
1.128912
1.001954
1.251698
1.390576
1.513958
1.707673
1.545548
1.671910
2.181530
2.335906
3.057718
6.563663
44.838786
120.726824
251.442790
550.325513
866.408944
1016.028523
1016.028523
1016.028523
1016.028523
1016.028523
1016.028523
1016.028523
863.212943
435.224771
228.765607
80.612898
37.596822
24.458766
30.750632
49.547553
66.603422
90.554953
110.807419
129.200816
137.718916
134.530663
122.838616
101.053715
82.128644
57.669878
41.322708
25.480986
17.908812
12.054443
9.788871
8.386970
8.616447
8.128881
8.449554
9.063482
9.347796
10.119677
10.503531
10.336637
10.491610
11.303425
10.444522
10.111928
9.800792
9.931922
9.556413
8.984804
9.106994
9.030700
9.426475
8.872747
9.415746
9.014606
9.273887
9.498596
9.462833
8.863807
9.749532
9.708405
9.628534
9.997487
##ZVALUE=300
0.560880
0.635982
0.582933
0.606775
0.575781
0.513792
0.492930
0.793934
0.545979
0.692606
0.694990
0.886917
0.741482
0.833869
0.646710
0.992417
0.913739
0.824928
0.980496
1.124740
0.955462
1.228452
1.223683
1.269579
1.480579
1.759529
1.588464
1.926422
1.812577
2.161860
2.486706
3.171563
17.452836
68.555474
214.405656
393.572450
760.896802
1016.031504
1016.031504
1016.031504
1016.031504
1016.031504
1016.031504
1016.031504
1016.032100
713.856816
348.434448
175.697803
56.412816
25.708675
20.775795
27.913451
44.491887
60.093999
85.054636
104.538798
122.668743
129.544735
128.902793
118.927956
100.746751
80.882907
57.707429
42.818785
26.574731
18.484592
12.259483
9.221435
8.905530
8.659959
9.232759
9.572506
10.110736
10.451674
9.704828
10.133982
9.864569
9.464622
9.205937
8.981824
8.965731
8.787513
8.625984
8.740425
8.745790
8.845925
8.593798
8.946657
9.067655
8.847713
9.314418
9.027719
8.959770
9.216666
9.349585
9.005666
##ZVALUE=305
0.528693
0.699759
0.697970
0.682473
0.531673
0.630617
0.704527
0.660419
0.653863
0.711679
0.695586
0.606775
0.807643
0.580549
0.811815
0.691414
0.888705
0.814795
0.769496
0.822544
0.854731
0.998974
1.017451
1.226664
1.083612
1.494884
1.437664
1.468658
1.784563
1.911521
1.794696
2.164841
2.522469
2.950430
7.959604
60.758591
165.441632
413.720608
680.615902
1016.031504
1016.031504
1016.031504
1016.031504
1016.031504
1016.031504
1016.031504
1016.031504
850.135684
525.444746
231.111646
106.408596
32.093525
16.362667
18.511415
26.156902
41.284561
58.022738
80.352426
98.470449
115.941763
123.111606
121.198893
113.747716
95.574856
78.275800
54.330826
39.197803
25.309920
17.467737
12.258887
10.070801
9.745955
9.633899
9.632707
9.730458
9.210706
9.209514
8.943677
9.073615
8.751750
8.455515
8.674860
8.220673
8.551478
8.582473
8.378625
8.803606
8.735657
8.643866
8.963943
8.865595
9.035468
8.943677
9.099841
9.029508
9.224415
##ZVALUE=310
0.502467
0.692606
0.608563
0.483990
0.517964
0.588894
0.397563
0.605583
0.493526
0.640750
0.653863
0.669956
0.645518
0.680685
0.556707
0.589490
0.635982
0.821948
0.772476
1.002550
0.881553
0.776649
0.977516
1.132488
0.841618
1.199841
1.357794
1.260638
1.600981
1.415610
1.655817
1.709461
2.165437
2.280474
2.572536
2.627969
4.461408
20.590425
121.839643
282.003880
628.811717
968.995690
1016.031504
1016.031504
1016.031504
1016.031504
1016.031504
1016.031504
1016.031504
1016.032100
659.389496
386.143923
158.741474
67.552924
20.542741
13.817549
16.916990
23.044944
35.605431
49.830675
71.402788
87.992549
106.235743
115.549564
115.971565
108.842850
91.838837
77.825785
53.414702
40.371418
26.101470
19.342899
13.939738
11.425614
9.718537
9.693503
8.895993
8.555651
8.451939
8.505583
8.374453
8.438826
8.363724
8.438826
8.903742
8.652806
8.937716
9.083748
8.809566
8.870959
8.880496
8.909702
9.167790
9.365678
8.758903
9.268522
##ZVALUE=315
0.415444
0.539422
0.603795
0.620484
0.444651
0.573993
0.498891
0.503659
0.514984
0.646710
0.684857
0.592470
0.532866
0.621676
0.566840
0.567436
0.597835
0.785589
0.811815
0.775456
0.840425
0.789762
0.981688
1.025796
1.056790
0.883937
1.087785
1.345873
1.186728
1.303554
1.395941
1.484752
1.467466
1.710653
1.733899
1.979470
1.999736
2.516508
2.944469
7.728934
35.374761
162.940025
362.860560
785.861611
1016.031504
1016.031504
1016.031504
1016.031504
1016.031504
1016.031504
1016.031504
1016.031504
960.870981
518.382788
282.920599
94.503760
35.145879
13.051629
12.089610
15.827417
21.225810
34.157634
46.311617
67.142844
82.603693
99.015832
107.770562
109.730959
102.189779
87.053776
73.626637
54.668784
40.438771
26.033521
19.031763
13.468862
10.825992
9.236932
8.304715
8.336902
8.364916
7.949471
7.953644
8.240938
8.417964
8.418560
8.644462
8.670688
8.710623
9.117723
9.154677
9.451509
8.957982
8.888841
9.143949
8.978844
##ZVALUE=320
0.620484
0.614524
0.672936
0.616908
0.602603
0.740886
0.583529
0.715852
0.760555
0.633597
0.569820
0.655651
0.715852
0.549555
0.649691
0.576973
0.684857
0.653863
0.721812
0.708699
0.773668
0.842810
0.887513
0.811815
1.018643
0.908971
1.039505
1.103878
0.956655
1.201630
1.119971
1.403689
1.181960
1.323819
1.460910
1.632571
1.871586
1.944900
2.159476
2.591610
3.008842
4.065633
13.856888
92.839599
242.747664
636.349916
997.901559
1016.031504
1016.031504
1016.031504
1016.031504
1016.031504
1016.031504
1016.031504
1016.031504
727.659464
407.869816
158.028603
66.437721
19.492507
11.492968
11.547804
13.715625
20.286441
28.340816
44.401884
59.159994
78.881979
91.765523
103.986859
105.955601
99.260807
87.979436
69.364905
54.388642
36.963820
26.512742
17.504692
12.959838
9.969473
8.889437
8.355975
8.575916
8.307695
8.453727
8.200407
8.293986
8.383989
8.738637
8.543730
8.874536
9.232759
8.850694
8.776784
9.326935
9.074807
##ZVALUE=325
0.467896
0.499487
0.526905
0.466704
0.543594
0.630617
0.575781
0.460744
0.508428
0.509620
0.539422
0.590682
0.427961
0.526905
0.590682
0.514984
0.598431
0.571609
0.656843
0.647902
0.762939
0.740886
0.604987
0.689626
0.802875
0.866652
0.789762
0.739694
0.981688
0.952482
0.776649
1.127720
1.210570
1.439452
1.229644
1.489520
1.461506
1.663566
1.645684
1.923442
2.115965
2.462864
2.756715
3.437996
6.703734
49.364567
143.346786
404.785872
749.237537
1016.031504
1016.031504
1016.031504
1016.031504
1016.031504
1016.031504
1016.031504
1016.031504
839.185715
506.424904
217.196941
99.071860
26.758909
12.513995
10.254979
10.964870
13.972521
18.742681
29.814839
42.332411
61.232448
75.056553
90.443492
97.845793
98.945498
92.586875
78.522563
65.860748
47.385693
35.124421
22.781491
16.864538
11.832714
10.237694
8.784533
8.697510
8.482933
8.514524
8.628964
8.547902
8.640885
8.796453
8.763671
9.029508
9.029508
8.998513
9.287000
##ZVALUE=330
0.540614
0.488758
0.586510
0.656843
0.403523
0.498891
0.436902
0.476837
0.379682
0.466704
0.575781
0.645518
0.490546
0.477433
0.673532
0.586510
0.420809
0.638962
0.520945
0.673532
0.722408
0.674725
0.815988
0.797510
0.697970
0.612736
0.785589
0.735521
0.755787
0.909567
1.003742
0.982881
0.907779
1.003742
1.275539
1.163483
1.281500
1.220703
1.383424
1.645684
1.680851
1.757741
1.918674
2.271533
2.627969
2.973676
3.925562
17.714500
64.262748
235.422850
480.000973
972.743034
1016.031504
1016.031504
1016.031504
1016.031504
1016.031504
1016.031504
1016.031504
991.470814
658.608675
302.365422
149.950981
48.380494
17.860532
9.830594
9.467602
10.685921
13.111830
19.672513
26.903749
41.035414
53.919554
71.927905
84.217787
91.610551
93.030930
84.838867
75.867772
59.087873
45.918822
31.016469
23.445487
16.428828
12.688637
10.286570
9.013414
8.770823
8.440614
8.490682
8.681417
8.735657
8.665919
8.472800
9.041429
9.324551
##ZVALUE=335
0.457764
0.386834
0.362992
0.436902
0.594854
0.396967
0.278950
0.329614
0.294447
0.353456
0.466704
0.395775
0.466704
0.483990
0.440478
0.432730
0.529885
0.423789
0.583529
0.618696
0.377893
0.468493
0.569820
0.688434
0.740886
0.677705
0.770688
0.827909
0.604987
0.874996
0.757575
0.686646
0.895858
0.933409
0.926852
0.968575
1.194477
1.170635
1.094937
1.277924
1.205802
1.614690
1.504421
1.750588
1.928806
1.991987
2.288818
2.512932
2.983809
5.984902
35.702586
103.406906
316.158533
603.222847
1016.032696
1016.032696
1016.032696
1016.032696
1016.032696
1016.032696
1016.032696
1016.032696
819.865465
483.149886
197.564960
87.397695
24.894476
11.760592
9.690523
9.518862
10.938644
13.314486
18.803477
25.970936
38.908720
50.592422
65.572858
77.295899
85.092783
86.280704
79.683661
69.928765
57.457685
45.479536
32.215714
24.610758
16.443729
12.845993
10.041595
9.219646
8.499622
8.841753
8.661747
8.729696
9.154677
9.035468
##ZVALUE=340
0.380874
0.352859
0.448823
0.388622
0.300407
0.348687
0.383854
0.406504
0.276566
0.377893
0.525713
0.297427
0.460744
0.322461
0.556707
0.443459
0.554919
0.559688
0.520945
0.446439
0.547767
0.437498
0.674725
0.554919
0.543594
0.731945
0.661612
0.820756
0.902414
0.740886
0.853539
0.687838
0.811815
0.770688
0.797510
0.753999
0.849962
0.814795
0.913739
1.076460
1.143813
1.356602
1.314878
1.276731
1.471639
1.498461
1.623631
1.885891
1.958609
2.473593
2.680421
4.147887
13.337731
69.859624
181.633830
485.363603
856.192708
1016.031504
1016.031504
1016.031504
1016.031504
1016.031504
1016.031504
1016.031504
992.848873
535.220504
281.193852
101.745725
39.051771
12.782812
9.694695
9.632707
9.581447
10.509491
12.403727
17.751455
24.198890
36.557913
47.873855
63.462853
73.131919
80.077648
81.050992
75.452924
67.451596
54.447651
44.355989
31.837821
24.107695
17.099977
12.701750
10.131598
9.173751
8.637905
8.655787
8.923411
##ZVALUE=345
0.391603
0.322461
0.219941
0.312924
0.262856
0.345707
0.273585
0.468493
0.476837
0.398755
0.508428
0.415444
0.474453
0.375509
0.430942
0.303984
0.376701
0.438690
0.460744
0.346899
0.368953
0.544786
0.460744
0.669956
0.314713
0.603795
0.519753
0.707507
0.669956
0.590682
0.600815
0.691414
0.661612
0.637770
0.662804
0.719428
0.750422
0.794530
0.928640
0.951886
0.809431
0.947714
1.102686
1.178980
1.224875
1.448989
1.364946
1.485944
1.523495
1.680851
2.019405
2.174973
2.448559
2.877712
7.221699
29.038787
124.366879
263.951421
591.686964
954.006910
1016.031504
1016.031504
1016.031504
1016.031504
1016.031504
1016.031504
1016.031504
784.336925
345.565677
160.609484
48.186779
19.551516
10.317564
9.282827
8.640885
8.470416
8.986592
10.862947
15.721917
21.783710
33.594966
43.008924
55.940747
65.070987
72.428584
74.797869
71.023703
64.129829
53.667426
43.343902
31.494498
24.379492
16.771555
13.176799
10.737777
9.578466
##ZVALUE=350
0.393987
0.418425
0.392795
0.269413
0.360608
0.545979
0.230670
0.406504
0.343919
0.234842
0.367761
0.553727
0.452995
0.358820
0.442863
0.448823
0.442863
0.425577
0.450611
0.424981
0.411868
0.394583
0.419617
0.486970
0.582933
0.555515
0.344515
0.542998
0.642538
0.647902
0.599623
0.732541
0.514984
0.826716
0.663996
0.652671
0.695586
0.710487
0.842810
0.738502
0.955462
0.931621
0.922680
1.039505
0.909567
0.928640
1.156926
1.255870
1.295805
1.327991
1.459718
1.588464
1.770854
1.935959
2.051592
2.630949
3.587604
19.653440
64.967871
207.530856
397.982597
812.717676
1016.031504
1016.031504
1016.031504
1016.031504
1016.031504
1016.031504
1016.031504
857.005715
516.658425
227.205753
97.912550
24.589896
11.314750
8.535981
8.124709
7.746816
7.447600
8.530617
10.118484
14.589429
20.018816
29.961467
38.353801
50.014853
58.730841
66.251755
68.575740
66.478848
61.233640
49.880743
42.041540
31.586885
24.077892
17.440915
##ZVALUE=355
0.368953
0.436902
0.268817
0.419617
0.460744
0.457764
0.347495
0.290871
0.364780
0.345707
0.422597
0.359416
0.319481
0.520945
0.415444
0.380874
0.535846
0.528693
0.465512
0.528693
0.500679
0.528693
0.544786
0.493526
0.665784
0.546575
0.499487
0.479817
0.496507
0.658631
0.699759
0.596642
0.546575
0.641942
0.671744
0.489950
0.761747
0.763535
0.734925
0.798702
0.804663
0.808835
0.880957
0.995994
1.043677
0.967979
1.009703
1.023412
1.104474
1.287460
1.288652
1.547933
1.549721
1.499653
1.883507
1.942515
2.042651
2.615452
2.928972
10.429621
37.523508
147.871971
307.016969
642.140508
981.830955
1016.032696
1016.032696
1016.032696
1016.032696
1016.032696
1016.032696
998.124480
650.461912
280.774832
130.507946
38.317442
14.154911
8.521676
7.848740
7.198453
6.971955
7.132888
7.611513
9.219646
12.072921
17.840862
24.364591
34.520626
42.570829
52.441955
59.081912
62.979460
62.131882
56.338906
49.477816
40.231943
##ZVALUE=360
0.331998
0.292659
0.515580
0.319481
0.403523
0.458956
0.350475
0.321865
0.504851
0.535846
0.483990
0.422597
0.412464
0.432730
0.386834
0.480413
0.358820
0.529885
0.590682
0.484586
0.515580
0.392795
0.538826
0.567436
0.415444
0.424981
0.713468
0.564456
0.678897
0.685453
0.738502
0.494719
0.697970
0.563860
0.603795
0.831485
0.711679
0.826716
0.798702
0.958443
0.697970
0.879765
0.909567
0.936985
1.083612
1.013875
1.043677
1.188517
1.051426
1.132488
1.299977
1.440644
1.357794
1.398921
1.777411
1.710653
1.780987
2.083778
2.369881
2.457500
2.708435
4.980564
16.813874
79.699755
197.934508
493.637919
810.822845
1016.031504
1016.031504
1016.031504
1016.031504
1016.031504
1016.031504
1016.031504
830.009580
395.973921
201.115608
66.344738
23.063421
9.009838
7.759929
7.140636
6.879568
6.848574
6.441474
7.015467
8.176565
10.926723
14.219880
21.157861
28.148890
39.060712
46.772957
54.018497
58.581829
58.663487
##ZVALUE=365
0.236630
0.373721
0.434518
0.436902
0.474453
0.337958
0.507832
0.366569
0.328422
0.348687
0.318885
0.314713
0.447631
0.240803
0.350475
0.587702
0.450611
0.523925
0.380874
0.577569
0.532866
0.553727
0.528693
0.520945
0.350475
0.470877
0.558496
0.393987
0.421405
0.629425
0.678897
0.594854
0.582933
0.653863
0.640750
0.572801
0.602603
0.580549
0.690818
0.791550
0.815988
0.637770
0.920892
0.909567
0.835657
0.909567
0.922680
0.871420
0.943542
1.129508
1.025796
1.039505
1.291633
1.343489
1.304746
1.541972
1.377463
1.713634
1.755953
1.799464
2.475977
2.589822
2.808571
3.330708
6.798506
64.064860
130.387545
328.123569
603.405833
1016.031504
1016.031504
1016.031504
1016.031504
1016.031504
1016.031504
1016.031504
704.596639
570.135713
167.813897
115.268826
34.896731
12.919903
6.972551
6.751418
6.428957
6.485581
6.397963
6.237626
6.786585
8.079410
13.438463
14.079809
20.373464
26.490688
35.399795
43.078661
##ZVALUE=370
0.307560
0.299811
0.401735
0.385642
0.419617
0.348687
0.388622
0.396967
0.370741
0.332594
0.286698
0.385642
0.314713
0.422597
0.330806
0.344515
0.423789
0.366569
0.423789
0.437498
0.446439
0.483990
0.327826
0.494719
0.549555
0.552535
0.471473
0.428557
0.685453
0.376701
0.542998
0.655651
0.431538
0.434518
0.646710
0.634789
0.683665
0.608563
0.641942
0.543594
0.724792
0.728965
0.647902
0.886917
0.717640
0.748634
0.862479
0.805855
0.867844
0.776649
0.857711
0.773668
1.038909
0.990629
1.143813
1.182556
1.284480
1.422763
1.334548
1.498461
1.558661
1.806617
1.992583
2.238750
2.427697
2.779961
4.643798
20.216703
111.515522
261.547565
580.143929
944.546461
1016.031504
1016.031504
1016.031504
1016.031504
1016.031504
1016.031504
1000.475883
684.719682
323.174000
164.758563
57.819486
20.405650
7.679462
6.724000
6.204844
6.074905
6.020665
6.332994
6.904602
7.578731
9.297729
11.086464
15.247464
19.425750
##ZVALUE=375
0.229478
0.403523
0.292659
0.166893
0.304580
0.347495
0.370741
0.265837
0.294447
0.288486
0.353456
0.440478
0.331998
0.357628
0.381470
0.356436
0.277758
0.264645
0.214577
0.372529
0.435710
0.451803
0.410676
0.441670
0.413656
0.522733
0.431538
0.390410
0.356436
0.428557
0.461936
0.510812
0.485778
0.473857
0.549555
0.567436
0.678897
0.611544
0.603795
0.515580
0.617504
0.605583
0.777841
0.504851
0.508428
0.682473
0.665784
0.739694
0.762939
0.852942
0.650883
0.618696
0.790954
0.873804
0.976920
0.784993
0.933409
1.069903
1.047850
1.078844
1.253486
1.246929
1.354814
1.415610
1.652837
2.000928
2.323985
2.399683
3.394485
10.200739
65.132976
166.123509
430.163741
764.163733
1016.032696
1016.032696
1016.032696
1016.032696
1016.032696
1016.032696
1016.032696
883.304477
493.027568
278.916955
106.240511
43.157935
11.111498
7.152557
6.929636
6.875992
7.476807
7.551908
8.679628
9.296536
10.586977
11.797547
##ZVALUE=380
0.238419
0.295639
0.230670
0.329614
0.137687
0.464916
0.211596
0.244975
0.356436
0.070930
0.280738
0.383854
0.314713
0.304580
0.179410
0.280738
0.327826
0.333786
0.310540
0.347495
0.384450
0.247955
0.333786
0.518560
0.427961
0.555515
0.354648
0.486970
0.504851
0.475645
0.463724
0.380874
0.474453
0.472665
0.339746
0.397563
0.464916
0.564456
0.514984
0.584722
0.556707
0.684857
0.540614
0.500679
0.663996
0.684857
0.660419
0.606775
0.740886
0.705719
0.694990
0.690818
0.880957
0.802875
0.712872
0.854731
0.709891
0.988841
1.008511
0.995994
1.059771
1.335740
1.255870
1.331568
1.572967
1.638532
1.941919
2.164841
2.426505
2.831817
3.457665
5.586743
35.057664
115.961432
358.454585
670.846701
1016.032696
1016.032696
1016.032696
1016.032696
1016.032696
1016.032696
1016.032696
1016.032696
679.527521
390.980840
159.678459
71.525574
18.641949
9.174943
8.099675
8.474588
9.630919
10.236502
11.672974
12.453794
##ZVALUE=385
0.325441
0.256896
0.209808
0.216961
0.222921
0.277758
0.195503
0.378489
0.175834
0.339746
0.290871
0.293851
0.376701
0.295639
0.381470
0.268817
0.260472
0.405908
0.183582
0.209808
0.408888
0.449419
0.412464
0.380874
0.310540
0.408888
0.494719
0.353456
0.548959
0.538826
0.324845
0.514984
0.433922
0.402927
0.309944
0.417829
0.367761
0.336766
0.415444
0.459552
0.518560
0.644922
0.556707
0.612736
0.653863
0.526905
0.518560
0.784993
0.525713
0.644922
0.574589
0.813603
0.826716
0.843406
0.680685
0.576973
0.705719
0.820756
0.855923
1.020432
0.775456
0.878572
1.005530
1.029968
1.337528
1.290441
1.486540
1.756549
2.058744
2.277493
2.632737
2.963543
3.100634
3.708601
14.111400
58.152676
227.973461
493.564606
985.657573
1016.031504
1016.031504
1016.031504
1016.031504
1016.031504
1016.031504
1016.031504
925.070643
578.469634
252.873898
123.601556
39.165616
15.779734
10.873675
11.392832
12.671947
13.682842
##ZVALUE=390
0.226498
0.384450
0.351667
0.222921
0.271797
0.191927
0.463724
0.424981
0.559688
0.362992
0.359416
0.340939
0.358820
0.285506
0.374913
0.320673
0.346899
0.351667
0.435710
0.223517
0.218749
0.426769
0.246763
0.394583
0.334978
0.434518
0.443459
0.537634
0.245571
0.400543
0.481606
0.595450
0.209808
0.407696
0.418425
0.378489
0.473857
0.522733
0.502467
0.430942
0.488758
0.591874
0.614524
0.687838
0.582933
0.510812
0.651479
0.618696
0.844598
0.581741
0.663996
0.522733
0.588894
0.602603
0.834465
0.772476
0.725985
0.748634
0.838637
0.907779
0.959635
0.900626
0.998974
1.128912
1.109838
1.289845
1.436472
1.538992
1.811981
2.145767
2.244711
2.524853
2.535582
2.610683
2.887845
3.365874
5.735755
39.518476
137.302876
436.926484
812.852979
1016.064882
1016.064882
1016.064882
1016.064882
1016.064882
1016.064882
1016.064882
1016.064882
779.930949
446.141958
178.447962
78.447461
23.768544
14.935732
14.680624
##ZVALUE=395
0.250936
0.222921
0.267625
0.234842
0.199676
0.316501
0.180602
0.245571
0.206828
0.228882
0.280738
0.400543
0.332594
0.224710
0.328422
0.207424
0.327826
0.406504
0.384450
0.407696
0.330806
0.408888
0.322461
0.401735
0.470877
0.547767
0.393987
0.314713
0.337958
0.353456
0.427961
0.394583
0.237823
0.360608
0.290871
0.512600
0.372529
0.373721
0.525713
0.397563
0.558496
0.581741
0.597835
0.503659
0.616908
0.659823
0.476837
0.669956
0.621676
0.544786
0.662804
0.527501
0.695586
0.814795
0.658631
0.838637
0.633597
0.858903
0.869632
0.872612
0.977516
0.918508
0.998974
1.035929
0.971556
1.125932
1.327991
1.575947
1.643896
1.822710
2.050996
2.014637
2.236962
2.006888
2.235770
2.466440
2.790689
3.049970
3.989935
20.129681
83.013773
315.682888
608.140826
1016.027927
1016.027927
1016.027927
1016.027927
1016.027927
1016.027927
1016.027927
1016.027927
1005.751491
663.169622
302.494764
141.645670
46.034455
##ZVALUE=400
0.281930
0.353456
0.284910
0.278950
0.382662
0.226498
0.351667
0.404716
0.298619
0.245571
0.270605
0.404716
0.232458
0.218749
0.348687
0.363588
0.358820
0.328422
0.315905
0.161529
0.272989
0.402927
0.336766
0.366569
0.351667
0.447631
0.300407
0.443459
0.463724
0.344515
0.466704
0.211596
0.429749
0.434518
0.426769
0.414848
0.424981
0.566840
0.428557
0.498891
0.461936
0.531673
0.611544
0.639558
0.575781
0.753999
0.622869
0.612736
0.535846
0.572801
0.520945
0.755787
0.710487
0.631809
0.867844
0.716448
0.813603
0.774860
0.876784
0.735521
0.950694
0.764728
1.136661
0.907779
1.007915
1.114607
1.156926
1.520514
1.709461
1.847744
2.040863
2.012849
2.037883
2.120733
2.090931
2.156496
2.260804
2.419949
2.410412
2.923608
3.459454
9.708405
37.390590
159.536004
370.326638
879.480839
1016.044617
1016.044617
1016.044617
1016.044617
1016.044617
1016.044617
1016.044617
1016.044617
884.599686
437.445641
##END
