##TITLE=FAAI0502
##FORMAT=SPECTACLE-ASCII V-1.2
##DATA TYPE=ULTRAVIOLET SPECTRUM
##SECOND TYPE=ULTRAVIOLET SPECTRUM
##DATE=04/30/18
##TIME=15:35:09
##SPECTROMETER/DATA SYSTEM=SPECTACLE
##XUNITS=NM EM
##YUNITS=ENERGY
##YFACTOR=1
##FIRSTX=220
##LASTX=410
##NPOINTS=96
##3DDATA=Equidistant
##ZUNITS=NM EX
##FIRSTZ=210
##LASTZ=400
##ZPOINTS=39
##XYDATA=(Y..Y)
##ZVALUE=210
3.579855
4.036427
4.418492
3.771782
3.899932
4.245639
3.789663
3.585815
3.698468
2.915859
2.646446
2.142787
2.757907
2.817512
2.247691
2.002716
2.770424
2.689958
3.197789
3.154874
3.002882
4.035830
3.059506
4.138947
4.992485
7.533431
7.710457
9.759665
13.310909
14.656782
19.094944
20.109415
22.472739
23.724437
26.170611
24.721622
25.829673
25.090575
23.496747
22.625923
20.634532
22.265911
22.063851
18.915534
16.558766
15.978813
15.967488
16.886592
13.478994
12.843609
11.838675
11.496544
10.002851
11.116862
9.171963
10.125637
9.509921
10.103583
7.875562
8.532405
7.350445
8.144975
7.710457
8.871555
7.987618
8.252859
8.885860
9.198785
9.728670
10.785460
11.556745
14.059544
14.634728
17.319918
18.845797
18.956661
18.703938
20.943880
18.041730
18.957853
18.086433
15.035868
14.837980
11.360645
9.000897
8.084774
6.366968
6.407499
5.690455
5.278587
6.586909
6.249547
6.632805
6.957650
6.461740
7.370710
##ZVALUE=215
15.985966
15.334487
12.507439
9.850860
8.667707
7.427931
7.418990
6.788969
8.009672
7.566810
6.803870
6.020665
5.145669
4.584789
3.466606
2.973676
2.903938
2.862811
3.225803
3.144741
3.788471
3.854632
3.729463
4.087687
6.239414
7.871985
10.080934
15.971661
19.343495
24.561882
28.772950
32.997727
37.556887
38.276911
39.219856
40.970445
42.090416
38.838983
41.186810
39.268732
36.281943
36.284924
33.370852
30.945539
27.476549
26.617646
24.648905
22.865534
22.144914
19.683838
18.742681
17.808676
16.344786
13.909936
14.490485
13.563633
12.837648
12.663603
10.674596
10.446906
9.558797
9.807944
9.610653
9.937882
9.661913
9.005666
9.302497
9.203553
8.671880
10.805726
11.971593
13.286471
13.257861
15.728474
17.229915
16.755462
16.958714
17.525554
15.758872
15.404820
13.836622
12.143850
11.485815
8.917451
7.486939
7.524490
7.071495
7.126927
7.309914
5.965829
5.237460
5.195737
5.641580
4.772544
7.180572
6.091595
##ZVALUE=220
41.652918
41.537881
41.815639
38.064718
36.588907
27.334690
20.148754
17.410517
14.961958
13.835430
15.381575
15.576482
14.624596
12.940764
10.475516
7.674694
6.542802
5.074739
4.376769
3.913641
4.075766
3.956556
4.360676
5.463958
7.543564
9.396672
15.191436
19.860864
26.897788
34.403801
43.571591
50.271749
54.432750
59.154630
64.326525
60.879588
62.761903
60.878992
60.192943
59.194565
55.504441
53.316951
48.254728
45.724511
42.665601
38.831830
36.028624
33.721924
30.798912
30.398965
27.388930
24.690628
22.761822
20.722747
19.916892
18.158555
17.255545
16.048551
14.689565
13.520718
12.889504
12.568831
12.070537
11.267662
9.782910
10.560751
10.250807
9.873509
9.869933
10.486841
12.220740
11.556745
13.297796
13.854504
15.395880
15.367866
14.398694
14.200807
13.956428
14.425516
13.410449
11.903644
12.471676
10.414720
9.728670
8.074641
6.940961
7.420778
6.531477
6.719828
5.473495
5.846620
5.796552
6.040931
5.962849
6.037951
##ZVALUE=225
58.747530
60.552955
72.748661
89.114904
91.637969
88.420510
78.444481
60.558915
46.914816
36.834478
30.392408
25.780797
28.067827
28.578639
30.016899
27.399659
22.476912
17.982721
12.687445
8.515716
5.441904
4.904866
3.924966
5.140901
7.148981
9.562969
14.155507
21.971464
28.523803
37.262440
46.499968
50.927997
56.821704
62.904954
67.308545
69.798827
69.021583
69.340467
65.344572
62.304735
60.033798
55.805445
55.350661
51.399469
47.424436
44.273734
40.406585
35.954714
33.540726
29.087663
28.566718
27.065873
24.008751
21.204948
22.123456
20.560622
18.961430
17.749667
17.004609
16.541481
14.082789
13.020635
13.528466
11.827946
12.725592
11.044741
11.281967
11.432767
11.645555
11.473894
11.879802
12.549758
13.395548
14.200807
14.992952
14.037490
13.815761
14.590621
13.018847
12.959838
11.754632
10.777712
10.011792
9.395480
9.034872
8.095503
9.433627
8.962750
7.373691
7.245541
6.988645
6.638765
7.719994
6.816983
7.555485
6.782413
##ZVALUE=230
46.238899
52.497983
76.867938
121.253729
148.421526
179.021955
190.295577
183.783770
162.708759
132.661462
90.804696
68.502426
51.085949
47.944784
46.484470
50.951838
54.260492
52.798986
43.984652
36.041737
27.987957
15.119910
12.373924
7.794499
8.217692
8.732677
11.705756
16.482472
18.909574
24.717450
31.319857
36.822557
42.215586
43.371916
48.931837
50.359964
51.003695
49.652457
48.840642
47.473907
46.067834
42.044520
40.564537
40.414929
35.881996
34.543872
30.746460
29.173493
27.548671
27.079582
23.957491
22.603869
20.444989
20.559430
19.597411
17.659664
17.256737
16.143918
14.667511
14.186502
13.451576
13.565421
12.323856
13.461709
13.519526
11.639595
12.884736
13.089776
11.475682
12.038946
14.064908
12.940764
14.639497
14.989972
16.124845
15.724897
15.192628
15.375614
14.155507
14.575720
12.986660
13.380647
12.026429
11.847615
10.180473
10.799766
11.165738
10.537505
9.729862
8.984804
9.280443
9.610653
9.502769
9.356737
9.501576
9.388924
##ZVALUE=235
16.413927
17.507672
39.211512
84.234476
130.487680
199.822783
258.656740
316.713452
341.565013
337.241888
296.776891
239.287615
166.710615
123.536587
87.327957
73.309541
69.460869
76.143742
81.937909
80.078840
78.019500
61.222911
50.269961
35.687685
24.183989
16.333461
12.851954
12.167692
12.812614
14.227629
18.055439
20.226836
21.850467
23.403764
23.471713
27.514696
26.607513
25.958419
27.643442
26.064515
26.864409
25.731921
23.729801
24.307966
22.712946
22.459626
20.777583
18.556714
17.501712
17.308593
17.345548
16.594529
16.404986
15.995502
14.722943
14.281869
14.704466
13.625622
14.732480
14.671683
14.033914
13.741851
13.624430
13.161898
14.241934
12.287498
13.417602
12.413859
11.945963
15.176535
14.846921
15.432835
16.743541
16.160607
18.217564
17.248988
18.461943
16.428828
15.826821
16.889572
16.792417
15.207529
14.390945
12.765527
13.838410
12.779832
14.418960
13.226867
13.811588
12.676716
13.002753
13.116598
12.416840
10.925531
12.867451
12.847781
##ZVALUE=240
1.677871
2.263784
8.066893
18.810630
51.742792
95.137954
179.484487
267.121792
382.766724
454.275012
512.417555
502.746701
469.173789
369.767547
290.302634
184.395909
138.560534
104.877949
96.653700
103.901625
111.681819
116.736889
111.892819
102.426410
79.438686
64.895749
44.739842
32.942891
23.822784
18.960834
14.821887
13.991594
16.977787
18.351674
19.206405
19.802451
19.997954
19.873977
20.064712
20.232797
19.281507
20.725727
20.590425
20.318627
20.838976
18.943548
18.814802
15.195608
18.028617
15.070438
16.245842
15.720725
13.835430
15.363693
13.991594
13.912916
14.573932
14.450550
12.775660
13.605952
12.100935
12.352467
11.333823
13.256669
12.874603
13.688803
13.765693
14.704466
13.642907
14.268756
16.045570
15.925765
17.018914
17.789602
19.855499
19.421577
19.847751
17.861724
17.750859
18.264651
16.220808
16.683936
16.331673
16.984940
15.958548
16.342998
15.175939
16.757846
15.612841
15.868545
15.790462
15.608668
14.029741
14.869571
14.633536
15.187860
##ZVALUE=245
1.343489
1.026988
1.163483
1.272559
4.656911
13.839602
40.581822
83.874464
182.864666
277.777910
419.441462
513.663888
573.177934
618.825555
584.170818
485.780835
386.809707
262.871981
190.211535
119.496584
95.150471
98.454952
111.812949
122.360587
127.984881
128.175616
112.791657
96.166730
74.555874
56.920648
46.358705
33.620000
26.600957
24.599433
24.014711
24.946928
22.995472
25.639534
24.473667
25.697947
24.216771
23.493767
22.567511
22.243857
22.495985
21.043420
19.942522
18.674731
18.897653
19.089580
17.680526
16.944408
16.682744
15.353560
13.645887
14.286637
13.667941
13.941526
12.621880
11.887550
12.953877
12.338758
12.361407
11.726618
12.349486
11.531711
11.810660
13.776422
13.301969
14.237761
13.335943
15.671849
17.021894
15.485883
15.541911
17.369986
17.522573
16.969442
15.316606
16.623735
14.902949
16.371608
16.480684
14.727712
13.893843
14.372468
14.266968
13.310909
15.209913
15.568733
15.044808
14.136434
14.807582
13.812780
14.578700
12.971759
##ZVALUE=250
1.240969
1.189709
1.059771
1.366735
1.695752
1.685619
2.559423
7.081628
31.869411
68.246722
156.398416
264.193416
375.043750
525.047779
620.366931
687.018037
667.454004
596.515536
499.609709
347.121954
245.628953
158.732533
103.213787
91.815591
105.605721
122.005939
139.253736
141.492486
144.403577
128.899813
118.361712
98.189712
78.624487
60.824752
50.242543
43.531656
39.302707
37.122965
35.243630
33.875704
34.867525
34.404993
32.915473
29.779673
29.824972
30.397773
26.696920
25.690794
25.843978
22.298694
21.594763
21.580458
19.523501
18.232465
18.100739
16.528964
16.796589
15.155673
14.651418
14.199615
13.615489
14.375448
11.955500
11.569858
12.926459
12.312531
11.995435
11.889935
12.993813
13.260841
13.678670
13.907552
13.862848
14.660954
15.042424
15.856624
15.970469
14.271736
14.351606
14.943480
13.595819
14.183521
13.799667
12.932420
13.407469
13.600588
14.052987
13.035536
12.822747
13.574958
13.075471
15.085936
14.033914
13.717413
13.992786
14.214516
##ZVALUE=255
0.963807
1.152754
1.151562
1.072884
1.262426
0.843406
1.243949
1.510978
2.020597
4.634857
16.587973
55.027604
113.630891
235.849619
349.432826
515.460968
632.887483
742.176771
765.515566
711.779594
612.465739
496.467948
316.925645
201.614499
117.259622
91.692805
96.217990
115.478635
143.014789
157.285929
174.654722
176.068544
163.948536
145.431757
130.225420
102.776885
87.950826
70.053935
62.712431
56.828856
54.479837
49.592853
50.338507
45.742989
43.907762
41.133761
38.156509
37.859678
33.649802
31.997561
29.491782
29.887557
25.990605
23.184419
23.299456
21.142960
20.376444
18.475652
17.991662
16.707778
15.609860
15.122890
15.057921
15.060902
13.731718
13.757944
12.974739
12.519956
12.809634
11.944771
13.750792
13.512969
14.201999
14.784932
14.206767
14.751554
13.685822
13.732910
13.255477
13.451576
13.076663
13.275743
13.095737
12.480617
12.672544
13.733506
12.632608
12.752414
12.530684
12.947917
12.638569
12.241602
13.382435
13.312697
13.215542
13.792515
##ZVALUE=260
0.876784
0.863671
0.911951
1.004934
1.174808
1.038909
1.122952
1.120567
1.272559
1.509786
1.593828
2.295971
7.905960
32.841563
75.960755
176.669955
289.888978
469.666719
611.816645
767.952800
839.341879
848.687887
741.342902
608.117580
411.874652
283.561945
172.908902
122.210979
107.683539
118.177533
144.809484
179.405808
200.324655
221.010447
218.164921
206.321478
185.354948
154.642463
128.572583
111.731887
95.536709
79.043508
73.273778
65.763593
63.624978
55.498481
53.388476
51.202774
46.915412
43.807626
39.039850
36.688447
35.088658
31.502843
28.307438
26.145577
24.565458
22.942424
20.503998
19.464493
18.972754
17.593503
16.503930
16.070604
15.877485
15.404820
14.360547
13.938546
13.149977
14.142990
13.902783
14.027953
13.917685
14.173985
14.790893
13.399720
14.080405
13.657808
13.120770
12.440681
12.641549
12.716651
12.064576
12.312531
12.201667
11.747479
12.093782
11.882782
13.047457
12.818575
12.573600
12.700558
12.945533
13.657808
14.150739
13.137460
##ZVALUE=265
0.855923
0.662804
0.578761
0.777841
0.991821
0.856519
0.739694
0.979900
1.004934
1.429915
1.387596
1.498461
1.472831
1.949668
4.386902
16.132593
58.380961
122.162700
261.923671
399.922729
608.935952
775.308609
907.770991
923.853517
893.100500
706.288815
568.731427
368.412733
256.540775
169.933438
139.999986
139.475465
160.206556
199.682713
221.067667
246.523619
252.190828
243.099928
229.237676
196.131468
173.141956
138.521791
117.184520
95.889568
82.714558
72.496533
65.904856
61.451793
55.373907
51.122904
48.388839
44.971704
40.706992
37.377477
33.151507
30.324459
29.121637
26.216507
24.392605
22.682548
21.366477
17.964840
17.970800
18.121600
16.545653
15.899539
16.144514
14.693737
14.046431
13.678670
14.668703
12.740493
14.297962
14.082789
14.421940
13.484955
13.743639
12.834668
13.383627
13.030767
12.332797
11.808872
12.082458
11.986494
12.116432
11.814833
12.324452
12.293458
11.719465
11.727810
11.794567
11.750460
12.935996
12.897849
12.568831
13.202429
##ZVALUE=270
0.804663
0.710487
0.883937
0.747442
0.627637
0.544786
0.893474
0.696778
0.716448
0.862479
1.055598
0.832677
0.926852
1.020432
1.472831
1.779795
1.698732
10.549426
30.839443
99.873543
192.995667
325.580835
560.356975
741.110444
925.907493
986.737013
968.545675
881.898999
699.151754
541.654825
398.506522
249.425769
185.841918
151.770711
153.200626
181.739926
205.171704
233.385563
246.181488
251.328945
244.915485
218.055844
196.439624
158.317685
132.330656
102.303624
84.621906
69.829822
63.414574
54.494739
48.732758
44.341683
41.238666
38.170815
34.278631
32.401681
28.935671
28.215647
25.863647
22.506714
22.038817
19.847751
19.989610
17.870665
16.928911
16.197562
15.476942
14.863610
14.093518
14.064908
15.017986
13.951659
13.800859
14.023781
13.620853
13.396740
13.570786
13.055801
12.496710
12.619495
11.749864
11.827946
11.787415
11.488795
11.890531
11.245608
11.096597
11.375546
11.609793
11.264682
11.958480
12.382865
12.310743
13.092756
13.203621
12.946725
##ZVALUE=275
0.860691
0.662804
0.747442
0.921488
0.904799
0.889897
0.993609
0.810623
1.037717
1.030564
1.155734
1.028776
1.104474
1.291633
1.197457
1.180768
1.139641
1.581907
1.666546
4.435778
18.215775
51.772594
152.138472
277.976990
507.994890
681.940913
878.672004
994.361639
1016.193032
993.709564
878.643990
670.010448
496.392846
298.764706
203.267932
139.875412
126.763582
134.107471
154.035687
180.867910
197.724700
212.363601
218.602419
207.045674
191.964507
156.306624
134.237409
102.999806
83.186626
60.391426
50.378442
41.272640
36.224723
32.338500
29.690862
27.090907
25.628805
23.930669
22.222996
20.768642
19.925833
18.975735
18.021464
17.046928
15.760660
14.846921
14.799833
14.592409
14.030933
13.069510
13.795495
13.252497
13.746619
13.697743
13.181567
12.992620
13.269782
12.606978
12.495518
11.706948
11.566877
11.449456
11.711717
12.142658
11.629462
10.863543
11.463761
11.689663
11.405945
11.876822
12.164712
12.213588
12.526512
13.020635
12.753606
13.428926
##ZVALUE=280
0.482798
0.628829
0.535846
0.607967
0.545979
0.519753
0.606775
0.683665
0.498891
0.742674
0.809431
0.976920
1.050830
0.952482
0.884533
0.970960
1.180768
1.036525
1.065731
1.163483
1.588464
2.142787
11.697412
39.579868
120.727420
217.342973
403.912663
579.067469
818.959475
960.937738
1016.035676
1016.035676
941.278934
718.225837
540.581942
319.736004
205.003619
111.611485
80.747604
75.987577
87.729692
114.240646
136.171579
162.095428
176.732540
178.628564
171.599984
152.036548
130.203962
99.375844
77.371597
53.820610
41.379929
29.557943
23.938417
20.408630
18.926859
17.316937
16.619563
15.043616
15.110970
14.190674
14.076829
13.728738
13.675690
12.980700
12.813807
12.302995
12.207627
11.803508
12.165904
12.335777
12.357831
12.186766
12.304783
11.724830
11.785626
12.051463
11.701584
10.969639
11.306405
10.470748
10.716915
10.553598
10.548830
10.677576
10.314584
10.284781
10.573864
11.192560
11.031628
11.618733
11.847615
12.484789
12.176633
12.655854
##ZVALUE=285
0.544786
0.357628
0.665784
0.442863
0.664592
0.360608
0.464916
0.313520
0.679493
0.484586
0.533462
0.585914
0.679493
0.576973
0.565648
0.922680
0.624657
0.865459
0.811815
0.987649
1.167655
1.092553
1.282692
1.536608
5.706549
20.521879
66.466928
139.603615
299.540758
457.651019
628.869534
857.506990
997.489691
1016.021967
987.030864
807.226896
635.305643
396.780968
250.446796
123.488903
71.090460
42.165518
42.243600
63.819885
82.771778
112.367868
130.873919
147.391558
153.328776
148.802996
135.402679
113.525987
93.429685
65.740943
47.967434
29.826760
21.431446
15.826821
12.942553
11.708736
11.684895
11.167526
10.670424
10.642409
10.988712
10.385513
10.604858
11.239648
11.006594
11.610985
10.960698
11.350513
11.526942
11.345744
11.487603
10.923743
11.094809
10.885596
10.622740
10.271668
10.188818
10.287762
10.229945
10.172725
10.096431
10.263920
10.416508
10.790825
11.079907
10.730624
11.332631
11.530519
11.108518
12.171865
12.264848
12.295842
##ZVALUE=290
0.405908
0.369549
0.385642
0.281930
0.424981
0.558496
0.316501
0.545979
0.328422
0.667572
0.707507
0.655651
0.475645
0.427961
0.637770
0.585914
0.728965
0.695586
0.818968
0.842810
0.792742
0.909567
1.032948
1.068711
1.229644
1.609921
2.291799
7.952452
39.779544
88.973641
205.604434
350.346565
531.497598
794.265866
952.474475
1016.032696
1016.032696
897.145867
735.390782
495.675802
328.930616
165.812969
88.299513
37.728548
28.431416
37.528872
51.984787
75.460672
96.011758
123.338699
135.867596
145.213604
145.160556
128.159523
109.149814
82.434416
61.790943
39.113760
28.467774
17.826557
13.765693
10.502934
9.556413
9.480715
9.721518
9.860992
9.387732
9.784698
9.829998
10.160804
10.209680
10.650754
10.332465
10.803938
10.531545
10.956526
10.450482
10.320544
10.593534
10.178685
10.226965
10.527968
9.687543
9.780526
9.974837
10.051727
10.279417
10.633469
10.682940
10.372996
10.744929
11.302829
11.006594
11.028647
11.259913
11.882782
##ZVALUE=295
0.435710
0.335574
0.389814
0.496507
0.452995
0.467896
0.434518
0.396967
0.626445
0.521541
0.424981
0.495911
0.470877
0.346899
0.400543
0.453591
0.449419
0.715852
0.508428
0.663996
0.689626
0.779629
0.807643
0.991821
0.861883
1.195669
1.131892
1.312494
1.585484
3.147721
12.902617
54.955482
122.711658
281.522870
447.468758
697.411895
872.098804
1015.074849
1016.031504
966.449976
823.854804
588.866472
409.092903
219.799876
120.619535
46.758652
25.111437
22.438765
30.362606
48.191547
65.568686
92.082620
111.461878
130.856633
136.041641
133.342743
122.397542
101.902485
80.204606
56.816936
40.274858
25.424957
18.408895
11.855960
9.865761
8.932948
8.040667
8.348823
8.350611
8.825660
9.006858
9.229779
9.876490
9.703636
9.995699
10.201931
9.731650
9.798408
9.587407
10.030866
9.984970
9.741783
9.989738
9.965897
9.601712
9.985566
10.351539
9.899735
9.781718
10.089874
10.310411
10.367632
10.476708
11.003613
11.249781
10.845661
##ZVALUE=300
0.459552
0.337958
0.303984
0.309944
0.526905
0.264645
0.366569
0.408888
0.372529
0.264645
0.429749
0.413656
0.356436
0.543594
0.332594
0.487566
0.488758
0.427961
0.593662
0.516772
0.582933
0.697970
0.616908
0.664592
0.934601
0.849962
0.968575
1.100898
1.203418
1.357794
1.457930
1.880527
5.512834
32.958984
80.439448
202.181935
340.706706
575.130582
762.638450
960.313678
1016.031504
1012.004614
911.681652
686.568022
507.344604
286.517739
169.619918
75.306892
37.277937
17.984509
18.115640
28.243661
39.102435
61.699748
80.996752
104.715824
120.496750
129.823685
129.087567
116.030574
99.889636
75.535774
58.517456
38.830638
27.315617
16.443729
11.801720
8.972883
8.165836
8.196831
8.127689
8.340478
9.022951
8.872747
9.288788
9.315610
9.461641
9.289980
9.485483
9.215474
9.606481
9.206533
9.100437
9.346604
9.486675
9.567738
9.913445
9.770989
9.956956
9.920597
10.039806
10.033846
10.052919
9.984970
10.309815
10.194778
##ZVALUE=305
0.332594
0.310540
0.126958
0.286698
0.309944
0.294447
0.288486
0.230670
0.342727
0.430942
0.411868
0.468493
0.489950
0.615716
0.528693
0.347495
0.649691
0.341535
0.431538
0.525713
0.563860
0.427961
0.513792
0.677705
0.823736
0.753999
0.715852
0.873804
0.863671
0.971556
1.097918
1.128912
1.387596
1.527667
3.064871
19.129515
53.208470
146.020651
262.395740
474.965572
660.475492
881.918669
1002.501845
1016.032696
962.054729
766.947865
591.193438
370.383859
232.810974
108.018517
52.313805
20.058751
13.460517
16.713738
24.553537
40.739775
55.295825
79.630613
96.766949
115.185976
121.222734
119.102001
111.507773
93.937516
76.287985
53.341985
38.469434
24.715662
16.695857
11.279583
8.897781
8.478761
8.214712
8.236766
8.699894
8.976460
8.831620
8.885860
9.089708
9.159446
9.192824
9.254813
9.342432
9.448528
9.611845
9.652972
10.283589
9.744763
9.924769
9.650588
9.886622
9.856820
9.997487
9.806752
10.078549
9.685755
##ZVALUE=310
0.265837
0.360608
0.374913
0.392795
0.179410
0.368953
0.372529
0.346899
0.381470
0.278950
0.373721
0.461936
0.230670
0.265837
0.461936
0.376701
0.412464
0.426769
0.532866
0.535846
0.433922
0.457764
0.389814
0.490546
0.684857
0.752807
0.670552
0.687838
0.734925
0.838637
0.869632
1.076460
1.057982
1.055598
1.088977
1.265407
1.743436
7.462502
26.745796
88.235736
174.187422
351.983905
535.218716
781.275630
928.729773
1016.042829
1012.831926
877.057910
723.830462
486.471653
322.656631
162.453651
86.032748
30.867457
14.549494
10.609627
14.300942
22.764802
32.934546
51.023960
68.838000
90.319514
104.243755
113.335848
115.663409
107.066631
94.679594
73.983669
56.231618
36.836863
26.482940
17.405748
12.931824
9.600520
8.986592
8.092523
8.583665
8.433461
9.003878
9.011626
8.878708
8.822680
9.296536
9.271502
9.315610
9.631515
9.981990
9.957552
9.975433
9.788871
9.904504
9.879470
10.106564
10.010600
9.791851
10.321736
##ZVALUE=315
0.213981
0.197887
0.352859
0.367761
0.375509
0.239611
0.338554
0.255704
0.264645
0.211596
0.346899
0.283718
0.277758
0.191927
0.317693
0.425577
0.557899
0.344515
0.369549
0.386834
0.384450
0.445843
0.370741
0.353456
0.537634
0.569820
0.452995
0.495911
0.348687
0.654459
0.722408
0.842810
0.798702
0.809431
0.884533
1.160502
1.066923
1.250505
1.502633
3.346801
13.613701
56.570768
121.647716
270.545483
436.306000
689.705610
847.536922
990.240574
1016.034484
943.712592
808.805823
581.842661
409.094691
220.354795
118.688941
44.007897
18.818974
9.562969
9.514689
13.843775
19.218922
33.259988
44.915676
65.596700
81.129670
99.352598
107.119679
107.524991
102.350712
85.955858
71.932673
52.688718
39.579868
24.564862
17.388463
12.374520
10.156631
8.724928
8.589625
8.381605
8.886456
8.857846
8.913875
9.028912
9.619594
9.379983
9.562969
9.641647
9.950995
9.780526
9.897947
10.102987
10.087490
10.170937
10.117888
10.474920
##ZVALUE=320
0.284910
0.311732
0.292659
0.151992
0.321865
0.344515
0.314713
0.216961
0.475645
0.405908
0.263453
0.324845
0.311732
0.450611
0.277758
0.392795
0.524521
0.392795
0.243783
0.422597
0.500679
0.538826
0.524521
0.457764
0.527501
0.520945
0.539422
0.645518
0.630617
0.532866
0.631809
0.689626
0.749826
0.844598
0.911951
0.883937
0.920892
1.176596
1.188517
1.403689
1.262426
2.056956
5.906820
31.650662
79.893470
204.528570
335.339904
556.211472
730.014443
926.513672
1007.499695
989.426970
891.641974
678.825974
496.818423
277.070999
160.057545
67.616701
30.211806
11.356473
8.035898
9.298921
11.740923
18.558502
26.795864
44.027567
58.206916
77.232718
90.606809
102.784634
103.309751
96.147656
85.143447
66.258907
51.960945
35.746694
25.242567
17.102957
12.544990
10.086894
9.327531
9.027719
8.987784
8.846521
9.314418
9.380579
9.090900
9.548664
9.510517
10.004640
9.761453
10.144711
10.064840
10.155439
10.449886
10.733604
##ZVALUE=325
0.196695
0.110865
0.000000
0.081658
0.240803
0.180602
0.215769
0.279546
0.212789
0.255704
0.269413
0.280738
0.334978
0.353456
0.229478
0.179410
0.258684
0.258684
0.153780
0.378489
0.178814
0.270605
0.352859
0.275970
0.333786
0.299811
0.230670
0.370741
0.524521
0.622869
0.505447
0.642538
0.535846
0.748634
0.780821
0.724792
0.723600
0.787973
0.798702
0.909567
1.127720
0.834465
1.186728
1.520514
3.208518
20.172596
52.983761
141.705871
250.251889
463.351011
637.819767
852.137804
959.115624
995.790958
929.559469
728.389025
549.976826
328.923464
201.891661
91.476440
44.516921
14.617443
8.545518
7.530451
8.368492
11.750460
16.912818
27.469993
39.710999
58.864951
72.708726
87.447762
95.440745
97.587705
91.351867
77.084899
64.107776
46.661496
34.747720
22.668839
16.961694
12.499690
10.339618
9.653568
9.273887
9.077787
9.251833
9.170771
9.385943
9.445548
9.594560
9.736419
10.082722
10.227561
10.291934
10.169744
##ZVALUE=330
0.103712
0.192523
0.142455
0.236630
0.304580
0.192523
0.140667
0.214577
0.390410
0.305772
0.367761
0.312924
0.083447
0.184774
0.179410
0.171661
0.205636
0.107884
0.123978
0.446439
0.304580
0.359416
0.338554
0.288486
0.174642
0.297427
0.393987
0.363588
0.429749
0.515580
0.358820
0.337958
0.445843
0.421405
0.708699
0.580549
0.586510
0.853539
0.662804
0.775456
0.660419
0.904799
0.885725
0.994802
0.951886
1.480579
1.691580
8.609891
28.279424
92.141628
177.889466
357.043743
521.271825
754.368901
894.400477
978.425741
943.281651
792.222023
631.408691
408.160686
264.022946
124.417543
63.193440
23.019910
10.321736
7.002950
7.013679
8.280873
10.769963
17.309785
25.777817
38.941503
53.156614
70.705414
82.150698
90.702772
90.674758
84.463954
74.921846
58.732629
46.411753
31.765699
23.447871
16.085505
13.268590
10.681748
9.907484
9.442568
9.388924
9.583831
9.422898
9.556413
9.594560
9.809732
10.064840
10.076761
##ZVALUE=335
0.141859
0.064969
0.233650
0.043511
0.373721
0.317693
0.393987
0.313520
0.259876
0.214577
0.235438
0.051856
0.080466
0.252724
0.278950
0.287890
0.232458
0.431538
0.287890
0.249743
0.262856
0.317693
0.346899
0.284910
0.329614
0.382662
0.239611
0.287890
0.260472
0.348687
0.385642
0.276566
0.572801
0.392795
0.525713
0.580549
0.424981
0.548959
0.660419
0.670552
0.822544
0.615716
0.892878
0.745654
0.833869
0.897646
1.052618
1.144409
1.168847
3.924966
14.535785
57.216883
119.969845
262.411833
420.720577
656.488538
812.374949
936.412811
948.703885
844.288468
706.876516
484.826565
329.952836
172.158480
90.271831
31.309724
13.825893
7.410645
6.978512
7.045865
8.027554
10.799766
15.780926
25.786757
36.172867
52.323937
65.542459
77.844858
85.014701
86.018443
79.667568
67.767501
58.440566
43.644905
34.213662
23.810863
17.981529
13.017654
11.154413
9.699464
9.503961
9.289980
9.184480
9.487867
9.744763
9.899735
##ZVALUE=340
0.146627
0.260472
0.102520
0.146627
0.157952
0.117421
0.080466
0.084639
0.128746
0.178814
0.246763
0.240803
0.243783
0.246763
0.132918
0.069737
0.213981
0.252724
0.126958
0.156760
0.308752
0.246763
0.207424
0.289679
0.247955
0.305772
0.392795
0.332594
0.377893
0.262856
0.263453
0.332594
0.272989
0.424981
0.377893
0.569820
0.470877
0.449419
0.513792
0.526905
0.621676
0.615716
0.359416
0.505447
0.687838
0.764728
0.789762
0.908971
0.828505
0.930429
1.140833
1.595616
9.536743
30.159950
96.272826
184.929967
367.335677
535.025597
746.169686
862.501860
929.903984
893.364549
744.464993
588.004589
368.693471
230.044723
106.224418
51.100850
15.434623
8.399487
6.873608
6.852746
7.181764
8.181930
10.682940
15.135407
24.163723
34.080744
49.381852
60.921907
74.172616
78.814626
80.348849
76.512694
66.068769
56.288838
42.905807
33.007860
23.062825
17.196536
13.031960
10.918975
9.829998
9.433627
9.203553
9.352565
##ZVALUE=345
-0.138879
0.067949
-0.065565
0.060797
-0.018477
-0.022650
0.080466
0.056624
0.005960
-0.070930
-0.025630
-0.158548
-0.082850
0.002980
-0.037551
0.062585
-0.033975
0.014901
0.027418
0.109673
0.012517
0.072718
0.181794
0.059605
0.005960
0.030994
0.012517
-0.006557
0.009537
0.111461
0.126958
0.096560
0.092983
0.193715
0.239611
0.215769
0.061989
0.107884
0.245571
0.145435
0.214577
0.266433
0.376701
0.427961
0.510812
0.584722
0.395775
0.524521
0.568628
0.597835
0.753999
0.671744
0.836849
0.981688
2.858639
19.069910
53.339601
140.477419
250.177979
448.019505
608.048439
800.622702
882.337689
891.996026
812.474489
621.099472
462.296009
272.430778
155.548453
61.932802
27.808547
10.664463
6.988645
6.443858
6.449819
6.657839
7.225871
9.916425
13.775826
22.595525
31.996965
45.373440
56.239963
66.205859
72.212815
73.958635
71.107745
63.230991
54.209828
41.647553
32.132864
22.610426
17.509460
12.718439
10.792613
9.270906
##ZVALUE=350
0.126958
0.191927
0.122786
0.143647
0.366569
0.130534
0.236630
0.134706
0.199676
0.080466
0.109673
0.200868
0.268817
0.241995
0.239611
0.073910
0.084639
0.199676
0.160933
0.148416
0.156760
0.135899
0.160933
0.079870
0.079870
0.253916
0.307560
0.115633
0.141859
0.319481
0.257492
0.313520
0.150800
0.173450
0.345707
0.121593
0.349879
0.313520
0.231862
0.305772
0.335574
0.280738
0.380874
0.531673
0.402927
0.519753
0.395775
0.516772
0.600815
0.652671
0.804663
0.799894
0.778437
0.906587
0.828505
1.170635
1.977682
7.425547
35.054684
80.399513
192.947984
326.500535
532.549620
682.186484
830.435753
880.342722
820.381641
706.871748
491.997600
331.250429
168.619752
93.234777
36.233664
15.234947
7.368922
6.646514
6.212592
5.950928
6.049871
7.346869
9.318590
12.888908
20.107627
27.728677
39.177537
48.478842
60.107708
65.350533
68.249702
67.007542
58.842897
50.980449
39.239526
31.091571
23.114681
17.745495
##ZVALUE=355
0.090599
0.039935
0.194907
0.219941
0.226498
0.160933
0.243783
0.219941
0.086427
0.111461
0.135899
0.049472
0.243783
0.089407
0.113845
0.056624
0.145435
0.231862
0.212789
0.249743
0.286698
0.194907
0.258684
0.282526
0.190735
0.290871
0.205636
0.317693
0.328422
0.146627
0.178814
0.251532
0.382662
0.245571
0.242591
0.315905
0.352859
0.302792
0.301600
0.431538
0.473857
0.466704
0.554919
0.537634
0.441670
0.365973
0.576973
0.554919
0.476837
0.601411
0.626445
0.534654
0.538826
0.736713
0.701547
0.719428
0.979900
1.022816
1.200438
3.163815
18.724799
51.638484
137.879848
240.700841
435.160995
587.847829
761.813521
842.502713
824.479461
726.681948
538.496971
393.395424
222.491622
123.683810
48.472881
21.435618
8.492470
6.377697
5.964637
5.645752
5.945563
6.168485
6.618500
8.015633
11.792779
16.286969
24.938583
32.790899
43.724775
51.399469
59.365630
62.602758
61.092973
56.373477
47.966838
39.992929
##ZVALUE=360
0.130534
0.192523
0.212789
0.304580
0.096560
0.207424
0.196695
0.119805
0.182986
0.071526
0.061989
0.195503
0.074506
0.313520
0.292659
0.166893
0.272989
0.173450
0.212789
0.207424
0.243783
0.132918
0.278950
0.269413
0.137687
0.283718
0.274777
0.241995
0.290871
0.299811
0.143647
0.233650
0.313520
0.248551
0.216961
0.340939
0.267625
0.437498
0.323653
0.471473
0.299811
0.207424
0.424981
0.485778
0.421405
0.504851
0.330806
0.449419
0.682473
0.578761
0.573993
0.576973
0.621676
0.495911
0.595450
0.669956
0.696778
0.832677
0.822544
0.989437
1.078844
2.001524
6.737709
32.440424
78.428984
192.156434
316.566825
505.733490
659.363866
798.519850
831.435919
758.841634
634.453893
432.764888
292.708874
151.391625
78.644753
27.565956
11.729598
6.052852
5.495548
5.338788
5.833507
5.569458
5.446672
6.001592
7.205606
9.879470
13.077855
20.184517
27.148724
37.346482
45.606494
52.727461
55.527687
56.041479
##ZVALUE=365
0.167489
0.177622
0.198483
0.259876
0.207424
0.098944
0.131726
0.231862
0.258684
0.113845
0.052452
0.130534
0.259876
0.109673
0.136495
0.121593
0.140667
0.095963
0.086427
0.224710
0.033975
0.222921
0.241995
0.208616
0.164509
0.245571
0.229478
0.185966
0.241995
0.300407
0.320673
0.236630
0.200868
0.217557
0.430942
0.197887
0.303984
0.314713
0.395775
0.348687
0.328422
0.455976
0.412464
0.188947
0.326633
0.346899
0.399947
0.328422
0.573993
0.392795
0.352859
0.566840
0.428557
0.488758
0.590682
0.594854
0.593662
0.682473
0.593662
0.614524
0.874996
0.971556
1.012683
1.289845
2.958775
18.195510
49.245954
129.435658
235.998631
427.145958
571.246743
726.747513
797.119737
781.903863
686.696768
502.341986
357.780457
197.106600
106.943846
39.102435
16.601682
6.538630
5.459785
5.049706
4.888773
5.057454
4.783869
4.614592
5.362630
6.240606
7.824898
11.888742
16.142726
24.465919
30.966997
40.344000
##ZVALUE=370
0.041723
0.199676
0.085831
0.114441
0.045896
0.149608
0.307560
0.102520
0.075698
0.242591
0.251532
0.313520
0.299811
0.144839
0.114441
0.186563
0.242591
0.254512
0.173450
0.161529
0.176430
0.054836
0.254512
0.380874
0.349879
0.302792
0.319481
0.418425
0.174642
0.267625
0.136495
0.255704
0.130534
0.387430
0.297427
0.341535
0.193715
0.302792
0.545979
0.315905
0.331998
0.247955
0.321865
0.392795
0.394583
0.280738
0.299811
0.241995
0.433922
0.459552
0.480413
0.366569
0.502467
0.495911
0.440478
0.484586
0.677705
0.598431
0.706911
0.521541
0.541806
0.738502
0.772476
0.926852
1.012683
1.213551
1.926422
7.352829
36.821961
88.874698
205.698609
324.852467
513.305664
651.727915
770.726800
791.907907
712.975860
586.496592
392.017961
256.558657
121.461749
62.872767
23.314953
10.268688
5.428791
4.831553
4.520416
4.502535
4.615784
4.453659
4.552603
4.916787
5.643964
6.958842
10.105968
14.186502
##ZVALUE=375
0.167489
0.130534
-0.048876
0.174642
0.058413
0.070930
0.146627
0.212789
0.082850
0.062585
0.124574
0.032783
0.329614
0.138879
0.074506
0.171661
0.128746
0.031590
0.116825
0.175834
0.179410
0.130534
0.178814
0.039935
0.208616
0.395775
0.315905
0.148416
0.325441
0.223517
0.356436
0.230670
0.317693
0.075698
0.350475
0.255704
0.224710
0.216961
0.231862
0.228882
0.245571
0.245571
0.312924
0.223517
0.466704
0.337958
0.335574
0.254512
0.255704
0.453591
0.365973
0.266433
0.344515
0.370741
0.260472
0.398755
0.408888
0.409484
0.306964
0.477433
0.498891
0.397563
0.535846
0.620484
0.649691
0.900626
0.793934
0.995994
1.262426
4.570484
16.292930
58.204532
123.949647
270.710588
413.000584
606.861711
717.349648
782.004595
752.763748
621.927977
483.675003
297.047496
188.909769
92.615485
45.935512
14.943480
6.730556
4.554987
4.354715
4.216433
4.123449
3.855824
3.795624
4.152656
4.188418
4.743934
##ZVALUE=380
0.132918
0.105500
0.170469
0.226498
0.154972
0.033975
0.200868
0.193715
0.111461
0.114441
0.084639
0.081658
0.197887
0.086427
0.087619
0.048876
0.114441
0.152588
0.078678
0.131726
0.044703
0.009537
0.215769
0.199676
0.092983
0.181794
0.129938
0.206828
0.364780
0.381470
0.264645
0.211596
0.324845
0.247955
0.356436
0.372529
0.352859
0.248551
0.274777
0.282526
0.292659
0.229478
0.329614
0.365973
0.426769
0.224710
0.289679
0.378489
0.286698
0.383854
0.268817
0.142455
0.272989
0.392795
0.386834
0.350475
0.370741
0.316501
0.373721
0.318885
0.404716
0.325441
0.418425
0.417829
0.506639
0.679493
0.677705
0.766516
0.924468
1.044869
1.088977
1.908541
11.019707
34.583807
103.587508
188.770890
353.669524
507.620573
679.220557
758.261681
761.517882
690.065026
538.733006
404.008627
237.642527
139.397979
58.663487
26.581883
8.387566
4.721880
4.063845
4.158616
3.706813
3.845692
3.748536
3.529787
##ZVALUE=385
0.068545
-0.034571
0.129938
0.006557
0.151992
0.110865
0.071526
0.001788
0.029802
0.127554
0.049472
0.091791
0.129938
0.058413
0.180602
0.130534
0.158548
0.044703
0.090599
0.091791
0.170469
0.073910
0.105500
0.087619
0.228882
0.231862
0.159740
0.280738
0.247955
0.248551
0.371933
0.297427
0.267625
0.514984
0.491738
0.510812
0.295639
0.548959
0.448823
0.519753
0.342727
0.490546
0.514984
0.426769
0.371933
0.436902
0.472665
0.422597
0.361800
0.490546
0.442863
0.331998
0.426769
0.378489
0.288486
0.325441
0.521541
0.282526
0.365973
0.287890
0.304580
0.382662
0.373721
0.463724
0.444651
0.347495
0.580549
0.513792
0.693798
0.859499
1.013875
0.932813
0.970960
1.324415
3.939867
23.096800
59.360862
148.458481
255.660415
441.288948
582.878590
717.849731
759.418607
714.285970
622.937679
458.203554
324.827433
177.456737
100.903511
41.615963
17.181635
5.692840
3.985763
3.547668
3.597736
3.422499
##ZVALUE=390
0.061989
0.183582
0.117421
0.106692
-0.033975
0.071526
-0.004768
0.043511
-0.063777
0.068545
0.039935
0.028610
0.179410
-0.043511
0.063777
0.081658
-0.105500
0.041723
0.122786
0.185966
-0.041723
0.062585
-0.021458
0.083447
0.088811
0.150800
0.330806
0.335574
0.387430
0.566840
0.511408
0.589490
0.631809
0.697970
0.803471
0.762939
0.774860
0.798702
0.785589
0.720620
0.625849
0.719428
0.473857
0.603795
0.530481
0.646710
0.385642
0.398755
0.483990
0.413656
0.363588
0.436902
0.324845
0.331998
0.303984
0.399947
0.277758
0.331998
0.445843
0.201464
0.308752
0.273585
0.299811
0.430942
0.430942
0.535846
0.591874
0.551939
0.581741
0.882745
0.725985
0.727773
0.826716
0.905991
0.908971
0.922680
1.885891
12.039542
37.740469
113.597512
209.884644
385.283828
516.999960
661.911964
738.406777
754.984617
693.510771
546.630621
415.750742
253.457427
146.761537
59.829950
27.805567
8.698702
4.542470
3.472567
##ZVALUE=395
-0.002980
0.007749
0.012517
0.150800
0.011921
0.071526
0.052452
0.086427
0.102520
0.009537
0.043511
0.106692
0.009537
0.115633
0.129938
0.091791
0.012517
0.028610
0.179410
0.025630
-0.017881
0.207424
0.172853
0.209808
0.131726
0.342727
0.452995
0.452995
0.657439
0.791550
0.940561
1.002550
1.040697
1.200438
1.108646
1.242757
1.275539
1.118779
1.241565
1.056790
0.947714
1.094937
0.787973
0.795722
0.992417
0.730753
0.644922
0.699759
0.601411
0.505447
0.510812
0.557899
0.444651
0.347495
0.373721
0.418425
0.412464
0.493526
0.517964
0.396967
0.408888
0.360608
0.446439
0.378489
0.412464
0.507832
0.482798
0.493526
0.843406
0.686646
0.711679
0.717640
0.650883
0.616908
0.554919
0.762939
0.790954
0.796914
1.055598
6.248951
22.968650
78.900456
152.579546
297.472477
431.817770
613.040924
719.016790
778.396726
753.643513
632.791519
496.282578
307.993889
194.485784
91.573000
43.792725
13.850927
##ZVALUE=400
0.194907
0.030994
-0.016689
0.000596
0.189543
-0.009537
0.032783
0.141859
0.000596
0.080466
0.103712
-0.013709
0.000596
0.000596
0.079870
0.054836
0.055432
-0.050664
0.006557
-0.026822
-0.078678
-0.011921
-0.043511
0.188947
0.232458
0.184774
0.504851
0.533462
0.839829
0.806451
0.953674
1.089573
1.199841
1.410842
1.435876
1.415610
1.460910
1.198649
1.224875
1.334548
1.427531
1.047850
1.054406
1.042485
0.759959
0.901818
0.679493
0.889897
0.761747
0.721812
0.680685
0.413656
0.526905
0.417829
0.420809
0.435710
0.450611
0.447631
0.464916
0.426769
0.228882
0.441670
0.268817
0.451803
0.485778
0.424981
0.435710
0.378489
0.568628
0.565648
0.650883
0.442863
0.670552
0.685453
0.578761
0.857711
0.607967
0.605583
0.662804
0.749826
0.889897
3.436804
12.684464
46.444535
98.826885
220.458508
345.253944
529.180765
650.004745
748.069882
753.552914
657.124519
543.453693
370.007753
209.140778
124.183893
##END
