##TITLE=FAAI0551
##FORMAT=SPECTACLE-ASCII V-1.2
##DATA TYPE=ULTRAVIOLET SPECTRUM
##SECOND TYPE=ULTRAVIOLET SPECTRUM
##DATE=04/30/18
##TIME=15:50:21
##SPECTROMETER/DATA SYSTEM=SPECTACLE
##XUNITS=NM EM
##YUNITS=ENERGY
##YFACTOR=1
##FIRSTX=220
##LASTX=410
##NPOINTS=96
##3DDATA=Equidistant
##ZUNITS=NM EX
##FIRSTZ=210
##LASTZ=400
##ZPOINTS=39
##XYDATA=(Y..Y)
##ZVALUE=210
4.088879
4.115701
3.682971
3.053546
3.669858
3.647804
3.454685
3.540516
3.989935
3.328919
3.214478
2.839565
2.880692
2.558827
3.002882
2.981424
3.086925
2.803802
2.745986
3.433824
3.503561
3.536940
3.806949
4.264712
4.897714
4.846454
6.254911
6.867647
8.088946
9.290576
9.732842
10.907650
12.319684
13.702512
13.588667
13.311505
13.338923
13.403893
12.888908
13.041496
12.553930
12.243986
10.787845
10.147691
9.379983
9.739995
8.976460
9.395480
9.097457
8.215904
8.733869
8.351803
7.341504
6.796718
7.009506
7.711649
7.579923
7.372499
7.136464
6.847978
6.897449
6.989837
5.572438
5.817413
6.886721
6.416440
6.942749
6.918907
8.100867
10.062456
11.292696
12.954473
14.019608
15.740991
17.288923
17.854571
17.540455
20.596981
20.057559
19.085407
16.171932
14.659762
12.481809
11.044741
9.235740
7.600784
5.902648
5.717874
5.565882
6.166697
6.119609
6.155968
6.223917
5.801916
7.610917
8.182526
##ZVALUE=215
15.469790
13.428926
11.323690
8.822680
7.323623
7.263422
6.710887
7.781982
7.886887
7.800460
6.446838
6.076694
4.957914
4.264712
3.519654
3.196597
3.010631
2.929568
3.500581
4.275441
3.108978
3.210902
4.000664
3.572702
4.511476
6.136894
7.959604
9.156466
11.227727
13.452768
14.556646
15.538931
16.632676
19.001961
19.024611
17.927885
20.595789
21.754503
17.825961
19.790530
18.123984
16.908646
17.388463
14.835000
14.025569
12.837648
12.733936
10.168552
11.864901
9.761453
10.669827
10.072589
9.262562
7.710457
8.437634
8.083582
8.147955
7.591844
7.391572
8.298755
6.902814
6.425977
7.132888
7.213950
6.750822
6.775856
7.880926
7.293820
7.287860
8.405447
9.769797
10.319948
12.339950
12.609959
14.114976
14.258623
14.117956
16.698837
14.353991
14.830828
14.128685
13.099909
10.897517
9.939671
8.289814
7.675886
6.501675
5.644560
6.012917
5.154610
5.150437
4.622936
6.048679
5.246997
5.706549
5.639791
##ZVALUE=220
41.109920
41.873455
42.732954
39.443970
35.642982
27.808547
22.882819
15.810728
14.842749
14.408827
14.646649
15.328526
14.116764
13.180971
11.036992
8.943677
6.250739
5.168915
4.228950
3.761649
3.250837
3.609657
3.357530
4.473925
5.300641
7.262826
8.410811
12.006760
13.809800
16.165972
19.234419
25.117993
26.160479
27.571917
27.243495
27.773976
28.229952
28.154850
26.357770
26.249886
25.133491
23.471713
22.351742
20.491481
18.928647
16.871691
16.826987
16.002655
14.953613
13.782978
13.479590
12.790561
12.454987
10.912418
10.476708
9.481907
8.449554
8.992553
7.771850
8.718967
8.127689
7.960796
7.812977
7.520914
7.695556
7.287860
7.530451
8.042455
7.794499
9.004474
9.779930
10.440946
11.259913
13.351440
13.519526
13.267994
13.532639
12.025833
13.710856
11.980534
10.933876
10.107756
10.273457
8.614659
6.670952
6.857514
6.126761
5.387664
4.765987
5.282760
4.837513
4.787445
5.288720
5.372763
4.320741
4.156828
##ZVALUE=225
61.203837
65.402985
76.460838
92.839003
96.025467
85.638762
78.656673
62.016845
44.686794
31.922460
28.932691
26.958585
27.623773
28.243661
27.890801
26.829839
19.655824
16.168952
12.402534
8.478761
5.190969
3.430843
3.349781
4.296899
4.988909
6.305575
9.498000
9.924769
14.673471
17.782450
21.086931
24.774671
26.063919
26.718974
28.615594
31.173825
30.225515
30.320883
29.975772
27.762651
27.300715
25.877953
22.626519
21.322966
22.411942
18.903613
18.589497
18.527508
15.693903
14.669895
12.899637
13.903975
12.189746
10.589957
10.012984
10.140538
10.034442
9.406805
8.719563
8.379817
8.286834
8.103848
7.965565
7.495880
7.783771
7.497668
6.909966
7.963777
8.915663
9.422898
8.082986
9.907484
11.185408
11.677742
12.376904
11.858940
11.225939
12.048483
11.129975
9.609461
9.104609
8.177757
8.239746
7.312894
6.394982
5.587935
5.872846
5.074739
4.841685
4.482865
4.405975
4.622936
5.332828
5.513430
4.782677
4.400611
##ZVALUE=230
50.955415
54.467916
84.039569
129.604936
155.265927
187.086463
193.514824
186.637640
163.145661
130.116940
91.717839
69.793463
52.207708
47.752857
49.103498
50.977468
50.695539
51.156878
45.278668
34.815669
27.651787
17.578602
11.349916
8.034706
7.086992
6.102920
8.913875
10.303855
12.194514
14.577508
17.709732
18.691421
19.640923
24.192929
25.066733
23.697615
23.892522
23.777485
21.571517
23.731589
22.293925
20.007491
19.515753
18.079877
17.346740
17.820597
17.738938
15.543699
14.459491
13.166666
13.203621
13.435483
10.273457
11.257529
9.850860
10.682940
11.014938
10.820627
9.521842
9.852648
9.678602
9.284616
8.772612
9.649992
8.765459
8.698702
9.731650
9.262562
8.602738
11.507869
10.054708
11.602640
11.618733
12.796521
13.287663
13.050437
12.055635
12.346506
10.723472
11.086464
10.667443
10.211468
9.836555
8.697510
8.261800
7.838607
8.103848
7.268786
7.129908
8.529425
7.493496
7.610917
7.080436
7.741451
7.065535
5.815625
##ZVALUE=235
16.515851
19.244552
39.029717
88.909864
131.159425
203.714967
260.471702
313.509703
335.380435
331.414938
288.571715
232.637525
160.845518
121.295452
87.166429
70.638657
71.949959
78.339577
81.952810
79.027414
80.557466
64.358711
51.202774
35.558939
23.880601
15.148520
9.710789
9.817481
9.204745
10.301471
11.204481
12.490749
14.863610
12.337565
14.551878
14.742613
15.231967
15.637875
14.921427
14.440417
14.024973
14.824867
14.788508
13.002753
13.677478
14.264584
12.638569
11.761785
12.011528
11.422634
10.636449
10.083914
11.363626
10.148883
11.688471
11.070967
9.724498
10.799766
10.272861
9.793639
10.168552
10.375977
9.684563
9.463429
9.413958
9.501576
9.266734
11.068583
10.654926
11.015534
11.462569
12.493730
13.514757
14.199615
13.482571
14.668703
14.518499
14.119744
12.761950
13.090968
12.054443
10.823607
11.078715
10.414720
9.306669
9.740591
8.839965
9.293556
9.809732
9.328723
8.240938
8.724928
8.327961
7.756948
8.444786
7.821918
##ZVALUE=240
2.248883
2.610683
7.120967
18.814802
51.190853
93.257427
181.084871
262.832642
385.079980
455.983877
512.355566
501.683950
455.486774
371.736884
286.952853
189.188719
132.601857
101.994872
89.977980
101.315975
109.237432
113.295913
112.548470
103.806853
76.491833
62.421560
42.966604
32.637715
20.180941
14.781952
12.182593
9.824634
11.706948
11.221766
12.447834
13.620853
12.782812
13.083816
13.768673
13.229847
13.757944
13.144612
12.596846
13.869405
12.658834
12.258887
12.293458
12.401938
12.181997
11.429787
11.757612
10.891557
10.908842
11.379719
10.433793
11.353493
11.287928
10.388494
9.612441
10.469556
10.083914
11.138916
10.694861
9.033680
10.253787
10.145903
9.636879
10.264516
11.305809
12.292862
12.398958
14.402866
14.944673
15.176535
15.341640
15.491843
14.557838
13.620853
14.140606
13.384819
12.417436
13.014674
11.170506
11.265874
12.001991
10.574460
11.000633
9.921789
10.842681
10.192990
11.235476
9.585619
10.000467
9.418726
10.331869
10.078549
##ZVALUE=245
0.920892
1.455545
1.849532
1.364946
4.290938
11.685491
42.260885
81.093907
176.799893
271.528959
407.023430
508.131981
578.047633
608.931780
576.599836
476.451516
391.517878
262.176991
188.307762
115.041733
97.238421
96.848607
108.108521
119.730830
130.527616
123.935938
110.403895
92.606544
70.654750
52.157640
40.216446
27.967691
19.138455
14.967918
13.114810
14.021993
14.477968
14.239550
15.115738
14.147758
15.488863
15.050769
15.023947
13.165474
14.965534
13.586879
13.566613
13.152957
12.717843
12.171865
13.065934
12.644529
12.425780
11.150837
10.010600
9.233952
11.226535
10.243654
10.002851
9.891987
9.429455
9.433627
8.834600
9.016991
8.412600
9.066463
9.638667
9.693503
9.030700
9.457469
10.406971
11.781454
12.616515
12.807846
12.659431
13.811588
12.847781
12.725592
13.048649
13.075471
11.893511
10.643601
11.017919
10.233521
9.873509
10.317564
9.415746
9.779930
9.265542
10.027885
8.805990
9.333491
9.818673
9.532571
8.643866
8.900762
##ZVALUE=250
1.279712
1.209974
1.530647
1.470447
1.696944
1.397729
2.335906
8.631945
25.637746
74.819922
136.681795
263.405442
382.982492
530.450940
623.621941
685.621500
673.716664
588.569641
496.112704
345.139503
239.596963
166.015625
102.754831
92.790723
103.501678
118.262768
132.831931
139.066577
133.780837
124.264956
100.169778
87.053776
64.760447
45.662522
33.671856
23.573637
21.289587
19.147992
19.671917
19.328594
18.227696
19.654632
18.785000
18.504858
17.251968
17.136931
16.595721
15.535951
16.358495
14.099479
14.646649
12.177825
12.436509
11.502504
11.922717
11.142492
10.132790
10.292530
10.280609
9.188652
9.219646
9.730458
8.522868
8.999705
8.909702
7.760525
7.918477
8.203983
9.281635
9.438992
10.013580
9.527802
11.216998
11.723638
11.769533
11.344552
11.421442
11.119843
10.982752
9.887815
9.928942
10.080934
9.927750
9.287000
9.302497
10.063648
8.861423
9.203553
9.098649
9.251833
8.695722
9.045601
8.549690
8.705854
8.869767
9.055734
##ZVALUE=255
1.247525
1.500845
0.898838
1.355410
1.342893
1.163483
1.448989
1.632571
2.132654
4.497766
21.392703
52.490830
102.140903
220.005512
336.386561
511.179566
626.827478
739.984512
768.330693
710.255504
618.649721
493.631959
315.963626
205.150843
116.938949
89.868903
90.575814
104.912519
128.931999
146.297812
152.502656
151.321888
143.207908
117.085576
100.759864
72.447658
55.537820
38.688779
33.035874
27.898550
24.973750
25.983453
23.755431
23.303628
20.642877
22.248626
19.252896
19.323826
17.622709
17.011762
15.160441
14.394522
13.496876
13.290644
11.351705
11.117458
11.195540
11.126995
10.010600
9.077787
8.882880
8.740425
8.178949
7.721782
7.823706
8.237958
8.305907
8.617640
7.453561
8.736849
8.574724
10.060668
10.123849
10.388494
10.279417
10.082722
10.189414
10.240674
9.234548
9.352565
8.249879
8.667707
8.254647
8.318424
8.038878
7.233620
7.518530
7.669926
7.500648
7.327795
7.885695
8.450747
8.028746
7.679462
7.400513
8.176565
##ZVALUE=260
1.110435
0.916719
1.104474
0.957847
1.100898
1.069903
1.173615
1.255870
1.210570
1.162887
1.487732
2.121925
10.780692
29.943585
82.814693
158.139467
314.794779
451.003909
591.906905
762.096643
850.351453
836.547613
758.262873
582.614541
436.870456
260.380507
174.051523
107.036829
88.410974
98.728538
118.770599
145.699978
164.706707
176.178813
168.830752
156.136751
138.349533
105.516911
87.048411
62.528849
49.107671
38.886666
34.430623
29.465556
28.004646
26.827455
23.672581
23.108721
22.416711
19.821525
18.235445
17.601848
15.578866
15.601516
13.849735
12.503862
11.877418
10.867715
10.936856
10.097623
9.003878
8.481741
8.446574
8.208752
7.685423
8.515716
7.902980
7.715821
7.340908
7.714629
8.539557
8.451939
9.046793
8.614659
8.512735
9.034872
8.872747
8.646846
7.978678
7.984638
7.912517
7.796884
7.484555
6.983876
7.220507
7.158518
7.493496
7.199645
7.353425
6.879568
7.116795
6.927848
7.358789
6.943941
7.170439
7.311702
##ZVALUE=265
0.622869
0.924468
0.897646
0.632405
0.812411
0.683665
0.913739
1.136661
1.280904
1.160502
1.178980
1.193881
1.357794
1.743436
4.680753
21.628737
52.832961
136.567950
237.090588
435.285568
606.113672
757.164955
912.107825
935.071707
853.256583
733.301640
544.965863
391.050577
229.405761
151.906610
107.936859
92.479587
107.867718
139.174461
158.958435
180.399418
187.465549
180.584788
166.940689
135.837793
114.085674
84.646940
66.775680
48.199892
37.708879
29.994845
27.594566
24.344921
24.954677
21.375418
20.095706
19.284487
17.174482
15.058517
15.217662
14.354587
13.061762
11.292696
10.868907
10.380745
9.552836
8.987784
8.462667
8.091927
8.734465
7.909536
7.786751
7.670522
7.857680
7.627606
7.967949
7.680655
8.321404
8.484721
7.938743
8.123517
8.514524
8.170605
7.756948
7.577538
8.414984
6.998777
7.191896
6.927848
6.583929
7.080436
6.890893
6.630421
6.164908
6.420612
6.580949
6.622672
6.266832
6.188750
6.269813
6.108880
##ZVALUE=270
0.825524
0.665784
0.892878
0.950694
0.925660
0.871420
0.906587
0.917912
0.738502
0.753999
1.148582
1.087785
1.273751
1.397729
1.476407
1.744628
2.222657
11.340976
32.349825
99.489689
192.027688
324.230790
563.514829
747.547746
941.372514
999.028683
984.769464
883.640647
686.135888
524.893999
327.297449
216.132998
125.428438
95.161796
95.774531
111.748576
142.769814
162.579417
182.686448
185.033679
178.942680
163.348913
133.171678
109.459758
78.610778
60.598850
43.639541
33.583641
25.581717
21.211505
19.827485
18.246770
17.100573
15.677810
14.048815
14.178753
12.680888
12.335777
11.313558
10.355711
9.785891
9.474754
8.922815
8.469820
8.034706
7.866621
7.693768
7.049441
7.684827
7.878542
8.168817
7.956624
8.432865
8.555651
8.228421
8.371472
7.740855
7.622838
7.512569
7.162690
6.595850
6.564856
6.430745
6.733537
6.309748
6.270409
6.029606
6.057620
5.799532
6.538630
6.501675
5.984902
6.497502
6.009936
6.136894
5.864501
##ZVALUE=275
0.452995
0.745654
0.698566
0.774860
0.845790
0.878572
0.676513
0.961423
0.856519
0.859499
0.894666
0.975728
1.185536
1.067519
1.076460
1.298785
1.155734
1.428723
1.720786
4.779696
17.758608
50.579906
151.854753
277.465582
514.475703
695.520639
906.260014
1014.619470
1016.031504
1000.445485
879.674554
654.298663
470.473766
260.823965
165.342689
91.666579
72.075725
81.731677
101.653934
129.987597
149.128437
167.518854
172.668695
162.410736
150.428414
119.777918
99.543929
70.967674
53.862929
34.922957
25.178790
18.194914
15.650988
12.829900
13.055801
11.828542
11.083484
10.696650
10.215640
9.491444
9.035468
8.640885
7.843971
8.139610
7.711649
7.861853
7.332563
7.178783
7.549524
7.247925
6.757975
7.709861
8.442998
7.969737
7.911921
7.891655
7.979870
7.352829
7.731915
6.772876
6.897449
6.614923
6.191730
5.974770
6.422997
5.958676
6.002784
5.978942
5.431771
5.693436
5.780458
5.978942
5.623698
5.589724
5.577803
5.825758
##ZVALUE=280
0.522733
0.440478
0.647902
0.371933
0.743866
0.513792
0.777841
0.705719
0.691414
0.757575
0.607967
0.710487
0.896454
0.793934
0.843406
0.663996
1.101494
1.090765
1.244545
1.497865
1.527667
1.954436
12.487769
38.742423
121.691823
222.309828
417.913795
606.713891
857.499838
1000.503898
1015.933752
1015.933752
979.837775
746.978521
554.400682
318.330526
196.202993
93.532801
57.755709
51.383972
62.883496
89.337826
112.013817
138.060451
149.079561
156.311989
151.648521
134.827495
112.906694
85.405707
63.098669
40.961504
28.133988
18.114448
12.930632
9.206533
8.792877
8.602738
7.873774
7.502437
7.181764
7.023811
7.384419
6.904602
6.842613
7.086992
6.618500
6.700754
6.732941
6.906986
7.109642
7.290840
7.544756
7.234812
7.147789
7.507801
7.124543
6.837845
6.722808
6.360412
5.890727
6.348491
6.307960
6.061792
6.089807
5.357862
6.236434
5.571842
5.681515
5.189776
5.279779
5.569458
5.015731
5.062819
5.158782
5.181432
##ZVALUE=285
0.570416
0.639558
0.536442
0.547767
0.451803
0.486970
0.442863
0.541806
0.718832
0.668764
0.592470
0.442863
0.712872
0.727773
0.761747
0.953674
0.869632
0.938773
1.022816
1.181960
1.261830
1.150966
1.466870
1.807809
5.546808
20.042658
67.589879
145.782828
319.201946
489.709973
749.639869
931.123495
1015.933752
1015.933752
1015.933752
870.816708
690.723658
439.656973
281.006694
136.235952
72.883964
36.607981
37.058592
55.676699
75.726509
103.173852
122.576952
142.787695
147.274733
141.842961
130.581856
105.951428
86.697936
59.258938
41.459799
24.918914
16.081929
10.646582
8.059740
6.810427
6.955862
6.732941
6.197691
6.366968
6.494522
6.683469
6.431937
6.524920
7.056594
6.809831
7.432699
7.206798
7.204413
7.685423
7.322431
7.126927
7.185936
6.776452
6.721616
6.165504
6.508827
6.071925
6.148815
6.379485
5.617738
5.295873
5.359650
6.030798
5.454421
5.215406
5.466938
5.407929
5.289912
5.094409
5.075932
5.145669
##ZVALUE=290
0.326633
0.509620
0.529885
0.457764
0.550747
0.480413
0.558496
0.651479
0.547767
0.523925
0.614524
0.641942
0.675917
0.547767
0.550747
0.758767
0.776649
0.840425
0.726581
0.782609
0.875592
0.848770
1.053810
1.237988
1.269579
1.670718
2.129674
8.175969
40.012598
91.653466
156.505704
388.028026
593.950748
884.113908
1015.954614
1015.954614
1015.954614
968.539715
793.297887
543.901920
364.769697
185.042620
97.563863
39.037466
26.745796
34.296513
48.538446
72.816610
92.061758
118.147731
134.748816
141.485929
140.996575
124.949813
106.328726
81.168413
58.703423
38.036704
25.389791
15.527606
10.802746
7.812977
6.793737
6.825924
6.450415
6.490946
6.602407
6.037951
6.631613
6.848574
7.343888
7.262826
7.268786
7.302761
7.655621
7.027984
7.144809
6.982684
6.569624
6.337762
6.235838
6.210804
5.922914
6.096959
6.098747
5.949736
5.721450
5.500913
5.507469
5.210638
5.275607
5.232692
5.404949
5.111694
5.568862
4.953742
##ZVALUE=295
0.462532
0.616908
0.612736
0.686646
0.646710
0.422597
0.521541
0.436902
0.610948
0.674725
0.752807
0.655651
0.600815
0.698566
0.799894
0.643730
0.734925
0.762939
0.937581
0.665784
0.799894
0.823736
0.969768
1.009703
1.334548
1.300573
1.670718
1.538992
1.788735
3.330708
12.627840
56.712627
134.804845
329.244733
529.738665
833.900571
1004.920006
1016.031504
1016.031504
1016.031504
919.497609
660.956502
465.898514
256.341696
141.251683
52.948594
26.708841
22.653937
29.733777
46.072602
63.641667
90.303421
108.527541
128.472447
134.285688
132.550001
121.104717
98.618865
81.898570
55.804849
41.498542
24.099946
16.661882
10.938644
8.635521
7.048845
6.646514
6.809831
6.772876
7.374883
7.271767
7.772446
8.240938
7.932782
7.523894
7.818937
7.471442
7.043481
6.573796
6.685853
6.517768
6.251931
6.246567
6.235838
5.843639
5.577803
6.124973
5.988479
5.665421
5.794764
5.345941
5.361438
5.417466
4.966855
5.269647
5.301833
##ZVALUE=300
0.470877
0.519753
0.451803
0.470877
0.525713
0.569820
0.520945
0.457764
0.548959
0.496507
0.516772
0.617504
0.557899
0.593662
0.526905
0.582933
0.574589
0.495911
0.540614
0.707507
0.697970
0.739694
0.899434
1.057982
1.188517
1.174808
1.010895
1.209974
1.284480
1.424551
1.778603
1.852512
8.263588
29.845834
106.247663
219.700933
461.961627
688.691735
979.120731
1016.032696
1016.032696
1016.032696
987.651944
806.871653
537.499785
353.492498
183.180571
99.279881
37.294626
18.877983
18.546581
26.218891
41.474700
57.915449
82.542896
102.197528
121.088624
128.535628
126.777887
119.030476
97.691417
80.099702
56.121945
40.567517
25.018454
17.122626
11.653900
8.968711
7.102489
7.021427
7.258654
7.161498
7.358789
7.278919
7.368922
7.458925
7.033944
6.960630
6.381869
6.576777
6.626844
6.266832
6.212592
6.132722
6.130934
6.057620
6.002784
5.733967
5.811453
5.606413
5.377531
5.390644
5.392432
4.710555
5.220771
5.215406
##ZVALUE=305
0.453591
0.465512
0.532866
0.463724
0.523925
0.453591
0.443459
0.426769
0.450611
0.613928
0.425577
0.647902
0.439882
0.510812
0.630617
0.529885
0.704527
0.842810
0.711679
0.418425
0.690818
0.611544
0.601411
0.776649
0.821948
0.948906
0.984669
0.982881
1.052618
1.165867
1.247525
1.480579
1.505613
1.688600
3.364682
19.889474
57.104826
174.908638
326.455832
606.141686
837.886930
1016.031504
1016.031504
1016.031504
1016.031504
840.646029
648.834705
410.263538
255.500674
117.866993
58.576465
20.625591
13.746619
16.920567
24.054646
41.044950
56.485534
80.282688
96.734762
113.701820
121.863484
121.472478
110.889673
92.367530
75.661540
52.017570
37.954450
23.611784
16.320944
10.550618
8.474588
7.795691
7.449985
6.950498
6.796718
6.604791
6.536841
6.446838
6.248951
5.916953
5.838871
5.823970
5.889535
5.883574
5.678535
5.574822
5.513430
5.358458
5.698800
5.813837
5.398989
5.106926
5.216599
5.052686
5.082488
4.846454
##ZVALUE=310
0.373721
0.341535
0.469685
0.391603
0.397563
0.284910
0.450611
0.540614
0.314713
0.492930
0.458956
0.582933
0.525713
0.424981
0.521541
0.488758
0.385642
0.494719
0.538826
0.618696
0.689626
0.537634
0.517964
0.557899
0.693798
0.663996
0.868440
0.764728
0.764728
0.928640
1.155734
1.105666
1.187921
1.393557
1.439452
1.589656
1.874566
7.937551
28.083920
101.003647
211.924911
450.250506
691.408515
991.145968
1016.032696
1016.032696
1016.032696
984.448791
794.578791
525.988936
352.869630
179.114938
95.304847
34.528971
15.265942
11.605620
14.534593
23.270845
32.732487
51.005483
67.459941
89.598894
103.732944
113.343596
114.057660
105.857849
92.393756
71.608424
55.364966
36.189556
25.214553
15.682578
11.402965
8.013844
6.772876
6.184578
5.943775
5.947948
5.894899
5.619526
5.650520
5.607605
5.633831
5.540848
5.536675
5.486608
5.434752
5.356669
5.242825
5.185604
5.173683
4.874468
4.904866
4.863739
4.899502
4.870892
##ZVALUE=315
0.412464
0.282526
0.474453
0.269413
0.174642
0.427961
0.217557
0.380874
0.321865
0.318885
0.368953
0.512600
0.372529
0.375509
0.493526
0.377893
0.340939
0.207424
0.486970
0.466704
0.378489
0.410676
0.508428
0.618696
0.549555
0.754595
0.598431
0.785589
0.723600
0.783801
0.705719
0.700951
0.810623
0.963807
1.062751
0.954866
1.149774
1.306534
1.556873
3.504753
13.638735
60.113668
138.302445
331.772566
545.353889
868.697762
1015.969515
1015.969515
1015.969515
1015.969515
891.057849
635.308027
449.746847
239.371657
130.593777
49.329996
20.716786
10.146499
9.923577
14.023781
19.351840
32.270551
44.882894
65.057874
79.480410
97.861886
106.641650
106.684566
101.766586
84.235668
70.714951
50.889850
37.044883
22.587776
15.404820
9.593964
7.481575
5.880594
5.258918
5.138516
4.988909
5.046725
5.135536
5.155802
4.966855
4.641414
4.816651
4.767776
4.761815
4.774928
4.846454
4.297495
4.644990
4.483461
4.741549
4.564524
##ZVALUE=320
0.331998
0.430942
0.371933
0.326633
0.301600
0.467896
0.350475
0.306964
0.440478
0.378489
0.313520
0.441670
0.450611
0.545979
0.431538
0.298619
0.397563
0.452995
0.498891
0.511408
0.495911
0.633597
0.393987
0.744462
0.603795
0.624657
0.558496
0.673532
0.503659
0.467896
0.658631
0.857711
0.796914
0.673532
0.814795
1.045465
1.178980
1.202822
1.110435
1.405478
1.362562
2.274513
6.030798
31.375885
82.540512
221.938491
373.545885
620.656013
822.549462
1013.123989
1016.041636
1016.041636
962.636471
732.888579
538.434386
299.056768
175.113678
74.050426
33.207536
11.412501
8.560419
9.056926
11.204481
17.362833
26.026964
42.439699
57.256818
76.107979
89.572668
100.452900
101.240873
94.292760
83.810687
64.148903
49.582720
32.080412
22.564530
13.917685
9.726882
6.683469
5.578995
4.898906
4.970431
4.688501
4.856586
4.507899
4.543662
4.384518
4.487634
4.754663
4.753470
4.650950
4.545450
4.463792
4.924536
4.401803
##ZVALUE=325
0.264645
0.343919
0.245571
0.326633
0.429749
0.404716
0.303984
0.310540
0.390410
0.180602
0.224710
0.151992
0.507832
0.393987
0.438690
0.301600
0.323653
0.438690
0.413656
0.471473
0.482798
0.533462
0.369549
0.622869
0.489950
0.490546
0.560880
0.432730
0.530481
0.598431
0.652671
0.627637
0.686646
0.720620
0.804663
0.757575
0.873804
0.959635
1.039505
1.001954
1.195669
1.219511
1.414418
1.723766
3.209710
20.903945
54.836869
147.864819
266.251564
494.299531
686.645508
914.659500
1016.031504
1016.031504
985.306501
777.612925
581.986904
348.456502
214.038491
97.703934
46.405792
14.783740
8.126497
6.977916
7.862449
10.976791
16.145706
26.177764
38.073659
57.767630
70.770979
85.503459
93.686581
93.841553
89.075565
72.972775
61.208606
43.639541
31.133890
19.009709
12.627840
8.029938
6.453991
5.351901
4.415512
4.480481
4.277825
4.273653
4.412532
4.155636
4.445910
4.220605
4.283786
4.155636
4.292727
4.298687
##ZVALUE=330
0.423789
0.375509
0.288486
0.324845
0.262856
0.292659
0.317693
0.315905
0.280738
0.353456
0.275970
0.437498
0.338554
0.288486
0.347495
0.261664
0.419617
0.375509
0.359416
0.421405
0.339746
0.329614
0.501871
0.506639
0.371933
0.658631
0.536442
0.525713
0.546575
0.545979
0.594854
0.534654
0.531673
0.693798
0.774860
0.511408
0.706911
0.595450
0.841618
0.737906
0.793934
0.940561
1.100898
1.323819
1.193881
1.428723
1.816750
8.794665
28.986931
96.926689
187.054873
377.934575
554.386973
802.888870
955.665708
1016.031504
1002.545953
843.716860
673.468709
433.658957
278.643966
130.587816
66.571832
23.078918
10.148883
6.770492
6.339550
7.560849
9.656549
16.269684
23.517609
37.464499
50.866604
68.982840
80.412626
87.301731
88.406801
81.776977
72.560906
55.164695
42.628646
27.402639
19.893646
12.304783
8.899570
6.064773
5.424619
4.456639
4.693866
4.238486
4.226565
4.174709
4.253983
4.148483
4.084706
3.972650
##ZVALUE=335
0.269413
0.241995
0.433922
0.326633
0.230670
0.406504
0.296831
0.357628
0.340939
0.323653
0.286698
0.305772
0.216961
0.276566
0.306964
0.467896
0.336766
0.462532
0.360608
0.322461
0.300407
0.326633
0.313520
0.439882
0.395775
0.516772
0.529885
0.470877
0.525713
0.540614
0.400543
0.642538
0.473857
0.438690
0.622869
0.406504
0.657439
0.695586
0.702739
0.685453
0.705719
0.979900
0.685453
1.002550
0.975728
1.036525
1.000762
1.272559
1.475811
3.301501
18.137693
50.777793
144.089460
259.104967
477.873683
671.110749
897.542834
998.402834
1009.068489
931.307673
734.532475
558.455586
333.677530
200.947523
85.599422
39.476752
12.805462
7.302761
6.066561
6.131530
7.401705
9.525418
14.776587
22.048950
34.411550
46.197772
62.350631
73.749423
81.759691
82.577467
75.755715
66.776872
53.305626
42.269826
28.283596
20.641685
12.708902
9.075999
6.105900
5.043745
4.341602
4.225969
4.038811
4.249811
4.289746
3.889799
##ZVALUE=340
0.161529
0.194907
0.043511
0.316501
0.259876
0.252724
0.296831
0.255704
0.335574
0.424981
0.197887
0.354648
0.345707
0.138879
0.157952
0.288486
0.356436
0.288486
0.255704
0.402927
0.410676
0.331998
0.575781
0.355840
0.361800
0.346899
0.196695
0.413656
0.375509
0.301600
0.461936
0.565648
0.448823
0.528693
0.438690
0.425577
0.503659
0.576973
0.388622
0.509620
0.545979
0.750422
0.655651
0.845790
0.840425
0.797510
0.939965
1.088977
0.921488
0.993609
1.238585
1.990795
9.000897
29.534698
96.744895
194.644928
401.178598
578.578711
809.072852
940.809846
1012.060642
963.290930
796.152949
627.359748
392.770767
247.735977
113.211870
53.803921
16.265512
8.021593
6.391406
6.104708
6.033778
6.697774
9.180903
13.072491
21.810532
31.934977
46.380758
57.860613
70.020556
75.701475
75.986981
72.334409
62.712431
52.819848
39.165616
29.568672
19.067526
13.244748
8.462667
6.152987
4.706979
4.478693
4.113913
3.951788
##ZVALUE=345
0.294447
0.336766
0.280738
0.210404
0.361800
0.222921
0.230670
0.264645
0.169873
0.229478
0.245571
0.305772
0.314713
0.297427
0.295639
0.419617
0.411868
0.285506
0.423789
0.275970
0.279546
0.369549
0.447631
0.319481
0.265837
0.396967
0.440478
0.405908
0.417829
0.366569
0.477433
0.512600
0.404716
0.416636
0.435710
0.423789
0.542998
0.580549
0.493526
0.558496
0.617504
0.580549
0.752807
0.700951
0.639558
0.612736
0.810623
0.826716
0.912547
0.907779
1.034737
1.022816
1.219511
1.506805
3.106594
19.817948
55.390596
149.847865
270.795822
492.501855
674.296618
883.663893
975.973606
976.655483
878.478885
670.416951
497.692823
295.339823
164.859891
65.126419
29.246807
10.096431
6.753802
6.039739
5.570650
5.765557
6.205440
8.279681
11.926889
20.419955
28.912425
42.718649
52.409768
63.501000
69.342852
71.047544
68.242550
60.118437
51.724911
39.566755
29.516816
18.887520
13.648868
8.592606
6.240606
4.885793
##ZVALUE=350
0.199676
0.138879
0.116825
0.248551
0.111461
0.158548
0.150800
0.348687
0.087619
0.169873
0.219941
0.322461
0.213981
0.272989
0.271797
0.303984
0.143647
0.277758
0.217557
0.239611
0.197887
0.328422
0.288486
0.272989
0.232458
0.264645
0.237823
0.333786
0.333786
0.370741
0.231862
0.311732
0.331998
0.321865
0.440478
0.472665
0.307560
0.375509
0.440478
0.502467
0.408888
0.649691
0.509620
0.537634
0.608563
0.562668
0.611544
0.629425
0.653863
0.685453
0.767708
0.751615
0.876784
1.033545
0.965595
1.200438
1.886487
10.112524
31.367540
99.850893
194.190741
390.540957
564.615726
782.873034
910.098553
973.235965
917.653441
747.219920
570.943952
339.005589
207.982659
95.998645
43.719411
12.944937
6.739497
5.395412
5.088449
4.796982
4.942417
5.522966
7.530451
12.110472
17.278790
26.095510
34.787655
47.349930
56.114793
62.971711
64.596534
62.472820
56.628585
46.141744
37.827492
26.237965
19.603968
12.396574
##ZVALUE=355
0.256896
0.307560
0.280738
0.318885
0.358820
0.176430
0.318885
0.213981
0.226498
0.410676
0.355840
0.380874
0.190735
0.438690
0.411868
0.354648
0.377893
0.329614
0.471473
0.343919
0.216961
0.337958
0.326633
0.292659
0.284910
0.364780
0.428557
0.231862
0.349879
0.409484
0.436902
0.444651
0.380874
0.424981
0.532866
0.559688
0.659823
0.458956
0.503659
0.484586
0.456572
0.446439
0.635982
0.517964
0.582933
0.690818
0.658631
0.604987
0.688434
0.728965
0.729561
0.875592
0.973940
0.756979
0.869632
1.089573
1.118779
1.291633
1.618862
4.375577
16.546845
64.877868
135.271549
289.150476
455.548763
698.323846
843.253732
944.488645
931.226015
782.325864
627.896786
415.541530
262.105465
116.249919
56.536794
17.646551
8.267760
5.629659
4.996657
4.587770
4.705787
4.752874
5.116463
6.744862
9.525418
15.260577
21.651983
31.757951
39.870739
50.100684
55.334568
59.409738
58.064461
52.091479
44.871569
35.271645
##ZVALUE=360
0.222921
0.172853
0.244975
0.085831
0.220537
0.406504
0.152588
0.124574
0.169873
0.334978
0.226498
0.165701
0.092983
0.157952
0.182986
0.309944
0.148416
0.068545
0.220537
0.155568
0.144839
0.234842
0.179410
0.106692
0.375509
0.110865
0.315905
0.299811
0.406504
0.323653
0.216961
0.396967
0.273585
0.372529
0.453591
0.301600
0.459552
0.115633
0.430942
0.404716
0.438690
0.342727
0.432730
0.551939
0.539422
0.349879
0.391603
0.539422
0.558496
0.506639
0.541806
0.614524
0.658631
0.546575
0.793934
0.797510
0.769496
1.050830
1.089573
1.048446
1.289845
2.089739
7.167459
33.290982
83.420873
209.827423
349.144936
568.566918
741.806030
897.786617
924.227834
836.528540
695.499778
467.071533
315.920711
161.320567
84.107518
28.448701
11.730790
5.342960
4.940629
4.595518
4.313588
4.060864
4.012585
4.593730
5.525947
7.995963
11.349916
17.819405
24.603605
34.826994
42.143464
49.923658
52.534938
53.454638
##ZVALUE=365
0.227690
0.222921
0.399947
0.338554
0.204444
0.330806
0.375509
0.304580
0.256896
0.348687
0.257492
0.165701
0.190735
0.270605
0.411868
0.389814
0.149608
0.309944
0.275970
0.334978
0.345707
0.409484
0.344515
0.243783
0.332594
0.450611
0.503659
0.305772
0.356436
0.315905
0.310540
0.326633
0.205636
0.236630
0.357628
0.324845
0.341535
0.280738
0.550747
0.364780
0.548959
0.570416
0.363588
0.442863
0.526905
0.565648
0.513792
0.728965
0.589490
0.444651
0.654459
0.665784
0.495911
0.659823
0.741482
0.649691
0.709891
0.828505
0.863671
1.029968
1.062751
1.036525
1.195669
1.484752
3.957748
13.851523
54.985881
122.674704
284.828544
453.290939
683.720708
813.906789
902.756453
888.211727
745.473504
590.466857
364.615917
221.166611
97.313523
47.157407
15.310645
6.903410
4.998446
4.339814
4.250407
3.889799
3.861785
3.791451
4.004836
4.548430
6.440878
9.604692
15.439987
20.999908
29.158592
36.033988
##ZVALUE=370
0.218749
0.299811
0.144839
0.192523
0.136495
0.303984
0.242591
0.160933
0.258684
0.192523
0.090599
0.268817
0.302792
0.280738
0.318885
0.389814
0.313520
0.284910
0.370741
0.343919
0.247955
0.189543
0.308752
0.127554
0.205636
0.345707
0.406504
0.390410
0.267625
0.362992
0.366569
0.479817
0.409484
0.336766
0.427961
0.332594
0.365973
0.417829
0.414848
0.296831
0.437498
0.326633
0.500679
0.494719
0.316501
0.337958
0.386834
0.477433
0.530481
0.391603
0.449419
0.505447
0.494719
0.450611
0.459552
0.679493
0.605583
0.660419
0.706911
0.837445
0.845790
0.715852
1.014471
1.112819
1.105666
1.328588
1.982450
7.259846
37.611723
92.475414
221.074820
356.433988
572.154522
730.273724
868.535638
886.369944
791.742802
650.233030
431.285501
281.434655
131.931901
67.527890
24.668574
10.616779
4.886985
4.182458
4.055500
3.761649
3.455877
3.294945
3.300905
3.404617
4.173517
5.472898
8.693933
12.012720
##ZVALUE=375
0.275970
0.189543
0.210404
0.118613
0.093579
0.269413
0.236630
0.067949
0.159740
0.416636
0.299811
0.193715
0.077486
0.275970
0.185966
0.280738
0.161529
0.223517
0.235438
0.256896
0.335574
0.240803
0.213981
0.300407
0.227690
0.292659
0.315905
0.303984
0.374913
0.293851
0.208616
0.090599
0.373721
0.377893
0.371933
0.406504
0.367761
0.328422
0.347495
0.300407
0.461936
0.481606
0.347495
0.306964
0.307560
0.361800
0.335574
0.467896
0.491738
0.396967
0.365973
0.473857
0.540614
0.421405
0.369549
0.409484
0.490546
0.371933
0.471473
0.589490
0.710487
0.699759
0.562668
0.730753
0.680685
0.878572
0.892878
1.042485
1.527667
3.892779
19.840598
53.912997
151.294470
268.218517
461.550951
625.484586
807.134509
872.374773
831.718445
717.833638
508.248806
356.435776
196.196437
109.231472
42.027831
17.808676
6.006956
4.216433
3.980994
3.600717
3.544688
3.485680
3.094673
3.061891
3.205538
3.554821
##ZVALUE=380
0.103712
0.060797
0.183582
0.087619
0.205636
0.240803
0.359416
0.293851
0.242591
0.229478
0.227690
0.107884
0.283718
0.233650
0.041723
0.200868
0.134706
0.285506
0.289679
0.302792
0.203848
0.066757
0.219941
0.191927
0.292659
0.076890
0.195503
0.405908
0.238419
0.227690
0.251532
0.225902
0.314713
0.249743
0.318885
0.344515
0.271797
0.321865
0.543594
0.370741
0.378489
0.375509
0.489950
0.481606
0.308752
0.410676
0.431538
0.311732
0.337958
0.422597
0.376701
0.634789
0.470877
0.491738
0.351667
0.494719
0.418425
0.456572
0.511408
0.542998
0.508428
0.465512
0.541806
0.557899
0.559688
0.646710
0.766516
0.878572
1.117587
1.281500
1.389980
2.533793
8.728504
42.463541
97.630620
233.621597
377.071500
588.973761
746.170878
867.749453
867.917538
748.121738
612.251759
422.432423
282.581449
139.199495
71.365833
24.200678
9.872913
4.363656
3.801584
3.320575
3.300905
3.053546
3.148913
2.939701
##ZVALUE=385
0.242591
0.254512
0.256896
0.176430
0.267625
0.158548
0.125766
0.038743
0.181794
0.217557
0.249743
0.134706
0.265837
0.222921
0.327826
0.444651
0.205636
0.186563
0.159740
0.323653
0.227690
0.196695
0.252724
0.282526
0.358820
0.277758
0.292659
0.314713
0.258684
0.386834
0.371933
0.329614
0.244975
0.493526
0.352859
0.330806
0.452995
0.395775
0.340939
0.385642
0.420809
0.564456
0.467896
0.264645
0.286698
0.240803
0.251532
0.240803
0.363588
0.360608
0.290871
0.351667
0.363588
0.401735
0.483990
0.497699
0.438690
0.533462
0.444651
0.504851
0.544786
0.388622
0.515580
0.505447
0.505447
0.425577
0.696778
0.753999
0.877976
0.934601
1.005530
1.475811
1.164675
1.465678
4.321933
23.476481
61.522722
156.790614
279.801488
493.094921
655.725598
813.225508
855.569839
808.577538
705.016851
514.274836
363.720655
196.346641
111.112595
44.658780
17.948747
5.472898
3.692508
3.305674
3.165603
3.223419
##ZVALUE=390
0.183582
0.074506
0.114441
0.185966
0.270605
0.152588
0.327826
0.163913
0.196695
0.155568
0.125766
0.173450
0.236630
0.123978
0.171661
0.162721
0.178814
0.211596
0.151992
0.156760
0.347495
0.247955
0.075698
0.227690
0.347495
0.249743
0.221729
0.423789
0.442863
0.365973
0.425577
0.401735
0.535846
0.576973
0.756979
0.595450
0.649691
0.387430
0.552535
0.650883
0.553727
0.532866
0.431538
0.542998
0.461936
0.323653
0.430942
0.451803
0.509620
0.481606
0.573993
0.379682
0.402927
0.314713
0.501871
0.295639
0.377893
0.354648
0.548959
0.404716
0.462532
0.444651
0.409484
0.439882
0.510812
0.593662
0.704527
0.722408
0.666976
0.945926
0.837445
0.973940
0.923872
0.984669
1.072884
1.161695
2.041459
11.759996
38.457513
118.800998
222.208500
414.360762
562.362671
733.217597
822.734833
845.685601
782.573819
617.567897
471.236706
284.281969
163.302422
66.567659
29.764771
8.513927
4.085898
3.315806
##ZVALUE=395
0.285506
0.178814
0.201464
0.103712
0.176430
0.169873
0.233650
0.138879
0.303984
0.230670
0.113845
0.315905
0.275970
0.202656
0.366569
0.121593
0.225902
0.117421
0.207424
0.290871
0.117421
0.129938
0.239611
0.171661
0.201464
0.419617
0.371933
0.344515
0.446439
0.575781
0.488758
0.522733
0.788569
0.647902
0.655651
0.759959
0.702739
0.833869
0.751615
0.637770
0.643730
0.601411
0.493526
0.606775
0.586510
0.772476
0.554919
0.451803
0.412464
0.416636
0.439882
0.547767
0.490546
0.476837
0.559688
0.396967
0.570416
0.452995
0.356436
0.436902
0.525713
0.620484
0.478625
0.399947
0.596642
0.479817
0.721812
0.634789
0.659823
0.838637
0.781417
0.845790
0.829697
0.852942
0.917912
0.968575
0.938773
1.027584
1.291633
6.820560
23.899674
82.794428
162.471533
316.924453
462.973714
660.751462
779.401660
857.034922
839.833617
710.708499
562.511683
348.027945
221.224427
101.343989
48.416853
15.577674
##ZVALUE=400
0.114441
0.202656
0.199676
0.091791
0.249743
0.228882
0.263453
0.176430
0.271797
0.196695
0.156760
0.220537
0.187755
0.197887
0.044703
0.296831
0.252724
0.084639
0.300407
0.316501
0.102520
0.183582
0.166893
0.244975
0.216961
0.239611
0.357628
0.398755
0.531673
0.481606
0.547767
0.572801
0.628829
0.875592
0.974536
0.696778
0.809431
0.763535
0.780821
0.786781
0.685453
0.673532
0.658631
0.527501
0.701547
0.546575
0.657439
0.541806
0.546575
0.583529
0.389814
0.529885
0.486970
0.512600
0.491738
0.442863
0.517964
0.344515
0.403523
0.375509
0.395775
0.434518
0.437498
0.563860
0.560880
0.532866
0.412464
0.666976
0.602603
0.680685
0.812411
0.656843
0.699759
0.882745
0.868440
0.895858
0.886917
0.834465
0.942945
1.063943
1.374483
4.044771
15.151501
53.286552
111.843944
247.812867
387.268662
583.833456
714.512467
831.386447
848.913789
755.572915
625.621676
419.921875
277.441740
134.573579
##END
