##TITLE=FAAI0552
##FORMAT=SPECTACLE-ASCII V-1.2
##DATA TYPE=ULTRAVIOLET SPECTRUM
##SECOND TYPE=ULTRAVIOLET SPECTRUM
##DATE=04/30/18
##TIME=15:55:04
##SPECTROMETER/DATA SYSTEM=SPECTACLE
##XUNITS=NM EM
##YUNITS=ENERGY
##YFACTOR=1
##FIRSTX=220
##LASTX=410
##NPOINTS=96
##3DDATA=Equidistant
##ZUNITS=NM EX
##FIRSTZ=210
##LASTZ=400
##ZPOINTS=39
##XYDATA=(Y..Y)
##ZVALUE=210
3.463626
3.255606
3.639460
2.841949
3.315806
3.987551
3.881454
3.461838
3.351569
3.438592
2.873540
2.217889
2.254844
2.367496
2.652407
2.964735
2.248883
2.166629
2.451539
2.618432
3.210902
3.743768
3.214478
2.750754
4.338622
5.838871
7.715821
8.988976
11.254549
12.821555
15.936494
17.899871
18.224716
19.444823
19.962788
20.513535
21.366477
20.032525
20.586848
19.307733
18.762946
18.181801
16.258955
16.768575
15.197992
13.920665
12.627840
13.029575
11.266470
11.266470
11.205673
10.260940
8.709431
9.046793
8.228421
9.127855
7.208586
7.354617
7.749796
6.311536
7.675886
7.100701
7.420778
6.752610
6.967783
7.080436
6.358624
7.894635
7.452965
8.962750
10.920763
11.382699
13.559461
13.160706
15.036464
15.748739
15.873909
16.230941
15.154481
14.798641
14.499426
12.705922
10.372996
8.684993
7.432699
6.452799
6.285906
5.549788
4.831553
5.246997
5.419850
5.879998
5.705953
6.708503
6.408691
6.793737
##ZVALUE=215
13.531446
13.360977
11.597872
9.805560
8.164644
8.981824
7.360578
7.469654
7.066727
6.945729
6.822944
5.648732
4.822612
3.709793
3.458858
2.851486
2.997518
3.241897
3.025532
3.606677
3.147721
3.231764
4.343987
4.542470
6.251931
7.270575
10.084510
12.560487
15.682578
20.682812
22.337437
29.376745
30.266643
32.757521
34.806728
32.644868
35.225749
34.611821
33.163428
31.522512
30.362606
28.314590
26.025772
24.691820
22.497773
22.142529
19.763708
18.310547
16.557574
14.809966
15.735626
14.206767
12.970567
12.067556
11.262894
10.264516
10.790825
9.541512
9.557605
8.760691
9.887815
8.617640
7.793903
8.088946
9.213686
7.332563
7.835627
8.309484
8.339882
9.819865
10.044575
11.330843
13.172626
13.636947
14.925599
15.346408
16.185641
14.614463
15.955567
13.237596
12.595654
12.100935
10.798573
9.760857
8.994937
6.738901
6.584525
6.360412
5.681515
5.552769
5.247593
5.586743
6.083846
5.111694
5.591512
5.947948
##ZVALUE=220
41.542649
40.490627
43.532848
42.010546
37.218928
28.707981
23.146868
17.975569
15.099645
16.545653
15.678406
16.273856
15.088916
14.284849
9.915829
9.175539
6.224513
4.777908
3.627539
3.647804
3.487468
4.151464
3.939867
5.963445
6.092787
9.509921
12.042522
18.301606
23.818612
27.225614
34.647584
41.176677
46.082735
47.386885
50.794482
48.934817
49.186945
51.062703
48.058629
47.007799
45.387745
40.998459
37.810802
38.166642
34.391880
31.220913
28.680563
28.222799
25.867820
24.055839
23.153424
21.623969
18.462539
15.574694
15.635490
14.709830
14.648438
13.006926
12.507439
11.517406
12.094975
10.424852
9.303689
9.946823
9.591579
9.619594
8.886456
9.733438
9.670854
10.284781
12.683868
13.892651
15.098453
15.177727
16.178489
14.757514
15.551448
15.989542
16.471744
14.520884
13.800859
14.405847
13.604760
10.700822
7.096529
8.159876
7.610917
5.850792
5.930662
7.042885
5.764961
5.035996
5.305409
5.919933
6.100535
6.184578
##ZVALUE=225
66.450834
68.037510
88.705420
100.649595
107.842684
105.980635
91.711879
65.107942
51.533580
36.766529
29.493570
27.648807
27.831793
29.300451
30.499697
28.964877
22.933483
18.419623
12.522936
9.550452
7.132888
4.969835
4.546642
5.746484
7.507801
8.941889
13.715625
18.360615
24.536848
31.195879
36.775470
42.711496
46.959519
50.264597
54.414868
56.223869
55.791736
54.641962
53.753853
52.116513
50.460696
46.046972
44.662952
38.272738
36.884546
35.531521
29.015541
28.735995
26.819706
26.159883
24.992824
22.544861
20.339489
18.930435
21.413565
18.105507
14.219880
15.265942
15.375614
14.098883
13.180971
12.267828
11.323690
11.643767
10.386705
10.653734
10.489821
10.587573
9.823442
11.959672
12.297630
13.786554
13.840795
14.046431
15.253425
15.504956
16.339421
15.030503
14.461875
14.247894
12.446642
13.522506
11.243820
11.123419
9.644628
8.767843
8.511543
6.861687
7.457733
7.495880
7.206798
6.388426
6.872416
6.928444
6.635785
6.334782
##ZVALUE=230
51.505566
55.544972
87.902546
140.866637
171.963573
207.751989
220.197439
209.152699
189.073682
156.442523
102.257729
75.396895
54.608583
50.169826
49.365759
53.063631
53.692460
51.295757
48.420429
36.735535
27.950406
18.584728
12.527704
8.544922
7.382631
9.109974
11.371970
14.458895
19.681454
23.723841
27.209520
32.294989
35.011768
38.718581
40.429831
40.071607
43.678880
43.206811
40.202737
37.355423
37.160516
34.348965
33.962727
33.177733
28.972626
25.996566
25.688410
24.190545
24.368763
22.496581
19.482970
19.322634
17.997622
16.845465
15.891790
15.386939
14.751554
15.242696
12.957454
13.388991
13.882518
12.420416
12.418628
12.403727
11.721849
10.907650
11.549592
10.403991
12.144446
10.821819
14.013648
12.917519
14.536977
15.640855
15.727878
16.227961
15.708804
14.751554
15.442967
14.529824
13.850927
12.317896
11.752844
11.006594
10.582805
8.433461
9.502769
10.262728
8.376837
8.514524
7.893443
7.848740
9.152889
8.463860
7.514954
7.230639
##ZVALUE=235
14.850497
17.170906
37.500858
85.965991
140.171647
214.487910
285.686851
359.412432
387.847424
370.891690
333.612561
256.163478
190.478563
125.338435
95.161796
78.004599
72.153807
78.253746
84.426999
86.073875
77.557564
68.302751
49.734712
37.847757
24.124980
18.531680
12.382865
12.032986
12.533665
14.942884
16.168952
17.377734
19.200444
21.356940
21.575689
22.648573
22.937655
24.028420
24.360418
23.613572
22.647977
21.884441
21.698475
22.093654
22.385716
18.899441
21.359921
16.814470
17.283559
16.612411
15.264750
15.635490
15.735626
13.701916
14.785528
14.211535
12.507439
12.360811
13.737679
11.778474
13.200641
11.851788
11.679530
11.428595
11.414886
10.841489
10.700822
12.754798
12.017488
12.770891
13.765693
14.625788
14.290810
14.356971
17.010570
16.327500
18.311739
15.145540
15.967488
14.192462
13.326406
12.771487
11.081696
10.949969
10.628700
10.446906
10.507703
10.133982
9.678602
9.092689
9.268522
9.455681
9.857416
9.175539
8.665919
9.315610
##ZVALUE=240
2.068877
2.324581
6.455779
17.314553
49.904585
93.781948
186.742544
275.777578
405.846834
495.562553
550.304651
550.269485
504.755974
395.681858
298.615694
190.300941
135.363936
103.400946
94.812512
96.960664
106.156468
115.016699
109.379888
103.191733
79.288483
66.570640
44.853687
35.743713
22.278428
17.878413
14.709830
13.856888
15.662909
16.148686
17.171502
19.548535
18.283725
18.152595
19.097924
20.725727
19.612908
20.403862
20.028949
19.238591
18.261671
17.632842
18.160939
16.680956
17.277598
15.695691
16.034842
15.602708
15.275478
14.210939
14.587641
14.548898
12.622476
13.565421
12.934804
12.248755
11.316538
12.314916
11.838675
11.347532
11.991858
10.727644
12.246966
12.813807
13.503432
13.942719
14.888644
14.684796
15.548468
16.248822
17.289519
16.581416
18.233657
16.540885
16.107559
15.312433
14.557838
15.164614
13.841987
11.357665
11.850595
11.319518
12.076497
10.822415
11.125803
10.511875
10.089874
10.682940
10.579824
10.431409
11.177659
10.993481
##ZVALUE=245
1.570582
1.618862
1.911521
1.568794
4.194975
12.189746
41.165948
86.194873
180.800557
294.023752
444.783568
554.728508
638.064742
670.763850
625.267625
518.803596
411.816835
282.079577
191.413760
124.458671
99.005699
94.839931
109.671950
123.415589
127.365589
126.821995
114.300847
92.453957
74.903965
56.456923
46.692491
31.489730
24.367571
21.963716
22.026896
21.676421
22.994876
23.765564
23.174882
24.346709
24.065971
23.272634
22.904873
23.814440
24.055839
21.157861
21.352768
19.189715
18.991828
19.821525
17.365813
17.225742
18.102527
17.553568
14.381409
14.405847
14.209747
13.165474
13.092756
12.947917
12.254715
10.967851
12.204647
10.682940
11.130571
10.090470
11.669993
11.282563
11.096597
11.677742
12.328625
12.759566
13.548732
13.555884
13.341904
14.266968
15.183687
13.316870
13.218522
12.859702
13.026595
12.541413
11.866689
10.864735
10.885596
10.636449
11.386871
10.179877
9.937882
11.114478
10.082722
11.141896
9.936690
10.454655
10.340810
9.340644
##ZVALUE=250
1.306534
1.313686
1.670718
1.434684
1.849532
1.579523
2.731681
7.634759
31.769872
71.157813
166.455507
274.516940
400.890708
577.131510
681.356788
755.604506
746.108890
658.972859
541.404486
374.798775
255.632997
171.029568
106.337667
91.741681
103.245974
121.392608
132.957697
142.303705
139.440894
130.941868
119.354725
94.362497
73.647499
55.584908
47.234893
36.752820
35.648942
32.495856
31.892657
31.322837
30.725598
31.360984
31.624436
30.078888
28.789639
26.679635
27.819872
25.031567
22.987723
22.466779
21.240711
19.772649
18.445849
18.064976
16.767979
16.054511
15.082955
13.988614
14.955997
12.255907
12.644529
11.409521
11.674762
10.635853
11.302829
10.010600
11.165738
10.272861
11.821985
11.211634
11.928678
12.071729
12.292862
12.760758
12.797713
12.563467
13.286471
12.613535
11.939406
11.942983
11.411905
11.277795
10.567904
10.455847
10.154843
9.321570
9.774566
8.586645
9.257793
9.008646
9.171963
9.742975
8.319616
9.132624
9.331703
10.168552
##ZVALUE=255
1.340508
1.388788
1.084805
1.419783
1.346469
1.555681
1.565814
1.779795
2.089739
4.498959
21.629930
51.753521
105.677843
225.664973
362.914801
561.818480
690.006018
818.281770
853.709579
795.532465
677.768588
532.280803
330.203772
215.664506
123.057961
93.537569
94.055533
109.033585
140.593648
155.036449
165.727735
167.773962
157.879591
137.108564
119.643807
93.029737
76.796412
62.046647
52.464604
47.758818
46.759844
45.044422
43.128729
39.743781
37.093759
33.877492
32.904744
32.061934
29.369593
26.485920
26.062727
24.036765
22.609830
21.291971
19.844770
18.022656
16.214848
14.429688
14.924407
13.235807
12.402534
13.355613
10.687709
10.959506
10.833740
10.438561
10.062456
10.258555
9.870529
9.945631
10.573864
11.141896
11.074543
10.677576
10.923743
11.327863
11.232495
10.433793
9.858608
10.508895
9.974837
9.273887
9.512901
9.010434
8.300543
8.155704
8.468628
7.602572
8.027554
8.422732
8.675456
8.177757
8.231997
8.892417
8.379817
8.580685
##ZVALUE=260
1.172423
0.926852
1.156926
1.063943
1.376867
1.043677
1.130700
1.593828
1.418591
1.721978
1.505613
2.525449
8.653998
34.279823
75.063705
179.046988
295.296907
495.082736
658.165812
844.724774
932.264924
925.644636
800.801516
647.929907
429.439545
298.871994
177.382827
125.727654
98.620653
109.834671
133.056641
168.148875
190.008879
203.140974
200.125575
187.744498
163.998604
138.061643
113.314986
90.309978
75.988770
62.925816
57.899952
52.918792
48.865676
44.127703
42.333603
39.021969
36.516786
33.621788
31.864643
29.928684
26.513934
23.801923
22.478700
20.180941
19.799471
17.347932
15.702844
14.810562
13.990998
13.651848
12.432933
11.561513
10.894537
10.664463
9.527802
10.245442
9.923577
9.609461
9.880662
9.713769
10.296702
9.754896
10.296702
9.926558
10.596514
9.899735
9.643435
8.631945
8.568764
7.767677
8.022785
8.230805
7.587671
8.049607
7.608533
8.023977
7.584691
7.183552
7.376671
7.440448
7.420778
7.373691
7.029772
7.481575
##ZVALUE=265
0.921488
0.827909
0.916719
0.873804
0.870824
1.041889
1.111627
1.256466
1.194477
1.251698
1.342893
1.428723
1.354814
1.918674
4.450679
23.732781
57.033896
140.230656
241.584778
449.477434
627.598763
805.258751
974.776745
1005.584002
907.903910
780.412555
572.704673
416.820645
246.323943
170.273781
191.085935
122.413635
138.445497
175.925493
197.156668
217.421651
224.816799
215.397477
202.631950
167.574883
148.019791
114.625692
95.473528
75.010657
64.780712
54.354668
49.067736
46.000481
41.336417
38.051605
34.618974
31.587481
28.813481
27.232766
24.158955
21.877885
20.485520
18.864870
18.459558
16.099811
14.738441
13.455749
12.345910
11.772513
11.395812
11.679530
10.636449
9.834766
9.583831
10.018945
9.287596
9.419918
10.363460
10.078549
9.761453
8.823872
8.709431
9.097457
8.676648
8.942485
8.440614
7.384419
7.722974
7.486939
7.304549
7.243752
7.130504
6.963611
6.854534
7.048845
6.992817
6.756783
6.815791
6.682873
6.560683
6.888509
##ZVALUE=270
0.759959
0.822544
0.837445
1.122952
0.732541
0.968575
0.976920
1.215935
1.099706
1.246929
1.266599
1.307726
1.301765
1.552701
1.419783
1.715422
3.033876
9.885430
30.070543
94.368458
183.922648
378.276706
564.681888
810.951591
975.199938
1016.031504
1016.031504
909.179449
764.546990
544.920564
388.216972
232.538581
167.442560
128.101707
131.275654
153.838992
178.405643
207.674503
218.271613
225.676894
217.380524
194.935799
169.199705
135.794878
111.296773
82.273483
66.654682
52.317977
45.317411
37.963986
36.516786
31.881928
28.970838
27.061701
24.350882
22.400618
20.101666
18.911958
17.599463
15.854836
15.196800
14.087558
13.723969
12.261868
11.805892
10.598898
10.894537
10.401607
9.781718
9.668469
9.654760
9.681582
10.056496
9.609461
9.380579
9.703636
9.596944
9.196997
8.337498
8.007884
8.275509
7.425547
7.266998
7.132888
7.172823
7.237792
7.330775
6.860495
6.514788
6.966591
6.656647
6.135702
6.402731
6.526709
6.607771
6.412864
##ZVALUE=275
0.671744
0.875592
0.770688
0.882745
0.893474
0.794530
0.835657
0.727773
0.942945
1.142621
1.073480
1.189709
1.220703
1.267791
1.082420
1.235604
1.255870
1.639724
1.911521
5.192757
20.801425
56.513548
155.219436
288.198590
523.934960
712.293983
933.287740
1016.022563
1016.022563
1016.022563
933.893919
700.851679
510.814786
297.749639
193.128586
121.572614
102.069974
110.875964
130.299926
155.731440
175.417662
191.143751
197.836757
188.243985
168.566704
139.223933
115.089417
85.541606
65.779686
47.089458
37.503839
28.910637
24.779439
21.886826
20.723939
18.613935
17.822981
15.867949
15.198588
14.569759
13.333559
12.779832
11.681914
11.134744
11.007786
9.877682
10.000467
9.562969
9.044409
9.129643
9.599924
9.193420
9.419918
9.445548
9.301901
9.480715
8.638501
8.475780
8.508563
8.447766
7.381439
7.659793
7.276535
7.010698
6.957650
6.540418
6.449819
6.335974
6.342530
6.746650
6.323457
6.456971
6.433725
6.152987
6.384850
6.250739
##ZVALUE=280
0.824928
0.886917
0.844598
0.825524
0.939965
0.919700
0.828505
1.026988
0.865459
0.961423
1.195669
1.092553
0.983477
1.111627
1.097918
1.255870
1.396537
1.359582
1.511574
1.539588
1.696944
2.319813
13.179779
43.310523
128.863454
227.572918
420.498848
613.072515
870.561004
1008.057594
1016.131639
1016.131639
997.736454
770.945549
572.973490
334.759951
208.307505
105.100870
70.874691
64.714551
74.987411
100.551844
120.522976
148.724914
160.799623
166.661739
159.961581
141.750574
122.056603
92.618465
70.588589
47.252774
33.503771
22.171736
17.121434
13.904572
13.043880
12.406707
11.662841
10.755658
10.268688
10.210872
10.284781
9.708405
9.493828
9.151697
9.050965
9.050965
8.473992
8.686781
8.230805
9.014606
8.693933
8.088946
8.398890
8.992553
8.064508
7.756948
8.291602
7.562637
7.354617
7.189512
6.278753
6.998777
6.898642
6.799698
6.273985
6.771684
6.514788
5.930662
6.194711
6.062984
6.067753
6.035566
5.789995
5.804896
##ZVALUE=285
0.699759
0.559688
0.683665
0.649691
0.784993
0.863671
0.689626
0.661612
0.872612
0.904799
0.942945
0.711679
0.770688
0.937581
0.803471
0.826716
1.148582
0.945926
1.026988
1.109838
1.360774
1.394749
1.520514
1.955628
6.471872
22.647977
73.975921
145.762563
305.723548
478.494763
672.620535
930.984020
1016.025543
1016.025543
1016.025543
872.851014
684.076548
422.488451
265.058875
129.109621
69.495440
38.776994
39.980412
58.263540
77.356696
107.102990
125.973821
142.289996
150.104761
144.611597
134.857893
110.550523
90.161562
62.200427
43.621659
26.119947
17.802715
12.481809
10.155439
8.982420
8.909702
8.473992
8.323789
8.234978
8.305907
8.637905
7.937551
8.105636
8.310676
8.253455
8.605719
8.683801
9.121895
8.509755
8.532405
8.475780
7.887483
7.825494
7.770658
7.743835
7.227659
7.028580
6.931424
7.025599
6.662607
6.562471
6.741881
6.133914
6.479621
6.096959
5.929470
6.010532
6.098747
5.698800
5.940795
5.824566
##ZVALUE=290
0.694990
0.702739
0.681877
0.622869
0.613928
0.686646
0.853539
0.672936
0.732541
0.833869
0.524521
0.751615
0.721812
0.854731
0.916719
0.645518
0.675917
0.847578
1.067519
1.016855
1.209974
1.107454
1.217723
1.222491
1.695752
1.803637
2.650619
9.581447
42.834878
93.251467
214.768648
361.495018
615.431666
823.465586
1016.032696
1016.032696
1016.032696
989.566445
756.838918
562.001467
325.420499
191.825628
84.078908
44.113994
26.654601
32.407641
51.873922
71.331859
96.110702
118.843913
138.174891
144.096613
139.675736
128.562450
105.726719
85.249543
57.612658
42.157769
26.116967
18.099546
11.952519
10.138750
8.778572
8.746982
8.056760
7.970929
8.194447
8.418560
8.144975
8.517504
9.021759
8.963943
8.871555
8.963943
8.764863
8.604527
8.123517
8.065701
7.779598
7.649660
6.984472
6.970763
6.903410
6.906986
7.208586
6.322861
7.075667
6.778836
6.294847
6.127954
6.058812
6.479621
5.968809
5.844831
5.352497
5.993843
##ZVALUE=295
0.513792
0.676513
0.591874
0.645518
0.514984
0.524521
0.657439
0.689626
0.826716
0.838637
0.736713
0.679493
0.791550
0.756979
0.816584
0.608563
0.629425
0.888705
0.922680
0.991821
0.959635
1.020432
1.238585
1.148582
1.107454
1.367927
1.333952
1.539588
1.860857
4.512668
17.611980
67.965984
138.145685
305.020809
481.089950
746.319890
940.756798
1016.031504
1016.031504
1016.031504
897.656083
640.300512
444.036722
237.881541
131.036639
48.860908
27.259588
22.680759
30.102730
48.098564
65.707564
92.223883
108.949542
129.520893
136.038661
133.741498
121.904612
102.500916
82.401633
58.185458
41.322708
26.462674
18.069744
11.955500
9.778738
8.833408
8.438826
8.324981
8.220673
8.146763
8.307695
8.939505
8.361936
8.795857
8.741617
8.549690
8.164644
8.106828
8.069873
8.185506
7.627606
7.178783
6.926656
6.921887
6.918907
6.657839
6.634593
6.569624
6.622672
6.258488
6.242990
5.746484
5.840659
5.717874
5.526543
5.541444
##ZVALUE=300
0.443459
0.667572
0.579953
0.558496
0.420809
0.704527
0.622869
0.630617
0.628829
0.496507
0.537634
0.460744
0.481606
0.663996
0.514984
0.550747
0.634789
0.756979
0.762939
0.915527
0.952482
1.071692
0.876784
0.862479
0.976920
1.049638
0.975728
1.081824
1.318455
1.478791
1.439452
2.109408
9.510517
31.774640
102.113485
197.110772
397.064686
597.189665
871.608853
1013.681889
1016.031504
1016.031504
970.443487
796.888471
526.623726
343.062878
172.961950
93.106627
35.704970
18.826723
19.079447
26.645660
43.155551
58.791637
83.911419
103.360415
122.114420
128.517747
129.058957
120.063424
100.863576
81.675649
57.903528
42.764544
26.468635
18.565655
11.942983
9.841919
7.941723
8.072853
8.374453
8.362532
8.478761
8.372664
8.278489
7.822514
8.467436
7.908940
7.539988
7.460713
7.161498
7.456541
6.811619
6.678700
6.762743
6.697774
6.465912
6.773472
6.069541
6.340742
5.785823
6.064773
5.628467
5.645752
5.231500
5.415678
##ZVALUE=305
0.656843
0.499487
0.587702
0.404716
0.412464
0.549555
0.652671
0.400543
0.470877
0.486970
0.511408
0.560880
0.660419
0.668764
0.667572
0.504851
0.668764
0.657439
0.672936
0.860691
0.664592
0.791550
0.626445
0.844598
0.827909
0.866652
1.020432
1.098514
1.228452
1.173615
1.278520
1.361966
1.655817
1.924634
3.710985
22.147894
58.214664
158.983469
283.400416
520.485640
720.785856
974.895954
1016.031504
1016.031504
1016.031504
833.939910
650.257468
406.971574
252.085924
113.475919
56.889653
20.690560
13.799667
17.201900
25.192499
41.444898
57.851672
80.576539
97.568631
114.868879
122.074485
121.361613
113.449693
94.767809
78.305602
55.790544
39.467812
24.189949
16.980767
11.484623
9.228587
7.829666
7.900596
7.407665
7.602572
7.250905
7.119775
7.129908
7.094741
6.804466
7.041693
6.729960
6.418824
6.601810
6.742477
6.535649
6.455779
6.243587
6.239414
5.846620
6.087422
5.560517
5.497932
5.221963
5.276799
5.506873
##ZVALUE=310
0.299811
0.486970
0.545979
0.406504
0.289679
0.436902
0.454783
0.628829
0.602603
0.501871
0.601411
0.578761
0.682473
0.589490
0.448823
0.485778
0.739694
0.641942
0.738502
0.678897
0.784993
0.653863
0.839829
0.630617
0.857711
0.774860
0.908971
0.912547
1.081824
0.856519
1.147985
1.134872
1.339912
1.361966
1.491904
1.611710
2.148747
7.414818
36.961436
85.447431
206.192732
352.385640
612.520576
813.973546
1016.031504
1016.031504
1016.031504
995.083451
760.880709
560.233593
324.739814
190.931559
81.943870
37.530661
14.479756
11.288524
15.550852
21.515489
34.909844
48.437715
70.146918
87.462664
105.471611
113.473535
113.611817
107.743740
92.228651
75.980425
52.251816
38.023591
23.761988
17.285943
11.453629
9.006858
7.431507
6.935596
6.853938
6.467700
6.449819
6.425977
5.859733
6.185770
6.129742
5.817413
6.212592
5.683899
5.739927
5.703568
5.752444
5.693436
6.044507
5.860925
5.450845
5.415678
5.185604
5.356669
##ZVALUE=315
0.516772
0.343919
0.354648
0.357628
0.447631
0.367761
0.333786
0.489950
0.490546
0.331998
0.524521
0.647902
0.565648
0.487566
0.702739
0.618696
0.619888
0.620484
0.559688
0.549555
0.600815
0.673532
0.641942
0.684857
0.673532
0.835657
0.742674
0.767708
0.790954
0.891685
1.091957
0.787973
0.899434
1.093745
1.258850
1.290441
1.268983
1.495481
1.814961
3.926754
15.410781
63.375831
135.774612
299.059749
482.411981
765.939951
940.801501
1016.031504
1016.031504
1016.031504
891.531706
635.919571
447.506905
236.594677
128.634572
47.411919
20.360947
10.074973
10.085702
13.736486
19.501448
33.038855
45.697689
65.815449
81.117749
99.249482
107.781887
107.012987
101.496577
85.231662
71.297884
51.476955
37.870407
23.485422
16.081929
10.295510
7.829666
6.583929
6.395578
5.758405
5.845428
5.671978
5.600452
5.593896
5.299449
5.481839
5.755424
5.224943
5.856752
5.366802
5.494952
5.292892
5.277991
5.013943
4.823804
5.126595
##ZVALUE=320
0.328422
0.414848
0.538826
0.474453
0.510812
0.400543
0.406504
0.491738
0.509620
0.529885
0.470877
0.502467
0.583529
0.635982
0.565648
0.652671
0.487566
0.402927
0.472665
0.368953
0.695586
0.662804
0.743866
0.642538
0.598431
0.549555
0.692606
0.749826
0.822544
0.823736
0.963807
0.958443
0.896454
0.960827
0.910759
1.056790
1.049638
1.310706
1.171827
1.487732
1.644492
2.253652
6.719828
35.991669
88.159442
225.029588
370.010734
613.225698
808.299780
1009.223461
1016.039848
1016.039848
985.818505
753.770471
550.981760
305.491686
174.493790
73.904991
32.575727
11.273623
8.523464
9.011626
11.786819
17.981529
26.596785
42.720437
57.105422
76.118708
89.383721
100.265741
102.287531
95.156431
84.200501
65.460801
49.606562
33.023953
23.070574
13.827682
10.171533
7.284880
6.156564
5.441904
5.293489
5.014539
5.378723
5.190969
4.938841
5.161762
5.104542
5.027652
4.865527
5.100965
5.109906
4.896522
5.106926
5.008578
##ZVALUE=325
0.550747
0.317693
0.514984
0.403523
0.405908
0.486970
0.471473
0.401735
0.433922
0.412464
0.468493
0.453591
0.480413
0.340939
0.434518
0.437498
0.589490
0.526905
0.462532
0.620484
0.527501
0.548959
0.577569
0.553727
0.611544
0.664592
0.492930
0.594854
0.689626
0.659823
0.592470
0.726581
0.689626
0.971556
0.916719
0.815988
1.052618
1.130700
1.193881
1.082420
1.264811
1.334548
1.427531
1.428723
4.655719
17.533898
65.631866
133.830905
294.322968
474.281907
744.447708
917.772651
1016.032696
1016.032696
1002.301574
851.009488
580.053926
399.830937
209.439993
114.724636
42.800903
18.013716
8.295774
7.311702
8.369684
10.493994
16.359687
25.159717
40.607452
55.739880
74.631572
85.310936
94.617605
96.035004
88.779926
79.093575
59.936643
46.520829
30.372739
20.900965
12.892485
9.051561
6.628633
5.679727
5.126595
4.977584
5.177855
5.082488
5.014539
5.005598
4.734993
4.798770
4.956722
4.853606
4.600883
4.907846
##ZVALUE=330
0.442863
0.229478
0.325441
0.366569
0.344515
0.616908
0.466704
0.418425
0.406504
0.383854
0.502467
0.288486
0.301600
0.404716
0.492930
0.398755
0.502467
0.460744
0.514984
0.474453
0.572801
0.350475
0.599623
0.512600
0.505447
0.579953
0.550747
0.538826
0.564456
0.739694
0.515580
0.728965
0.662804
0.659823
0.764728
0.785589
0.857711
0.948906
0.993609
0.908971
0.888705
1.116991
1.078844
1.139641
1.324415
1.658797
1.894832
9.934902
32.494664
104.150772
199.704766
398.143530
586.235523
845.659971
1000.036597
1016.031504
1016.031504
889.282823
708.496571
457.201004
294.233561
136.643648
68.835616
24.118423
10.833740
6.695986
6.793737
7.542968
10.047555
16.317964
24.253726
37.671924
50.223470
68.856478
80.238581
88.639855
88.614821
81.253648
71.842670
55.842996
42.949915
27.869940
19.960999
13.379455
9.405613
6.763935
6.008744
5.346537
5.091429
4.930496
4.761815
4.248619
4.464984
4.535913
4.630685
4.358888
##ZVALUE=335
0.289679
0.436902
0.417829
0.393987
0.285506
0.384450
0.298619
0.263453
0.383854
0.350475
0.339746
0.369549
0.375509
0.423789
0.536442
0.525713
0.451803
0.350475
0.258684
0.526905
0.459552
0.487566
0.444651
0.332594
0.445843
0.446439
0.509620
0.472665
0.438690
0.432730
0.677705
0.551939
0.607967
0.611544
0.666976
0.684857
0.747442
0.747442
0.736713
0.741482
0.811815
0.853539
0.877976
0.953674
1.118779
1.068711
1.072884
1.428723
1.793504
4.349947
16.089678
64.190626
133.567452
297.938585
474.400520
740.212798
917.892456
1016.031504
1016.031504
959.056616
796.432495
540.012717
369.156599
189.466476
98.318458
33.910871
14.162660
7.311702
6.246567
6.686449
7.201433
9.966493
14.528632
23.952723
34.291744
50.225854
62.584877
74.897408
81.155896
82.831979
77.229738
65.704584
54.728985
41.146874
31.117797
20.079613
13.966560
9.299517
7.189512
5.707741
5.203485
4.561543
4.686713
4.591942
4.685521
4.451871
##ZVALUE=340
0.234842
0.318885
0.224710
0.373721
0.417829
0.300407
0.480413
0.400543
0.268817
0.365973
0.519753
0.434518
0.247955
0.410676
0.375509
0.288486
0.468493
0.528693
0.366569
0.303984
0.433922
0.312924
0.385642
0.458956
0.444651
0.553727
0.290871
0.536442
0.445843
0.414848
0.481606
0.462532
0.618696
0.631809
0.693798
0.788569
0.701547
0.603795
0.686646
0.711679
0.722408
0.911951
0.926852
0.870824
1.018643
0.997782
1.040697
1.025796
1.152754
1.113415
1.484752
2.230406
7.843971
38.935542
95.366836
233.835578
389.124751
630.895495
814.854503
995.008945
1016.031504
983.983874
854.242444
629.192591
439.985991
229.837894
127.669573
50.657988
20.287633
7.965565
6.610751
6.204844
6.233454
7.114410
9.443760
15.114546
21.666884
33.904910
45.118928
60.258508
70.095658
77.093840
77.573657
72.607994
65.323710
52.271485
41.073561
29.190779
20.946860
13.681650
9.926558
6.289482
5.405545
4.847646
4.267693
4.690886
##ZVALUE=345
0.292659
0.377893
0.480413
0.395775
0.298619
0.322461
0.432730
0.169873
0.198483
0.366569
0.339746
0.293851
0.334978
0.388622
0.414848
0.355840
0.453591
0.413656
0.308752
0.286698
0.456572
0.513792
0.433922
0.514984
0.336766
0.528693
0.341535
0.389814
0.450611
0.486970
0.433922
0.475645
0.561476
0.486970
0.365973
0.597835
0.559688
0.563860
0.508428
0.579953
0.835657
0.623465
0.648499
0.638962
0.779629
0.551939
0.648499
0.968575
1.043677
1.103878
1.039505
1.157522
1.120567
1.587868
3.558993
21.870732
62.618852
165.754557
286.423564
505.371690
689.629912
908.164978
1007.074714
1011.825800
923.571587
704.763532
523.608923
307.150483
173.337460
69.097877
30.017495
9.856820
6.708503
6.051660
5.649924
5.808473
6.586909
8.627772
12.219548
20.480752
29.541850
43.293834
52.574873
63.869953
69.743991
71.289539
68.954825
60.625672
52.202940
39.989948
29.920936
19.448996
13.886690
8.822680
6.852746
5.440712
##ZVALUE=350
0.314713
0.338554
0.338554
0.312924
0.264645
0.454783
0.428557
0.422597
0.315905
0.325441
0.393987
0.296831
0.367761
0.334978
0.241995
0.323653
0.271797
0.395775
0.304580
0.383854
0.526905
0.334978
0.250936
0.495911
0.338554
0.303984
0.404716
0.326633
0.443459
0.467896
0.451803
0.523925
0.409484
0.601411
0.538826
0.425577
0.537634
0.603795
0.576973
0.582933
0.543594
0.532866
0.659823
0.705719
0.662804
0.597835
0.728965
0.697970
0.925660
0.914931
0.956655
0.908971
1.123548
1.146793
1.123548
1.456738
2.033710
10.938644
35.501719
108.875632
204.821825
406.280756
585.819483
807.266831
944.879651
1004.480720
949.516892
779.301524
593.965650
356.521606
218.267441
99.064708
45.423508
13.431907
7.159710
5.797744
5.910993
5.092621
5.381703
6.063581
7.963777
12.334585
17.686486
26.689768
35.382509
47.989488
55.659413
63.569546
65.964460
63.131452
57.712793
47.059655
38.527846
26.845932
19.992590
13.135672
##ZVALUE=355
0.307560
0.508428
0.423789
0.497699
0.449419
0.509620
0.456572
0.568628
0.411868
0.553727
0.321865
0.494719
0.361800
0.521541
0.533462
0.456572
0.492930
0.451803
0.467896
0.533462
0.516772
0.428557
0.574589
0.561476
0.639558
0.630617
0.654459
0.559688
0.638962
0.523925
0.576973
0.453591
0.572801
0.699759
0.527501
0.645518
0.513792
0.598431
0.757575
0.706911
0.710487
0.660419
0.497699
0.758767
0.627637
0.672936
0.806451
0.835657
0.794530
0.886917
0.883937
0.950694
0.936985
1.035929
1.112819
1.223683
1.333952
1.279712
1.634955
5.224943
18.763542
72.123408
146.596432
304.324627
477.829576
719.962716
869.683623
976.336598
968.606472
822.591782
659.092665
422.890782
263.228416
117.194653
57.258606
19.460917
8.787513
5.679727
5.531907
5.079508
4.970431
4.936457
5.726814
7.082820
9.612441
15.660524
21.781921
31.692982
40.579438
50.273538
56.412816
59.205890
58.206916
52.224994
45.540929
35.390854
##ZVALUE=360
0.248551
0.138879
0.222921
0.213981
0.016689
0.189543
0.180602
0.137687
0.188947
0.362992
0.286698
0.209808
0.146627
0.203848
0.085831
0.212789
0.112653
0.312924
0.215769
0.362992
0.188947
0.337958
0.355840
0.348687
0.158548
0.381470
0.253916
0.045896
0.213981
0.303984
0.362992
0.132918
0.366569
0.338554
0.331998
0.316501
0.316501
0.459552
0.203848
0.353456
0.384450
0.311732
0.404716
0.400543
0.309944
0.488758
0.403523
0.457764
0.537634
0.505447
0.615716
0.602603
0.676513
0.820756
0.668764
0.804663
0.720620
0.927448
1.002550
1.240969
1.311898
2.371669
7.845759
37.271976
91.007948
223.484635
367.850661
589.022636
765.988827
926.730037
958.195925
876.734853
736.330748
501.748919
335.819721
164.352655
85.588694
30.643940
12.241602
5.593896
4.961491
4.556775
4.298687
4.357696
4.335642
4.910827
5.733967
8.179545
11.519790
18.086433
25.155544
34.887791
42.440891
49.832463
52.943826
53.163767
##ZVALUE=365
0.314713
0.325441
0.230670
0.225902
0.264645
0.388622
0.339746
0.336766
0.387430
0.381470
0.404716
0.455976
0.353456
0.412464
0.384450
0.327826
0.330806
0.402927
0.526905
0.362992
0.510812
0.413656
0.447631
0.403523
0.457764
0.510812
0.330806
0.428557
0.489950
0.428557
0.331998
0.328422
0.480413
0.488758
0.564456
0.509620
0.397563
0.690818
0.637770
0.609756
0.607967
0.532866
0.616908
0.553727
0.632405
0.583529
0.605583
0.713468
0.686646
0.716448
0.577569
0.892878
0.826716
0.780821
0.723600
0.890493
0.833869
1.001954
0.890493
1.145601
1.206994
1.269579
1.395941
1.706481
3.775954
20.964742
55.983663
150.360465
274.257660
499.894023
670.282841
850.314498
931.147933
902.487636
792.191029
576.761961
408.806801
223.734975
121.567845
44.203997
17.875433
6.201863
5.008578
4.441738
4.365444
4.173517
4.000664
4.005432
4.145503
4.719496
6.741881
10.333657
14.714599
22.090673
29.138923
37.720799
##ZVALUE=370
0.242591
0.240803
0.283718
0.170469
0.418425
0.299811
0.316501
0.242591
0.276566
0.194907
0.259876
0.247955
0.289679
0.194907
0.290871
0.199676
0.163913
0.405908
0.249743
0.316501
0.242591
0.283718
0.329614
0.364780
0.267625
0.210404
0.352859
0.372529
0.432730
0.317693
0.415444
0.391603
0.348687
0.352859
0.388622
0.482798
0.389814
0.396967
0.341535
0.214577
0.228882
0.483990
0.405908
0.445843
0.471473
0.582933
0.532866
0.588894
0.616908
0.582933
0.539422
0.455976
0.528693
0.631809
0.579953
0.644922
0.736713
0.612736
0.726581
0.745654
0.696778
0.839829
0.952482
1.094937
1.135468
1.341701
2.200603
10.848641
35.618544
115.451813
213.100910
399.602652
576.100945
796.313882
898.042917
914.349556
832.334757
648.495555
476.027727
266.026855
151.062608
59.577823
27.158856
9.425879
5.521774
4.419684
4.178882
3.799796
3.668666
3.556609
3.573895
3.679991
4.220605
6.085634
8.474588
13.295412
##ZVALUE=375
0.419617
0.450611
0.323653
0.392795
0.388622
0.264645
0.267625
0.307560
0.339746
0.196695
0.297427
0.377893
0.367761
0.391603
0.442863
0.361800
0.300407
0.419617
0.401735
0.333786
0.165701
0.354648
0.299811
0.295639
0.504851
0.292659
0.441670
0.285506
0.401735
0.425577
0.285506
0.566840
0.522733
0.517964
0.505447
0.480413
0.463724
0.561476
0.589490
0.485778
0.498891
0.555515
0.585914
0.456572
0.491738
0.657439
0.247955
0.549555
0.602603
0.578761
0.525713
0.376701
0.656843
0.391603
0.390410
0.521541
0.593662
0.711679
0.589490
0.729561
0.700951
0.618696
0.842810
0.803471
0.978708
0.997782
1.013875
1.266599
1.522899
5.163550
18.741488
69.205761
146.153569
317.827463
482.999682
708.318949
838.245749
915.855765
882.816911
722.354650
559.164882
341.612697
215.710998
104.843974
51.559806
16.701818
7.017851
4.374981
4.159808
3.712773
3.703833
3.414750
3.279448
3.082752
3.204942
3.727674
##ZVALUE=380
0.297427
0.309944
0.179410
0.222921
0.176430
0.290871
0.324845
0.213981
0.314713
0.331998
0.153780
0.297427
0.357628
0.216961
0.186563
0.501871
0.389814
0.330806
0.257492
0.396967
0.189543
0.239611
0.220537
0.151992
0.340939
0.385642
0.320673
0.252724
0.420809
0.485778
0.504851
0.478625
0.442863
0.317693
0.535846
0.482798
0.550747
0.482798
0.385642
0.530481
0.413656
0.424981
0.448823
0.494719
0.598431
0.539422
0.419617
0.476837
0.567436
0.577569
0.602603
0.551939
0.519753
0.577569
0.582933
0.597835
0.528693
0.464916
0.513792
0.548959
0.744462
0.590682
0.652671
0.764728
0.702739
0.774860
0.800490
0.915527
1.228452
1.352429
1.501441
2.409816
13.164878
40.146708
121.017694
224.811435
421.629548
603.023767
806.069970
897.845030
898.159742
807.097554
629.633665
467.160940
271.521807
159.471631
65.040588
29.765964
8.763671
4.651546
3.824830
3.580451
3.375411
3.074408
3.076792
3.109574
##ZVALUE=385
0.351667
0.220537
0.344515
0.426769
0.296831
0.406504
0.302792
0.280738
0.247955
0.201464
0.282526
0.393987
0.169873
0.258684
0.346899
0.288486
0.332594
0.345707
0.324845
0.320673
0.281930
0.276566
0.219941
0.360608
0.427961
0.399947
0.456572
0.433922
0.445843
0.538826
0.666976
0.607967
0.551939
0.739694
0.658631
0.655651
0.651479
0.606775
0.562668
0.673532
0.632405
0.551939
0.562668
0.465512
0.578761
0.581741
0.594854
0.576973
0.537634
0.535846
0.523925
0.426769
0.644922
0.490546
0.564456
0.441670
0.526905
0.595450
0.610948
0.546575
0.674725
0.545979
0.534654
0.640750
0.610948
0.714660
0.790954
0.920892
1.042485
1.018643
1.317859
1.433492
1.518726
1.919866
4.944801
27.679801
71.717501
178.184509
314.099789
542.668700
711.979866
867.421031
905.088782
847.088695
737.221837
536.592603
377.432704
207.543969
117.794871
47.144890
19.002557
5.818605
3.738999
3.343821
3.237724
3.152490
##ZVALUE=390
0.213981
0.231862
0.336766
0.382662
0.300407
0.300407
0.250936
0.337958
0.263453
0.323653
0.177622
0.247955
0.306964
0.358820
0.249743
0.423789
0.309944
0.169873
0.304580
0.381470
0.307560
0.165701
0.344515
0.293851
0.404716
0.326633
0.448823
0.408888
0.659823
0.564456
0.852942
0.782609
0.730753
0.694990
0.910759
1.056790
0.918508
0.932813
0.827909
0.854731
0.891685
0.785589
0.707507
0.819564
0.752807
0.636578
0.689626
0.595450
0.563860
0.559688
0.595450
0.608563
0.458956
0.570416
0.589490
0.677705
0.433922
0.523925
0.540614
0.551939
0.418425
0.616908
0.562668
0.675917
0.719428
0.724792
0.893474
0.840425
0.967979
1.081824
1.081824
1.018643
1.071692
1.186728
1.154542
1.430511
2.239943
14.006495
44.678450
135.795474
251.476765
463.109016
622.402430
792.988539
883.273482
895.244479
818.989873
638.239980
486.208797
292.624831
169.580579
69.882870
31.363964
8.822680
4.322529
3.482699
##ZVALUE=395
0.239611
0.332594
0.251532
0.207424
0.299811
0.220537
0.222921
0.251532
0.211596
0.325441
0.349879
0.404716
0.332594
0.320673
0.402927
0.359416
0.311732
0.324845
0.222921
0.151992
0.201464
0.423789
0.307560
0.354648
0.432730
0.544786
0.364780
0.620484
0.621676
0.873804
0.864863
0.956655
1.095533
0.976920
1.154542
1.325607
1.237988
0.996590
1.011491
1.126528
0.861883
0.965595
0.940561
0.881553
0.692606
0.864863
0.792742
0.680685
0.679493
0.652671
0.708699
0.572801
0.636578
0.556707
0.545979
0.651479
0.629425
0.564456
0.623465
0.668764
0.593662
0.574589
0.619888
0.598431
0.618696
0.540614
0.786781
0.823736
0.739694
0.873804
0.947714
0.886917
1.048446
0.998974
1.035929
1.063943
1.136661
1.184940
1.445413
7.251501
26.774406
94.428658
185.002685
361.081958
522.986650
738.150477
860.486031
929.079652
894.363523
745.934844
578.068495
356.432796
225.970745
105.343461
50.190687
15.956759
##ZVALUE=400
0.173450
0.262856
0.196695
0.255704
0.293851
0.274777
0.226498
0.236630
0.224710
0.270605
0.313520
0.178814
0.181794
0.094771
0.258684
0.421405
0.205636
0.269413
0.227690
0.292659
0.106692
0.357628
0.353456
0.331998
0.460744
0.501871
0.628829
0.791550
0.649691
1.096725
0.978708
1.157522
1.236796
1.429915
1.353621
1.390576
1.428723
1.312494
1.310706
1.160502
1.019835
1.139641
1.059771
1.031756
1.062751
0.856519
0.874996
0.901818
0.878572
0.654459
0.798702
0.749826
0.661612
0.591874
0.676513
0.730753
0.670552
0.616908
0.531673
0.550747
0.554919
0.649691
0.640750
0.695586
0.656843
0.605583
0.761747
0.790954
0.779629
0.824928
0.929832
0.829697
0.910759
0.948906
0.848770
1.100898
0.868440
1.037717
1.149774
1.321435
1.364946
4.355907
14.610887
56.010485
121.165514
270.348787
425.353646
643.974543
784.131885
897.578597
900.506973
779.841542
635.171533
414.965749
271.428823
135.303736
##END
