##TITLE=FQP00351
##FORMAT=SPECTACLE-ASCII V-1.2
##DATA TYPE=ULTRAVIOLET SPECTRUM
##SECOND TYPE=ULTRAVIOLET SPECTRUM
##DATE=05/24/18
##TIME=17:49:47
##SPECTROMETER/DATA SYSTEM=SPECTACLE
##XUNITS=NM EM
##YUNITS=ENERGY
##YFACTOR=1
##FIRSTX=220
##LASTX=410
##NPOINTS=96
##3DDATA=Equidistant
##ZUNITS=NM EX
##FIRSTZ=210
##LASTZ=400
##ZPOINTS=39
##XYDATA=(Y..Y)
##ZVALUE=210
4.588962
4.701614
4.344583
4.326701
3.560781
4.279613
4.711747
4.686713
3.977418
3.753901
3.517866
3.299713
3.230572
2.962947
3.395677
4.689693
3.760457
3.948808
4.327893
4.722476
4.597902
5.197525
5.222559
5.022883
5.700588
6.427765
6.326437
6.987453
6.373525
8.329749
8.796453
9.816885
9.628534
9.794831
10.455847
9.013414
9.453893
10.081530
9.189844
8.991957
9.503961
10.207891
9.853840
9.472966
9.272695
8.078814
7.999539
9.453893
7.636547
8.363724
8.137822
7.494688
8.516908
7.833838
7.060766
7.696748
8.426905
7.141829
7.344484
7.979870
8.206964
7.565618
8.112788
8.178949
7.935762
9.786487
9.982586
12.885928
13.743639
15.256405
18.061996
19.433498
20.704865
20.247698
21.595955
23.473501
19.454956
18.576980
17.919540
14.929771
13.903975
11.548996
10.081530
8.706450
7.855892
7.405877
7.795691
6.469488
6.719828
7.279515
7.199645
8.514524
8.005500
9.819865
11.619925
12.151599
##ZVALUE=215
17.771721
18.157959
12.518764
10.861754
10.246634
8.864999
9.165406
10.558963
9.559989
9.964705
7.722974
7.021427
6.005764
4.738569
4.440546
4.156828
3.701448
4.421473
3.851652
3.781915
4.670620
4.875660
5.789995
4.674792
5.273819
6.533861
7.780790
8.098483
10.181665
11.343956
12.358427
12.323856
14.883876
14.608502
14.536977
14.974475
15.678406
14.929771
12.225509
13.108850
14.032722
12.285709
12.648702
11.360645
12.278557
10.856986
10.603666
9.888411
9.566545
10.231733
10.549426
8.648634
9.639859
8.816719
8.254647
7.924438
8.551478
8.507967
7.903576
8.122921
7.771850
8.050799
8.328557
8.997917
9.068847
9.244680
9.473562
12.328625
13.184547
14.018416
15.440583
16.949773
17.592907
19.272566
19.190907
18.289685
17.788410
17.508864
15.167594
14.776587
12.518764
11.003613
10.005832
8.769631
8.268952
8.735657
7.583499
6.622672
6.608963
7.048845
7.217526
6.656647
7.791519
6.583929
7.533431
8.241534
##ZVALUE=220
61.481595
61.261654
55.851936
48.283935
39.740801
30.950904
25.031567
21.385550
20.540953
19.975901
20.885468
20.966530
18.738508
16.038418
12.970567
10.266900
7.597804
5.874634
3.891587
3.517866
3.893971
4.525781
4.740953
4.711747
5.030632
7.189512
8.280873
11.097789
12.474656
14.421940
15.450716
17.452836
20.624995
21.254420
21.723509
22.372603
20.577908
20.395517
19.513965
17.969608
17.885566
17.223954
16.884804
15.658736
14.944673
13.609529
13.478994
12.242794
12.172461
11.303425
10.835528
10.768771
10.297894
9.966493
9.667873
8.945465
8.565784
9.287000
8.242726
8.744597
8.707643
8.430481
8.595586
8.280873
8.697510
8.740425
9.452701
10.716915
10.954738
11.651516
13.563633
15.276670
15.552640
16.435981
16.041994
15.361905
14.993548
14.678836
13.221502
11.190772
11.446476
9.947419
9.866953
8.092523
8.535981
7.538795
8.231997
7.485747
7.535815
7.187724
6.908774
7.261634
6.890893
6.394982
7.113814
6.958842
##ZVALUE=225
95.839500
103.240609
118.442774
132.312775
133.963823
118.675828
100.017786
72.542429
55.501461
44.381618
36.367774
38.644671
37.715435
40.260553
37.887692
34.660697
26.993752
20.836592
14.946461
10.317564
7.449985
5.285740
4.710555
5.259514
5.817413
8.182526
9.763837
12.580752
13.752580
16.873479
18.585920
20.769835
23.549795
24.882555
26.180744
26.518703
25.180578
25.633574
23.303628
23.298860
22.310615
20.360947
19.905567
18.936992
18.418431
15.553832
16.471744
15.383959
14.059544
13.835430
12.217760
11.679530
11.364818
11.512637
10.861754
9.993911
10.271668
9.376407
8.793473
8.661747
9.521842
9.450912
9.353757
9.515882
9.455681
10.532737
9.986758
10.414720
11.724830
13.008714
14.025569
14.070868
15.864968
15.553832
14.767647
16.248822
14.144778
13.810992
12.920499
12.075901
11.834502
11.136532
10.270476
9.241700
9.976625
8.781552
9.236932
9.667873
8.440614
9.301901
9.170771
9.334683
8.228421
8.312464
8.201599
8.597970
##ZVALUE=230
69.918633
78.587532
116.893649
183.517933
219.993591
252.913833
255.486965
234.088898
200.906992
148.006678
108.601451
75.428486
62.086582
59.733987
60.940981
65.429807
65.819621
62.070489
51.873922
41.061640
29.563904
19.844770
11.878610
8.672476
7.058978
7.965565
8.388758
10.816455
11.752844
14.225841
16.494989
18.881559
19.684434
21.411777
21.408796
21.963716
22.146702
22.082925
21.717548
19.784570
19.575953
17.799735
18.200874
17.729998
16.186833
15.953779
14.404655
13.780594
12.517571
11.456609
12.892485
11.326671
12.087822
11.321902
11.376739
10.975599
10.938644
10.694861
9.828806
10.103583
10.632873
9.685755
10.943413
10.330677
10.215640
11.148453
10.969639
12.557507
12.836456
14.077425
16.020536
15.407801
16.244650
16.611814
17.365813
16.166568
15.808940
15.860796
15.525818
15.009642
13.796687
14.306903
12.769699
12.826920
11.830926
12.568831
11.836886
11.533499
12.422800
12.207627
11.031628
11.558533
11.380911
11.644959
11.185408
11.673570
##ZVALUE=235
17.566681
20.504594
45.778751
107.410550
167.271495
257.761478
327.892900
400.465727
413.707495
400.204659
334.831476
266.380906
176.377892
128.091574
90.678930
80.893636
80.852509
87.123513
91.549754
88.991523
81.605911
66.061616
52.303672
33.243895
23.249984
15.112758
11.096597
8.628964
9.327531
10.484457
11.010766
11.655688
12.260675
14.121532
13.607740
14.236569
14.297962
13.991594
13.665557
14.049411
13.246536
13.376474
13.305545
12.723804
12.027621
12.033582
11.255741
11.592507
11.322498
10.987520
10.549426
10.737777
10.891557
10.421872
10.185838
9.961724
10.182858
9.895563
9.843707
10.769963
10.096431
10.618567
10.590553
11.528730
11.651516
12.130737
12.549758
13.382435
13.747811
14.528632
15.869737
16.138554
17.231703
17.835498
18.244982
17.914772
18.628836
17.784834
17.065406
17.332435
15.797615
15.358925
15.166998
14.555454
15.192628
14.260411
15.268922
13.470650
14.334917
12.948513
13.284683
13.127923
13.965964
13.045669
13.217926
13.266802
##ZVALUE=240
1.592636
1.727939
5.781651
16.893744
50.072670
96.718669
188.992620
288.591981
422.237515
503.209829
560.585856
547.542572
499.534011
387.570858
290.726423
183.580518
130.627751
93.355775
86.530447
94.653964
102.994442
107.799768
102.323890
88.900924
68.200827
54.007769
37.952662
25.755763
16.337633
11.760592
8.461475
7.917881
8.044839
8.829832
8.443594
9.176731
9.294748
9.684563
9.913445
10.214448
10.406971
10.294914
10.044575
10.279417
10.907650
9.650588
10.503531
10.024905
9.780526
9.269714
9.278655
8.958578
9.311438
8.653998
8.910894
8.988976
9.358525
8.593798
8.738637
9.003878
9.232759
9.408593
9.792447
9.977818
10.545850
10.791421
11.334419
12.166500
12.757778
14.583468
14.994740
15.662909
16.684532
16.816854
16.786456
17.533898
17.134547
17.245412
16.138554
16.177893
16.309619
15.171766
15.485883
14.664531
15.717745
14.526844
15.030503
15.181899
13.948679
14.593601
14.732480
14.089942
13.984442
14.089942
14.532804
13.891459
##ZVALUE=245
1.101494
1.135468
1.341701
1.123548
3.693700
10.473728
36.974549
79.051852
176.702738
270.983577
416.306853
517.026782
584.762692
600.594878
566.192865
454.678535
362.150669
237.159729
164.945722
102.689862
86.264610
85.558891
99.331737
108.369589
113.111734
108.921528
94.452500
80.472827
58.596730
43.595433
30.763745
18.324852
12.517571
9.024739
8.298755
8.060932
8.403659
8.744597
8.889437
9.433627
9.417534
9.742975
9.515882
9.578466
8.991957
9.397864
9.234548
9.550452
9.009838
8.316636
8.765459
8.564591
9.017587
7.939935
8.269548
8.249879
7.760525
8.183718
7.820725
8.323789
8.826852
8.206964
8.058548
8.518696
8.608699
9.593964
9.391904
10.541677
10.778904
11.308789
12.510419
12.859702
13.168454
14.437437
14.053583
15.025735
14.606714
14.326572
14.800429
13.681650
13.787746
13.850927
14.628768
14.085770
14.235973
14.070868
13.732910
13.897419
13.720989
13.670921
13.421774
13.314486
13.018847
13.688803
13.318658
13.100505
##ZVALUE=250
1.110435
1.077652
1.159906
1.150966
1.221895
1.223683
1.837611
6.048679
25.582910
57.321787
143.528581
236.160755
344.047546
490.801930
576.486588
630.704761
617.661476
538.961887
443.608761
300.100446
201.234818
133.178830
84.119439
77.329874
87.409616
100.511909
113.565922
117.567778
111.432672
101.881623
86.902976
65.485835
47.729611
29.280782
21.240711
14.241934
10.657907
9.726882
9.529591
9.214878
9.952784
9.680986
10.109544
10.001659
9.824634
9.440780
9.519458
9.120703
9.331703
9.178519
8.509755
7.858872
8.113980
8.386970
7.912517
7.649660
7.133484
7.224679
7.326603
7.292628
7.395744
6.930828
7.137656
7.387996
8.026958
7.565618
8.749962
8.826852
9.830594
10.288954
10.879636
11.275411
11.724830
12.278557
11.901855
12.380481
11.881590
12.289882
12.568831
12.019873
12.588501
12.415648
12.250543
12.874603
13.194680
12.337565
12.206435
12.905598
12.448430
12.603998
12.543797
12.778640
12.773871
12.357831
12.544990
13.139844
##ZVALUE=255
0.831485
0.846982
0.911951
0.937581
1.083612
1.183748
1.164675
1.263618
1.375675
3.051758
15.706420
40.221810
85.003972
187.676549
294.404626
453.421474
565.528870
662.402511
687.348843
633.726716
542.676449
425.814986
262.318850
166.223645
91.479421
72.613955
70.585608
81.899762
103.892684
116.125941
122.793913
120.568871
110.248923
88.927746
70.730448
49.086809
35.534501
21.855831
16.875863
13.032556
11.606812
10.709763
11.340976
11.017919
10.061860
10.709763
10.227561
9.389520
9.623766
9.210706
8.734465
8.538961
8.572936
7.767677
7.758737
7.535815
7.261634
7.198453
6.816983
6.786585
6.246567
6.767511
7.007718
6.543994
7.118583
7.065535
7.635951
7.793903
8.447766
8.486509
9.120703
9.468794
9.629726
10.165572
10.582805
10.752678
10.622740
10.491610
10.368824
10.589957
10.916591
10.694861
11.016726
11.490583
11.129975
11.389852
11.433959
11.652708
11.654496
11.324883
11.300445
11.863708
12.251735
11.986494
11.972785
12.135506
##ZVALUE=260
0.804663
0.756979
0.813603
0.823736
1.001954
0.963807
0.838637
1.056790
1.185536
1.181960
1.281500
1.760721
5.279779
23.765564
56.154728
139.706731
232.232809
387.344956
520.448685
670.346022
734.232664
735.574961
643.108487
522.212982
345.383883
237.597823
135.512948
87.250471
63.275695
67.041516
80.953836
104.580522
118.528605
129.827857
126.267672
112.494826
97.590685
72.323680
56.092739
36.979914
26.672482
18.425584
14.877915
12.407899
12.059808
11.048913
10.872483
10.557771
10.342598
9.989738
9.328723
9.201765
8.500814
8.056760
8.146763
7.706881
7.367730
7.417798
6.897449
6.761551
6.797910
6.633997
6.914735
6.598830
6.643534
6.911755
7.130504
7.964969
7.926822
8.394718
8.419752
8.638501
9.699464
8.852482
9.706616
9.350777
9.599924
9.727478
9.927750
9.930730
9.663701
9.972453
10.182858
9.854436
9.970665
10.588765
10.203719
10.299683
10.678768
10.587573
11.287928
10.583997
10.935664
10.631680
11.141896
11.252761
##ZVALUE=265
0.778437
0.776649
0.706911
0.820756
0.959635
0.860691
0.784993
0.920892
0.923872
1.200438
1.018643
1.331568
1.298785
1.568794
2.859831
14.689565
38.840771
101.195574
183.358788
345.738530
495.239496
633.178949
765.810013
792.315602
722.650886
619.893670
458.380580
329.152942
185.386539
115.164518
74.427724
58.390498
67.352653
91.892481
110.037923
125.686526
130.490661
126.004815
115.814805
93.998909
75.687766
53.156614
38.452744
25.636554
18.570423
13.392568
11.837482
11.074543
10.259748
9.903908
9.580851
8.881688
8.871555
8.371472
8.316636
8.025765
7.998943
7.703900
7.263422
7.287860
7.032752
6.880760
6.956458
6.807446
7.287860
7.278919
7.363558
7.292628
8.067489
8.669496
8.313656
8.819699
9.039640
9.133816
9.702444
9.554625
9.194613
9.345412
9.539723
9.377599
9.287000
9.147525
9.632707
9.872913
9.757876
9.886622
9.162426
10.137558
10.159612
9.842515
10.205507
9.979606
10.278821
9.988546
10.356903
10.649562
##ZVALUE=270
0.717640
0.799894
0.717640
0.792742
0.803471
0.814795
0.766516
0.924468
0.954866
0.960827
1.156926
0.988841
1.107454
1.028776
1.189709
1.288652
1.325607
6.322861
19.590855
67.483783
138.189793
245.506763
436.251760
593.862534
760.004520
821.685791
814.259648
738.350749
581.264496
438.281894
305.225849
163.983703
97.192526
54.782629
52.620769
68.916678
85.994601
110.289454
122.908950
130.180717
127.739906
114.624500
96.945763
73.978901
55.206418
36.197901
25.122762
17.294884
12.901425
10.204911
9.563565
9.063482
8.694530
8.800626
8.261800
7.907748
8.035898
7.427931
8.061528
7.839799
7.441640
7.307529
7.607937
7.819533
7.659793
8.022785
8.029938
7.935762
8.229613
8.840561
9.013414
9.045601
9.125471
8.972883
9.390712
9.783506
9.136796
9.456873
9.300709
9.076595
9.373426
9.081960
9.022951
9.555817
9.490848
9.436607
9.304881
9.309649
9.117723
9.790659
9.832978
9.481907
9.700656
9.540915
9.386539
9.567738
##ZVALUE=275
0.625849
0.749826
0.773668
0.816584
0.734925
0.774860
0.903606
0.772476
0.833869
0.721812
0.792742
0.815988
0.951886
0.962615
0.998974
1.101494
1.385808
1.213551
1.383424
3.177524
10.895729
32.447577
100.437403
194.712877
377.712846
522.309542
696.537495
805.015564
856.759548
817.157030
690.901875
549.945831
393.884778
215.785503
126.547813
60.386658
42.089820
46.275854
60.356855
82.098842
99.427700
116.553903
125.096440
122.791529
111.564994
92.063546
74.191689
52.692890
37.685633
23.386478
16.373992
11.322498
8.992553
8.329749
7.814765
7.826686
8.006692
7.766485
7.816553
8.213520
8.232594
8.096695
8.198619
8.316636
8.346438
8.446574
8.352995
8.705854
9.570718
9.397864
9.936690
9.904504
9.818673
10.001659
9.827614
9.826422
9.568930
9.906888
9.500980
9.358525
9.302497
9.316802
9.719729
9.079576
9.333491
9.501576
9.199977
9.135604
8.939505
9.483695
9.048581
9.029508
9.136796
9.135604
9.163618
9.023547
##ZVALUE=280
0.539422
0.693798
0.542998
0.659823
0.627637
0.669956
0.573993
0.587702
0.877976
0.799894
0.861883
0.775456
0.888705
0.825524
0.943542
0.988841
0.818968
0.905991
1.218915
1.202822
1.281500
1.520514
6.587505
23.873448
87.933540
172.818899
336.206555
492.046475
704.130530
830.886960
903.067589
895.479918
807.010531
620.434880
465.007424
270.597935
163.500905
74.366927
40.743947
30.405521
38.608909
58.539510
74.899793
97.716451
110.594630
118.013620
117.404461
105.132461
92.543960
69.218874
53.468943
33.897758
23.700595
14.664531
10.700822
8.241534
8.249879
8.085966
8.391738
8.187890
8.338690
8.708835
8.669496
8.997917
9.084940
9.646416
9.488463
9.844899
9.859800
10.186434
10.808706
10.337830
10.272861
10.068417
10.255575
10.597706
10.629892
10.052919
10.314584
10.276437
9.915829
9.860992
9.599924
9.682775
9.670854
9.441972
9.543896
9.384751
9.226799
9.178519
9.018779
8.886456
9.175539
8.764863
8.562803
8.831620
##ZVALUE=285
0.675917
0.636578
0.726581
0.511408
0.629425
0.652671
0.602603
0.686646
0.517964
0.752807
0.764728
0.768900
0.658631
0.808835
0.818968
0.843406
0.811815
1.056790
0.965595
0.970960
1.037717
1.131892
1.140833
1.358986
2.979636
10.915995
42.115450
100.838542
248.346925
400.677919
633.504987
813.785791
941.156745
989.976525
929.102898
751.655698
588.241816
373.137593
234.947801
111.589432
57.878494
26.326776
24.356842
36.535859
50.613880
73.055625
88.478923
105.261803
113.758445
114.629865
108.022690
90.026855
74.715614
53.301454
37.924647
23.571849
16.707778
11.776686
9.872913
9.123683
9.158850
9.631515
9.625554
9.950995
10.016561
10.145903
10.644794
10.967851
10.812879
11.419654
11.537671
11.666417
11.767745
11.701584
11.308789
11.371970
11.352897
11.329651
10.811687
10.633469
10.772943
10.407567
10.201931
10.261536
10.385513
10.108948
9.900928
10.092854
9.549856
9.435415
9.152889
9.055734
8.987784
8.879900
8.733869
8.693933
##ZVALUE=290
0.482798
0.583529
0.720620
0.674725
0.593662
0.627637
0.549555
0.672936
0.605583
0.701547
0.588894
0.638962
0.796914
0.663996
0.656843
0.660419
0.744462
0.670552
0.891685
0.892878
0.926852
1.091957
1.031756
0.997782
1.170635
1.544952
1.625419
4.235506
20.625591
54.936409
118.337870
279.164910
455.305576
723.073483
894.947648
1015.414596
1011.331677
878.744721
722.276568
484.665632
322.754979
161.549449
85.363984
32.697916
19.325614
22.386909
31.078458
48.031807
63.801408
85.127950
99.833608
110.372901
112.156868
104.774833
93.004704
70.672631
55.012703
37.321448
27.155876
17.326474
13.661981
11.065602
10.472536
10.533929
10.546446
10.763407
10.906458
11.430979
11.429787
12.011528
11.760592
12.328625
12.204647
12.459755
12.132525
11.995435
11.672974
11.456609
11.244416
11.094809
10.958910
10.672808
10.650754
10.415912
10.148883
10.358691
10.016561
9.950995
9.462833
9.740591
9.320974
9.133816
9.081960
8.854866
8.849502
8.911490
##ZVALUE=295
0.624657
0.500679
0.565648
0.510812
0.572801
0.545979
0.531673
0.595450
0.479817
0.557899
0.589490
0.667572
0.634789
0.729561
0.658631
0.670552
0.622869
0.740886
0.748634
0.792742
0.878572
0.916719
0.811815
0.858903
1.052618
1.101494
1.130700
1.391768
1.446605
2.123713
6.565452
30.881763
76.117516
200.579762
348.761678
598.851442
782.935023
976.913571
1015.747786
976.492763
842.752457
608.087778
424.768925
225.427747
122.861862
45.474768
21.626949
14.666915
18.244982
30.638576
42.590499
62.616467
78.168511
95.893741
104.886889
107.636452
102.008581
88.132620
74.107647
53.273439
40.370822
26.479959
19.602776
14.451742
12.702942
11.178851
10.916591
11.434555
11.815429
11.585951
12.205839
12.356639
12.281537
12.238622
11.951923
11.894703
11.699796
11.802912
11.293888
11.028647
11.003613
10.785460
10.909438
10.560751
10.764599
10.088682
10.084510
9.670854
10.018945
9.456873
9.257793
9.051561
8.800626
8.897781
8.681417
8.448958
##ZVALUE=300
0.360608
0.601411
0.525713
0.451803
0.368953
0.527501
0.371933
0.662804
0.499487
0.564456
0.601411
0.564456
0.530481
0.605583
0.480413
0.370741
0.889897
0.502467
0.747442
0.687838
0.766516
0.782609
0.797510
0.954866
0.895858
0.796914
1.037717
0.987649
1.120567
1.220703
1.410842
1.453757
3.136992
17.493963
46.528578
130.783916
238.930583
458.609462
651.443601
894.205570
1013.295650
1015.794873
967.669487
743.742585
549.983978
310.682654
181.864500
79.798698
37.628412
14.567971
12.219548
18.000603
25.797486
40.373802
54.578781
75.383782
89.655519
101.178885
103.642941
98.106861
89.518428
70.648789
56.577921
39.810538
29.270649
19.406676
14.994740
12.085438
11.823773
11.245608
11.384487
11.540651
11.619925
11.483431
11.684895
11.253953
11.163950
11.071563
11.055470
10.917783
10.869503
10.726452
10.586977
10.245442
10.232925
9.934902
9.847879
9.892583
9.689927
9.403825
9.133816
9.081960
8.677840
8.639693
8.550882
8.634925
##ZVALUE=305
0.461936
0.550747
0.548959
0.529885
0.584722
0.603795
0.452995
0.504851
0.527501
0.478625
0.624657
0.586510
0.479817
0.389814
0.563860
0.527501
0.623465
0.591874
0.635982
0.626445
0.710487
0.640750
0.715852
0.722408
0.965595
0.858903
0.794530
0.748634
0.879765
0.914931
0.935793
1.082420
1.090765
1.474619
1.985431
9.856820
29.274821
88.975430
169.715881
341.486931
509.147644
747.422576
899.905562
1006.260514
980.958939
809.057951
643.808842
416.082740
260.126591
118.315816
57.445765
20.058751
11.453629
12.282729
16.216636
26.394725
37.682652
54.798722
68.819523
86.030960
94.555616
98.616481
94.863772
83.744526
71.015954
52.192807
39.815903
27.074814
19.580722
13.850927
11.983514
11.023879
10.832548
10.656714
10.346770
10.196567
10.083914
9.972453
10.298491
10.222793
10.130405
10.065436
10.122657
9.890795
9.784698
9.314418
9.191632
9.527802
9.485483
8.799434
8.854866
8.776784
8.581877
8.493662
8.368492
8.164644
##ZVALUE=310
0.410676
0.489950
0.461936
0.484586
0.445843
0.431538
0.654459
0.520945
0.397563
0.392795
0.526905
0.550747
0.488758
0.592470
0.538826
0.591874
0.650883
0.556707
0.471473
0.584722
0.486970
0.653863
0.620484
0.653863
0.608563
0.700951
0.789762
0.751615
0.695586
0.838637
0.922680
0.948906
0.948906
1.168847
1.134872
1.189709
1.339912
4.285574
14.114976
50.609708
106.285810
236.988664
377.591848
598.375797
765.519738
923.037529
951.691866
878.263712
749.306679
522.381663
355.757475
181.389451
96.985698
34.166574
14.770627
9.246469
10.619760
15.103817
21.703839
33.917427
45.926571
64.085722
76.259971
87.671876
92.533827
90.091825
82.352757
67.201853
53.231716
38.325787
28.192997
18.805861
14.374852
11.023879
10.049939
9.433627
9.611845
9.431839
9.395480
9.145737
9.097457
9.197593
9.260774
9.230971
9.283423
9.124875
9.053946
8.916855
8.888841
8.694530
8.292794
8.449554
8.179545
7.985830
7.975698
7.781982
##ZVALUE=315
0.508428
0.480413
0.325441
0.375509
0.512600
0.394583
0.353456
0.498891
0.358820
0.476837
0.492930
0.446439
0.435710
0.469685
0.535846
0.500679
0.599623
0.670552
0.500679
0.709891
0.630617
0.555515
0.557899
0.601411
0.480413
0.607967
0.590682
0.559688
0.717640
0.687838
0.793934
0.834465
0.909567
0.829697
0.993609
0.964999
0.985861
0.994802
1.219511
2.110600
6.883740
30.233860
73.060989
177.474618
296.670794
502.115488
654.236674
820.793509
891.201496
873.695016
782.289505
593.275428
433.322787
241.274834
134.329796
50.549507
21.050572
8.964539
7.961988
9.841919
12.986660
20.435452
28.816462
43.492913
56.517720
72.465539
81.378818
87.370872
85.054636
76.242685
65.772533
50.567985
38.313866
25.075674
17.802715
12.551546
10.270476
9.056926
8.604527
8.411407
8.343458
8.264780
8.489490
8.585453
8.465648
8.549690
8.521676
8.499622
8.428693
8.150935
8.332729
7.967949
8.222461
7.923841
7.816553
7.609725
##ZVALUE=320
0.348687
0.508428
0.519753
0.408888
0.378489
0.454783
0.335574
0.262856
0.542998
0.415444
0.505447
0.558496
0.663996
0.431538
0.490546
0.475645
0.491738
0.469685
0.424981
0.548959
0.520945
0.521541
0.577569
0.466704
0.713468
0.633597
0.618696
0.709891
0.682473
0.615716
1.001954
0.836849
0.808835
0.731945
0.752807
0.785589
0.892878
0.914931
0.948906
1.053810
1.067519
1.360774
3.105998
16.225576
44.353604
125.780702
217.628479
386.212468
538.458824
734.718442
839.082003
884.929895
836.713910
677.111745
516.784787
304.254889
180.797577
78.099966
35.198927
11.382699
7.470846
7.557869
8.304715
12.196898
16.953945
27.315617
37.682652
52.713752
65.169930
77.443719
81.187487
80.153942
74.479580
60.333610
48.574805
33.803582
25.015473
16.841888
12.713671
9.662509
8.597970
8.101463
8.102655
7.931590
7.941723
8.091927
7.806420
7.887483
7.920861
7.773638
7.631779
7.763505
7.694960
7.523894
7.442832
7.498860
##ZVALUE=325
0.490546
0.458956
0.450611
0.460744
0.403523
0.590682
0.407696
0.312924
0.476837
0.526905
0.464916
0.349879
0.446439
0.284910
0.528693
0.402927
0.381470
0.510812
0.563860
0.499487
0.422597
0.546575
0.507832
0.446439
0.599623
0.505447
0.619888
0.676513
0.651479
0.759959
0.710487
0.559688
0.676513
0.663996
0.682473
0.669956
0.695586
0.780821
0.835657
0.986457
1.063943
0.955462
1.178980
0.999570
1.880527
9.861588
28.264523
82.926750
156.243443
311.501622
456.015468
657.622814
782.061815
871.531963
856.823921
725.660920
571.352839
363.059640
232.203007
108.040571
51.928759
15.855432
8.088946
6.312728
6.745458
8.299947
10.898709
17.175674
24.556518
38.262606
49.197674
62.837601
71.401000
76.927543
75.696707
66.944957
58.079958
44.644475
34.153461
22.040606
16.278625
11.238456
9.630919
8.359551
7.905960
7.643700
7.734895
7.551908
7.455945
7.657409
7.461905
7.484555
7.428527
7.351637
7.383823
7.367730
##ZVALUE=330
0.437498
0.436902
0.380874
0.255704
0.352859
0.397563
0.279546
0.471473
0.342727
0.387430
0.327826
0.431538
0.450611
0.360608
0.432730
0.360608
0.383854
0.523925
0.572801
0.468493
0.469685
0.442863
0.462532
0.454783
0.572801
0.465512
0.584722
0.485778
0.576973
0.467896
0.587702
0.580549
0.592470
0.489950
0.745654
0.538826
0.641942
0.671744
0.721812
0.567436
0.733733
0.747442
0.858903
0.885725
1.003742
1.160502
1.319647
3.125668
16.487837
44.760704
121.885538
214.736462
391.743779
541.455746
728.017688
832.502842
857.516527
797.441602
637.269616
486.464500
285.996795
169.355869
70.669651
31.337738
10.007620
6.341934
6.232858
6.667972
8.211732
10.678768
17.148852
23.809671
35.320520
45.514703
59.450865
67.141652
72.184801
70.852637
63.610673
54.443479
40.972829
32.401681
22.469759
16.659498
11.844635
9.844899
8.314848
7.682443
7.606745
7.278919
7.180572
7.179976
7.103682
7.036924
7.065535
7.296801
##ZVALUE=335
0.433922
0.365973
0.466704
0.385642
0.435710
0.253916
0.376701
0.457764
0.393987
0.413656
0.359416
0.434518
0.279546
0.447631
0.326633
0.392795
0.352859
0.494719
0.470877
0.454783
0.527501
0.471473
0.487566
0.468493
0.535846
0.583529
0.600815
0.485778
0.561476
0.569820
0.453591
0.583529
0.475645
0.515580
0.681877
0.553727
0.651479
0.624657
0.590682
0.421405
0.678897
0.574589
0.754595
0.739694
0.782609
0.826716
0.929832
1.034737
1.038909
2.132654
7.147789
31.002760
69.929957
170.480609
289.988518
488.465428
639.882684
793.833733
850.175023
820.677876
721.907616
524.658561
371.206999
207.199454
112.719536
40.803552
16.263723
6.940961
6.200671
6.210804
6.689429
8.047819
10.087490
15.721917
22.573471
33.611655
43.505430
55.170655
62.063932
67.272782
67.027807
59.752464
52.259564
37.792921
24.413466
22.669435
17.212629
11.897683
9.644628
7.534623
7.391572
7.072687
7.242560
6.952882
6.843805
7.021427
##ZVALUE=340
0.433922
0.327826
0.296831
0.461936
0.320673
0.327826
0.400543
0.313520
0.308752
0.316501
0.385642
0.360608
0.319481
0.442863
0.412464
0.506639
0.368953
0.530481
0.424981
0.530481
0.539422
0.479817
0.487566
0.511408
0.494719
0.440478
0.519753
0.406504
0.600815
0.593662
0.583529
0.330806
0.541806
0.456572
0.595450
0.718832
0.631809
0.608563
0.484586
0.494719
0.579953
0.677705
0.647902
0.656843
0.711679
0.745654
0.833869
0.878572
0.984669
0.948906
1.130700
1.222491
4.452467
14.745593
52.689910
112.843513
251.334906
381.207466
575.622916
707.677007
826.177001
838.938951
751.010776
626.652837
420.108438
274.980664
134.320855
65.104961
19.192696
8.386970
6.042719
6.097555
6.256700
6.458759
7.762909
9.702444
14.720559
20.972490
31.957626
41.276813
52.711964
59.437752
63.472986
63.574910
57.632923
50.791502
40.204525
31.642914
21.879673
16.663671
11.778474
9.462833
7.707477
7.091761
6.803870
6.862879
##ZVALUE=345
0.391603
0.469685
0.477433
0.460744
0.479817
0.351667
0.441670
0.272989
0.321865
0.380874
0.473857
0.376701
0.326633
0.462532
0.459552
0.432730
0.434518
0.522733
0.441670
0.407696
0.410676
0.461936
0.378489
0.433922
0.356436
0.513792
0.569820
0.366569
0.445843
0.506639
0.489950
0.456572
0.519753
0.653863
0.621676
0.427961
0.529885
0.565648
0.472665
0.534654
0.639558
0.553727
0.646710
0.594854
0.590682
0.564456
0.693798
0.693798
0.786781
0.709891
0.965595
0.864863
0.974536
1.180768
1.993775
7.239580
33.815503
75.990558
175.362825
286.813974
475.019813
625.917912
778.679848
828.858614
788.550973
690.507889
498.435497
345.950723
168.956518
84.782839
28.163791
12.308955
6.842613
6.274581
6.236434
5.870461
6.370544
7.069707
9.619594
13.429523
20.623803
27.888417
38.095713
45.997500
54.202676
57.931542
58.749914
55.352449
47.492981
40.247440
29.893517
22.626519
15.948415
11.773705
8.925796
7.553697
##ZVALUE=350
0.321865
0.319481
0.312924
0.338554
0.362992
0.416636
0.374913
0.350475
0.479817
0.419617
0.473857
0.247955
0.275970
0.290871
0.349879
0.504851
0.381470
0.382662
0.344515
0.344515
0.481606
0.351667
0.415444
0.362992
0.419617
0.469685
0.466704
0.436902
0.521541
0.555515
0.503659
0.519753
0.571609
0.490546
0.483990
0.571609
0.554919
0.449419
0.452995
0.337958
0.734925
0.659823
0.403523
0.542998
0.606775
0.587702
0.538826
0.544786
0.693798
0.723600
0.781417
0.883937
0.848770
0.682473
0.930429
1.015663
1.123548
4.375577
15.847683
55.537820
113.345981
244.668722
373.783708
559.004545
696.624517
808.442831
811.581612
717.828870
582.286716
371.901989
237.333775
113.522410
52.148700
14.975667
7.267594
5.778670
5.625486
5.674958
5.518794
5.807877
6.807446
9.073615
12.032986
17.759800
23.912787
33.449531
40.669441
48.888922
52.630901
53.921938
50.730705
44.409633
37.661791
28.251410
21.968484
15.749931
##ZVALUE=355
0.374913
0.359416
0.487566
0.413656
0.462532
0.423789
0.441670
0.419617
0.437498
0.367761
0.292659
0.434518
0.398755
0.479817
0.373721
0.397563
0.254512
0.300407
0.413656
0.448823
0.423789
0.533462
0.445843
0.458956
0.527501
0.514984
0.477433
0.555515
0.367761
0.478625
0.526905
0.393987
0.324845
0.612736
0.359416
0.567436
0.541806
0.605583
0.386834
0.615716
0.465512
0.479817
0.597835
0.652671
0.646710
0.685453
0.649691
0.599623
0.693798
0.790954
0.665784
0.533462
0.757575
0.814795
0.776649
0.854731
0.886917
1.028776
1.187921
1.854897
9.556413
28.312802
84.654689
160.889626
317.150950
457.018018
640.614629
750.228763
803.453922
752.354860
598.743558
458.035469
274.757743
158.609748
63.754916
27.234554
8.630753
5.753636
5.220771
5.292892
5.221963
5.394816
5.291700
6.048679
7.842779
10.447502
15.388727
20.558834
29.314756
35.519600
43.458939
47.727823
49.222708
47.347546
42.030811
36.558509
##ZVALUE=360
0.467896
0.335574
0.342727
0.330806
0.360608
0.397563
0.478625
0.387430
0.436902
0.270605
0.397563
0.408888
0.305772
0.394583
0.337958
0.467896
0.414848
0.510812
0.292659
0.461936
0.476837
0.402927
0.294447
0.534654
0.450611
0.481606
0.545979
0.544786
0.380874
0.410676
0.423789
0.426769
0.566840
0.442863
0.393987
0.429749
0.556707
0.615716
0.482798
0.521541
0.478625
0.618696
0.557899
0.495911
0.601411
0.613928
0.534654
0.591874
0.531673
0.660419
0.545979
0.584722
0.818968
0.799894
0.781417
0.786781
0.729561
0.845790
0.987649
1.002550
1.181960
1.318455
4.028678
14.081001
51.668882
107.557774
230.254531
360.825658
560.981631
691.133738
785.819888
780.593753
676.316619
543.577671
345.748663
217.916965
98.730922
43.221712
12.288690
6.371737
5.167723
5.137920
4.926920
5.053878
4.926920
5.114675
5.378723
6.413460
9.174943
12.102723
17.619729
23.300648
31.481981
36.816001
42.652488
44.610500
##ZVALUE=365
0.290871
0.343919
0.366569
0.336766
0.315905
0.289679
0.309944
0.423789
0.324845
0.313520
0.488758
0.479817
0.463724
0.281930
0.480413
0.402927
0.370741
0.340939
0.397563
0.354648
0.520945
0.364780
0.443459
0.270605
0.481606
0.443459
0.473857
0.405908
0.546575
0.557899
0.410676
0.458956
0.459552
0.403523
0.479817
0.512600
0.438690
0.512600
0.464916
0.428557
0.482798
0.460744
0.597835
0.509620
0.557899
0.625849
0.476837
0.591874
0.592470
0.567436
0.630617
0.651479
0.453591
0.807643
0.739694
0.755787
0.905991
0.785589
0.667572
0.901818
0.915527
1.210570
1.144409
1.223683
1.882911
8.135438
26.650429
81.584454
158.979893
307.246447
445.552468
621.694922
724.566579
773.815513
724.241734
572.784543
431.335568
253.626704
142.765641
53.239465
21.464825
6.867647
4.925728
4.731417
4.456639
4.544854
4.315972
4.467964
4.580617
4.901886
5.623698
7.593632
10.036826
14.446974
19.393563
26.411414
##ZVALUE=370
0.239611
0.350475
0.255704
0.405908
0.374913
0.370741
0.253916
0.314713
0.231862
0.415444
0.365973
0.345707
0.461936
0.455976
0.438690
0.335574
0.298619
0.399947
0.515580
0.369549
0.273585
0.418425
0.404716
0.390410
0.349879
0.376701
0.447631
0.584722
0.369549
0.347495
0.434518
0.280738
0.431538
0.540614
0.469685
0.498891
0.399947
0.350475
0.421405
0.601411
0.403523
0.403523
0.361800
0.477433
0.538826
0.389814
0.499487
0.502467
0.459552
0.565648
0.577569
0.602603
0.532866
0.497699
0.543594
0.619888
0.670552
0.814795
0.548959
0.766516
0.799894
0.859499
0.756979
0.849962
1.017451
0.986457
1.359582
4.402995
15.624762
57.376623
115.083456
235.696435
366.976857
559.240580
679.322481
760.162473
742.831826
632.283688
495.135784
299.602747
177.143812
73.153973
33.814907
11.359453
5.710721
4.494786
4.208684
3.964901
4.071593
4.171729
4.030466
4.143715
4.375577
5.245805
6.525517
9.204745
##ZVALUE=375
0.367761
0.426769
0.268817
0.267625
0.527501
0.382662
0.491738
0.336766
0.282526
0.344515
0.336766
0.389814
0.513792
0.340939
0.340939
0.384450
0.346899
0.369549
0.316501
0.318885
0.259876
0.386834
0.306964
0.419617
0.231862
0.378489
0.342727
0.412464
0.225902
0.399947
0.464916
0.403523
0.401735
0.356436
0.421405
0.498891
0.362992
0.429749
0.415444
0.380874
0.447631
0.394583
0.342727
0.469685
0.294447
0.438690
0.603795
0.468493
0.479817
0.389814
0.577569
0.591874
0.401735
0.535846
0.427961
0.554919
0.525713
0.466704
0.579953
0.750422
0.484586
0.654459
0.852942
0.734925
0.891685
0.732541
0.958443
1.032948
1.074672
2.314448
7.782578
31.819940
75.321794
182.879567
299.337506
481.387973
610.421896
726.553798
752.465725
675.565004
555.528998
368.160605
244.709849
127.200484
64.870715
20.479560
8.035898
4.397631
4.215837
3.909469
3.808737
3.730655
3.825426
3.788471
3.638864
3.954768
##ZVALUE=380
0.035763
0.144839
0.214577
0.140667
0.198483
0.127554
0.108480
0.243783
0.224710
0.132918
0.112653
0.230670
0.093579
0.183582
0.063777
0.105500
0.147820
0.209808
0.247955
0.194907
0.140667
0.232458
0.165701
0.167489
0.080466
0.291467
0.138879
0.129938
0.186563
0.181794
0.281930
0.180602
0.121593
0.329614
0.351667
0.371933
0.251532
0.138879
0.220537
0.320673
0.061989
0.243783
0.169873
0.148416
0.209808
0.345707
0.204444
0.203848
0.265837
0.219941
0.247955
0.310540
0.203848
0.265837
0.176430
0.331998
0.414848
0.435710
0.419617
0.361800
0.334978
0.403523
0.434518
0.469685
0.398755
0.557899
0.531673
0.701547
0.807643
0.895858
1.116991
1.154542
4.163980
22.306442
55.008531
133.318901
232.633948
406.889915
543.653965
689.002872
738.758445
700.798035
611.472726
458.971858
326.795578
172.363520
92.171431
32.650828
12.864470
4.682541
3.693700
3.529787
3.530979
3.432631
3.338456
3.243685
##ZVALUE=385
0.317693
0.374913
0.247955
0.338554
0.381470
0.358820
0.209808
0.312924
0.380874
0.344515
0.251532
0.245571
0.333786
0.371933
0.377893
0.280738
0.283718
0.520945
0.319481
0.398755
0.493526
0.398755
0.329614
0.373721
0.290871
0.444651
0.424981
0.352859
0.410676
0.405908
0.445843
0.356436
0.390410
0.474453
0.348687
0.431538
0.296831
0.280738
0.409484
0.544786
0.242591
0.274777
0.481606
0.371933
0.494719
0.522733
0.461936
0.474453
0.503659
0.385642
0.297427
0.264645
0.427961
0.424981
0.460744
0.526905
0.555515
0.534654
0.539422
0.477433
0.475645
0.444651
0.552535
0.709891
0.534654
0.627637
0.662804
0.800490
0.758767
0.944734
0.845790
0.856519
1.002550
1.221895
1.935959
10.938644
31.973720
90.003014
171.627998
329.148769
466.270447
629.038811
706.305504
725.345612
680.918694
543.944836
409.650803
242.824554
144.495964
61.521530
24.953485
6.501675
3.984571
3.423691
3.527999
3.200769
##ZVALUE=390
0.257492
0.345707
0.425577
0.233650
0.414848
0.368953
0.362992
0.383854
0.150800
0.195503
0.385642
0.357628
0.450611
0.304580
0.284910
0.366569
0.389814
0.266433
0.401735
0.273585
0.146627
0.354648
0.371933
0.372529
0.337958
0.387430
0.390410
0.356436
0.446439
0.437498
0.303984
0.412464
0.431538
0.351667
0.376701
0.504851
0.368953
0.446439
0.434518
0.440478
0.377893
0.396967
0.442863
0.371933
0.467896
0.434518
0.281930
0.328422
0.395775
0.477433
0.422597
0.503659
0.467896
0.431538
0.412464
0.414848
0.491738
0.577569
0.430942
0.494719
0.409484
0.561476
0.470877
0.559688
0.566840
0.631809
0.750422
0.765920
0.804663
0.863671
0.796914
0.816584
1.028776
0.891685
0.897646
0.939965
1.214743
4.092455
22.788644
56.794882
146.392584
243.989825
399.221778
527.041554
669.844747
729.090571
714.744925
637.888908
475.115776
342.131853
188.243985
100.887418
35.537481
13.379455
4.226565
3.302693
##ZVALUE=395
0.303984
0.398755
0.424981
0.269413
0.286698
0.345707
0.381470
0.242591
0.229478
0.279546
0.436902
0.415444
0.300407
0.403523
0.226498
0.303984
0.259876
0.404716
0.348687
0.209808
0.134706
0.321865
0.067949
0.281930
0.302792
0.293851
0.323653
0.300407
0.350475
0.262856
0.311732
0.407696
0.472665
0.389814
0.518560
0.460744
0.402927
0.188947
0.379682
0.439882
0.231862
0.572801
0.412464
0.475645
0.562668
0.276566
0.416636
0.304580
0.417829
0.407696
0.366569
0.450611
0.361800
0.432730
0.374913
0.580549
0.459552
0.309944
0.503659
0.439882
0.345707
0.528693
0.478625
0.662804
0.609756
0.590682
0.638962
0.739694
0.743866
0.709891
0.822544
0.897646
0.666976
0.791550
0.841618
0.743866
0.828505
0.935793
1.055598
2.918839
11.249781
45.375824
93.014836
191.367865
302.647948
476.768613
603.400469
717.750788
743.367672
684.999824
575.799942
389.508605
259.317756
123.217702
60.864687
20.001531
##ZVALUE=400
0.301600
0.226498
0.413656
0.349879
0.291467
0.240803
0.244975
0.273585
0.272989
0.293851
0.353456
0.321865
0.282526
0.319481
0.297427
0.224710
0.262856
0.256896
0.349879
0.383854
0.241995
0.325441
0.294447
0.380874
0.433922
0.317693
0.196695
0.449419
0.447631
0.363588
0.329614
0.287890
0.451803
0.432730
0.429749
0.467896
0.217557
0.336766
0.367761
0.423789
0.421405
0.342727
0.415444
0.407696
0.498891
0.336766
0.401735
0.388622
0.486970
0.534654
0.527501
0.408888
0.428557
0.343919
0.502467
0.454783
0.385642
0.501871
0.439882
0.543594
0.547767
0.342727
0.574589
0.460744
0.453591
0.687838
0.645518
0.599623
0.858903
0.781417
0.759959
0.701547
0.617504
0.557899
0.761747
0.625849
0.759959
0.642538
0.738502
0.926852
0.940561
1.673698
5.265474
24.758577
57.938695
140.119791
236.518979
394.441485
519.138575
649.353862
708.809495
689.986944
611.887574
460.494757
328.557491
180.403590
##END
