##TITLE=FQP00652
##FORMAT=SPECTACLE-ASCII V-1.2
##DATA TYPE=ULTRAVIOLET SPECTRUM
##SECOND TYPE=ULTRAVIOLET SPECTRUM
##DATE=05/24/18
##TIME=17:38:27
##SPECTROMETER/DATA SYSTEM=SPECTACLE
##XUNITS=NM EM
##YUNITS=ENERGY
##YFACTOR=1
##FIRSTX=220
##LASTX=410
##NPOINTS=96
##3DDATA=Equidistant
##ZUNITS=NM EX
##FIRSTZ=210
##LASTZ=400
##ZPOINTS=39
##XYDATA=(Y..Y)
##ZVALUE=210
5.008578
5.130768
4.858971
5.166531
4.200935
4.575849
5.068779
4.737973
5.172491
4.320741
3.696680
4.106760
4.543662
4.983544
4.867911
4.714727
4.608631
6.398559
5.473495
6.194711
5.847812
6.084442
6.820560
7.220507
8.291602
9.696484
10.161996
12.089610
13.172626
13.812780
15.939474
16.032457
18.799901
19.382834
20.140409
20.264983
18.991828
19.706488
19.049644
18.535852
17.412901
16.621947
16.458631
15.763640
15.615821
15.215874
14.929771
14.863610
14.283657
14.046431
13.370514
12.770891
12.448430
12.840629
11.690855
12.301803
11.338592
10.817647
12.134910
11.108518
12.002587
12.283921
12.044907
11.619925
12.021661
12.428761
16.898513
17.184615
19.596815
22.643805
25.011897
27.149916
31.935573
35.521984
36.574602
37.759542
36.663413
33.898950
29.348731
27.167797
22.298694
19.027591
15.911460
15.152693
13.693571
11.341572
9.188652
9.737611
8.465648
10.928512
9.411573
10.234714
10.425448
13.755560
14.412999
13.102889
##ZVALUE=215
20.357966
20.440817
14.813542
12.419820
11.367798
11.893511
10.822415
9.688735
10.143518
10.376573
8.439422
7.331967
6.614923
5.188584
4.960895
3.974438
4.457831
5.017519
5.086660
5.003810
5.136728
5.576611
6.244779
6.595850
7.401705
9.159446
12.096763
13.312697
17.391443
18.568635
22.493601
25.348663
24.177432
26.233792
28.468966
29.663444
29.670000
26.944876
25.865436
24.496913
24.992824
23.733974
22.563934
21.591783
21.942854
20.103455
17.870665
17.078519
16.904473
15.270710
16.740561
14.043450
13.532639
14.909506
13.659596
14.295578
13.020635
12.128949
11.346936
11.744499
10.341406
10.944605
11.581779
12.193918
11.225939
11.917949
13.544559
15.190840
15.295744
19.176602
20.349622
20.784736
24.063587
25.863647
27.378798
26.584864
26.913881
25.028586
23.272634
19.841790
19.118786
16.092658
14.184713
13.321638
11.445880
11.194944
11.635423
8.781552
9.776950
9.525418
8.954406
9.728670
9.412766
10.071993
10.385513
10.792613
##ZVALUE=220
64.006448
61.861873
60.773492
51.316619
44.033527
37.547946
29.146671
23.478866
20.357966
20.860434
21.088719
20.876527
19.631982
17.114878
12.787580
10.682940
7.375479
5.404949
4.813671
4.640818
4.060864
4.315972
4.811883
6.021857
7.203817
10.296702
13.990998
18.598437
22.430420
26.359558
29.512644
35.886765
39.937496
41.171908
42.500496
41.408539
40.940642
38.170815
37.669539
38.799644
36.293864
34.720898
32.129884
30.021667
28.568506
27.164817
24.228692
22.325516
21.610856
19.708872
17.663836
19.084811
15.578866
15.652776
15.615821
15.342832
14.679432
13.747811
13.724566
12.080669
11.567473
11.604428
11.691451
11.725426
12.080669
12.405515
12.907982
13.692975
14.833808
16.743541
17.326474
19.585490
20.542741
22.247434
21.638870
21.970868
21.270514
20.855665
20.147562
17.841458
16.201735
13.605952
13.292432
12.874603
12.699962
12.059808
10.228753
9.769797
10.477901
10.056496
9.272695
9.100437
8.722544
9.719729
9.248853
9.773970
##ZVALUE=225
101.296902
106.710792
124.225616
140.187740
137.755871
123.310685
106.594563
76.304674
59.801936
47.218800
37.880540
35.637617
39.654970
40.230751
37.077665
33.343434
26.437640
21.754503
14.735460
10.752678
7.183552
5.111694
4.697442
5.254745
7.020831
10.080934
11.638999
17.840862
20.688772
26.443601
32.463670
37.763715
41.400790
42.537451
44.291615
43.910742
47.452450
44.873953
43.596625
41.734576
41.067600
34.957528
37.043691
33.688545
31.323433
27.093887
25.306940
25.044680
23.632646
21.930933
19.308925
18.828511
17.426610
18.243790
16.805530
14.763474
15.464425
13.729930
13.234615
13.259649
13.443828
13.716817
13.218522
12.107491
13.475418
12.863874
14.042854
14.094710
15.623569
16.669631
15.915632
17.423630
18.203855
18.377900
18.208623
18.051863
17.966628
16.155839
16.151667
14.086962
14.251471
14.005899
12.126565
11.394620
12.215972
11.477470
11.416674
12.196898
11.563897
11.541843
10.902882
11.099577
11.157990
10.811687
10.585785
9.968877
##ZVALUE=230
71.918964
81.679821
120.050907
182.543993
226.745605
256.458521
257.779956
236.744881
201.497674
157.350898
105.982423
77.942610
61.035752
59.780478
61.881542
64.867735
63.141584
61.673522
55.168867
40.448904
30.902624
19.676685
12.061596
7.848740
7.172823
7.386804
9.066463
12.727976
14.275908
18.673539
21.832585
25.240779
25.657415
27.902722
29.353499
30.702949
31.390786
29.647946
29.847622
28.197765
29.544830
27.173758
26.265979
23.810863
23.195744
21.847486
19.980669
19.321442
19.065738
18.044710
17.203689
16.420484
15.166998
15.563965
15.637875
13.808608
13.490915
12.715459
12.978911
11.845827
12.720823
12.025833
13.613701
12.974739
12.272596
12.651682
13.487935
13.844967
14.324784
15.687943
16.400814
16.673803
18.607974
18.127561
17.821789
17.481446
17.581582
15.623569
16.596913
15.728474
14.754534
14.374852
13.900995
13.702512
14.396906
13.527870
14.107823
13.423562
13.634562
13.280511
13.779998
13.341904
12.895465
12.570620
13.146996
13.291836
##ZVALUE=235
18.049479
19.621849
52.214861
96.127987
176.808834
243.037939
332.477689
375.833511
395.331979
373.636484
308.090448
241.451859
182.831883
117.717981
90.561509
78.390837
78.032613
86.921453
90.231895
88.695884
79.606771
67.240596
47.412515
35.718679
20.966530
14.777780
10.090470
8.651614
8.314848
9.731650
10.639429
11.770725
12.743473
14.493465
15.142560
15.697479
15.910864
16.490817
17.321706
17.191768
16.648769
16.522408
16.768575
15.864968
16.114712
15.405416
14.735460
14.956594
13.540983
13.807416
12.874603
13.185740
12.822747
12.400746
13.090968
12.839437
11.796951
12.196898
12.580752
12.371540
12.146831
12.174845
12.087822
12.674928
12.927651
13.351440
13.949871
13.908744
14.781952
16.157627
17.014742
18.372536
18.595457
18.206835
18.478632
18.231869
18.350482
18.158555
17.044544
17.412901
17.040968
16.224980
17.098784
16.349554
16.637444
16.060472
16.024709
16.598701
15.964508
16.089678
15.944839
15.608668
15.792847
15.292764
15.720725
15.722513
##ZVALUE=240
1.580715
1.853704
4.774928
21.717548
46.408772
110.104680
178.472996
298.920870
389.521718
462.720990
507.442951
499.028563
424.168706
352.278948
247.905850
174.781680
113.331676
92.839599
87.918639
94.443560
101.548433
105.410814
101.836920
85.761547
70.626736
50.526857
36.728978
22.809505
16.325712
11.056662
9.468794
8.407831
9.130836
9.085536
10.001659
11.175871
11.684895
12.384653
11.857748
13.004541
12.914538
12.727976
13.316870
14.088750
13.684630
13.779998
14.020801
13.202429
13.187528
12.942553
12.739897
12.518764
12.341738
11.725426
12.311935
11.693835
11.902452
11.435747
11.334419
11.249781
11.298656
11.019707
12.161732
12.164712
12.280941
12.015700
13.342500
13.185740
15.006661
14.564991
16.708970
17.046928
17.825961
18.005967
18.226504
18.349886
18.928647
18.202662
17.815828
17.825961
16.855597
17.531514
17.265677
16.975999
17.774701
17.617941
17.674565
17.340779
17.481446
16.745925
17.711520
16.813874
16.475916
17.402768
16.838908
17.582774
##ZVALUE=245
1.309514
1.140833
1.233816
1.465678
3.890991
10.698438
39.859414
83.082914
185.493827
279.232860
427.956581
521.128774
583.199859
595.765710
549.378991
440.756679
345.615745
229.722857
160.079002
100.985765
83.732605
85.730553
99.183917
109.865665
113.323927
106.643438
93.570948
80.806613
58.274865
43.707490
31.946898
20.479560
15.330911
12.402534
12.103915
12.531877
13.418794
13.509989
13.864636
14.024973
15.061498
14.897585
15.312433
14.808774
14.902949
14.420748
14.257431
14.206767
14.041662
14.057755
12.828708
13.304949
12.494922
11.883974
11.260509
11.244416
11.514425
11.443496
10.828972
11.561513
10.929704
10.380745
10.694861
11.182427
11.052489
11.886954
12.497902
12.343526
12.602806
13.631582
14.260411
15.829802
16.227961
16.550422
16.704798
16.380548
16.654730
15.900731
17.081499
16.119480
16.572475
16.268492
16.879439
16.964674
17.508864
16.767979
17.716885
17.070770
16.908646
16.892552
18.013716
17.198920
17.707944
17.327666
17.183423
16.693473
##ZVALUE=250
1.036525
0.993609
1.013875
1.286864
1.323819
1.592636
2.096891
6.401539
28.197765
61.480403
148.899555
244.166851
349.974632
502.339602
586.641431
636.346936
617.976785
532.676578
439.287424
296.467543
198.693871
130.483508
82.600713
75.718760
86.773634
101.272464
111.318827
118.548870
113.011003
103.230476
89.455843
68.742633
53.317547
35.900474
27.593970
20.881891
18.648505
17.723441
17.463565
17.078519
17.738938
17.775893
18.128753
17.092824
17.450452
16.689897
16.420484
15.555620
15.435815
15.064478
14.460683
13.646483
13.368726
12.539625
12.373924
11.840463
11.762977
11.358857
10.726452
10.540485
10.634661
9.804964
10.431409
10.628700
9.813905
10.978580
11.042953
10.868907
11.716485
12.111664
13.171434
13.734698
13.640523
14.465451
14.256835
13.919473
14.233589
14.874935
14.597774
14.728904
14.429688
14.808774
14.639497
15.066862
14.803410
15.318990
15.783906
15.229583
15.730858
15.896559
16.311407
15.803576
16.550422
15.557408
16.037822
16.382933
##ZVALUE=255
0.945926
0.965595
1.144409
1.136661
1.035929
1.228452
1.295805
1.215935
1.380444
3.709793
12.729764
47.295690
94.721913
202.111006
304.562449
459.653735
561.463833
659.969449
677.833557
621.508956
530.419946
425.002575
264.696479
169.698000
94.051957
73.266625
72.596669
85.408688
107.678771
120.821595
128.168464
126.785636
117.849708
96.987486
80.266595
58.966875
45.833588
33.746958
28.539896
24.612546
22.488832
21.738410
21.227598
20.947456
20.356774
19.265413
18.270612
17.282963
16.941428
16.121864
15.491843
15.274882
14.270544
13.293624
12.724996
12.139678
12.056828
11.216998
10.874867
9.988546
10.338426
9.946823
10.092854
9.993911
9.831786
10.091662
10.306835
10.580420
10.904670
11.147857
11.745691
11.762977
12.298822
12.841821
12.817979
13.346672
12.999773
13.036728
13.118982
12.801886
12.598634
13.717413
13.186932
13.511777
14.138818
13.512969
13.993979
13.690591
14.936924
13.964772
14.317632
14.648438
14.674664
15.271902
14.423728
14.688969
##ZVALUE=260
0.924468
1.026988
0.840425
0.742674
0.715852
0.811815
0.981688
1.072884
1.091957
1.208782
1.250505
1.788735
5.864501
26.215911
59.157610
145.149827
239.668489
391.810536
519.564748
668.030977
724.418759
728.814006
630.448461
517.760515
336.405635
233.669877
134.461522
90.236664
69.463849
73.954463
90.996623
115.970969
131.263733
142.208934
139.956474
127.591491
112.725496
88.178515
70.506930
51.386952
40.902495
31.897426
28.138757
25.219917
23.820996
21.846890
21.034479
20.049810
19.438863
18.420815
17.314553
16.290545
15.563965
14.324784
13.212562
12.945533
12.346506
11.936426
11.746883
11.053681
10.754466
10.571480
10.356903
10.112524
9.901524
9.903908
9.901524
10.290742
10.132790
10.710955
10.930896
12.097955
11.626482
11.835694
11.639595
11.719465
11.497736
11.848807
11.992455
11.790991
11.893511
11.941791
12.499690
12.544990
12.229681
12.578964
12.858510
12.866855
12.440681
12.867451
12.630820
13.366938
12.971759
12.431741
13.309717
12.700558
##ZVALUE=265
0.872612
1.042485
0.807643
0.754595
0.922680
0.944734
0.810623
0.979900
0.909567
1.014471
1.296997
1.229644
1.121759
1.478791
3.683567
12.512803
49.004555
98.404884
172.382593
334.596634
480.168462
664.612651
756.416917
789.096951
736.429691
598.172545
474.810600
307.102799
205.385685
118.229985
84.630847
73.621869
83.483458
108.323693
126.485825
144.530535
150.699615
144.274831
133.944750
110.908747
92.449784
69.982409
54.216981
40.338635
31.492710
26.345849
23.626685
21.909475
20.758510
19.717813
18.733740
17.228723
16.530752
15.291572
14.132857
13.639927
13.138652
11.965632
11.697412
11.293888
11.299849
11.075735
10.718703
10.656714
10.820627
10.582805
10.900497
11.075735
10.977983
11.490583
11.396408
11.148453
12.080669
11.958480
11.758804
11.393428
11.339784
11.643767
11.918545
11.633635
11.561513
11.714697
11.619925
11.535883
11.601448
11.278987
11.783838
11.851788
11.863708
11.740923
11.892915
11.793971
12.177825
12.111664
12.187958
12.251735
##ZVALUE=270
0.829697
0.709891
0.757575
0.632405
0.724792
0.689626
0.793934
1.007915
0.990629
0.952482
0.957847
0.885725
0.795722
1.088977
1.182556
1.317859
1.533628
6.589890
20.375848
69.797635
142.570734
250.698924
441.287756
600.274801
770.123005
832.141638
823.037028
746.093988
580.881834
441.754460
274.653435
175.575614
111.073852
71.013570
69.129467
87.017417
104.972720
128.167868
140.990615
148.971677
144.846439
128.719807
111.175776
87.061524
68.542957
47.030449
36.879778
27.414560
23.208857
19.379854
18.029809
17.320514
16.609430
15.319586
15.005469
14.084578
13.995767
13.136864
13.288856
12.582541
12.415648
11.826754
11.840463
11.775494
11.001825
11.441708
11.426806
11.708736
11.517406
11.678934
11.851788
12.321472
12.416840
12.879968
12.712479
12.429953
11.828542
11.854768
11.755824
11.547804
11.139512
11.715889
11.469722
11.791587
11.706948
11.361837
11.649728
11.814833
11.474490
11.082888
11.365414
11.186600
11.362433
11.181831
10.820627
11.212826
##ZVALUE=275
0.835657
0.718832
0.671744
0.676513
0.726581
0.581741
0.960827
0.782609
0.775456
0.905991
0.997782
0.964999
0.950694
0.751615
0.925660
1.166463
1.200438
1.263618
1.286864
2.960563
11.672974
35.679936
111.880898
216.826797
422.727466
581.676960
767.411590
876.290798
912.744999
857.329965
754.809976
558.397770
400.709510
223.358870
135.346651
71.380734
55.768490
60.582757
73.505640
95.890760
112.763643
129.244924
136.119723
131.685734
121.562481
99.597573
82.695484
60.591698
45.343637
31.129718
23.639798
17.757416
15.614629
14.532804
13.993979
13.366938
13.340712
13.173819
13.078451
12.925863
12.696981
12.982488
12.945533
12.921691
12.999773
13.086796
12.959838
12.921691
13.010502
13.774633
13.967752
14.167428
13.797879
13.688803
13.745427
13.733506
13.569593
13.269782
12.762547
12.857914
12.706518
12.360811
12.482405
11.923909
12.001991
12.104511
12.093782
11.773705
11.688471
11.373758
11.654496
11.207461
10.781884
11.307597
11.042953
11.123419
##ZVALUE=280
0.737906
0.734925
0.799894
0.783801
0.657439
0.727773
0.666976
0.760555
0.708699
0.712872
0.949502
0.931621
0.830889
0.933409
0.897646
1.248717
0.992417
1.199841
1.330972
1.360774
1.400709
2.358556
11.266470
44.964552
139.314532
246.248841
444.172621
625.890493
844.902992
962.013602
1015.794873
984.108448
834.395885
671.217442
445.827842
297.972560
151.257515
84.683895
42.565465
35.786629
46.654940
61.885715
83.744526
99.979639
117.419958
123.242736
120.973587
113.223791
92.497468
76.947808
54.413676
40.764809
26.734471
19.953847
15.225410
13.506413
12.894869
13.140440
13.182759
13.685822
13.951659
14.338493
14.530420
14.561415
15.349984
15.130639
15.365481
15.462637
15.778542
16.168952
15.661716
15.741587
15.721917
15.957952
15.527606
15.527606
15.242696
15.079975
14.619827
14.383793
14.236569
13.779998
13.839602
13.340712
13.173819
12.856722
12.907982
12.645721
12.516975
12.257695
12.227893
11.486411
11.350513
11.451840
10.973811
11.421442
##ZVALUE=285
0.671744
0.603795
0.576973
0.652671
0.567436
0.642538
0.719428
0.836849
0.786781
0.804663
0.615716
0.746846
0.763535
0.619888
0.793934
0.806451
0.719428
0.951886
1.102686
0.929832
1.043677
1.004934
1.305938
1.518726
4.035830
17.034411
66.679716
137.589574
292.288661
456.872582
637.648702
864.156485
986.368656
1015.740633
965.290666
780.591965
606.892705
374.889970
234.665871
109.386444
57.432652
27.233958
26.176572
38.396716
52.768588
76.037645
91.116428
108.020902
115.072727
116.788745
109.241605
92.839599
77.454448
56.075454
41.978955
28.635859
21.831989
17.269850
15.911460
16.026497
15.573502
16.225576
16.469955
17.375946
17.359853
17.814636
18.403530
18.316507
18.736720
18.848777
18.945932
19.355416
18.916726
18.657446
18.130541
17.621517
17.709732
17.204881
16.618967
16.167760
15.678406
15.834570
15.150905
14.953613
14.375448
14.931560
14.353991
13.983846
13.378859
13.300776
12.925863
12.294650
12.018681
11.795759
11.832714
11.508465
##ZVALUE=290
0.633597
0.542998
0.679493
0.560880
0.479817
0.726581
0.666976
0.564456
0.798702
0.643730
0.608563
0.718832
0.735521
0.810623
0.850558
0.726581
0.777841
0.989437
0.892878
0.850558
0.931621
1.023412
1.233816
1.207590
1.430511
1.476407
1.850724
5.257726
28.417706
71.187615
172.978640
298.505425
526.231527
715.296865
929.967761
1015.794873
1013.991833
921.433568
704.181790
524.847507
303.041935
178.184509
76.842904
37.125945
19.721985
22.434592
33.967495
47.509670
68.657994
85.141659
104.935765
112.871528
114.699602
109.257698
94.997883
79.497695
57.855844
45.453906
32.422543
26.529431
21.943450
20.064712
19.509792
20.188689
20.013452
20.418763
20.988584
21.027923
21.503568
21.594763
21.961927
21.463633
21.351576
20.925999
21.625757
20.689964
19.683838
19.315481
19.063950
18.647909
17.941594
17.672777
17.244816
16.709566
16.183853
15.903711
15.534759
15.205741
14.936924
14.409423
13.653636
13.130903
13.124943
12.283921
12.350678
11.824965
##ZVALUE=295
0.433922
0.555515
0.515580
0.406504
0.451803
0.547767
0.539422
0.452995
0.695586
0.535846
0.742674
0.643730
0.454783
0.633597
0.556707
0.799894
0.739694
0.741482
0.795722
0.777841
0.848770
0.869632
0.879765
1.045465
1.067519
1.050830
1.078844
1.329780
1.399517
2.343655
7.189512
33.973455
79.808831
194.374919
325.155854
553.163886
728.541613
925.240517
1000.149846
963.397026
843.925476
613.156557
429.071784
227.447748
121.956468
44.575930
22.477508
16.300678
20.738840
32.851696
45.555830
66.975951
80.905557
100.685954
109.318495
113.409758
108.362436
94.877481
81.090927
61.482787
48.878789
36.053658
29.194951
25.271773
23.044944
22.367835
22.296906
22.551417
22.845864
23.079515
23.038983
23.038983
22.837520
22.399426
22.143722
21.760464
21.389723
20.551682
20.245910
19.759536
19.320846
18.896461
18.523932
17.824769
17.320514
16.858578
16.265512
15.700459
15.210509
14.618635
14.508963
13.659000
13.369918
12.824535
12.863874
12.847781
##ZVALUE=300
0.552535
0.548959
0.414848
0.659823
0.435710
0.546575
0.610948
0.557899
0.499487
0.545979
0.478625
0.528693
0.512600
0.608563
0.603795
0.803471
0.653863
0.859499
0.698566
0.762939
0.609756
0.862479
0.773668
0.893474
0.796914
0.777841
0.921488
0.916719
1.086593
1.180768
1.313686
1.373887
4.432797
15.907884
57.508945
117.421746
252.557993
398.747921
620.494485
774.091482
918.366909
953.688622
867.883563
734.431744
502.047539
331.009626
168.545842
90.181828
33.669472
16.752481
15.060902
20.073652
31.203628
43.572783
61.888695
78.054667
97.829700
107.000470
111.147761
107.825994
95.841885
82.055926
65.061450
51.791668
38.105845
31.424761
25.541782
23.270845
22.716522
22.550821
22.117496
22.412539
22.141933
21.995902
21.203756
21.138787
20.642877
20.323992
19.842982
19.539595
19.044876
18.628836
18.185973
17.622709
17.320514
17.025471
16.159415
15.511513
15.219450
14.569759
14.253855
13.972521
13.376474
13.000965
12.909770
12.622476
##ZVALUE=305
0.439882
0.471473
0.498891
0.606775
0.550747
0.498891
0.432730
0.556707
0.672936
0.461936
0.575781
0.546575
0.542998
0.640750
0.498891
0.663996
0.573993
0.589490
0.632405
0.603795
0.677705
0.702739
0.796914
0.718832
0.792742
0.851750
0.842810
0.753999
0.882745
0.938773
1.043677
1.077652
1.076460
1.378655
1.987815
10.307431
30.404925
92.424750
172.133446
332.675576
485.718846
696.185827
827.894807
913.113952
889.603496
743.401647
591.269732
386.992693
247.436762
115.231872
56.739450
21.467805
13.695955
15.220642
20.344853
30.914545
42.291880
60.754418
75.442791
93.125701
102.358460
105.994940
101.865530
91.364980
78.570843
60.586929
48.184991
35.707951
28.546453
22.936463
21.020770
20.027757
19.597411
18.859506
18.732548
18.569827
18.096566
18.016696
17.936826
17.400980
17.445683
17.154813
16.913414
16.380548
16.173720
15.846491
15.317798
14.541745
14.352798
14.114976
13.401508
13.108850
12.712479
12.614727
12.093782
12.110472
##ZVALUE=310
0.405908
0.415444
0.454783
0.529885
0.583529
0.475645
0.368953
0.420809
0.493526
0.392795
0.488758
0.517964
0.568628
0.605583
0.548959
0.420809
0.552535
0.641942
0.634789
0.531673
0.548959
0.587702
0.682473
0.670552
0.747442
0.728965
0.727773
0.779629
0.896454
0.891685
0.904799
1.142621
0.906587
1.030564
1.003742
1.172423
1.242757
4.539490
14.399886
52.822828
109.919906
237.336755
379.641652
586.411953
730.344653
860.295892
880.330801
806.733966
690.974593
486.165881
333.220959
174.063444
94.940662
36.066771
17.055869
12.237430
14.287829
19.800663
26.456714
39.168000
51.100850
70.179701
81.570745
93.997717
98.318458
95.428824
88.094473
73.732734
60.272813
43.872595
34.150481
24.690628
20.852685
17.285943
16.782880
15.742779
15.650988
15.451908
14.969707
14.959574
14.944673
14.711618
14.847517
14.451742
14.095902
13.933778
13.844967
13.678670
13.382435
13.371706
12.966990
12.505651
12.438893
12.219548
11.948943
11.816621
##ZVALUE=315
0.458956
0.335574
0.449419
0.547767
0.389814
0.578761
0.606775
0.543594
0.517964
0.415444
0.554919
0.465512
0.453591
0.405908
0.507832
0.444651
0.525713
0.602603
0.577569
0.506639
0.651479
0.531673
0.494719
0.499487
0.566840
0.597835
0.619888
0.678897
0.771880
0.661612
0.627637
0.789762
0.781417
0.952482
0.930429
0.906587
0.973940
1.039505
1.248717
2.121925
7.421970
31.729937
74.238777
176.134706
299.690962
510.996580
656.178594
811.460614
875.141025
853.374004
764.107704
576.086044
420.305729
232.579708
130.362511
49.921870
22.163987
11.113882
10.677576
12.928843
16.470551
24.499893
32.783747
47.753453
60.343742
76.952577
85.808635
91.147423
89.999437
79.536438
69.495440
53.695440
42.407513
28.694868
21.983981
16.666651
14.528632
13.255477
12.664795
12.721419
12.595654
12.628436
12.671947
12.654662
12.611747
12.400746
12.536645
12.224913
12.338758
12.414455
11.633635
11.851788
11.718869
11.495948
11.239648
11.279583
##ZVALUE=320
0.454783
0.286698
0.321865
0.374913
0.622869
0.306964
0.473857
0.481606
0.392795
0.369549
0.482798
0.465512
0.420809
0.381470
0.493526
0.527501
0.457764
0.467896
0.520945
0.662804
0.662804
0.547767
0.642538
0.549555
0.625849
0.709891
0.618696
0.585914
0.520945
0.647902
0.635982
0.760555
0.893474
0.690818
0.764728
0.815988
0.810623
0.850558
1.013875
1.138449
1.103878
1.410842
3.154874
16.788840
45.734644
127.919912
220.913887
388.046503
539.791584
734.532475
839.392543
877.842903
827.244520
669.462681
508.841872
299.079418
176.844597
76.565742
34.893751
12.008548
8.531809
8.763671
10.153651
13.393760
18.568635
29.713511
40.062666
55.016875
67.764521
79.167485
83.276629
82.276464
75.768828
62.339902
50.695539
35.909414
27.044415
18.901825
14.841557
12.083650
11.349916
10.993481
11.029840
11.060834
10.989904
11.171699
11.015534
11.151433
11.465549
11.105537
11.130571
11.032820
10.738969
10.682940
10.671616
10.836720
##ZVALUE=325
0.349879
0.345707
0.455976
0.438690
0.464916
0.509620
0.540614
0.671744
0.354648
0.522733
0.486970
0.501871
0.498891
0.472665
0.468493
0.376701
0.435710
0.310540
0.477433
0.370741
0.429749
0.625849
0.628829
0.506639
0.545979
0.576973
0.767708
0.536442
0.568628
0.658631
0.554919
0.583529
0.740886
0.741482
0.641942
0.774860
0.759959
0.757575
0.821948
0.909567
0.950694
1.092553
1.059771
1.278520
1.750588
10.396838
29.043555
84.084868
158.574581
314.309001
461.470485
660.652518
785.870552
871.265531
853.034854
719.205737
565.894842
355.775952
226.251483
105.006695
50.077438
15.995502
8.183718
6.946921
7.373691
9.014606
12.021661
18.170476
25.767684
39.789677
50.735474
64.462423
73.138475
78.412890
76.794624
68.426728
58.448911
45.182705
34.815669
23.790598
18.005967
13.532639
11.913776
10.810494
10.282993
10.315776
10.571480
10.427833
10.361671
10.233521
10.407567
10.418892
10.539889
10.507703
10.424852
10.373592
##ZVALUE=330
0.444651
0.349879
0.380874
0.511408
0.411868
0.487566
0.589490
0.378489
0.531673
0.298619
0.517964
0.445843
0.405908
0.442863
0.406504
0.477433
0.391603
0.457764
0.368953
0.481606
0.541806
0.357628
0.472665
0.331998
0.356436
0.614524
0.491738
0.444651
0.570416
0.618696
0.532866
0.714660
0.582933
0.680685
0.487566
0.593662
0.635982
0.780821
0.621676
0.793934
0.671744
0.816584
0.856519
1.000762
1.122952
1.055598
1.238585
4.673600
15.509725
60.210824
125.286579
267.123580
406.350493
614.041686
756.386518
870.648026
875.262618
779.605508
650.369525
443.926454
297.241807
144.638419
74.285865
26.258826
11.206865
6.625652
6.684661
7.104874
8.370876
11.884570
16.633868
25.207996
34.470558
49.070716
59.192777
69.843531
73.327422
71.327686
66.439509
54.690838
44.405460
32.270551
24.956465
17.795563
14.511943
11.665821
10.767579
10.282993
10.160804
10.067821
10.049939
10.154843
10.038614
9.759665
9.864569
10.014772
##ZVALUE=335
0.285506
0.459552
0.335574
0.465512
0.316501
0.436902
0.370741
0.359416
0.373721
0.341535
0.485778
0.302792
0.113845
0.483990
0.442863
0.198483
0.486970
0.412464
0.423789
0.512600
0.535846
0.369549
0.507832
0.420809
0.237823
0.501871
0.429749
0.590682
0.566840
0.609756
0.529885
0.568628
0.589490
0.460744
0.725985
0.670552
0.597835
0.516772
0.725985
0.591874
0.713468
0.831485
0.850558
0.962615
0.761747
0.944734
1.017451
1.042485
1.203418
2.058744
7.155538
32.746792
78.974962
195.817947
330.873728
551.280975
713.439584
861.198902
896.928906
838.259459
727.381706
525.655746
371.513963
203.058720
108.831525
38.294792
16.014576
7.376671
6.639957
6.787777
7.156730
8.653998
10.919571
16.898513
23.395419
35.413504
44.557452
56.704879
64.895749
68.871975
68.169832
61.356425
53.876638
43.182969
34.788847
24.782419
18.909574
14.334917
12.274981
10.442734
10.015965
9.742975
9.760857
9.851456
9.754896
9.610653
##ZVALUE=340
0.488758
0.302792
0.199676
0.435710
0.441670
0.393987
0.485778
0.384450
0.397563
0.350475
0.441670
0.480413
0.496507
0.270605
0.277758
0.437498
0.263453
0.430942
0.433922
0.371933
0.407696
0.487566
0.402927
0.472665
0.543594
0.546575
0.412464
0.505447
0.399947
0.547767
0.372529
0.395775
0.534654
0.443459
0.589490
0.599623
0.707507
0.525713
0.605583
0.563860
0.710487
0.702739
0.628829
0.685453
0.679493
0.603795
0.786781
0.869632
0.918508
0.935793
1.160502
1.421571
3.413558
18.696785
50.740838
143.931508
257.470608
456.025600
619.580746
803.688765
882.834792
873.934031
789.376497
608.673692
443.553925
244.091749
138.342977
56.092739
22.570491
8.298755
6.658435
6.713867
6.682873
7.269979
8.287430
11.243820
15.731454
23.351908
31.700730
44.372678
53.062439
62.128901
64.852834
63.588619
59.884787
51.005483
42.555928
32.449961
24.761558
18.251538
14.410615
11.305809
10.166764
9.598732
9.279847
9.012818
##ZVALUE=345
0.414848
0.331998
0.395775
0.301600
0.432730
0.406504
0.485778
0.452995
0.445843
0.360608
0.190735
0.474453
0.343919
0.411868
0.320673
0.515580
0.349879
0.428557
0.466704
0.418425
0.276566
0.394583
0.452995
0.510812
0.297427
0.380874
0.422597
0.534654
0.421405
0.532866
0.483990
0.409484
0.496507
0.589490
0.424981
0.535846
0.476837
0.499487
0.517964
0.491738
0.604987
0.594854
0.614524
0.573993
0.701547
0.584722
0.677705
0.684857
0.804663
0.875592
0.903606
0.760555
1.046658
1.116991
1.831651
9.994507
30.307770
90.052485
174.716711
347.735882
503.876805
716.665983
834.848881
889.898539
849.154592
694.077611
529.720783
314.396620
184.850693
78.406930
34.723878
11.731982
7.384419
6.692410
6.592870
6.595850
6.878972
8.104444
10.156631
14.932752
20.459890
30.573606
38.718581
48.902631
55.544972
59.024692
60.032606
55.817962
50.159693
40.452480
32.923818
23.274422
18.313527
13.487935
11.216998
9.698868
##ZVALUE=350
0.368953
0.356436
0.324845
0.349879
0.264645
0.440478
0.373721
0.445843
0.441670
0.466704
0.389814
0.414848
0.436902
0.400543
0.395775
0.391603
0.362992
0.440478
0.374913
0.580549
0.501871
0.482798
0.487566
0.403523
0.447631
0.371933
0.450611
0.465512
0.376701
0.500679
0.574589
0.480413
0.389814
0.393987
0.640750
0.509620
0.521541
0.733733
0.540614
0.560880
0.524521
0.554919
0.522733
0.587702
0.646710
0.631809
0.682473
0.624657
0.617504
0.762939
0.903606
0.851750
0.876784
0.859499
1.049638
1.069903
1.313686
5.064607
16.737580
58.171749
118.621588
262.214541
403.108597
610.407591
758.776665
870.689750
868.138671
757.313967
605.610609
380.256772
240.072608
112.865567
51.976442
15.127659
7.828474
6.241798
6.153584
6.085634
6.088614
6.673932
7.658601
9.926558
13.123751
19.113421
25.309920
34.560561
41.729808
50.516725
54.028630
55.167675
52.595735
45.884848
39.382577
29.525757
23.120642
16.968846
##ZVALUE=355
0.284910
0.236630
0.221729
0.370741
0.323653
0.238419
0.284910
0.348687
0.367761
0.309944
0.274777
0.368953
0.308752
0.339746
0.467896
0.364780
0.426769
0.266433
0.350475
0.355840
0.404716
0.255704
0.371933
0.293851
0.400543
0.418425
0.405908
0.279546
0.524521
0.475645
0.258684
0.322461
0.404716
0.456572
0.373721
0.479817
0.384450
0.487566
0.463724
0.504851
0.486970
0.528693
0.557899
0.548959
0.532866
0.555515
0.628829
0.693798
0.588894
0.705719
0.593662
0.746846
0.796914
0.785589
0.938773
0.757575
0.954866
1.018643
0.882745
2.162457
8.199811
36.510825
80.434680
185.674429
312.711596
526.672006
679.618716
828.440785
868.110657
790.292621
665.931702
461.974740
301.143527
139.200687
68.082809
20.761490
8.968711
5.906820
5.847812
5.836487
5.849600
5.973577
6.250739
6.993413
8.466840
11.713505
15.688539
22.807717
28.753877
37.490726
43.607950
48.885942
50.386786
47.844648
43.275952
36.332607
##ZVALUE=360
0.284910
0.193715
0.226498
0.263453
0.232458
0.270605
0.242591
0.352859
0.190735
0.259876
0.286698
0.341535
0.236630
0.291467
0.319481
0.319481
0.229478
0.365973
0.306964
0.231862
0.192523
0.466704
0.307560
0.305772
0.448823
0.245571
0.339746
0.237823
0.349879
0.345707
0.462532
0.433922
0.335574
0.282526
0.332594
0.372529
0.356436
0.431538
0.438690
0.419617
0.318885
0.463724
0.341535
0.469685
0.515580
0.400543
0.440478
0.565648
0.512600
0.543594
0.584722
0.516772
0.650883
0.742674
0.667572
0.616908
0.799894
0.861883
1.002550
0.878572
1.015663
1.367927
3.608465
17.618537
47.072768
128.216743
228.540897
407.384038
573.741794
768.301487
848.708749
842.183828
750.136971
543.799400
377.467871
192.476511
102.515817
37.179589
14.213920
6.057620
5.575418
5.546808
5.309582
5.269647
5.335808
5.422831
6.105900
7.341504
9.237528
13.220906
17.605424
25.006533
31.568408
38.663745
42.772889
45.337677
##ZVALUE=365
0.361800
0.250936
0.247955
0.241995
0.316501
0.281930
0.464916
0.313520
0.252724
0.477433
0.382662
0.227690
0.350475
0.338554
0.382662
0.391603
0.415444
0.505447
0.526905
0.398755
0.388622
0.304580
0.413656
0.443459
0.268817
0.574589
0.409484
0.486970
0.507832
0.490546
0.428557
0.372529
0.382662
0.632405
0.331998
0.526905
0.566840
0.511408
0.517964
0.585914
0.450611
0.522733
0.647902
0.410676
0.466704
0.590682
0.534654
0.552535
0.452995
0.673532
0.542998
0.589490
0.452995
0.629425
0.764728
0.681877
0.621676
0.890493
0.651479
0.887513
0.975728
1.024604
0.970960
1.376867
1.666546
8.567572
26.119947
78.662634
159.850717
324.249864
465.101004
644.703507
758.125782
810.066462
756.335855
595.757961
444.209576
259.728432
146.912932
55.828691
22.666454
6.965995
5.195737
5.163550
5.069971
4.951954
4.947782
5.037785
5.065799
5.371571
6.029606
8.323789
10.716915
15.433431
20.447969
26.993752
##ZVALUE=370
0.424981
0.387430
0.358820
0.460744
0.372529
0.345707
0.504851
0.395775
0.382662
0.450611
0.507832
0.333786
0.346899
0.399947
0.363588
0.410676
0.348687
0.357628
0.338554
0.365973
0.324845
0.419617
0.420809
0.329614
0.270605
0.467896
0.270605
0.535846
0.395775
0.395775
0.322461
0.310540
0.456572
0.448823
0.489950
0.485778
0.473857
0.399947
0.397563
0.483990
0.590682
0.428557
0.476837
0.669956
0.600815
0.580549
0.453591
0.619888
0.485778
0.602603
0.532866
0.490546
0.629425
0.607967
0.578761
0.538826
0.537634
0.633597
0.623465
0.634789
0.857711
0.715852
0.785589
0.792742
0.896454
1.112819
1.414418
3.678799
20.054579
52.742958
135.356784
229.407549
396.307707
541.919470
701.695681
769.045949
754.624009
662.460923
478.072762
328.970551
163.801908
87.406635
32.659769
13.308525
5.485415
4.823804
4.702806
4.527569
4.557967
4.550815
4.596710
4.385710
4.941821
5.373955
7.191896
9.030700
##ZVALUE=375
0.340939
0.409484
0.337958
0.315905
0.198483
0.339746
0.311732
0.380874
0.425577
0.278950
0.348687
0.372529
0.285506
0.268817
0.318885
0.431538
0.297427
0.322461
0.271797
0.477433
0.342727
0.364780
0.348687
0.380874
0.412464
0.385642
0.377893
0.409484
0.440478
0.342727
0.397563
0.447631
0.367761
0.484586
0.541806
0.434518
0.451803
0.524521
0.443459
0.507832
0.548959
0.354648
0.337958
0.446439
0.464916
0.411868
0.475645
0.462532
0.440478
0.492930
0.560880
0.443459
0.557899
0.632405
0.419617
0.369549
0.579953
0.476837
0.569820
0.453591
0.491738
0.678897
0.681877
0.853539
0.757575
0.731945
0.922680
0.989437
1.303554
2.329946
8.215904
32.193661
74.751973
181.347728
299.589634
484.054685
616.140962
735.388994
763.616562
691.322684
573.601723
381.194949
249.307752
120.652914
61.379671
19.437671
7.853508
4.425645
4.256964
4.171729
4.007816
3.939867
4.170537
4.078746
4.018545
4.443526
##ZVALUE=380
0.357628
0.396967
0.284910
0.408888
0.292659
0.376701
0.265837
0.371933
0.472665
0.392795
0.407696
0.261664
0.342727
0.395775
0.291467
0.298619
0.356436
0.325441
0.390410
0.396967
0.450611
0.368953
0.308752
0.412464
0.380874
0.413656
0.373721
0.435710
0.302792
0.359416
0.473857
0.349879
0.430942
0.306964
0.326633
0.422597
0.499487
0.502467
0.434518
0.381470
0.514984
0.392795
0.558496
0.405908
0.391603
0.536442
0.382662
0.415444
0.520945
0.240803
0.399947
0.531673
0.467896
0.541806
0.545979
0.423789
0.438690
0.516772
0.506639
0.476837
0.659823
0.599623
0.678897
0.533462
0.627637
0.750422
0.712872
0.802875
0.885725
1.258850
1.116991
1.582503
4.043579
20.983815
53.733587
139.052868
238.379836
402.593017
541.620851
692.655444
742.243528
699.694753
611.326694
457.164645
325.910449
170.819759
91.700554
32.611489
13.082623
4.910827
3.890991
3.788471
3.722906
3.754497
3.791451
3.845692
##ZVALUE=385
0.355840
0.335574
0.325441
0.275970
0.232458
0.255704
0.314713
0.242591
0.430942
0.427961
0.312924
0.425577
0.416636
0.392795
0.270605
0.372529
0.248551
0.223517
0.362992
0.402927
0.341535
0.335574
0.360608
0.236630
0.463724
0.402927
0.348687
0.363588
0.188947
0.289679
0.324845
0.380874
0.353456
0.456572
0.393987
0.387430
0.388622
0.484586
0.384450
0.368953
0.439882
0.515580
0.387430
0.312924
0.438690
0.387430
0.458956
0.529885
0.353456
0.502467
0.488758
0.540614
0.483990
0.432730
0.381470
0.459552
0.468493
0.502467
0.519753
0.458956
0.559688
0.518560
0.561476
0.622869
0.707507
0.596642
0.643730
0.735521
0.699759
0.921488
0.772476
1.043677
1.013875
1.104474
1.863837
11.160970
32.053590
90.320706
171.935558
330.311656
467.216969
631.774664
706.810951
727.142692
677.744746
540.196896
408.002734
240.888596
143.516660
60.951710
24.926662
6.769896
4.088879
3.671646
3.520846
3.524423
##ZVALUE=390
0.237823
0.262856
0.324845
0.210404
0.058413
0.269413
0.235438
0.341535
0.172853
0.191927
0.239611
0.297427
0.340939
0.155568
0.271797
0.202656
0.308752
0.283718
0.277758
0.310540
0.351667
0.278950
0.217557
0.386834
0.209808
0.379682
0.210404
0.439882
0.606775
0.318885
0.418425
0.453591
0.474453
0.289679
0.350475
0.326633
0.429749
0.380874
0.467896
0.405908
0.327826
0.423789
0.494719
0.402927
0.399947
0.469685
0.415444
0.319481
0.372529
0.498891
0.437498
0.340939
0.509620
0.376701
0.394583
0.416636
0.410676
0.463724
0.348687
0.361800
0.373721
0.299811
0.513792
0.584722
0.418425
0.740886
0.650883
0.678897
0.676513
0.815988
0.780821
0.905991
0.870824
0.872612
0.797510
0.895858
1.111627
5.276799
18.983483
65.744519
133.196712
272.438526
393.782854
551.220775
657.855868
734.871030
722.934604
620.895624
502.004623
328.966975
203.577876
87.922812
40.047765
10.876656
4.732609
3.515482
##ZVALUE=395
0.258684
0.191927
0.240803
0.479817
0.371933
0.228882
0.074506
0.264645
0.204444
0.382662
0.329614
0.301600
0.295639
0.348687
0.284910
0.427961
0.481606
0.407696
0.298619
0.335574
0.387430
0.359416
0.426769
0.278950
0.345707
0.300407
0.366569
0.524521
0.302792
0.468493
0.510812
0.498891
0.362992
0.337958
0.461936
0.486970
0.438690
0.454783
0.410676
0.579953
0.296831
0.474453
0.408888
0.494719
0.416636
0.460744
0.295639
0.367761
0.497699
0.332594
0.417829
0.457764
0.392795
0.390410
0.354648
0.413656
0.426769
0.564456
0.461936
0.625849
0.392795
0.454783
0.359416
0.582933
0.566840
0.444651
0.644922
0.655651
0.691414
0.753999
0.940561
0.820756
0.845790
0.702739
0.859499
0.747442
0.824928
0.928640
1.075864
2.945662
11.200905
44.799447
92.124939
191.131830
303.020477
477.650762
603.273511
720.798969
745.310783
685.379505
574.629903
391.319990
258.710980
122.634768
60.595870
19.855499
##ZVALUE=400
0.330806
0.402927
0.350475
0.221729
0.259876
0.338554
0.260472
0.309944
0.436902
0.383854
0.291467
0.284910
0.286698
0.315905
0.254512
0.116825
0.375509
0.290871
0.211596
0.177622
0.273585
0.416636
0.308752
0.267625
0.266433
0.330806
0.369549
0.307560
0.253916
0.401735
0.344515
0.548959
0.380874
0.451803
0.473857
0.372529
0.594854
0.470877
0.428557
0.468493
0.617504
0.610948
0.556707
0.517964
0.368953
0.500679
0.330806
0.521541
0.400543
0.449419
0.497699
0.321865
0.403523
0.421405
0.566840
0.471473
0.456572
0.496507
0.414848
0.545979
0.311732
0.502467
0.625849
0.430942
0.681877
0.524521
0.602603
0.694990
0.729561
0.698566
0.816584
0.589490
0.704527
0.581741
0.718832
0.646710
0.661612
0.871420
0.892878
0.886917
0.902414
1.582503
5.584955
24.942756
58.037639
139.646530
236.559510
396.847725
519.973636
653.686523
716.058016
695.286989
617.091656
463.057756
328.243971
180.162787
##END
