##TITLE=FQP00301
##FORMAT=SPECTACLE-ASCII V-1.2
##DATA TYPE=ULTRAVIOLET SPECTRUM
##SECOND TYPE=ULTRAVIOLET SPECTRUM
##DATE=05/24/18
##TIME=18:08:29
##SPECTROMETER/DATA SYSTEM=SPECTACLE
##XUNITS=NM EM
##YUNITS=ENERGY
##YFACTOR=1
##FIRSTX=220
##LASTX=410
##NPOINTS=96
##3DDATA=Equidistant
##ZUNITS=NM EX
##FIRSTZ=210
##LASTZ=400
##ZPOINTS=39
##XYDATA=(Y..Y)
##ZVALUE=210
4.236698
3.826618
3.758669
4.072785
3.994703
3.947616
3.803968
3.992915
4.263520
4.107952
3.447533
3.122687
2.864599
3.524423
2.854466
3.733635
3.522635
3.619790
4.045963
3.860593
4.028678
4.132986
4.548430
4.575849
4.868507
6.069541
5.416870
7.445812
8.352995
8.197427
8.442998
10.083914
9.796619
9.155869
11.394620
10.258555
11.409521
9.329915
9.872913
9.430647
9.145737
8.950830
9.334683
9.514689
8.823872
7.779598
9.022951
9.715557
9.142756
8.083582
7.947683
8.377433
8.492470
7.852912
7.651448
7.042885
6.631613
8.102655
7.020831
7.709861
7.837415
7.567406
8.182526
7.821918
9.260774
9.356737
9.661913
12.081861
13.009906
13.943911
16.890764
17.417669
20.220876
21.280646
20.788908
20.453930
20.270944
20.027757
18.178821
15.356541
13.659000
11.723638
11.182427
8.808970
8.927584
7.974505
7.277727
7.866621
6.976724
7.094741
7.793903
8.735657
9.020567
11.965632
10.924935
13.074875
##ZVALUE=215
16.397834
16.463995
12.384653
9.710789
8.364916
8.338690
8.587837
8.137822
7.528663
7.845759
7.739663
7.070899
5.783439
5.146861
4.609823
3.532767
3.895760
3.748536
3.494620
3.836751
4.091859
4.565716
5.001426
5.717874
5.940795
6.745458
7.820725
9.241700
10.126829
11.822581
13.481975
13.407469
15.390515
14.577508
16.051531
17.045736
16.276836
15.189648
14.550686
15.914440
15.272498
14.421940
12.907982
13.163686
12.211800
12.061000
11.561513
10.306835
10.857582
10.606647
9.142756
10.180473
9.781718
9.847879
9.231567
10.224581
9.602904
8.525848
9.763837
9.116530
8.800626
8.802414
8.555651
9.763837
8.489490
9.895563
10.424852
10.948777
12.077689
14.431477
14.680624
17.062426
16.492605
18.819571
18.729568
17.800927
17.018914
17.244816
15.647411
14.389753
14.246702
11.810660
10.724664
9.339452
8.969903
8.108616
7.849932
8.194447
8.038878
8.777976
8.301735
8.322597
7.992983
8.880496
9.701848
8.312464
##ZVALUE=220
52.541494
52.459836
48.863888
41.165948
35.660863
27.853847
22.978783
19.833446
17.172694
18.590689
19.399524
20.160675
17.086864
15.411973
13.050437
9.501576
7.029772
4.940629
4.671812
3.687739
3.845692
4.494786
4.273653
5.091429
6.173849
7.524490
8.893609
11.958480
14.244914
16.752481
18.668771
22.209883
22.669435
23.251772
23.662448
23.573637
24.300814
22.819638
23.812652
21.917820
20.561814
20.526648
18.560886
17.155409
17.929673
16.821623
15.515685
13.807416
14.110804
13.016462
13.059974
12.792945
12.120605
11.774898
10.817647
10.246634
9.741783
10.313988
10.038614
9.447932
9.440780
10.327697
9.537935
9.272695
9.615421
10.509491
10.990500
11.360645
13.603568
14.875531
15.188456
16.658902
17.617941
16.660690
17.918944
17.421842
17.324686
16.474724
15.180707
14.250875
14.207959
13.096929
12.006760
11.868477
11.034608
10.598898
10.003448
10.153651
10.108948
9.667873
10.135770
10.647774
10.372996
9.749532
9.639859
9.011626
##ZVALUE=225
83.111525
85.521936
104.850531
114.971995
112.758875
106.621981
94.107985
70.201755
54.019690
40.738583
35.162568
34.993887
37.980676
39.727688
37.263632
33.795834
27.947426
21.643639
14.356971
10.070801
6.933808
5.021691
4.523993
5.125999
7.007718
7.703900
9.460449
12.104511
14.896989
20.068884
22.070408
25.273561
26.409626
28.290749
29.244423
29.730797
31.010509
29.159784
27.562976
27.362704
25.808811
24.033785
23.063421
22.681952
20.356774
19.505620
19.106865
17.717481
16.186833
16.086698
14.909506
14.777780
13.904572
13.719797
12.635589
12.169480
12.071729
11.385679
10.943413
11.732578
11.278987
11.418462
11.580586
11.263490
11.777878
12.785792
12.764931
12.355447
14.867783
14.751554
16.593933
17.722845
17.220974
18.827915
17.892718
18.801689
17.769933
19.510984
17.701983
16.978979
16.069412
14.885664
13.954639
15.247464
14.473796
14.345646
14.346838
13.913512
13.715625
13.653636
13.961792
12.668967
13.267994
13.746619
13.475418
14.236569
##ZVALUE=230
59.857965
68.073869
105.903745
159.557462
196.539760
223.956704
229.806900
215.933919
184.417963
152.372718
100.942850
76.550841
60.233474
58.341622
62.835813
63.780546
64.746737
61.356425
53.447485
40.965676
29.506683
17.345548
12.724996
7.511973
6.650686
7.292628
8.131862
11.285543
13.304949
16.408563
18.631816
20.319819
22.292733
23.306608
24.503469
23.975968
25.914907
26.009679
25.412440
24.801493
23.862720
21.771789
21.295547
20.391941
19.691586
18.647909
17.121434
15.707612
15.165806
14.162660
13.766885
14.532804
12.714863
12.714863
13.158917
13.032556
12.513995
11.912584
12.991428
12.555718
13.431907
12.986660
12.604594
13.487935
13.702512
13.619661
13.984442
16.100407
17.401576
17.944574
19.048452
20.682812
20.605922
21.776557
20.101666
22.217631
21.262765
21.317601
22.159815
20.356774
21.750927
20.189881
20.310879
19.863844
19.785762
19.419789
20.308495
20.003915
20.077825
20.917654
20.698905
20.217896
19.268990
18.251538
20.011663
19.029975
##ZVALUE=235
15.667677
18.454790
40.273666
93.711615
148.714781
227.029920
289.185643
353.160501
375.579596
347.859859
302.210450
225.884914
163.454413
109.806657
86.957812
78.125000
79.941750
83.297491
91.019869
91.134906
79.294443
66.107512
49.082637
33.473969
20.720959
15.170574
10.863543
8.096695
9.275675
10.146499
11.901855
12.763739
13.576746
14.653802
14.532804
15.449524
16.028881
15.177727
16.374588
15.422702
15.701652
16.033649
14.576912
14.159679
14.905930
13.196468
13.286471
12.829900
12.456775
11.930466
11.808872
11.115670
11.385679
11.799932
11.586547
11.496544
13.091564
12.300611
12.146831
12.054443
13.151765
12.840629
14.242530
14.412999
14.393926
16.009808
16.314983
17.198920
19.603968
20.341873
20.547509
22.346973
22.626519
24.325848
24.123788
24.906993
25.485754
25.756955
25.702715
25.825500
24.779439
24.305582
24.531484
25.168657
24.649501
25.601983
25.095940
25.561452
25.761724
24.371743
24.843812
24.467707
25.940537
25.218725
24.660826
25.467873
##ZVALUE=240
1.454949
1.874566
4.022717
18.783808
42.962432
99.808574
162.242651
274.108648
362.118483
429.148674
482.973456
463.302732
400.730968
334.722996
231.868625
166.803002
106.676817
90.451837
85.907578
91.933608
101.516843
107.139945
102.213621
88.932514
70.073605
52.038431
38.005710
24.037957
17.049909
11.011958
9.273887
8.274913
8.092523
8.911490
9.165406
9.398460
9.719729
11.112690
11.200905
10.733604
10.912418
10.947585
10.821819
10.890961
11.338592
10.832548
10.590553
10.745525
10.536909
9.959936
10.140538
9.564757
10.395646
10.668635
10.466576
10.097623
10.187626
10.013580
11.039972
11.207461
11.877418
12.469888
12.675524
13.560653
13.925433
14.227629
15.464425
16.593933
17.824769
19.365549
19.934773
21.307468
22.808909
24.496913
24.184585
25.186539
24.738908
25.340915
26.007891
26.222467
26.511550
25.938749
27.318001
27.166605
27.206540
26.694536
26.663542
28.096437
26.900768
27.731657
28.494000
27.659535
26.760697
26.569963
26.636720
26.331544
##ZVALUE=245
1.005530
1.132488
1.452565
1.298785
3.169775
10.409951
35.885572
75.712800
166.206956
253.676772
390.137434
477.529764
538.021922
551.733971
512.390733
415.769815
332.088470
218.943954
152.563453
101.253986
82.669854
85.890889
99.170804
109.883547
112.691522
109.539628
93.176961
78.897476
57.699680
42.758584
31.635761
19.554496
13.092756
9.813905
8.525848
8.972883
9.856820
9.488463
9.468794
10.543466
10.493994
10.146499
10.175705
10.270476
10.342598
10.018945
9.871721
10.055900
10.285974
9.968877
10.557771
10.017753
9.438992
9.171963
9.227991
9.206533
9.425879
9.732842
9.389520
9.754896
9.583831
10.405779
10.576844
11.572838
11.815429
12.150407
13.787746
14.721751
15.441775
16.582608
18.021464
19.591451
19.784570
21.741986
20.809770
22.384524
22.131801
22.649765
22.181869
24.342537
23.741722
24.125576
24.646521
26.260614
25.411844
25.322437
26.110411
26.175976
26.860833
26.192665
26.187897
26.322603
26.705861
26.824474
26.878715
26.042461
##ZVALUE=250
0.942945
0.991821
1.198649
1.099706
1.202822
1.106858
1.847744
5.722642
24.460554
55.904984
136.067867
224.913955
328.520536
466.924906
549.006462
607.556701
595.885515
524.902940
437.269807
298.913717
203.026533
135.610700
85.152984
75.793862
86.658597
102.294683
115.061998
118.275881
111.679435
102.846622
89.606643
66.995621
50.467849
31.755567
23.029447
14.933944
12.639761
11.028647
11.387467
11.511445
11.434555
11.702776
11.130571
11.541843
11.440516
11.354685
11.225939
11.115670
10.788441
10.366440
9.899735
10.476708
9.508729
9.161830
9.025931
9.429455
9.095669
8.933544
9.181499
9.291768
9.047985
9.512901
9.225607
10.308623
10.256767
11.276603
11.510849
12.685657
12.756586
14.681816
15.273690
16.292930
16.972423
18.283725
18.258691
19.302964
19.773841
19.516945
20.995736
21.057725
20.682812
21.487474
22.109747
22.732615
23.008585
23.112893
22.820830
22.769570
23.645759
24.794936
23.541451
24.169683
24.375916
24.286509
24.396777
24.806857
##ZVALUE=255
0.798702
0.944734
0.732541
0.885725
0.996590
0.898838
1.257658
1.101494
1.353621
2.677441
15.048981
38.263798
82.119703
178.039670
278.016925
432.592630
541.051626
641.837716
670.917034
627.499819
541.458726
425.915718
266.289711
169.227719
93.530416
74.165463
72.450638
84.290504
104.526877
117.080808
123.661757
121.635795
111.063719
91.498494
74.515939
50.967932
37.800670
25.234818
19.755960
15.301704
13.949871
13.689995
13.197660
13.297796
13.475418
12.651682
12.586713
11.647940
11.684895
11.382699
11.074543
10.481477
10.423660
9.588599
9.471774
9.181499
9.206533
9.129643
9.168983
9.025931
8.966923
9.086728
9.232759
9.307861
9.777546
10.053515
10.665655
11.037588
12.342930
12.749434
13.793707
14.141798
14.952421
15.526414
16.246438
16.703606
17.461777
17.825961
18.449426
18.401742
19.067526
19.226670
20.057559
20.236969
20.554662
20.941496
21.184683
21.221638
21.721721
22.199750
22.406578
22.470951
22.196770
22.148490
22.619963
22.615790
##ZVALUE=260
0.827909
0.949502
0.772476
0.851750
0.804663
0.997782
0.818968
0.952482
1.125932
1.208782
1.312494
1.800656
5.276799
22.782683
53.712726
132.548809
224.526525
373.941660
503.792763
655.995607
724.193454
728.694797
638.836026
519.827008
345.328450
234.941840
134.953856
87.869763
63.275695
68.578720
83.951950
106.920600
121.878982
133.027434
130.083561
116.097927
101.430416
77.374578
59.325695
40.950775
31.390786
21.420717
18.801689
15.917420
14.837980
14.946461
14.304519
13.237000
12.893677
12.719631
12.507439
11.462569
11.261702
10.985732
10.286570
9.773970
9.864569
9.595752
9.105802
9.411573
8.803606
8.529425
9.461641
9.457469
9.597540
9.759665
10.162592
10.328889
11.564493
12.267828
12.673736
13.242960
13.834834
14.110804
15.059710
15.109777
16.214848
16.456842
16.855597
16.785860
17.673969
17.971992
18.671751
18.485785
19.085407
19.549727
19.596815
20.185709
20.534992
19.954443
20.658970
20.690560
20.105839
21.318793
21.530986
21.582842
##ZVALUE=265
0.758767
0.773668
0.834465
0.821948
0.810623
0.817776
1.007915
1.162887
0.926852
1.136661
0.887513
1.031756
1.110435
1.689792
2.913475
14.487505
36.985874
97.837448
177.760720
335.716009
481.450558
621.494651
756.175518
782.553554
717.923641
613.247752
453.196764
324.378610
183.153749
113.554001
75.803995
61.116815
70.825815
95.902681
113.229752
129.884481
135.683417
131.007433
119.740963
99.991560
81.921816
59.340000
44.677854
29.863715
22.820830
17.760992
16.205907
14.542937
14.534593
13.442636
12.737513
12.701750
12.362599
11.388659
11.504889
10.550618
10.183454
9.769797
9.884834
9.725690
9.452701
9.061694
9.225607
9.284616
9.778738
9.730458
10.011792
10.796785
11.355877
11.756420
12.135506
12.991428
13.346672
13.874769
14.562607
14.576912
15.142560
15.186667
15.195608
16.205907
16.230941
16.714931
17.287731
17.375946
17.583966
18.317699
18.204451
18.553734
18.919706
18.804669
19.181967
18.942952
19.750595
19.445419
20.218492
19.892454
##ZVALUE=270
0.654459
0.607967
0.799894
0.832677
0.756979
0.596642
0.775456
0.836849
0.989437
1.039505
0.938773
0.959635
1.049638
1.259446
0.864863
1.377463
1.578927
6.271601
19.418001
66.306591
132.304430
268.740654
417.754650
575.129986
740.296841
800.850987
795.931816
718.676448
564.003587
429.452658
266.326666
168.546438
88.168979
59.342980
57.191849
70.059896
95.115900
111.350417
129.106641
135.626793
131.948590
122.371912
100.390911
82.310438
58.565736
43.559670
30.152798
21.982789
17.289519
14.938712
13.227463
12.891889
12.302995
11.741519
11.271834
10.797977
10.393858
10.303855
9.951591
9.566545
9.517670
9.400845
9.306669
9.426475
9.592772
9.802580
10.208488
10.331869
10.836720
11.657476
12.227893
12.518764
12.973547
12.993813
14.061928
14.135838
14.305711
14.653802
15.068650
15.632510
15.671849
16.400814
16.555786
16.288757
16.937852
16.961694
17.023683
17.342567
17.886758
18.414855
17.909408
17.713904
18.543601
18.717647
18.963814
18.754601
##ZVALUE=275
0.595450
0.734925
0.717640
0.647902
0.740886
0.739694
0.759959
0.720620
0.660419
0.845790
0.707507
0.874996
0.791550
0.921488
1.092553
1.105666
1.151562
1.244545
1.145601
2.282858
9.291768
40.146708
89.576840
203.009844
332.704782
521.121621
650.897026
780.029893
817.076564
795.867443
676.637888
548.581481
360.810757
228.562951
113.489628
68.352818
44.717789
48.319697
68.156719
84.769726
102.024674
122.389793
129.251480
127.428770
117.853880
96.413493
79.581738
57.771802
43.169856
30.392408
19.895434
15.393496
12.528896
11.459589
10.998845
10.674596
9.745955
9.807944
9.673834
9.839535
9.895563
9.821653
9.888411
9.808540
9.696484
10.027885
10.247827
10.752678
10.889769
11.659861
12.180805
12.876987
12.805462
13.539791
13.949871
13.946891
14.442801
14.297962
14.553666
15.282631
15.366673
15.704632
16.219616
16.250610
16.377568
16.055703
16.727448
17.061830
17.256737
17.146468
17.350912
17.494559
17.803907
17.944574
17.475486
17.890930
##ZVALUE=280
0.547767
0.693798
0.682473
0.574589
0.712872
0.710487
0.670552
0.679493
0.755787
0.758767
0.675917
0.733733
0.927448
0.733733
0.766516
0.826716
0.996590
0.879765
0.966787
1.134872
1.292825
1.652837
6.230474
21.594763
73.416829
138.988495
270.877481
403.763652
589.594841
719.019771
808.205605
827.193856
765.973926
602.007508
454.858541
267.364979
162.817836
75.022578
42.993426
34.141541
42.047501
62.692761
79.919696
101.356506
115.396976
124.053955
121.509433
109.809637
95.420480
73.350668
56.558847
37.215948
26.290417
16.747713
12.871623
10.328889
9.232759
9.494424
9.105802
9.518862
9.324551
9.205937
9.748936
9.684563
9.585619
9.987950
10.483861
10.714531
11.357665
11.702776
12.190938
12.779832
12.907982
13.294816
13.938546
13.926625
13.861656
14.335513
14.579892
14.492869
15.097857
15.851855
16.027689
15.902519
15.916824
16.332865
16.458631
16.918778
16.762614
17.067790
16.596913
16.931891
16.921759
16.933680
17.010570
17.192960
##ZVALUE=285
0.540614
0.667572
0.627637
0.672936
0.759959
0.754595
0.672936
0.623465
0.714660
0.698566
0.808835
0.733733
0.589490
0.700951
0.833869
0.870824
0.788569
0.964999
0.817776
0.946522
1.050830
1.037717
1.169443
1.306534
2.942681
10.315776
38.440824
84.946752
192.845464
307.374001
489.038825
634.768605
760.363936
845.004916
822.239518
692.882538
558.938980
358.312726
230.910778
111.858845
58.184862
27.605891
25.924444
38.189888
53.015947
75.445771
91.381669
108.748674
116.785765
116.309524
109.171867
92.604756
76.814890
53.799748
38.764477
24.326444
16.638637
11.506677
9.698868
8.760691
8.700490
8.853674
8.774996
9.558797
9.264946
9.865761
10.465980
11.026859
11.477470
12.012720
11.999607
13.041496
13.024807
13.340712
13.621449
13.849735
14.281869
14.401674
14.915466
15.311837
15.375614
15.579462
15.911460
16.243458
15.984774
16.605854
16.455650
16.048551
16.319752
16.779900
16.451478
16.634464
16.788840
16.392469
16.915798
16.755462
##ZVALUE=290
0.615716
0.564456
0.518560
0.697970
0.541806
0.605583
0.648499
0.666976
0.634789
0.766516
0.632405
0.588894
0.606775
0.609756
0.808835
0.648499
0.701547
0.747442
0.812411
0.894666
0.891685
0.697970
0.936985
1.130700
1.242757
1.208782
1.472831
4.262924
20.721555
49.916506
125.284791
225.955844
360.769629
571.818948
712.914467
838.094950
856.037736
772.204995
652.388930
452.845693
307.121873
158.863664
84.544420
33.071637
19.331574
23.390651
32.036901
48.846602
64.451694
85.686445
99.567771
110.112429
112.969875
104.108453
91.227889
71.031451
54.729581
35.900474
25.636554
16.480684
12.358427
9.657741
9.401441
9.151697
9.209514
9.812713
10.021925
10.746717
11.508465
11.871457
12.458563
12.698770
13.250709
13.867617
13.898611
14.583468
14.694929
15.076995
15.091896
15.556812
15.340447
16.072989
16.180873
16.093850
16.781688
16.878843
16.614795
17.009974
16.760826
16.777515
16.881824
16.680956
16.627908
16.867518
16.724467
16.740561
##ZVALUE=295
0.448823
0.549555
0.516772
0.426769
0.484586
0.567436
0.583529
0.689626
0.656843
0.748634
0.490546
0.606775
0.499487
0.576973
0.675917
0.719428
0.666976
0.639558
0.786781
0.718832
0.822544
0.904799
0.788569
0.896454
0.822544
0.951886
1.057982
1.126528
1.367927
1.956820
6.500483
29.303432
70.558786
176.692605
293.674469
489.847660
638.189912
796.172023
856.027603
823.829770
730.187893
540.211797
388.883948
214.725733
119.149685
44.245720
21.634698
15.210509
18.736720
30.545592
42.657852
62.039495
77.818632
95.251799
104.480982
105.708838
101.025701
86.386800
71.905851
52.005649
38.366914
24.654865
18.052459
12.676716
10.879636
10.205507
10.224581
10.592937
10.983944
11.596680
12.129545
12.612939
13.247728
14.103651
14.308691
14.414787
15.046597
15.121698
15.430450
15.474558
15.739799
16.027689
16.551614
16.767979
16.355515
16.874671
17.062426
16.672611
16.766787
16.821623
16.630888
17.089844
16.414523
17.131567
16.362667
16.481876
##ZVALUE=300
0.598431
0.538826
0.583529
0.444651
0.615716
0.475645
0.537634
0.439882
0.494719
0.566840
0.621676
0.468493
0.544786
0.475645
0.540614
0.479817
0.718832
0.628829
0.689626
0.711679
0.745654
0.780821
0.694990
0.664592
0.957847
0.862479
0.808835
0.770688
1.041889
1.045465
1.270771
1.297593
4.015565
14.538765
52.024722
109.042525
234.672427
372.125506
573.954582
711.894631
839.923024
862.331986
786.765814
668.335557
463.349819
313.192010
163.217783
89.919567
33.244491
15.591979
12.643933
16.585588
26.586652
38.285851
55.660605
71.244836
89.304447
98.331571
102.024674
98.456740
85.495710
72.570443
53.511858
40.382743
27.100444
19.958615
14.407635
12.375712
11.624694
12.018681
12.290478
13.270974
13.475418
14.001727
14.433861
14.576912
15.110970
15.461445
15.682578
16.266704
16.519427
16.830564
16.787648
17.021894
17.313957
17.518997
17.515421
17.719865
17.378926
17.111897
17.210841
17.138720
17.147660
16.917586
16.928911
16.844869
##ZVALUE=305
0.523925
0.398755
0.521541
0.534654
0.562668
0.425577
0.392795
0.543594
0.376701
0.495911
0.506639
0.472665
0.585914
0.581741
0.693798
0.690818
0.639558
0.598431
0.452995
0.613928
0.751615
0.681877
0.593662
0.802875
0.685453
0.745654
0.870824
0.945926
0.792742
0.992417
0.968575
1.035929
1.001954
1.316667
1.955628
9.377599
28.072596
86.036921
162.609816
317.178965
463.334918
666.028857
790.093541
870.569944
844.166875
707.010627
571.504831
376.599431
243.129730
114.794970
56.657791
19.583702
10.523796
11.211634
15.573502
25.836825
36.517978
54.596663
68.386793
85.210800
93.578696
97.771883
94.674826
82.730651
71.070790
52.879453
40.282607
27.370453
20.403862
15.621781
13.997555
13.442636
13.596416
14.000535
14.219880
14.972687
15.095472
15.593767
15.729666
16.528964
16.727448
17.278790
17.623901
17.639995
18.003583
17.959476
18.113852
17.932653
17.936826
17.506480
17.387867
17.363429
17.253757
17.210841
16.608834
16.880631
##ZVALUE=310
0.520945
0.285506
0.502467
0.531673
0.349879
0.428557
0.479817
0.615716
0.569820
0.512600
0.565648
0.526905
0.508428
0.676513
0.527501
0.456572
0.549555
0.638962
0.423789
0.555515
0.576973
0.642538
0.590682
0.661612
0.669956
0.733733
0.718832
0.620484
0.776649
0.792742
0.850558
0.888705
1.036525
0.899434
0.995994
1.173615
1.378655
3.164411
16.590953
42.007565
113.953948
207.203627
381.691456
535.089970
733.477473
836.638808
873.847008
827.766657
674.818754
516.074896
313.655734
193.335414
85.070729
39.720535
13.555884
8.623600
10.631680
14.020801
22.035837
31.218529
47.306418
60.491562
77.522993
87.837577
93.316436
91.769695
82.182884
71.435571
53.779483
41.505694
29.178858
22.835732
17.780662
15.856624
15.051961
14.763474
15.076995
15.778542
16.184449
16.868711
17.166734
17.197728
17.707944
17.776489
17.941594
18.158555
18.090606
17.919540
18.293858
18.147826
18.285513
17.968416
17.931461
17.690659
17.503500
17.400980
##ZVALUE=315
0.510812
0.571609
0.561476
0.554919
0.644922
0.491738
0.663996
0.632405
0.474453
0.506639
0.470877
0.627637
0.574589
0.593662
0.556707
0.526905
0.442863
0.466704
0.560880
0.651479
0.713468
0.633597
0.766516
0.671744
0.702739
0.683665
0.731945
0.686646
0.664592
0.786781
0.807643
0.836849
0.915527
0.947714
0.990629
0.901818
1.166463
1.122952
1.236796
2.025962
6.700754
29.585958
70.264935
175.358653
293.186903
493.967533
644.459724
803.630948
871.903896
857.535005
770.685673
586.997867
432.878733
243.855715
138.664842
52.610636
22.219419
8.975863
8.187890
10.160804
13.472438
21.606684
30.156970
44.612885
58.165789
74.448586
84.142685
89.927912
88.176727
79.738498
69.792867
54.940581
42.828918
30.092597
23.967624
18.634796
16.764998
16.295910
16.189814
16.766787
16.934872
17.380714
17.835498
18.034577
18.024445
18.566847
18.665791
18.660426
18.551946
18.665791
18.258691
18.020868
18.240809
18.127561
17.636418
17.747879
##ZVALUE=320
0.467896
0.470877
0.437498
0.438690
0.460744
0.417829
0.455976
0.464916
0.502467
0.368953
0.317693
0.485778
0.479817
0.404716
0.515580
0.357628
0.493526
0.617504
0.458956
0.539422
0.657439
0.635982
0.607967
0.641942
0.589490
0.545979
0.704527
0.484586
0.822544
0.746846
0.692606
0.532866
0.650883
0.808835
0.792742
0.844598
0.762939
0.734925
0.957847
0.986457
1.052618
1.248717
2.954602
16.086698
42.112470
119.425654
215.446949
389.141440
538.047552
727.074742
832.038522
876.991749
831.113458
680.522919
523.213744
312.060714
187.563896
83.058476
38.044453
12.884736
8.133650
8.209944
9.706616
13.411641
18.908978
29.390454
40.039420
57.379603
68.317652
80.720782
85.914731
85.135698
78.685880
66.320896
54.989457
40.558577
32.331944
24.280548
20.163655
18.265843
17.418861
17.513633
17.606616
17.789602
18.221736
18.235445
18.536448
18.543601
18.285513
18.291473
18.367767
18.382668
17.955899
18.018484
17.775893
17.958879
##ZVALUE=325
0.435710
0.419617
0.289679
0.492930
0.470877
0.537634
0.480413
0.504851
0.547767
0.376701
0.467896
0.415444
0.356436
0.414848
0.469685
0.460744
0.602603
0.500679
0.467896
0.587702
0.433922
0.764728
0.457764
0.573993
0.427961
0.549555
0.531673
0.608563
0.466704
0.715852
0.626445
0.665784
0.624657
0.658631
0.719428
0.777841
0.855923
0.833869
0.978708
0.866652
0.866652
1.065731
0.974536
1.084805
2.041459
7.263422
30.479431
68.500638
167.302489
285.681486
483.195782
632.382035
805.760026
872.516036
855.528712
760.872960
564.167500
409.966707
232.789516
134.123564
51.639676
21.777749
9.169579
7.911921
8.626580
10.069609
14.039874
18.981695
30.092597
41.053891
56.554675
67.218542
77.771544
82.162619
81.517696
75.660944
64.229965
53.150654
40.077567
31.624436
24.163723
21.158457
18.939972
18.313527
17.985702
17.918944
18.135905
18.084645
18.082857
18.343925
18.148422
17.879605
17.826557
18.038750
17.829537
17.873645
##ZVALUE=330
0.399947
0.379682
0.457764
0.369549
0.438690
0.468493
0.479817
0.289679
0.326633
0.311732
0.464916
0.434518
0.488758
0.467896
0.524521
0.450611
0.406504
0.392795
0.471473
0.411868
0.527501
0.430942
0.558496
0.401735
0.518560
0.594854
0.441670
0.648499
0.535846
0.522733
0.576973
0.605583
0.597835
0.608563
0.458956
0.700951
0.645518
0.756979
0.673532
0.839829
0.778437
0.767708
0.828505
0.816584
0.999570
1.122952
1.411438
4.140735
13.894439
50.934553
105.691552
231.082439
361.250639
564.045906
712.300539
847.229958
870.296955
792.450905
673.015714
469.333529
320.159793
160.899758
84.471703
30.671954
13.315678
8.461475
8.104444
9.014606
10.556579
14.531612
19.301772
28.593540
38.351417
53.332448
63.857436
74.731708
78.443885
76.955557
72.094798
61.564445
51.700473
39.633512
32.508969
25.185943
22.074580
19.470453
18.374920
17.889738
17.771721
17.596483
17.491579
17.461777
17.584562
17.704964
17.618537
17.528534
##ZVALUE=335
0.374913
0.346899
0.328422
0.407696
0.466704
0.405908
0.413656
0.284910
0.485778
0.207424
0.178814
0.384450
0.389814
0.510812
0.403523
0.444651
0.389814
0.426769
0.426769
0.408888
0.567436
0.469685
0.462532
0.461936
0.362992
0.417829
0.505447
0.383854
0.508428
0.634789
0.627637
0.536442
0.506639
0.593662
0.684857
0.680685
0.632405
0.500679
0.701547
0.756979
0.840425
0.688434
0.584722
0.708699
0.891685
0.852942
1.001954
1.028776
1.129508
2.109408
6.679893
29.766560
68.440437
168.810487
288.492441
493.215919
652.589798
816.707611
870.134830
840.361714
747.976899
554.486513
400.715470
226.503611
123.984814
44.632554
18.700957
9.062886
8.329749
8.677840
9.475946
11.105537
14.058948
20.248890
26.996732
38.911700
49.128532
61.456561
69.456697
74.837804
73.840618
67.928433
60.928464
50.325990
42.304993
31.884909
26.646852
21.396875
19.694567
17.940998
17.037988
16.841888
17.006993
16.756654
17.066598
16.759634
##ZVALUE=340
0.437498
0.221729
0.311732
0.413656
0.287890
0.484586
0.310540
0.276566
0.444651
0.350475
0.367761
0.333786
0.548959
0.291467
0.379682
0.433922
0.469685
0.348687
0.364780
0.507832
0.447631
0.702739
0.416636
0.388622
0.405908
0.520945
0.335574
0.406504
0.566840
0.471473
0.497699
0.428557
0.490546
0.535846
0.600815
0.522733
0.590682
0.623465
0.577569
0.708699
0.706911
0.603795
0.539422
0.643730
0.734925
0.725985
0.792742
0.773668
0.853539
0.936985
1.033545
1.403689
3.195405
17.024875
46.944618
128.754973
230.370760
406.462550
558.756590
741.487741
835.251808
855.618715
791.953802
632.794499
473.010540
267.572999
155.798793
64.299703
26.789904
10.305643
8.718967
9.118915
9.361506
10.029674
11.569858
14.959574
19.415617
27.466416
36.376715
49.496889
58.662891
68.043470
70.451498
70.269704
66.511631
57.902932
49.874783
39.198995
32.550693
25.364757
21.229982
18.162727
17.175674
16.528964
16.614795
16.303658
##ZVALUE=345
0.337958
0.406504
0.386834
0.359416
0.317693
0.304580
0.265837
0.362992
0.390410
0.363588
0.453591
0.267625
0.443459
0.301600
0.501871
0.461936
0.418425
0.474453
0.424981
0.311732
0.474453
0.543594
0.469685
0.416636
0.455976
0.172853
0.544786
0.473857
0.534654
0.491738
0.422597
0.429749
0.478625
0.387430
0.439882
0.521541
0.501871
0.449419
0.607967
0.549555
0.488758
0.597835
0.584722
0.652671
0.693798
0.652671
0.775456
0.739694
0.731945
0.822544
0.895858
0.898838
0.948906
1.143813
1.623631
9.373426
28.938651
85.619688
162.572861
318.532586
461.972952
659.727454
775.713921
851.306915
824.628472
688.862801
543.735623
345.551968
205.296874
84.773898
39.200783
14.123917
9.162426
8.801818
8.867979
9.515882
9.806752
11.741519
13.931990
19.514561
25.513768
35.883784
43.586493
53.760409
60.458779
65.788627
66.288710
62.579513
56.689978
47.320724
39.230585
29.836893
24.683475
20.161867
17.690659
16.153455
##ZVALUE=350
0.316501
0.450611
0.365973
0.339746
0.432730
0.217557
0.347495
0.277758
0.410676
0.322461
0.406504
0.384450
0.285506
0.349879
0.301600
0.470877
0.460744
0.475645
0.306964
0.396967
0.355840
0.587702
0.522733
0.555515
0.404716
0.492930
0.520945
0.444651
0.314713
0.430942
0.536442
0.494719
0.467896
0.397563
0.482798
0.538826
0.436902
0.681877
0.464916
0.685453
0.520945
0.599623
0.497699
0.555515
0.772476
0.624657
0.436902
0.568628
0.732541
0.740886
0.713468
0.797510
0.748634
0.695586
0.860691
1.107454
1.265407
4.548430
15.779734
55.160522
114.252567
248.615742
380.166769
572.779775
714.313984
834.001899
841.779709
749.841928
612.559915
396.070480
255.504847
123.209953
57.826638
17.909408
9.778738
8.412600
8.697510
8.646846
9.066463
9.830594
11.087656
14.010668
17.421842
23.580790
29.698610
39.708614
46.970844
55.506825
59.340596
60.425997
58.694482
51.775575
45.194626
35.842657
29.915571
23.157597
##ZVALUE=355
0.337958
0.380874
0.542998
0.497699
0.350475
0.486970
0.459552
0.272989
0.460744
0.472665
0.289679
0.382662
0.476837
0.471473
0.416636
0.478625
0.451803
0.474453
0.502467
0.434518
0.393987
0.488758
0.663996
0.544786
0.412464
0.406504
0.499487
0.586510
0.636578
0.534654
0.565648
0.546575
0.524521
0.474453
0.599623
0.446439
0.447631
0.631809
0.713468
0.609756
0.696778
0.598431
0.540614
0.620484
0.620484
0.595450
0.620484
0.758767
0.708699
0.696778
0.739694
0.877976
0.815988
0.796914
0.803471
1.020432
1.023412
1.052618
1.200438
2.418756
7.968545
35.450459
78.524947
180.150867
301.902890
499.927998
642.123818
785.664916
834.278464
775.150657
668.244958
479.839444
320.127010
151.755810
74.890852
24.630427
11.314750
7.931590
8.147955
8.070469
8.396506
9.124875
9.566545
10.751486
12.177825
16.063452
20.124912
27.417541
33.971667
42.846799
48.918724
54.401755
55.376887
53.285956
49.570799
42.310953
##ZVALUE=360
0.376701
0.399947
0.410676
0.483990
0.367761
0.410676
0.284910
0.546575
0.473857
0.232458
0.405908
0.389814
0.281930
0.298619
0.291467
0.358820
0.412464
0.304580
0.357628
0.456572
0.473857
0.463724
0.366569
0.433922
0.454783
0.504851
0.440478
0.355840
0.563860
0.419617
0.436902
0.330806
0.542998
0.533462
0.577569
0.295639
0.543594
0.487566
0.475645
0.641942
0.383854
0.531673
0.524521
0.633597
0.619888
0.567436
0.653863
0.618696
0.728965
0.627637
0.571609
0.819564
0.641942
0.698566
0.735521
0.787973
0.987649
0.818968
0.902414
0.997782
1.198649
1.517534
3.491640
16.931891
45.256615
123.900771
220.082998
390.287638
546.808839
729.734898
808.783770
814.284682
736.367702
549.260974
389.420986
205.875635
111.889839
42.846799
17.490983
8.202791
7.693768
7.729530
7.879734
8.179545
8.329749
8.805990
9.654760
11.052489
13.167858
17.305613
21.979809
29.481649
36.064982
43.524504
48.056841
50.826669
##ZVALUE=365
0.297427
0.263453
0.426769
0.391603
0.352859
0.384450
0.497699
0.353456
0.422597
0.424981
0.448823
0.424981
0.548959
0.440478
0.279546
0.233650
0.311732
0.395775
0.495911
0.330806
0.127554
0.424981
0.411868
0.565648
0.387430
0.430942
0.472665
0.380874
0.335574
0.347495
0.305772
0.410676
0.323653
0.536442
0.508428
0.425577
0.468493
0.627637
0.454783
0.445843
0.632405
0.591874
0.610948
0.621676
0.427961
0.406504
0.540614
0.627637
0.518560
0.514984
0.617504
0.696778
0.746846
0.677705
0.508428
0.701547
0.675917
0.866652
0.747442
0.866652
0.771880
1.001954
0.997782
1.218915
1.682639
8.337498
26.728511
83.716512
163.537860
319.116712
463.792682
650.295615
760.708451
819.760561
771.607757
614.405870
463.071465
275.715590
159.612894
62.364936
26.627779
9.006858
7.290840
7.301569
7.204413
7.296801
7.544756
7.691979
8.111596
8.211732
9.433627
11.568666
14.194846
19.217730
24.303794
31.337738
##ZVALUE=370
0.349879
0.369549
0.312924
0.197887
0.320673
0.297427
0.177622
0.384450
0.250936
0.394583
0.360608
0.393987
0.387430
0.349879
0.243783
0.366569
0.338554
0.340939
0.454783
0.339746
0.334978
0.466704
0.504851
0.414848
0.525713
0.320673
0.324845
0.453591
0.491738
0.420809
0.552535
0.438690
0.403523
0.490546
0.385642
0.356436
0.621676
0.542998
0.558496
0.505447
0.388622
0.475645
0.414848
0.479817
0.460744
0.580549
0.469685
0.452995
0.550747
0.451803
0.523925
0.460744
0.557899
0.530481
0.616908
0.655651
0.644922
0.650883
0.738502
0.649691
0.698566
0.930429
0.996590
0.829697
0.793934
1.122952
1.328588
4.438758
16.172528
59.019923
118.945837
246.846676
384.829640
589.151978
719.674826
810.799599
794.548988
677.304864
533.541441
324.249864
194.168687
80.970526
38.484931
14.083982
7.468462
6.371737
6.335974
6.518960
6.653666
6.957650
7.014871
7.271767
8.001924
8.712411
10.054708
13.220906
##ZVALUE=375
0.281930
0.251532
0.329614
0.447631
0.245571
0.373721
0.380874
0.365973
0.343919
0.296831
0.329614
0.299811
0.381470
0.292659
0.242591
0.243783
0.357628
0.406504
0.328422
0.366569
0.328422
0.421405
0.446439
0.393987
0.352859
0.399947
0.419617
0.258684
0.380874
0.417829
0.398755
0.478625
0.449419
0.521541
0.423789
0.493526
0.507832
0.486970
0.403523
0.478625
0.407696
0.573993
0.346899
0.313520
0.443459
0.402927
0.481606
0.462532
0.397563
0.476837
0.628829
0.503659
0.506639
0.472665
0.564456
0.481606
0.535846
0.513792
0.480413
0.654459
0.585914
0.624657
0.622869
0.836849
0.699759
0.898838
1.017451
0.980496
1.099706
2.364516
7.743835
31.761527
74.003935
181.534886
300.234556
487.940907
625.150800
756.095648
789.727569
722.708702
599.351525
400.008559
267.445445
139.358640
71.577430
23.785830
10.001659
5.999804
5.935431
5.862713
6.012917
6.131530
6.302595
6.420612
6.525517
6.943941
##ZVALUE=380
0.205636
0.305772
0.037551
0.293851
0.273585
0.183582
0.303984
0.271797
0.253916
0.225902
0.190735
0.239611
0.215769
0.300407
0.320673
0.271797
0.255704
0.259876
0.276566
0.323653
0.280738
0.342727
0.210404
0.262856
0.311732
0.394583
0.334978
0.389814
0.215769
0.454783
0.380874
0.275970
0.500679
0.250936
0.246763
0.442863
0.216961
0.264645
0.423789
0.332594
0.289679
0.263453
0.328422
0.300407
0.337958
0.448823
0.437498
0.411868
0.367761
0.392795
0.292659
0.369549
0.406504
0.424981
0.307560
0.357628
0.377893
0.445843
0.607967
0.503659
0.457764
0.535846
0.400543
0.494719
0.668764
0.613928
0.790954
0.847578
0.901818
1.039505
1.083612
1.358986
3.852844
20.841956
52.846670
138.347745
237.759948
407.474637
552.947521
715.647936
774.442554
743.678808
655.718446
496.729612
355.821848
189.216733
102.164745
37.813783
15.821457
6.246567
5.350709
5.200505
5.367994
5.587935
5.664825
5.918741
##ZVALUE=385
0.159740
0.112653
0.322461
0.276566
0.107884
0.068545
0.155568
0.211596
0.192523
0.119805
0.231862
0.159740
0.090599
0.279546
0.237823
0.117421
0.246763
0.219941
0.155568
0.121593
0.168681
0.286698
0.322461
0.207424
0.121593
0.176430
0.249743
0.323653
0.323653
0.246763
0.366569
0.287890
0.257492
0.107884
0.201464
0.256896
0.347495
0.177622
0.227690
0.384450
0.165701
0.315905
0.180602
0.270605
0.251532
0.309944
0.191927
0.239611
0.321865
0.326633
0.387430
0.318885
0.370741
0.245571
0.403523
0.378489
0.323653
0.447631
0.386834
0.423789
0.363588
0.466704
0.385642
0.431538
0.498891
0.557899
0.706911
0.603795
0.580549
0.809431
0.963807
0.754595
0.737906
1.026988
1.736879
10.885596
31.458735
88.735819
171.014667
330.050588
472.180843
648.186803
736.334920
768.601894
728.561878
588.290691
449.507833
267.746449
160.800815
69.489479
29.095411
8.475780
5.204678
4.756451
4.802942
4.946589
##ZVALUE=390
0.214577
0.098944
0.332594
0.134706
0.266433
0.121593
0.075698
0.223517
0.102520
0.149608
0.146627
0.133514
0.089407
0.199676
0.166893
0.188947
0.092983
0.068545
0.106692
0.007749
0.235438
0.197887
0.214577
0.219941
0.280738
0.102520
0.152588
0.182986
0.264645
0.255704
0.264645
0.252724
0.189543
0.243783
0.287890
0.112653
0.273585
0.259876
0.258684
0.260472
0.262856
0.392795
0.234842
0.287890
0.174642
0.207424
0.242591
0.336766
0.346899
0.407696
0.167489
0.322461
0.211596
0.279546
0.215769
0.308752
0.351667
0.404716
0.305772
0.392795
0.299811
0.297427
0.563860
0.446439
0.448823
0.513792
0.535846
0.596642
0.804663
0.609756
0.820756
0.819564
0.775456
0.699759
0.936985
0.818968
1.289845
4.192591
22.687912
57.444572
147.049427
247.450471
407.647491
543.707013
703.023672
775.182843
777.007937
702.715516
529.762506
383.083820
213.039517
114.857554
41.713715
16.133785
5.464554
4.509687
##ZVALUE=395
0.150800
0.228882
0.208616
0.204444
0.095963
0.194907
0.000000
0.160933
0.140667
0.133514
0.241995
0.066757
0.210404
0.130534
0.134706
0.197887
0.211596
0.161529
0.000596
0.119805
0.168681
0.287890
0.131726
0.275970
0.173450
0.222921
0.134706
0.136495
0.231862
0.305772
0.221729
0.251532
0.090599
0.311732
0.161529
0.186563
0.237823
0.236630
0.080466
0.265837
0.293851
0.331998
0.186563
0.251532
0.140667
0.339746
0.277758
0.194907
0.294447
0.464916
0.378489
0.378489
0.337958
0.256896
0.260472
0.371933
0.335574
0.361800
0.335574
0.304580
0.355840
0.302792
0.430942
0.390410
0.449419
0.379682
0.375509
0.604987
0.607967
0.605583
0.594854
0.484586
0.699759
0.743866
0.606775
0.768900
0.590682
0.744462
0.820756
2.807975
11.337996
45.401454
92.465878
192.649961
305.596590
488.304496
626.043677
760.993958
798.481703
753.553510
642.561913
440.409780
296.225548
141.044855
70.653558
24.035573
##ZVALUE=400
0.238419
0.353456
0.415444
0.313520
0.205636
0.316501
0.276566
0.259876
0.342727
0.215769
0.275970
0.368953
0.298619
0.288486
0.342727
0.287890
0.250936
0.332594
0.233650
0.261664
0.224710
0.322461
0.251532
0.184774
0.387430
0.181794
0.370741
0.438690
0.225902
0.322461
0.401735
0.369549
0.256896
0.388622
0.380874
0.439882
0.435710
0.275970
0.538826
0.384450
0.301600
0.321865
0.514984
0.450611
0.401735
0.438690
0.372529
0.369549
0.574589
0.453591
0.532866
0.373721
0.420809
0.437498
0.300407
0.398755
0.481606
0.406504
0.465512
0.433922
0.513792
0.571609
0.427961
0.406504
0.666976
0.672936
0.607967
0.792742
0.725985
0.728965
0.716448
0.806451
0.610948
0.579953
0.568628
0.700951
0.701547
0.684857
0.880957
1.009703
1.079440
1.424551
6.220937
19.249916
62.141418
122.744441
250.306726
371.146798
551.675558
667.987466
755.465031
753.331780
652.029514
520.836711
333.186984
214.210749
##END
