##TITLE=FQP00352
##FORMAT=SPECTACLE-ASCII V-1.2
##DATA TYPE=ULTRAVIOLET SPECTRUM
##SECOND TYPE=ULTRAVIOLET SPECTRUM
##DATE=05/24/18
##TIME=17:53:15
##SPECTROMETER/DATA SYSTEM=SPECTACLE
##XUNITS=NM EM
##YUNITS=ENERGY
##YFACTOR=1
##FIRSTX=220
##LASTX=410
##NPOINTS=96
##3DDATA=Equidistant
##ZUNITS=NM EX
##FIRSTZ=210
##LASTZ=400
##ZPOINTS=39
##XYDATA=(Y..Y)
##ZVALUE=210
5.393624
4.285574
5.083680
4.834533
4.182458
4.321933
4.008412
4.035830
3.638864
3.449917
3.615618
3.486872
3.100634
3.292561
3.304482
3.592968
3.651977
3.451705
3.223419
3.450513
3.828406
4.014969
4.924536
5.397797
5.769730
5.840659
7.305741
7.555485
9.852648
10.383725
11.663437
12.907982
13.856888
13.348460
14.229417
14.058948
15.218854
12.732744
14.396906
14.127493
12.839437
12.742877
12.468696
12.028813
10.809898
10.861754
9.645820
9.834766
10.890961
9.071827
8.960962
9.823442
8.149743
9.052753
8.471608
7.903576
8.070469
7.768869
7.392764
8.304715
7.288456
7.949471
8.401871
8.292794
8.609891
9.319782
9.762645
10.794997
12.447834
14.224648
16.285777
18.291473
19.887686
21.360517
20.441413
20.959973
19.462705
18.749833
15.867949
14.606714
13.029575
11.959672
9.986758
9.745955
7.646680
7.198453
7.553697
7.378459
6.007552
7.176995
8.597970
7.920861
9.400845
9.731650
10.012984
12.139678
##ZVALUE=215
16.504526
17.218590
13.086796
10.480881
9.858608
8.723736
10.182858
9.715557
10.161996
8.984804
8.937716
6.036758
5.944967
4.312992
4.341602
3.540516
3.697872
3.755689
4.313588
4.350543
4.699826
4.586577
5.093813
5.209446
6.941557
7.933974
10.195971
11.501908
14.968514
17.832518
19.224882
22.007823
21.058917
23.233891
22.892952
25.603771
24.627447
24.855733
24.682879
21.626949
20.496845
19.772649
18.490553
18.018484
17.986894
14.824867
13.252497
14.730692
13.736486
13.771653
12.007952
11.143684
11.248589
11.950731
11.709929
11.087656
10.106564
9.007454
9.776950
9.090900
8.889437
9.133816
9.377599
9.199977
7.880926
9.650588
11.394620
10.454655
12.487769
14.366508
15.554428
15.414953
17.258525
16.657710
17.264485
16.933680
17.058849
16.949773
14.192462
14.104843
11.915565
10.255575
9.727478
9.031892
7.240772
7.646680
7.115602
7.403493
6.585717
7.037520
6.840825
6.591678
7.388592
7.390976
7.959604
7.798672
##ZVALUE=220
58.765411
57.833791
54.214001
46.034455
39.472580
29.671788
24.467707
21.174550
20.372868
19.645691
19.677877
19.949675
18.213987
16.922951
12.124777
9.354949
6.768703
5.681515
4.352927
4.364848
3.425479
3.821850
4.337430
5.142689
6.903410
8.710623
11.432767
15.227795
18.311739
23.679733
26.323795
31.348467
34.030676
35.193563
36.280751
37.181973
37.232637
36.379695
33.518672
33.012629
30.995607
30.078888
29.707551
25.509000
24.898648
23.177862
19.867420
19.759536
18.066764
18.398762
16.145706
14.259815
14.752746
14.293790
13.696551
12.938976
11.437535
12.721419
10.605454
10.716915
10.096431
9.998679
10.342598
9.987950
10.442734
9.543896
9.955764
11.588931
12.232661
12.829900
14.839768
16.085505
16.613603
16.541481
16.616583
16.353726
15.345812
13.308525
13.452768
11.868477
11.581779
9.826422
9.571910
8.708835
8.407831
8.206964
7.043481
8.094907
8.026958
7.650852
7.936954
6.741881
7.387996
7.417798
7.441640
6.738901
##ZVALUE=225
97.863674
99.121928
112.599730
128.792524
125.696659
114.161968
96.153617
72.559714
55.872798
40.987730
37.086606
34.961700
37.615895
38.373470
37.649870
34.393668
27.548671
22.449493
14.812946
10.896921
6.795526
5.359650
4.747510
4.790425
6.321669
8.300543
11.380911
15.324950
19.762516
23.822784
27.919412
33.918619
36.968589
40.014982
41.920543
42.616725
40.819645
41.227937
38.902760
36.790967
36.492944
32.884479
32.289624
29.490590
27.601719
25.327802
24.344921
22.082925
20.724535
19.358993
17.170906
18.160939
16.449690
14.662743
15.609860
14.169812
13.895631
12.523532
12.657642
12.044907
10.871887
11.203885
12.038946
10.881424
11.378527
12.118816
10.559559
12.956858
12.804866
13.570786
14.092922
16.009808
16.583800
17.299652
16.879439
16.046762
15.617609
15.392900
14.318824
12.745857
12.316704
11.528730
11.637807
11.128783
10.207891
9.889603
9.515882
9.123683
9.616613
9.587407
8.915663
9.451509
9.365678
9.169579
9.184480
8.615851
##ZVALUE=230
67.544580
75.268745
110.638738
176.435709
214.051604
243.143439
247.990489
225.774646
192.785859
158.760548
107.378960
79.701543
60.742497
59.894919
60.840845
62.309504
65.627694
61.383843
51.098466
40.528774
30.504465
18.865466
12.906790
8.034706
7.375479
7.472634
9.441972
12.693405
15.537739
16.919971
20.971894
24.271607
25.992990
27.700663
27.433634
31.000972
30.711889
29.748678
29.863715
29.020905
27.159452
24.891496
25.506616
23.992658
22.819638
21.683574
20.866990
18.791556
17.709732
17.292500
16.168952
15.351772
15.677810
14.193654
13.895631
14.962554
13.206601
12.783408
12.046695
13.141632
12.429953
11.648536
11.831522
12.108684
12.390614
12.124777
12.210608
13.732910
13.980865
13.754964
15.764832
16.682744
16.472936
16.848445
16.855597
16.881824
15.861988
16.082525
16.692877
14.554858
14.678836
14.124513
14.015436
12.405515
12.524724
12.945533
11.867881
11.641979
12.164712
11.805892
12.115836
11.279583
11.489987
11.325479
11.530519
11.329651
##ZVALUE=235
17.308593
19.757748
42.936802
100.309849
160.803795
245.956779
311.190486
375.205874
389.150977
373.832583
315.364003
247.222781
165.260434
119.404793
89.313984
77.621937
79.745650
86.032748
90.950727
89.399815
81.000924
63.988566
50.667524
32.633543
22.995472
13.792515
10.502934
8.807778
8.822680
10.118484
11.229515
11.608601
14.216900
15.547872
16.048551
15.398860
17.851591
17.137527
17.377734
16.910434
16.434789
17.074943
16.695857
15.420914
16.299486
16.059875
14.820695
14.221668
14.136434
13.543963
13.023615
12.553930
13.579726
12.495518
12.675524
12.511611
11.922717
11.328459
12.667775
11.282563
11.507869
11.928678
11.621714
11.869669
12.311935
12.078881
13.680458
13.348460
14.197826
15.036464
16.255975
17.478466
17.591715
19.111633
17.439723
18.380880
17.189980
17.361641
16.559958
15.305877
16.473532
14.616847
15.601516
14.986992
14.875531
15.343428
14.576912
14.645457
13.975501
14.678836
13.813972
12.740493
13.139844
13.503432
13.536811
13.467669
##ZVALUE=240
1.487732
1.657605
5.591512
17.240644
49.190521
92.586875
181.806684
272.873640
391.504765
460.619926
505.445004
486.093760
431.239009
336.902738
251.122713
160.798430
118.279457
89.508891
84.111691
94.212890
102.023482
107.659698
100.266933
90.563893
70.533752
54.184794
38.165450
25.884509
15.418530
11.690855
9.296536
8.782744
9.242892
9.698868
9.928942
11.039972
11.723638
12.446642
13.461709
13.329983
13.581514
13.535619
14.314651
14.534593
13.932586
12.910962
13.449788
13.001561
13.126731
12.482405
11.996627
11.809468
11.478662
10.857582
11.480451
11.068583
11.325479
10.721684
10.781884
11.321902
10.969639
10.831952
11.081696
11.979938
11.317730
12.072921
12.157559
13.377666
13.694763
14.582872
15.439987
16.419888
16.628504
17.528534
16.478896
17.137527
16.277432
17.073750
16.108751
16.012788
16.088486
15.512705
15.366673
15.813708
15.299916
15.206933
15.557408
14.653802
15.056729
15.270710
15.377998
15.167594
14.717579
13.872981
15.087724
15.258789
##ZVALUE=245
1.028776
1.114607
0.984669
1.300573
3.833771
10.963678
36.802888
77.086687
172.716975
263.090730
399.663448
492.739677
553.075671
568.105578
529.592633
429.776907
341.013670
224.499702
157.236457
102.318525
84.212422
84.253550
99.702477
111.122727
113.355517
107.843876
94.507933
80.137849
57.260990
43.896437
31.581521
20.082593
14.571548
11.802912
11.556745
11.598468
12.073517
12.964606
13.590455
13.452768
14.114976
15.299916
14.179945
15.092492
14.525652
13.965964
13.967752
13.740659
13.444424
13.089776
12.911558
12.003779
11.874437
11.440516
11.250973
10.602474
11.005998
10.477901
10.936856
10.258555
9.806752
10.077953
10.307431
10.619760
10.819435
10.508895
11.446476
12.232661
12.980700
13.196468
13.438463
14.364719
14.385581
14.814734
15.773773
15.223622
14.896989
15.704632
14.336705
15.482903
15.009642
15.285611
14.516711
14.479756
15.252829
15.032887
15.191436
15.140772
14.017820
14.735460
14.749765
14.359951
14.691949
14.444590
13.889670
13.547540
##ZVALUE=250
0.915527
0.974536
1.163483
1.161695
1.380444
1.198649
1.948476
5.902648
25.505424
58.636665
139.878988
231.542587
336.586833
479.504466
566.236973
621.661544
606.564879
529.862642
437.051654
296.675563
200.753808
132.721663
84.315538
76.869726
87.004900
100.497603
113.589764
119.434595
115.504861
103.703737
91.677904
67.465901
51.178932
34.625530
25.306940
19.025803
17.635822
16.377568
16.779900
15.970469
16.444921
16.717911
16.588569
16.623735
15.995502
16.471744
15.628934
14.750957
14.673471
13.772845
13.746619
13.157725
12.420416
11.816621
11.679530
11.055470
10.532737
10.731816
9.993911
10.226965
9.505749
9.223819
9.881854
9.836555
9.692907
9.492636
10.045767
10.917783
11.328459
11.935830
12.163520
12.818575
13.162494
13.532639
13.517737
13.371706
13.224483
13.783574
13.455749
13.804436
13.523698
13.051629
13.325810
13.078451
13.615489
13.349652
13.354421
13.570786
13.802648
13.473630
13.427734
13.386607
13.441443
13.411641
13.274550
13.618469
##ZVALUE=255
0.837445
0.873804
0.965595
1.011491
1.072884
0.874996
1.153946
1.142621
1.517534
2.677441
15.328526
39.558411
84.194541
183.736682
285.011530
445.541739
548.412800
649.783015
672.636032
625.295639
533.449650
420.581698
259.035826
166.624784
93.690753
71.749687
71.717501
84.985495
105.705857
119.062662
125.663877
123.806000
116.436481
96.441507
79.475641
57.953596
44.592619
31.263828
26.066899
21.803975
20.761490
20.205975
19.587874
19.182563
18.470883
18.549562
17.561913
16.886592
16.392469
15.462637
14.617443
13.890862
13.576746
12.835860
12.333989
11.204481
11.066794
10.303855
9.997487
9.469986
10.110736
9.522438
9.313822
9.177923
9.274483
9.705424
9.397864
9.868741
10.263920
10.374784
10.414720
11.310577
11.104941
11.694431
12.179613
11.629462
11.840463
12.148619
11.801720
11.666417
12.122989
12.238622
12.313724
11.932850
11.884570
12.051463
12.141466
12.613535
12.463927
12.446642
12.289882
12.716651
13.205409
12.944937
12.509823
12.635589
##ZVALUE=260
0.773668
0.828505
0.812411
1.028776
0.897646
0.977516
1.087785
1.006722
0.983477
1.102686
1.074672
1.657605
7.675886
20.835996
61.849952
124.603510
254.784822
371.833444
489.842892
648.373961
718.946457
715.003610
647.086501
497.208834
363.527536
215.819478
142.390728
82.978606
66.594481
75.597763
90.925694
116.246939
130.300522
139.097571
137.751698
124.396682
110.086799
85.675716
67.796707
50.179958
39.529800
30.005574
26.085973
22.415519
21.244884
20.621419
20.404458
18.857718
18.075705
16.992688
15.983582
15.271902
14.746785
13.758540
12.862682
12.313724
11.790991
10.716915
10.539889
10.333657
9.575486
9.838939
10.087490
9.536743
9.700656
9.517670
9.569526
9.545684
9.459853
10.074973
10.446906
11.013746
10.961890
11.167526
11.001825
11.241436
11.333823
11.055470
10.901690
11.066794
11.209846
11.001825
11.178851
11.460781
11.163950
11.288524
11.920929
11.447668
11.253953
11.363626
11.780858
11.562705
11.591911
11.524558
12.184978
11.860728
##ZVALUE=265
0.615716
0.825524
0.618696
0.733733
0.688434
0.684857
0.818968
0.740886
0.745654
0.722408
1.008511
1.068711
0.909567
1.245737
2.576709
14.864802
37.653446
99.435449
178.822875
341.164470
482.398868
619.104505
752.118826
780.690908
712.308884
614.382029
453.617573
325.546861
186.367631
119.462609
76.255798
69.246888
78.049898
105.476975
123.741627
141.444802
147.319436
142.438412
130.735636
108.707547
90.478659
67.546964
52.884817
37.399530
30.268431
24.144650
20.912886
19.982457
18.503666
17.243624
17.026663
15.306473
15.042424
14.417768
13.160706
12.896657
12.035966
11.710525
11.242628
10.635853
10.421872
10.010600
10.108948
9.800792
9.602904
9.603500
9.875894
9.405613
9.924769
10.041595
10.259748
10.750890
10.935664
10.946989
10.886788
10.604858
10.721684
10.745525
10.290742
10.596514
10.092854
10.558963
10.410547
10.989904
10.779500
10.421872
10.881424
10.723472
10.729432
10.346770
11.188984
10.896921
10.492802
10.795593
10.968447
10.722876
##ZVALUE=270
0.561476
0.583529
0.610948
0.544786
0.612736
0.649691
0.697970
0.621676
0.652671
0.879765
0.653863
0.844598
0.899434
0.791550
1.103878
1.007915
1.398921
6.007552
19.352436
65.337420
136.204958
240.384936
430.105925
581.150651
745.272636
810.858607
802.370906
734.955668
583.705902
442.201495
313.426852
174.308419
107.805729
68.101883
65.827966
83.144903
100.764632
124.298930
136.984587
144.281983
141.296983
126.667619
110.937953
86.244941
67.075491
46.382546
34.963489
25.607944
21.268725
18.004775
16.184449
14.866590
14.541745
13.849735
12.918711
12.569427
11.927485
11.675954
11.321902
11.290908
10.714531
10.286570
10.416508
10.203719
10.340810
10.230541
10.116696
9.810925
10.204911
10.792613
10.382533
10.605454
10.739565
10.996461
10.645986
10.960698
10.774732
10.182858
10.539889
10.266900
10.240674
10.425448
10.160804
9.988546
10.366440
9.820461
10.020733
10.120869
9.742975
9.982586
10.101795
10.164976
9.899735
10.000467
10.188818
10.178685
##ZVALUE=275
0.684857
0.781417
0.774860
0.633597
0.678897
0.835657
0.594854
0.744462
0.876784
0.808835
0.835657
0.964999
0.863671
0.915527
0.982881
1.151562
1.084805
1.270771
1.534820
3.046989
10.790825
32.747984
101.130605
193.874836
366.559625
507.615805
677.379966
786.080956
841.396451
808.974504
723.865628
545.643568
398.013592
221.677423
134.935975
69.646835
52.451491
56.915879
69.867969
93.565583
109.821558
126.378536
133.492947
130.626559
119.109750
98.663568
81.544518
58.863759
44.564605
29.295683
22.086501
16.092658
14.196634
12.207627
12.169480
11.575818
11.510849
11.104941
11.163950
10.916591
11.173487
10.654926
10.465980
10.767579
10.441542
10.530949
10.391474
10.850430
10.743737
11.172891
11.106730
11.405945
10.991693
11.268854
11.186600
11.090636
11.184812
10.768771
10.945797
10.712743
10.473728
9.959936
10.098815
10.528564
10.693669
10.270476
10.145903
9.959936
10.159612
9.935498
9.791851
9.847879
9.698868
9.793639
9.495616
9.545684
##ZVALUE=280
0.747442
0.659823
0.696778
0.614524
0.599623
0.682473
0.727773
0.627637
0.703931
0.690818
0.748634
0.802875
0.713468
0.835657
0.826716
0.850558
1.021624
1.162887
1.159906
0.991821
1.342893
1.615882
6.359816
22.710562
77.247620
144.597888
279.135704
418.785810
616.758466
742.006898
826.149583
845.102668
782.662034
617.064834
463.582873
273.070931
165.973902
78.725815
45.330524
35.049915
42.333603
62.055588
78.833699
100.363493
114.190578
122.387409
120.695829
109.740496
95.229745
72.152615
56.054592
36.388636
26.659966
17.443895
12.937784
10.227561
10.105968
9.420514
9.909868
9.866953
10.035634
10.276437
10.121465
10.162592
10.700822
10.658503
10.530949
10.608435
10.958910
10.902882
11.231899
11.405945
11.227727
11.512637
11.158586
10.911822
10.783672
11.193752
11.086464
10.888577
10.881424
10.639429
10.239482
10.314584
10.525584
10.505915
10.260940
9.881854
10.114908
9.781718
10.137558
9.721518
8.984804
9.478927
9.174943
9.367466
##ZVALUE=285
0.736713
0.527501
0.695586
0.738502
0.679493
0.741482
0.537634
0.664592
0.691414
0.788569
0.696778
0.792742
0.794530
0.808835
0.691414
0.838637
0.793934
1.037717
1.010895
0.938773
0.995994
1.360774
1.206994
1.461506
3.134608
10.731816
40.113926
87.174773
197.595954
315.604806
502.969623
651.283860
779.209733
861.779451
837.453604
707.238913
568.649769
366.025567
234.101415
111.557841
58.049560
27.297735
25.001764
37.735701
50.953627
74.242949
89.982748
106.259584
115.251541
115.155578
108.627677
91.731548
76.149702
54.451823
39.481521
24.786592
17.471910
12.387633
10.531545
10.076761
10.138750
10.121465
10.536909
10.605454
10.657907
10.689497
10.966659
11.026859
11.507869
11.714697
12.024641
11.648536
12.229681
12.021661
11.829734
11.873841
11.612773
11.332631
11.226535
11.290908
11.032820
10.895729
10.837913
10.486841
10.618567
10.301471
10.308623
10.121465
9.991527
9.693503
9.779930
9.421706
9.437799
9.790659
9.727478
9.266734
##ZVALUE=290
0.634789
0.552535
0.504851
0.565648
0.534654
0.613928
0.534654
0.608563
0.541806
0.507832
0.573993
0.699759
0.655651
0.740886
0.643730
0.786781
0.721812
0.766516
0.720620
0.776649
0.983477
1.174808
1.027584
1.006722
1.148582
1.294613
1.275539
4.046559
21.388531
52.152872
130.004883
227.530003
409.149528
566.067696
753.020644
842.926502
864.035487
797.907710
628.308654
484.383702
292.189717
176.690817
76.811910
37.434697
19.162893
21.665692
33.279657
45.233965
66.817999
82.683563
100.872517
109.634995
112.230778
106.279850
90.594888
75.622797
53.096414
39.664507
26.364923
19.083619
13.763905
11.761785
11.152625
11.079907
10.660887
11.197925
11.547804
11.741519
12.076497
12.137890
12.321472
12.335777
12.559891
12.470484
12.242794
12.129545
11.894703
11.738539
11.848807
11.677742
11.196733
11.383891
11.197925
10.947585
10.915995
10.662675
10.162592
10.345578
10.188818
10.180473
9.760857
9.893775
9.427667
9.149909
9.323955
9.148717
##ZVALUE=295
0.466704
0.612736
0.617504
0.608563
0.515580
0.574589
0.594854
0.617504
0.625849
0.478625
0.611544
0.610948
0.517964
0.714660
0.648499
0.617504
0.613928
0.666976
0.758767
0.850558
0.641942
0.902414
0.943542
0.842810
0.875592
0.856519
0.993609
1.218915
1.200438
1.987815
6.588697
30.762553
73.359609
181.594491
301.470757
504.150987
652.341843
811.249614
872.236490
834.925771
739.874840
548.895001
394.418836
217.008591
119.601488
45.199990
21.940470
15.367866
19.096732
30.743480
43.173432
63.368678
78.582764
96.848607
105.692744
108.293891
103.012919
87.823868
74.060559
54.423809
41.036606
26.528835
19.537807
14.913678
12.721419
11.505485
11.636615
11.805892
11.885762
12.413859
12.394786
12.716651
12.869835
12.774467
12.627840
12.494922
12.104511
11.945963
12.079477
11.875629
11.960864
11.638999
11.525750
11.396408
10.810494
10.638833
10.730624
10.339618
10.378957
10.367632
10.173917
9.579659
9.671450
9.249449
9.232759
9.016991
##ZVALUE=300
0.360608
0.473857
0.578761
0.451803
0.384450
0.497699
0.510812
0.684857
0.486970
0.475645
0.576973
0.711679
0.473857
0.682473
0.702739
0.683665
0.466704
0.657439
0.783801
0.708699
0.783801
0.632405
0.874996
0.808835
1.023412
0.841618
0.757575
1.031756
1.041889
1.163483
1.172423
1.238585
4.035830
14.883876
54.905415
111.616850
239.618421
378.741622
584.101677
720.774531
848.379731
871.327519
796.651840
674.445629
466.943979
315.069556
164.361000
87.212920
31.426549
15.263557
13.046861
17.536879
28.159618
38.685799
57.700872
73.283911
91.898441
100.180507
104.146600
99.861622
87.889433
74.991584
55.259466
43.044686
28.809905
21.191835
15.687943
13.370514
12.451410
12.290478
12.506843
12.252927
12.418628
12.186766
12.572408
12.072921
12.104511
11.935830
12.099743
12.240410
11.736751
11.407733
11.310577
11.450648
11.057854
10.926723
10.768771
10.583997
10.677576
10.148883
9.756684
9.612441
9.313822
9.383559
9.222627
9.163618
##ZVALUE=305
0.478625
0.418425
0.427961
0.468493
0.624657
0.533462
0.550747
0.577569
0.549555
0.552535
0.410676
0.359416
0.612736
0.419617
0.602603
0.562668
0.566840
0.517964
0.638962
0.563860
0.662804
0.735521
0.614524
0.688434
0.856519
0.715852
0.837445
0.773668
0.905991
0.899434
0.948906
1.054406
1.181960
1.296997
1.898408
9.890795
28.891563
87.224841
164.823532
321.489573
466.916561
669.440031
796.806812
875.276923
853.103995
711.464882
571.262836
377.450585
243.215561
113.875866
55.911541
19.942522
11.411905
12.307763
16.574860
26.930571
38.203001
56.035519
69.163442
86.298585
94.980001
99.682808
96.110702
84.233880
71.451664
53.513646
40.415525
28.101802
20.733476
15.133619
13.205409
12.121797
11.780858
11.748672
11.791587
11.212826
11.318922
11.261702
11.435747
11.197925
10.898709
10.995865
11.090636
10.944605
11.064410
10.550618
10.745525
10.096431
10.084510
9.692907
9.779930
9.408593
9.275675
9.264946
9.008646
9.057522
##ZVALUE=310
0.398755
0.415444
0.406504
0.421405
0.449419
0.409484
0.483990
0.535846
0.429749
0.565648
0.687838
0.582933
0.503659
0.399947
0.491738
0.377893
0.528693
0.557899
0.499487
0.474453
0.576973
0.798702
0.645518
0.609756
0.555515
0.696778
0.814795
0.553727
0.781417
0.857711
0.989437
0.831485
0.831485
0.951886
1.043677
1.249909
1.343489
3.284812
17.587543
44.318438
116.450787
208.280683
385.810733
539.586544
735.715032
841.497779
879.395604
826.040506
663.695931
511.200428
310.812593
190.895796
83.164573
39.246678
13.839602
9.502769
11.460781
15.112758
23.169518
31.632781
48.167706
61.769485
78.600645
87.564588
93.372464
91.573000
82.260966
70.459843
53.287745
40.524602
26.768446
20.211935
14.729500
12.505651
11.064410
10.629892
10.468960
10.436773
10.318756
10.145903
10.326505
10.373592
10.293722
10.081530
10.034442
10.283589
9.908676
9.953976
9.767413
9.545684
9.622574
9.254813
9.117723
8.866787
8.833408
8.718967
##ZVALUE=315
0.422597
0.458956
0.466704
0.370741
0.493526
0.370741
0.458956
0.442863
0.442863
0.529885
0.476837
0.386834
0.639558
0.443459
0.564456
0.563860
0.596642
0.554919
0.516772
0.479817
0.483990
0.702739
0.623465
0.532866
0.526905
0.615716
0.736713
0.638962
0.728965
0.777841
0.825524
0.827909
0.738502
0.887513
0.722408
0.960827
1.041889
1.050830
1.156926
2.068877
7.032752
30.405521
71.375966
171.383619
291.916728
499.754548
647.327900
803.653598
872.992873
854.061842
765.473843
578.114986
424.363017
236.305594
131.176710
50.473809
21.232963
9.472966
8.434653
10.165572
13.406873
21.678805
30.314922
44.221878
56.822896
72.585940
81.985593
88.369846
86.090565
77.110529
65.970421
50.880909
38.870573
25.535822
18.756986
13.485551
11.414886
9.999871
9.571910
9.681582
9.640455
9.308457
9.393692
9.693503
9.422898
9.316802
9.385943
9.349585
9.130836
9.423494
9.070635
9.061694
9.028912
8.640885
8.726716
8.483529
##ZVALUE=320
0.481606
0.313520
0.576973
0.389814
0.300407
0.522733
0.517964
0.325441
0.582933
0.556707
0.321865
0.369549
0.504851
0.519753
0.390410
0.483990
0.364780
0.453591
0.458956
0.420809
0.564456
0.493526
0.578761
0.521541
0.642538
0.580549
0.503659
0.689626
0.565648
0.497699
0.745654
0.548959
0.678897
0.703931
0.841618
0.775456
0.967979
0.973940
1.104474
0.987649
1.229644
1.399517
3.026724
16.333461
44.166446
124.050975
215.329528
380.147696
533.451438
731.915832
837.033987
878.793597
829.958916
673.696995
515.305996
302.570462
180.286765
78.226924
35.177469
11.726618
7.500648
7.752776
8.930564
12.107491
17.234683
27.399659
38.070679
54.083467
65.870881
77.206492
81.360936
80.721974
74.677467
61.265826
49.386621
34.926534
25.833845
17.450452
13.344884
10.533929
9.353757
8.721948
9.047985
8.998513
8.929968
8.891821
8.905530
8.960962
8.543730
8.731484
8.629560
8.470416
8.474588
8.298755
8.268952
8.415580
##ZVALUE=325
0.365973
0.399947
0.279546
0.393987
0.384450
0.382662
0.422597
0.446439
0.361800
0.298619
0.583529
0.458956
0.443459
0.420809
0.479817
0.369549
0.468493
0.447631
0.450611
0.525713
0.620484
0.450611
0.523925
0.621676
0.575781
0.575781
0.544786
0.532866
0.700951
0.566840
0.585914
0.699759
0.686646
0.621676
0.701547
0.673532
0.882745
0.837445
0.781417
0.816584
0.932813
0.882745
1.031756
1.264811
1.829863
10.025501
27.833581
81.477761
155.044794
308.546424
452.695489
651.672482
779.265761
869.242549
852.199793
725.165009
572.748780
362.238884
230.601430
108.946562
52.509904
16.241670
8.138418
6.833673
6.868839
8.524656
11.112690
17.260909
24.825931
38.921833
49.520731
63.475966
71.840882
77.381730
75.331926
67.734718
58.267713
44.848919
34.073591
22.844672
16.882420
12.076497
10.463595
9.145737
8.777976
8.475780
8.528829
8.417964
8.161664
7.986426
8.313656
8.042455
8.140802
8.223653
7.892847
8.054972
##ZVALUE=330
0.344515
0.340939
0.397563
0.312924
0.409484
0.450611
0.253916
0.361800
0.488758
0.440478
0.380874
0.229478
0.463724
0.536442
0.520945
0.336766
0.542998
0.540614
0.349879
0.484586
0.372529
0.476837
0.438690
0.491738
0.392795
0.394583
0.655651
0.525713
0.414848
0.636578
0.577569
0.554919
0.628829
0.631809
0.506639
0.609756
0.694990
0.569820
0.648499
0.749826
0.810623
0.838637
0.889897
1.002550
1.021624
1.081824
1.287460
4.215837
14.246702
51.741600
107.106566
231.160522
359.379649
562.634468
708.804727
838.723779
860.827565
779.160857
651.607513
448.804498
302.310586
147.779584
76.886415
26.961565
11.405945
6.623864
6.219745
6.869435
8.002520
11.571646
16.133785
24.989843
34.344792
48.746467
58.871508
68.587661
72.628856
71.347952
65.786839
54.269433
44.325590
31.208992
23.823977
16.300678
12.838840
10.015965
9.202957
8.485913
8.407831
8.198619
8.122921
7.867813
7.974505
7.854700
7.868409
7.661581
##ZVALUE=335
0.277758
0.225902
0.407696
0.393987
0.329614
0.333786
0.424981
0.366569
0.313520
0.392795
0.505447
0.264645
0.380874
0.439882
0.448823
0.542998
0.286698
0.346899
0.485778
0.326633
0.508428
0.374913
0.402927
0.459552
0.652671
0.422597
0.520945
0.520945
0.470877
0.516772
0.540614
0.405908
0.431538
0.664592
0.416636
0.581741
0.573993
0.558496
0.582933
0.589490
0.632405
0.773668
0.820756
0.733733
0.766516
1.064539
0.870824
1.182556
1.190901
1.897812
6.849766
30.709505
68.997741
166.612864
284.914970
482.074618
632.998943
787.794590
845.387578
814.068913
718.047619
526.503921
374.257565
205.998421
113.284588
41.809678
16.594529
7.109642
6.379485
6.320477
6.732941
8.125901
10.460615
16.339421
22.864938
34.029484
43.408871
55.633783
62.745810
67.963600
66.993833
60.330629
52.623749
41.321516
32.772422
23.222566
17.515421
12.310743
10.238886
8.827448
8.065701
7.801652
7.725954
7.544756
7.605553
7.584691
##ZVALUE=340
0.343919
0.294447
0.269413
0.289679
0.348687
0.314713
0.428557
0.322461
0.401735
0.558496
0.406504
0.501871
0.222921
0.377893
0.205636
0.448823
0.383854
0.263453
0.496507
0.477433
0.500679
0.477433
0.375509
0.405908
0.380874
0.374913
0.266433
0.539422
0.410676
0.484586
0.633597
0.377893
0.493526
0.596642
0.620484
0.501871
0.446439
0.479817
0.576973
0.563860
0.594854
0.542998
0.681877
0.711679
0.691414
0.619888
0.739694
0.880957
0.859499
0.914931
1.046658
1.309514
3.338456
17.776489
47.538877
128.955841
227.308869
400.752425
549.280643
727.569461
815.806985
827.235579
761.947632
598.368645
444.352627
247.427821
142.156482
57.711601
22.953749
8.056760
6.509423
6.235838
6.336570
6.976724
7.960796
10.757446
14.875531
22.414923
30.776858
42.984486
52.149892
60.223937
63.795447
63.232780
59.250593
50.473809
41.600466
30.840635
23.818612
16.985536
12.591481
9.468794
8.507967
7.826686
7.485747
7.326603
##ZVALUE=345
0.308752
0.270605
0.412464
0.358820
0.326633
0.321865
0.329614
0.360608
0.318885
0.398755
0.390410
0.394583
0.404716
0.320673
0.216961
0.346899
0.406504
0.390410
0.278950
0.458956
0.372529
0.351667
0.540614
0.391603
0.346899
0.358820
0.300407
0.339746
0.409484
0.378489
0.323653
0.474453
0.529885
0.465512
0.403523
0.574589
0.574589
0.513792
0.562668
0.575781
0.450611
0.586510
0.539422
0.611544
0.589490
0.582933
0.543594
0.647902
0.603795
0.667572
0.918508
0.894666
0.995994
1.013875
1.658797
9.475946
28.640628
84.035993
160.113573
311.794877
452.891588
647.183657
759.997964
827.250481
797.632933
658.328533
515.616536
322.436690
191.186666
77.502728
35.614967
11.855960
6.931424
6.306767
6.149411
6.081462
6.422997
7.386804
9.554625
14.367700
20.281672
30.077696
37.695765
47.329664
53.788424
58.713555
59.219599
54.640770
48.932433
39.777756
31.634569
22.387505
16.902685
11.851788
9.902716
8.066893
##ZVALUE=350
0.297427
0.255704
0.328422
0.199676
0.335574
0.327826
0.261664
0.155568
0.245571
0.386834
0.326633
0.379682
0.272989
0.219941
0.220537
0.407696
0.371933
0.383854
0.453591
0.184774
0.305772
0.305772
0.302792
0.315905
0.306964
0.396967
0.387430
0.446439
0.220537
0.410676
0.429749
0.467896
0.287890
0.508428
0.535846
0.342727
0.366569
0.465512
0.392795
0.467896
0.353456
0.409484
0.618696
0.467896
0.571609
0.585914
0.602603
0.629425
0.473857
0.651479
0.697970
0.588894
0.701547
0.716448
0.846982
0.960827
1.111627
4.775524
15.559793
53.810477
110.148787
240.712762
368.521810
553.074479
690.037608
805.742741
812.307596
718.543530
583.668947
375.402570
236.641765
106.435418
48.864484
14.328957
7.203817
6.002784
5.658865
5.635619
5.613565
6.132722
7.090569
9.421706
12.532473
18.258691
24.136901
33.417940
40.999651
48.846602
52.119493
54.105520
51.364899
45.062900
38.158894
28.565526
22.275448
15.975833
##ZVALUE=355
0.270605
0.163913
0.278950
0.167489
0.189543
0.230670
0.339746
0.225902
0.372529
0.261664
0.234842
0.293851
0.432730
0.264645
0.257492
0.241995
0.333786
0.254512
0.367761
0.208616
0.294447
0.235438
0.323653
0.242591
0.263453
0.310540
0.287890
0.235438
0.255704
0.365973
0.319481
0.374913
0.513792
0.526905
0.516772
0.428557
0.267625
0.530481
0.360608
0.383854
0.457764
0.474453
0.266433
0.495911
0.439882
0.492930
0.583529
0.358820
0.488758
0.551939
0.586510
0.527501
0.668764
0.699759
0.660419
0.904799
0.722408
0.908971
1.006722
2.163649
7.879734
34.229755
75.817704
173.822641
291.391611
483.354926
623.867512
757.927895
802.694559
744.687915
635.520816
452.441573
301.432610
141.665936
69.860816
21.521449
8.885860
5.711913
5.626678
5.491972
5.418658
5.388856
5.542636
6.290674
7.789731
11.159778
14.982820
21.909475
28.093457
36.707520
42.695999
47.977567
49.104691
46.771765
43.105483
35.564899
##ZVALUE=360
0.282526
0.358820
0.281930
0.267625
0.363588
0.381470
0.275970
0.457764
0.154972
0.388622
0.357628
0.250936
0.276566
0.409484
0.432730
0.398755
0.322461
0.528693
0.340939
0.523925
0.398755
0.323653
0.350475
0.265837
0.470877
0.428557
0.419617
0.555515
0.328422
0.499487
0.438690
0.363588
0.382662
0.386834
0.485778
0.522733
0.462532
0.518560
0.484586
0.470877
0.576973
0.686646
0.465512
0.594854
0.631809
0.565648
0.510812
0.707507
0.645518
0.619888
0.606775
0.764728
0.706911
0.735521
0.719428
0.735521
0.818968
0.958443
0.898838
1.046658
1.128912
1.133680
4.272461
14.124513
50.373673
105.028749
227.914453
356.279016
556.436777
687.983632
783.568025
778.757930
678.613782
546.508431
351.891518
221.948624
98.896623
43.654442
12.744665
6.201863
5.406737
5.194545
5.143881
5.296469
5.136728
5.255938
5.771518
6.916523
9.245872
12.438893
17.887950
23.474693
31.582713
37.206411
42.698979
44.727921
##ZVALUE=365
0.325441
0.295639
0.204444
0.321865
0.224710
0.286698
0.378489
0.293851
0.318885
0.242591
0.269413
0.393987
0.195503
0.340939
0.394583
0.368953
0.465512
0.330806
0.304580
0.458956
0.399947
0.384450
0.451803
0.342727
0.529885
0.402927
0.342727
0.385642
0.379682
0.341535
0.549555
0.485778
0.328422
0.486970
0.638962
0.376701
0.495911
0.437498
0.440478
0.501871
0.419617
0.664592
0.611544
0.506639
0.436902
0.605583
0.447631
0.412464
0.658631
0.575781
0.493526
0.544786
0.665784
0.616908
0.490546
0.617504
0.665784
0.672936
0.818968
0.874996
1.001954
0.964999
1.066923
1.142621
1.827478
9.140968
26.641488
78.501701
154.943466
310.583711
442.215800
615.577698
722.561479
772.869587
725.137591
575.343966
431.989431
255.770683
144.562721
53.628683
21.510720
6.694794
5.137920
4.975796
4.694462
4.728436
4.727840
4.765987
4.702806
5.213618
5.830526
7.807612
10.473728
14.933944
19.823909
26.626587
##ZVALUE=370
0.350475
0.407696
0.330806
0.312924
0.241995
0.268817
0.424981
0.321865
0.327826
0.248551
0.288486
0.294447
0.361800
0.405908
0.328422
0.324845
0.360608
0.315905
0.453591
0.332594
0.490546
0.157952
0.489950
0.395775
0.182986
0.479817
0.393987
0.352859
0.523925
0.426769
0.287890
0.334978
0.488758
0.275970
0.462532
0.307560
0.495911
0.406504
0.388622
0.378489
0.373721
0.392795
0.419617
0.516772
0.432730
0.556707
0.415444
0.500679
0.540614
0.446439
0.511408
0.530481
0.592470
0.567436
0.602603
0.591874
0.572801
0.582933
0.678897
0.681877
0.635982
0.699759
0.833869
0.898838
0.835657
1.098514
1.359582
4.337430
15.546679
56.726933
113.721490
233.282447
365.240574
557.177663
677.909851
759.678483
743.996501
634.618998
498.144627
301.671624
179.616809
73.901415
34.153461
11.432767
5.698800
4.602671
4.308820
4.462600
4.323721
4.045963
4.214644
4.323721
4.586577
5.460978
6.475449
9.393692
##ZVALUE=375
0.379682
0.466704
0.373721
0.461936
0.491738
0.473857
0.478625
0.474453
0.378489
0.395775
0.358820
0.515580
0.441670
0.424981
0.555515
0.413656
0.494719
0.405908
0.515580
0.338554
0.418425
0.470877
0.370741
0.440478
0.440478
0.305772
0.561476
0.484586
0.321865
0.421405
0.387430
0.311732
0.483990
0.541806
0.423789
0.381470
0.520945
0.465512
0.442863
0.559688
0.564456
0.673532
0.395775
0.496507
0.702739
0.623465
0.522733
0.519753
0.578761
0.768900
0.486970
0.564456
0.545979
0.602603
0.602603
0.441670
0.454783
0.606775
0.761747
0.663996
0.738502
0.710487
0.747442
0.755787
0.669956
0.899434
1.143813
1.062751
1.183748
2.435446
7.857680
31.581521
73.547959
179.431438
295.069814
477.510691
606.690645
723.832846
752.008557
677.935481
557.081699
371.252894
246.553421
127.927661
65.420866
20.669699
8.271933
4.605651
4.127622
3.943443
4.058480
3.860593
3.876686
3.920794
3.912449
4.113913
##ZVALUE=380
0.312924
0.308752
0.274777
0.267625
0.458956
0.322461
0.303984
0.286698
0.378489
0.314713
0.283718
0.450611
0.413656
0.269413
0.465512
0.396967
0.244975
0.390410
0.483990
0.366569
0.358820
0.427961
0.370741
0.374913
0.451803
0.428557
0.370741
0.331998
0.354648
0.418425
0.322461
0.451803
0.392795
0.487566
0.485778
0.369549
0.370741
0.550747
0.453591
0.441670
0.395775
0.613928
0.319481
0.335574
0.398755
0.437498
0.473857
0.453591
0.521541
0.500679
0.422597
0.560880
0.447631
0.484586
0.516772
0.487566
0.574589
0.337958
0.578761
0.625849
0.580549
0.482798
0.649691
0.805855
0.733733
0.676513
0.881553
0.873804
0.961423
1.030564
1.010895
1.412630
4.097819
21.077991
53.522587
138.197541
236.565471
399.777889
537.777543
688.355565
740.400553
702.198744
613.803864
460.815430
328.574777
173.250437
92.509985
32.884479
13.387799
4.994869
3.793836
3.622770
3.624558
3.546476
3.585815
3.609657
##ZVALUE=385
0.378489
0.212789
0.391603
0.274777
0.343919
0.182986
0.257492
0.279546
0.281930
0.203848
0.323653
0.233650
0.318885
0.315905
0.284910
0.299811
0.378489
0.354648
0.317693
0.511408
0.311732
0.388622
0.409484
0.326633
0.405908
0.438690
0.467896
0.508428
0.286698
0.622869
0.374913
0.275970
0.346899
0.353456
0.446439
0.376701
0.428557
0.384450
0.267625
0.516772
0.452995
0.409484
0.417829
0.381470
0.484586
0.380874
0.428557
0.348687
0.429749
0.379682
0.477433
0.476837
0.455976
0.487566
0.553727
0.462532
0.372529
0.539422
0.354648
0.484586
0.482798
0.400543
0.417829
0.595450
0.494719
0.677705
0.796914
0.716448
0.846982
0.828505
0.913739
0.994802
1.071692
1.155734
2.087951
7.819533
33.334494
78.591704
184.865594
301.817656
482.137799
602.905750
704.327822
727.719665
668.712854
566.525459
391.519666
265.576839
130.356550
65.721869
22.103786
7.957816
3.705621
3.435612
3.463626
3.259778
##ZVALUE=390
0.064969
0.171661
0.059605
0.137687
0.125766
0.227690
0.097752
0.087619
0.059605
0.042915
0.132918
0.080466
0.065565
0.128746
0.095963
0.081658
0.275970
0.162721
0.169873
0.136495
0.189543
0.040531
0.107884
0.182986
0.023842
0.240803
0.356436
0.214577
0.208616
0.291467
0.212789
0.218749
0.155568
0.243783
0.246763
0.203848
0.333786
0.291467
0.234842
0.363588
0.184774
0.303984
0.211596
0.288486
0.295639
0.280738
0.183582
0.168681
0.208616
0.186563
0.299811
0.117421
0.253916
0.250936
0.071526
0.323653
0.325441
0.363588
0.374913
0.108480
0.277758
0.356436
0.279546
0.362992
0.259876
0.440478
0.547767
0.679493
0.644922
0.610948
0.771880
0.668764
0.675917
0.479817
0.570416
0.636578
1.014471
5.106926
17.929673
64.169765
130.273700
265.877843
387.332439
542.914867
651.762486
732.743740
723.536015
624.313951
507.879853
334.451795
206.919909
90.078712
41.357875
11.051893
4.613996
3.283620
##ZVALUE=395
0.187755
0.135899
0.088811
0.129938
0.142455
0.220537
0.195503
0.179410
0.240803
0.259876
0.298619
0.310540
0.228882
0.315905
0.147820
0.372529
0.208616
0.329614
0.197887
0.242591
0.422597
0.279546
0.163913
0.263453
0.269413
0.257492
0.319481
0.432730
0.290871
0.301600
0.282526
0.295639
0.192523
0.526905
0.396967
0.392795
0.370741
0.427961
0.393987
0.493526
0.373721
0.470877
0.478625
0.345707
0.373721
0.435710
0.271797
0.234842
0.432730
0.355840
0.226498
0.465512
0.366569
0.465512
0.365973
0.496507
0.417829
0.399947
0.414848
0.406504
0.509620
0.532866
0.297427
0.403523
0.510812
0.600815
0.552535
0.574589
0.637770
0.658631
0.698566
0.616908
0.616908
0.736713
0.734925
0.774860
0.784993
0.919700
1.097918
2.869964
11.230707
45.097470
91.796517
190.235972
299.829841
474.701524
600.375533
716.641545
743.634701
686.160922
578.377843
393.803716
265.799761
134.946704
67.712665
22.190809
##ZVALUE=400
0.214577
0.120997
0.084639
0.100732
0.163913
0.324845
0.146627
0.184774
0.208616
0.445843
0.217557
0.346899
0.281930
0.159740
0.301600
0.329614
0.224710
0.240803
0.317693
0.277758
0.196695
0.394583
0.179410
0.151992
0.355840
0.331998
0.253916
0.266433
0.376701
0.391603
0.284910
0.343919
0.319481
0.347495
0.428557
0.352859
0.329614
0.487566
0.443459
0.468493
0.530481
0.309944
0.338554
0.512600
0.542998
0.497699
0.471473
0.416636
0.395775
0.275970
0.317693
0.398755
0.319481
0.411868
0.319481
0.517964
0.366569
0.291467
0.483990
0.455976
0.352859
0.368953
0.365973
0.445843
0.438690
0.615716
0.520945
0.760555
0.533462
0.717640
0.654459
0.568628
0.591874
0.776649
0.625849
0.634789
0.581741
0.772476
0.720620
0.689626
0.875592
1.647472
5.278587
22.866726
54.511428
135.926604
231.185555
389.563441
512.974858
648.653507
709.313750
692.981482
612.590909
448.225737
317.474604
173.316598
##END
