##TITLE=FQP00601
##FORMAT=SPECTACLE-ASCII V-1.2
##DATA TYPE=ULTRAVIOLET SPECTRUM
##SECOND TYPE=ULTRAVIOLET SPECTRUM
##DATE=05/24/18
##TIME=17:15:27
##SPECTROMETER/DATA SYSTEM=SPECTACLE
##XUNITS=NM EM
##YUNITS=ENERGY
##YFACTOR=1
##FIRSTX=220
##LASTX=410
##NPOINTS=96
##3DDATA=Equidistant
##ZUNITS=NM EX
##FIRSTZ=210
##LASTZ=400
##ZPOINTS=39
##XYDATA=(Y..Y)
##ZVALUE=210
4.980564
5.271435
4.780889
4.855990
4.297495
4.930496
4.892945
4.694462
4.309416
3.855824
4.040599
3.541708
4.014969
3.380775
4.109740
4.076958
3.818870
3.969669
4.132986
4.349947
4.563928
5.440712
5.698800
5.942583
5.934834
7.204413
7.175803
8.190870
9.259582
9.476542
10.709763
10.373592
11.318922
11.762977
12.759566
11.871457
11.876822
11.654496
11.748672
13.625622
12.213588
11.170506
11.480451
11.800528
11.565685
10.263920
10.236502
10.331869
9.801984
10.652542
9.363890
10.840893
9.808540
10.431409
10.589957
9.482503
9.455681
10.131598
10.793805
10.289550
10.627508
9.647608
10.099411
10.460615
10.709763
12.309551
12.819767
13.528466
16.895533
19.782782
22.234917
21.482706
26.663542
27.846694
29.409528
29.099584
29.057860
28.390884
24.235845
23.653507
21.597743
18.039942
15.305877
11.922717
12.586713
10.932684
10.362864
9.678602
9.651780
9.568930
10.602474
9.987950
10.426641
11.812449
12.939572
13.659000
##ZVALUE=215
18.119812
17.396808
13.711452
11.555552
11.042953
9.733438
10.376573
9.159446
9.356737
9.445548
7.926822
7.390976
5.795956
4.959702
4.257560
4.232526
4.273653
4.782677
3.979802
4.386902
5.388856
5.249977
5.086660
6.082654
6.757975
7.683635
8.851886
9.745955
10.650754
12.409687
16.017556
16.532540
16.812682
17.960668
18.579960
16.918778
19.012690
18.269420
17.914772
16.883612
17.131567
16.690493
16.531944
14.551878
14.359951
14.863610
13.136864
14.053583
12.780428
11.974573
11.836886
11.669993
11.571646
12.234449
12.146831
11.828542
10.777712
11.027455
10.649562
9.567738
10.194778
10.700822
10.714531
10.868907
11.585951
11.422634
12.222528
13.687611
13.566613
16.790628
16.922951
17.812848
21.867752
22.331476
22.029877
23.200512
23.261905
21.452904
20.031929
16.590953
12.868643
15.313625
12.494922
10.463595
10.707974
9.453893
9.106994
10.238886
10.067821
10.458827
9.244680
9.408593
9.115934
9.535551
9.829998
10.030866
##ZVALUE=220
59.144497
57.915449
55.537820
46.360493
39.714575
32.801628
25.033951
20.910501
19.000769
19.929409
20.238757
20.564795
19.464493
16.171932
12.390614
9.661913
7.124543
5.493760
5.195737
3.767610
4.324913
4.694462
5.071759
6.222725
6.250739
9.179711
9.467602
13.121963
15.215874
17.563701
19.941926
22.448897
23.935437
25.227666
26.057959
27.295947
27.018785
26.512742
27.244687
23.887753
22.917986
21.948814
22.651553
20.605922
19.541979
18.499494
17.644763
16.363859
15.652776
15.674829
14.949441
13.768673
14.121532
13.131499
13.454556
12.373924
12.469888
12.467504
12.247562
12.582541
11.516809
10.919571
10.762811
11.839867
10.261536
11.264682
12.696981
13.413429
14.847517
15.425682
15.438795
16.145706
19.249916
18.825531
19.686818
18.924475
17.893910
17.641783
15.828609
15.590787
15.500784
13.758540
12.607574
12.372732
11.584759
11.903644
10.938644
10.936856
10.370612
11.388659
10.578632
10.358691
10.924935
10.224581
11.074543
10.662675
##ZVALUE=225
92.783570
99.786520
116.526484
127.191544
122.311711
110.071898
96.104741
73.279738
55.224895
44.303536
38.943887
37.417412
38.711429
40.407777
37.623644
35.054684
29.001832
21.185875
16.501546
10.007620
7.469654
4.926920
4.909635
4.972816
6.578565
8.275509
10.819435
13.096929
16.353726
20.721555
22.264719
25.898814
27.407408
28.438568
31.617880
30.788779
31.696558
32.376647
31.376481
29.326677
27.846694
28.815866
27.096868
23.610592
22.754669
20.969510
20.617843
20.261407
19.136667
18.333793
18.342733
16.605854
15.683770
16.073585
14.684796
14.651418
13.712645
13.960600
14.430881
13.177991
13.323426
12.423992
13.123751
13.153553
13.689995
13.510585
14.672875
14.089942
16.101599
17.605424
16.887784
18.873811
19.412637
19.990802
20.235777
20.161867
19.775629
18.538833
17.144680
17.947555
16.513467
16.621947
16.957521
14.471412
15.605688
14.987588
15.397668
15.113950
15.290976
14.678836
16.088486
14.289618
13.906956
14.307499
13.585687
13.683438
##ZVALUE=230
70.602894
76.724887
117.759705
177.819729
219.728947
246.164799
249.553919
227.913857
197.251439
144.460797
110.241771
73.718429
62.117577
57.176948
61.646700
63.694715
66.657662
59.256554
51.355958
41.204691
28.298497
20.192862
12.128949
8.505583
7.452965
8.113980
8.636713
11.598468
13.746619
16.472936
19.655824
21.653771
23.180842
25.462508
26.593804
25.074482
26.102662
27.283430
25.412440
24.615526
24.448633
22.822618
22.424459
22.551417
21.070838
19.283891
18.253922
17.074943
17.362833
15.587807
15.655756
15.235543
14.866590
15.585423
14.267564
14.749765
14.809966
14.252663
15.111566
15.246868
14.940500
14.649630
14.644861
15.695691
15.745759
16.277432
16.875863
17.589927
18.562675
20.388961
20.246506
21.087527
22.498965
23.288727
23.802519
24.167895
23.972988
21.907687
22.597909
22.151470
22.427440
21.195412
20.572543
21.454692
22.150874
20.606518
21.663904
21.388531
20.021796
19.882917
20.599961
20.984411
19.788742
19.814968
20.286441
20.383000
##ZVALUE=235
17.756820
21.532774
46.663880
105.360746
164.624453
251.811743
318.152905
380.952954
397.447944
378.752947
316.406488
250.438452
163.301826
122.436881
86.841583
78.153610
80.383420
87.099671
90.399981
89.854598
82.349777
64.347982
50.419569
32.817721
23.918748
13.832450
10.732412
9.019971
9.456873
10.889769
11.728406
13.790727
14.819503
14.367700
15.320778
15.949607
16.512871
16.279817
17.033815
15.788674
17.107725
16.375780
15.388727
15.130639
15.067458
14.575720
12.734532
14.314651
13.081431
12.998581
12.897849
13.734698
13.110638
12.009740
13.083816
13.739467
13.292432
14.323592
13.527870
13.778806
14.376640
14.857650
15.291572
15.690923
15.946627
16.902685
18.238425
18.834472
18.477440
21.707416
21.512508
23.905635
23.114681
25.257468
24.657845
26.771426
24.340749
26.196837
26.270747
26.807785
26.908517
26.109815
25.585890
26.714802
25.977492
26.456714
26.948452
26.144981
25.832653
26.904941
26.103854
26.831627
26.145577
24.448633
24.955869
25.583506
##ZVALUE=240
1.771450
1.621842
6.230474
18.325448
52.466989
97.025633
186.901689
281.380415
399.325490
465.948582
513.640642
491.266847
439.084768
338.374972
255.961418
162.664652
116.383433
89.307427
86.108446
92.849731
102.933645
107.771754
99.762678
90.331435
71.426630
54.989457
37.696958
26.559830
15.250444
11.785626
10.119677
8.920431
8.438826
8.942485
9.394884
9.712577
10.340810
10.287762
10.135770
11.309981
11.505485
12.036562
10.855794
10.942817
11.249781
11.497736
11.167526
11.309981
10.676980
11.168718
10.705590
11.241436
10.766983
11.722445
11.426806
12.130737
11.937618
12.490749
12.921691
12.717843
13.143420
13.407469
14.126897
14.714599
15.514493
16.060472
16.730428
18.011928
19.334555
20.663738
21.576881
23.075938
22.699833
24.509430
25.618672
26.745796
25.697947
25.496483
26.786923
27.018785
27.367473
28.161407
27.198792
27.562976
27.483702
28.747916
28.280616
28.013587
27.744770
28.047562
27.609468
27.935505
27.984977
27.790666
28.054714
26.966929
##ZVALUE=245
1.051426
1.296997
1.381636
1.501441
3.011823
13.841987
33.679605
90.939999
162.671804
256.598592
401.433706
496.204495
572.052002
573.614836
524.354577
448.537469
320.302844
233.736634
166.945457
102.912784
85.076690
87.788701
98.092556
110.125542
113.198757
104.867816
94.444752
75.509548
59.491992
41.974783
29.172897
18.295646
13.129711
9.835958
9.559989
9.074807
9.276867
9.423494
9.603500
9.794831
10.425448
10.001659
10.670424
11.040568
10.286570
10.836720
10.875463
11.221766
9.962916
10.399818
10.159612
10.409951
10.130405
10.438561
9.829998
10.314584
10.093451
10.640621
10.438561
11.160970
11.233687
10.816455
11.022687
12.751818
13.738871
13.093948
14.101863
15.408993
16.837716
17.446876
18.176436
20.121932
21.448731
20.885468
22.494793
22.124648
23.133755
23.129582
23.805499
24.220943
25.141835
24.850965
24.555922
25.502443
25.874972
25.743842
26.273727
26.349425
26.764870
26.146770
25.741458
26.565790
26.490688
25.552511
26.247501
25.599599
##ZVALUE=250
1.088977
1.130700
1.012683
1.214743
1.459718
1.262426
1.801848
7.679462
23.318529
65.811872
128.127933
253.624916
360.284448
506.547689
587.821007
632.850528
621.256828
534.276962
436.449647
294.284821
203.037858
136.676431
84.299445
76.045990
87.448955
100.130439
113.285780
117.254853
111.496449
101.875663
83.601475
65.062642
49.557686
31.556487
22.764802
14.989972
12.855530
12.095571
11.792779
11.668801
11.920929
11.563897
11.414886
11.581779
12.122989
11.758804
11.149645
11.154413
10.946989
10.582805
10.594726
10.690689
9.921789
10.217428
10.111928
10.298491
9.815693
10.007620
9.694695
10.140538
10.365844
10.698438
10.442734
11.151433
11.262894
11.709929
12.699962
12.920499
13.908744
15.792847
15.911460
16.744733
17.801523
18.395782
18.676519
20.242929
19.586682
20.288825
20.749569
21.336675
21.380782
22.311807
22.279620
22.174716
22.806525
23.472905
23.301840
23.437738
23.424625
24.715662
23.144484
24.371743
23.964643
24.087429
23.914576
24.566650
##ZVALUE=255
0.964999
1.046658
0.879765
1.075864
1.151562
1.136661
1.328588
1.497865
1.498461
3.250837
16.890764
42.214990
89.789629
193.578601
301.796794
462.128520
564.299822
669.358969
692.068934
635.811687
546.362996
429.241657
270.126462
172.964931
96.087456
73.084831
72.510839
84.302425
104.478002
115.906000
122.069716
118.720531
110.393763
90.332627
73.369741
50.967932
37.812591
25.392771
19.204617
15.683770
14.539957
13.353825
13.802648
14.051795
12.973547
12.878776
13.300776
12.164712
12.696981
12.011528
11.274815
11.534691
11.060834
10.669827
10.816455
10.622740
10.282993
9.862781
10.252595
9.917617
10.453463
9.812713
10.220408
10.070801
10.730624
10.789633
11.451840
12.244582
12.835860
13.350844
14.664531
14.516711
15.482903
16.447902
16.727448
17.568469
17.345548
18.015504
18.139482
19.504428
19.404888
19.705892
19.445419
20.364523
20.494461
20.803809
21.627545
21.143556
20.873547
21.020770
21.702647
22.005439
22.193789
21.495819
22.344589
22.250414
##ZVALUE=260
0.814795
1.008511
0.807643
0.952482
0.881553
0.850558
1.056790
0.937581
1.124740
1.307726
1.330972
1.924634
5.744696
25.286674
57.991743
146.249533
240.145922
395.859480
524.714589
677.669644
743.811727
751.938820
657.246709
540.506840
359.171629
242.082477
136.944652
89.402795
64.789653
69.205761
83.853602
107.476711
121.264458
130.017996
128.934979
116.233826
101.233721
77.134967
59.847832
41.869879
31.030774
22.555590
18.950701
17.024875
15.529990
14.976859
14.592409
14.301538
14.238954
13.280511
13.242960
12.182593
12.198687
11.847615
11.325479
10.966659
11.098981
10.990500
10.270476
9.938478
10.213852
10.131598
10.097623
10.098815
10.053515
10.495782
10.781884
11.459589
11.989474
12.406707
13.294816
14.193654
14.805794
15.462637
15.046000
16.006827
16.496778
16.828775
16.993880
17.404556
17.291903
17.993450
18.514991
18.581748
18.933415
19.481778
19.644499
19.737482
20.070672
20.250678
20.696521
20.138621
20.230412
21.011829
21.317601
21.100640
##ZVALUE=265
0.793934
0.803471
0.696778
0.893474
0.869632
0.955462
0.773668
0.997782
0.894666
1.101494
0.962615
0.891685
1.158714
1.293421
2.837777
15.531778
40.059686
105.259418
189.057589
351.521969
496.071577
637.810826
767.079592
790.984035
721.400976
619.146824
460.155010
325.110555
183.838606
115.497708
70.453882
61.577559
71.476698
95.703602
113.824606
130.837560
136.201978
132.601857
121.531487
100.483894
82.133412
59.598684
44.202805
30.293465
24.739504
18.941760
16.907454
15.896559
15.144944
15.028715
13.849735
13.994575
12.962818
12.887716
12.266636
11.254549
11.477470
11.110902
11.150837
10.738969
10.606647
10.596514
10.308623
10.352731
10.378957
11.068583
11.254549
11.041760
12.030602
12.574792
12.888908
13.414621
13.788939
14.627576
14.893413
15.613437
15.184879
15.403628
15.979409
16.406775
17.104745
16.744733
17.372966
17.862916
18.157959
17.793775
18.462539
18.695593
18.943548
19.438863
19.362569
19.162893
19.164681
19.661784
20.425916
20.223856
##ZVALUE=270
0.702739
0.876784
0.669956
0.764728
0.778437
0.778437
0.734925
0.952482
0.953674
0.779629
1.000762
1.237988
1.015663
1.308918
1.426935
1.306534
1.717806
6.461740
21.064878
69.743991
141.725540
251.117945
445.797443
599.572659
764.207840
826.418996
812.317729
739.990473
578.614473
438.513756
311.809778
169.699788
101.738572
59.449673
56.995749
75.388551
93.105435
115.901828
129.222870
136.766434
133.775473
121.253729
105.684996
80.003738
62.119961
42.697787
32.061934
23.152828
19.231439
16.259551
15.162826
14.109612
13.619661
13.070703
12.219548
12.137890
11.674762
11.729598
11.607409
10.892749
10.804534
10.983944
10.785460
10.746717
10.764599
11.376739
11.279583
11.523962
12.121797
12.851954
13.471842
12.999773
14.377832
14.317632
15.247464
15.212893
15.075803
15.365481
15.931726
16.257763
16.843677
16.634464
17.098784
17.031431
17.229915
18.505454
17.541647
18.087626
18.506646
18.730760
18.524528
18.594861
18.472672
19.296408
18.952489
19.012690
##ZVALUE=275
0.826716
0.623465
0.660419
0.671744
0.681877
0.812411
0.752807
0.819564
0.789762
0.814795
1.113415
0.963807
0.932813
1.019835
1.126528
1.110435
1.151562
1.198649
1.393557
3.078580
11.404753
33.399463
104.900599
201.967955
382.323861
526.620746
706.276894
818.872452
882.611871
848.413706
730.331540
586.536527
428.640842
232.957006
138.328671
67.781806
48.051476
52.786469
66.935420
89.832544
106.906891
123.896599
131.544471
128.248930
118.320584
97.610950
80.926418
58.808923
44.034719
29.010773
21.494627
16.048551
14.006495
12.639761
12.381673
11.891723
11.580586
11.329651
11.316538
11.289716
11.084676
11.063814
11.065602
10.965466
11.334419
11.424422
11.424422
11.922717
12.303591
12.814999
13.178587
13.694763
14.255643
15.246868
14.590621
15.292764
15.527606
15.798807
15.635490
16.342998
16.400814
16.798973
17.007589
16.873479
17.592907
17.198920
17.750859
17.817616
17.657876
17.602444
17.589927
17.753839
18.125772
17.877817
18.035769
18.267632
##ZVALUE=280
0.751615
0.794530
0.603795
0.661612
0.716448
0.815988
0.888705
0.815988
0.885725
0.852942
0.843406
0.898838
0.780821
1.026988
0.923872
0.745654
0.972748
1.164675
1.198649
1.234412
1.499653
1.727939
6.742477
24.183989
81.026554
154.066682
296.636820
440.840721
644.127727
784.902573
880.504847
912.973881
848.277807
674.588680
514.014959
304.181576
190.818906
88.929534
50.494671
36.340952
43.347478
62.471628
80.429912
103.019476
116.566420
123.739839
122.390985
111.192465
96.640587
73.448420
56.592822
37.879944
27.877688
17.822981
14.255643
11.470914
10.763407
10.572672
10.368824
10.662675
10.664463
10.938644
10.769963
11.022687
11.377931
11.631846
11.677742
12.228489
12.449622
13.033748
13.419986
13.843775
14.326572
14.512539
14.779568
15.348792
15.521646
15.527606
15.740991
15.684962
16.013980
16.621947
16.748905
16.665459
17.042756
17.142892
17.155409
17.256737
17.482638
17.456412
17.780662
17.558932
17.367601
17.478466
17.426610
17.918944
##ZVALUE=285
0.718832
0.660419
0.683665
0.506639
0.668764
0.637770
0.610948
0.793934
0.544786
0.770688
0.840425
0.742674
0.837445
0.659823
0.892878
0.703931
0.892878
0.910759
0.985861
1.010895
0.984669
1.150966
1.284480
1.424551
3.156662
11.536479
42.825937
91.522932
203.068852
331.915617
479.584932
683.419704
814.760923
895.165801
870.872736
736.821890
593.868494
382.620692
243.847966
119.757652
61.921477
29.807687
26.829839
38.465858
52.987933
75.978637
92.020631
108.160973
115.105510
114.396811
109.174848
92.285872
76.301694
55.109859
39.717555
24.321675
17.580986
12.715459
10.711551
9.993911
9.761453
10.123849
10.355711
10.468960
10.751486
11.189580
11.609793
12.021661
12.657642
13.334751
13.441443
13.877749
14.033914
14.642477
14.849901
15.237927
15.169978
15.530586
15.514493
15.795827
16.061664
16.886592
16.851425
17.284751
17.364621
17.090440
17.531514
17.314553
17.389655
17.463565
17.898679
17.064810
17.210841
17.524958
17.863512
17.511845
##ZVALUE=290
0.494719
0.655651
0.710487
0.588894
0.628829
0.525713
0.410676
0.660419
0.589490
0.625849
0.780821
0.748634
0.764728
0.772476
0.770688
0.759959
0.715852
0.664592
0.853539
0.870824
0.815988
1.008511
1.138449
1.155734
1.324415
1.259446
1.703501
4.650950
23.423433
57.408810
75.022578
250.189900
394.384861
615.997910
758.697987
886.769891
899.288654
806.064010
675.552487
470.684767
319.021940
162.501931
84.749460
31.893849
19.855499
23.872852
32.815933
49.874783
64.498782
86.619854
99.087954
111.374855
113.135576
104.305744
92.296004
71.198940
54.895878
36.542416
26.426911
17.261505
13.184547
10.510683
9.835958
9.967685
10.401607
10.823607
10.912418
11.401772
11.978745
12.549758
13.321638
13.974905
13.974905
14.576912
14.624000
14.981627
15.422702
15.633702
15.822649
16.173720
16.636848
16.757846
16.641617
17.047524
17.423630
17.464757
17.883778
17.573833
17.792583
17.023683
17.235875
17.739534
17.430782
17.225742
16.889572
17.260909
##ZVALUE=295
0.642538
0.660419
0.529885
0.609756
0.674725
0.735521
0.488758
0.530481
0.641942
0.791550
0.708699
0.605583
0.560880
0.722408
0.696778
0.786781
0.837445
0.815988
0.891685
0.729561
0.888705
0.840425
0.764728
1.037717
1.078844
1.126528
1.209974
1.312494
1.430511
2.143979
7.068515
31.932592
77.807903
195.484757
322.651863
535.832644
690.518618
855.066776
915.696621
874.885917
772.850513
574.221611
407.716632
223.826766
123.791695
45.538545
22.140741
15.193820
19.158721
30.984879
42.623878
62.559843
77.166557
96.458793
105.556846
106.683969
101.500750
86.208582
71.905851
52.302480
39.077997
25.837421
18.387437
13.401508
11.532903
10.737777
10.959506
11.341572
11.881590
12.791753
12.790561
13.345480
13.695955
14.535785
14.601946
15.064478
14.944673
15.832782
15.976429
16.573668
16.925931
16.987920
17.348528
17.634630
17.677546
17.609596
17.330647
17.708540
17.720461
17.592907
17.403960
17.816424
17.338991
17.488599
17.359853
17.311573
##ZVALUE=300
0.651479
0.589490
0.413656
0.547767
0.596642
0.652671
0.626445
0.682473
0.620484
0.520945
0.566840
0.719428
0.532866
0.574589
0.660419
0.712872
0.648499
0.745654
0.669956
0.733733
0.726581
0.695586
0.796914
0.801682
0.951886
0.951886
0.955462
1.129508
1.142621
1.292825
1.284480
1.348853
4.491806
15.524626
57.587624
118.591785
257.035494
402.240753
617.803931
760.536790
891.639590
915.787816
832.175612
705.565810
489.543676
327.407718
169.124603
89.413524
32.061934
14.907718
12.503862
16.501546
26.461482
38.027763
55.542588
72.306991
90.268850
99.225640
101.934671
98.573565
85.529685
72.750449
54.029822
40.929914
26.793480
20.096898
14.885664
12.967587
12.330413
12.204647
12.778640
13.270974
14.076829
14.187694
14.600754
15.022755
15.486479
16.083717
16.169548
16.638637
17.131567
17.196536
17.498732
17.518997
17.802715
17.968416
18.250942
18.110871
17.970800
17.716885
17.950535
17.794967
17.836690
17.408729
17.410517
16.811490
##ZVALUE=305
0.583529
0.510812
0.630617
0.520945
0.597835
0.477433
0.402927
0.347495
0.483990
0.571609
0.486970
0.625849
0.685453
0.670552
0.680685
0.563860
0.559688
0.621676
0.739694
0.641942
0.592470
0.581741
0.633597
0.821948
0.742674
0.910759
0.754595
0.933409
0.978708
0.908971
1.055598
1.093745
1.071692
1.307726
2.120733
10.307431
30.340552
91.078877
172.463655
335.938931
491.032600
706.346035
839.343667
930.418968
905.128717
753.952861
605.452657
396.348834
253.580809
117.543936
56.651831
19.012690
10.752678
11.460781
15.899539
26.247501
36.611557
54.195523
68.006516
84.880590
93.252659
96.834898
94.022751
83.348751
69.918633
52.537918
40.164590
28.598905
21.221638
16.002655
14.225841
13.635755
13.737679
14.242530
14.543533
15.084743
15.304685
16.078949
16.234517
16.497970
16.783476
17.328858
17.780662
17.758608
18.095970
18.261671
18.210411
18.271804
18.274784
18.075705
17.861724
18.133521
17.890930
17.734766
17.288923
17.502904
##ZVALUE=310
0.500679
0.405908
0.457764
0.492930
0.569820
0.505447
0.542998
0.617504
0.545979
0.506639
0.598431
0.501871
0.545979
0.594854
0.519753
0.584722
0.733733
0.612736
0.710487
0.596642
0.516772
0.736713
0.616908
0.677705
0.954866
0.863671
0.722408
0.846982
0.776649
0.909567
0.789762
0.815988
1.032948
1.103878
0.931621
1.074672
1.462698
4.218817
14.787912
54.054856
112.981796
249.695778
392.076969
610.525608
770.540833
912.512541
931.029916
848.543644
726.214647
509.390831
349.544883
179.661512
95.834732
34.138560
14.169812
8.824468
10.307431
15.093684
21.634698
33.884645
45.737624
63.885450
76.842904
88.599920
92.804432
91.411471
83.006620
68.438649
54.747462
40.339828
30.961633
22.658706
18.392801
15.751719
15.095472
14.915466
15.389919
15.863776
16.281605
16.952753
17.338991
17.556548
17.732978
17.911792
18.263459
18.286705
18.477440
18.317699
18.566847
18.072724
18.107891
18.101931
18.195510
17.634630
17.962456
17.505884
##ZVALUE=315
0.530481
0.457764
0.499487
0.460744
0.490546
0.482798
0.552535
0.391603
0.662804
0.587702
0.415444
0.411868
0.724792
0.480413
0.501871
0.541806
0.420809
0.474453
0.703931
0.533462
0.636578
0.500679
0.648499
0.456572
0.644922
0.556707
0.621676
0.600815
0.703931
0.817776
0.832677
0.935793
0.713468
0.886917
1.052618
0.958443
1.099706
1.166463
1.181960
2.356768
7.263422
32.050610
77.546835
191.680789
322.837830
543.865561
711.007714
884.525776
952.246785
920.525789
820.151567
613.356829
445.194840
246.363878
135.255456
50.278902
21.335483
9.288788
8.374453
10.338426
13.597608
21.409988
30.544996
44.711828
57.388544
74.400902
83.480477
88.765621
88.105798
79.102516
69.487691
54.572821
42.940974
30.190945
24.098754
18.908978
16.799569
16.500950
16.281605
16.584992
16.986728
17.663836
17.368793
18.003583
18.043518
18.269420
18.598437
18.306971
18.267632
18.720627
18.291473
18.309951
17.965436
17.943978
17.833710
17.856956
##ZVALUE=320
0.434518
0.447631
0.480413
0.558496
0.427961
0.410676
0.480413
0.451803
0.387430
0.386834
0.520945
0.474453
0.416636
0.499487
0.495911
0.681877
0.616908
0.547767
0.460744
0.466704
0.616908
0.590682
0.469685
0.507832
0.650883
0.568628
0.549555
0.730753
0.769496
0.750422
0.767708
0.722408
0.717640
0.690818
0.733733
0.709891
0.834465
0.895858
0.974536
1.101494
1.267791
1.483560
3.208518
16.585588
45.603514
129.536986
226.976871
402.636528
565.203428
773.655772
885.216594
926.876664
872.264504
705.405474
537.119508
313.591957
186.241865
80.003738
35.776496
12.115836
8.145571
8.407831
9.642839
13.252497
18.794537
29.926896
40.578842
55.984855
68.416595
80.824494
86.020827
85.407495
79.547763
66.132545
54.476857
40.428638
32.112598
24.269819
20.704865
17.966628
17.313957
17.457604
17.629862
17.993450
17.847419
18.007755
18.534660
18.407702
18.247962
18.514991
18.173456
17.889738
17.902851
18.045902
17.847419
17.825961
##ZVALUE=325
0.445843
0.480413
0.400543
0.437498
0.471473
0.554919
0.489950
0.448823
0.315905
0.472665
0.486970
0.480413
0.445843
0.425577
0.577569
0.556707
0.646710
0.556707
0.552535
0.605583
0.570416
0.514984
0.432730
0.533462
0.501871
0.551939
0.561476
0.556707
0.534654
0.759959
0.417829
0.778437
0.671744
0.672936
0.818968
0.819564
0.763535
0.980496
0.837445
0.846982
0.927448
1.025796
1.126528
1.292825
1.846552
10.526776
29.614568
85.901618
164.402723
334.034562
490.994453
707.568526
845.419765
937.788486
912.636518
766.312480
606.388450
387.384892
242.390633
110.037923
52.774549
17.125607
9.240508
7.913709
8.645654
10.277629
13.434887
19.848943
28.241873
42.333603
52.889585
67.346692
76.171756
82.519650
80.828667
73.492527
64.633489
51.338673
41.279793
30.860901
25.304556
20.612478
19.010901
18.090606
17.824769
17.797947
18.127561
17.936826
17.942786
17.728806
17.923713
17.831922
17.618537
17.821789
17.725825
17.853975
##ZVALUE=330
0.477433
0.493526
0.551939
0.458956
0.585914
0.474453
0.530481
0.459552
0.568628
0.499487
0.425577
0.520945
0.524521
0.528693
0.420809
0.608563
0.543594
0.639558
0.515580
0.502467
0.545979
0.623465
0.582933
0.636578
0.514984
0.591874
0.718832
0.684857
0.453591
0.703931
0.669956
0.507832
0.683665
0.691414
0.610948
0.843406
0.598431
0.798702
0.708699
0.760555
0.890493
0.945926
0.899434
1.023412
1.113415
1.184940
1.397729
4.504919
14.662743
53.876638
111.198425
244.099498
382.463932
599.859953
760.743618
903.655887
924.362540
837.716460
698.731542
477.485657
318.455696
154.668689
80.045462
28.290749
12.784600
7.909536
8.308887
8.991957
10.669827
14.643669
19.373894
27.969480
37.911534
52.383542
63.496828
74.039698
78.600645
76.743960
72.051883
60.787797
50.972700
39.211512
31.882524
25.165677
21.874905
19.086599
18.308759
17.696619
17.844439
17.563701
17.144680
17.554760
17.783642
17.161965
17.393827
17.518997
##ZVALUE=335
0.272989
0.532866
0.391603
0.372529
0.380874
0.448823
0.424981
0.359416
0.387430
0.374913
0.436902
0.341535
0.527501
0.435710
0.360608
0.490546
0.557899
0.448823
0.758767
0.440478
0.542998
0.577569
0.411868
0.433922
0.514984
0.556707
0.378489
0.600815
0.538826
0.542998
0.507832
0.523925
0.488758
0.646710
0.745654
0.689626
0.588894
0.747442
0.704527
0.517964
0.630617
0.688434
0.670552
0.762939
0.866652
0.906587
1.080632
0.987649
1.177788
2.111793
7.189512
32.493472
73.672533
177.852511
302.482843
512.195826
671.103001
836.766958
897.988677
868.918896
763.751864
554.334521
394.709706
219.311714
119.049549
43.570995
17.788410
8.918643
8.442998
8.943677
9.303689
11.472702
14.125705
20.208955
26.946664
39.014816
48.916936
61.230659
69.124699
74.356794
74.129701
67.662001
60.377717
49.456954
41.063428
31.386614
26.052594
22.115707
19.162893
17.403960
17.366409
16.808510
17.022491
16.706586
16.500950
16.708970
##ZVALUE=340
0.409484
0.332594
0.311732
0.383854
0.423789
0.418425
0.422597
0.396967
0.359416
0.359416
0.211596
0.474453
0.457764
0.333786
0.357628
0.344515
0.367761
0.310540
0.380874
0.460744
0.359416
0.534654
0.559688
0.348687
0.493526
0.464916
0.363588
0.517964
0.638962
0.431538
0.578761
0.711679
0.613928
0.621676
0.629425
0.500679
0.610948
0.584722
0.699759
0.542998
0.625849
0.637770
0.624657
0.694990
0.870824
0.793934
0.969768
1.042485
0.973940
0.944734
1.135468
1.315475
3.523827
18.790960
52.344799
146.889687
259.702802
450.935960
609.920621
794.094801
874.457955
881.853700
806.476474
632.594824
465.855598
259.815454
147.463679
61.126947
25.224686
10.000467
8.726716
9.195805
9.361506
9.987950
11.408925
15.396476
19.064546
27.422905
35.648942
48.513412
57.724714
66.981912
70.568919
70.021749
65.952539
57.279468
49.848557
38.683414
32.481551
25.516748
21.556616
18.193722
17.095804
16.327500
16.224980
15.887618
##ZVALUE=345
0.350475
0.261664
0.347495
0.307560
0.218749
0.282526
0.296831
0.329614
0.348687
0.300407
0.351667
0.296831
0.302792
0.396967
0.277758
0.285506
0.331998
0.410676
0.455976
0.297427
0.538826
0.513792
0.478625
0.320673
0.544786
0.421405
0.398755
0.359416
0.437498
0.336766
0.483990
0.446439
0.445843
0.546575
0.466704
0.589490
0.404716
0.482798
0.400543
0.503659
0.624657
0.500679
0.626445
0.550747
0.769496
0.679493
0.766516
0.675917
0.715852
0.748634
0.819564
0.891685
0.988841
1.200438
1.757741
9.880662
30.078888
89.332461
169.644952
330.580473
482.166409
686.967969
805.192590
871.049762
839.653015
689.643025
536.588430
335.493684
196.953416
80.743432
37.327409
13.670921
9.194613
8.930564
9.069443
9.414554
9.954572
11.341572
13.713837
19.216537
24.924874
35.829544
43.541789
53.239465
59.950948
65.464973
65.914989
61.847568
56.908727
47.326684
38.949847
29.873848
24.651885
19.476414
17.609000
16.222000
##ZVALUE=350
0.372529
0.363588
0.307560
0.426769
0.352859
0.451803
0.353456
0.462532
0.435710
0.464916
0.479817
0.301600
0.456572
0.418425
0.530481
0.358820
0.420809
0.273585
0.485778
0.549555
0.410676
0.311732
0.384450
0.355840
0.434518
0.454783
0.487566
0.387430
0.566840
0.592470
0.581741
0.412464
0.549555
0.566840
0.609756
0.431538
0.475645
0.575781
0.587702
0.542998
0.544786
0.514984
0.659823
0.601411
0.517964
0.642538
0.564456
0.790954
0.690818
0.748634
0.671744
0.759959
0.918508
0.982881
1.077652
1.016855
1.525879
3.940463
19.582510
49.450994
132.708549
235.177875
418.238640
572.772622
760.458708
849.688649
859.396458
782.955885
585.620999
413.641930
223.656893
125.903487
49.499869
20.455718
9.410977
8.704662
8.571744
8.976460
9.199977
9.954572
11.271834
13.637543
17.864704
22.214651
31.277537
38.293600
48.296452
54.286718
59.636831
61.027408
57.407618
52.795410
43.886900
36.663413
28.729439
23.991466
##ZVALUE=355
0.405908
0.251532
0.343919
0.321865
0.448823
0.224710
0.541806
0.284910
0.516772
0.301600
0.431538
0.383854
0.211596
0.354648
0.405908
0.304580
0.421405
0.401735
0.379682
0.301600
0.272989
0.321865
0.561476
0.499487
0.460744
0.322461
0.585914
0.391603
0.388622
0.534654
0.430942
0.456572
0.468493
0.408888
0.364780
0.339746
0.468493
0.590682
0.580549
0.402927
0.543594
0.577569
0.445843
0.413656
0.640750
0.595450
0.595450
0.619888
0.664592
0.662804
0.784993
0.810623
0.766516
0.809431
0.872612
0.975728
0.986457
1.059771
1.199841
2.487898
9.331703
40.223598
89.200735
201.030970
332.232714
545.265675
692.783594
832.030773
872.496963
800.536871
681.970716
484.489799
324.583650
156.062841
77.822804
25.393963
11.530519
7.957816
8.317828
8.565784
8.600950
9.323955
9.661913
10.699630
12.529492
15.887618
20.165443
27.750731
33.415556
41.785836
48.096776
54.117441
55.497885
53.238869
49.268603
41.599870
##ZVALUE=360
0.353456
0.402927
0.437498
0.484586
0.353456
0.364780
0.347495
0.288486
0.402927
0.297427
0.490546
0.374913
0.305772
0.291467
0.551939
0.383854
0.450611
0.510812
0.401735
0.388622
0.604987
0.450611
0.526905
0.298619
0.400543
0.456572
0.505447
0.547767
0.525713
0.310540
0.583529
0.459552
0.428557
0.503659
0.432730
0.469685
0.471473
0.530481
0.413656
0.558496
0.565648
0.542998
0.558496
0.666976
0.430942
0.607967
0.670552
0.565648
0.660419
0.739694
0.567436
0.822544
0.821948
0.817776
0.648499
0.869632
0.897646
0.786781
1.044869
1.145601
1.122952
1.368523
3.805757
19.854903
53.335428
143.483877
249.817967
432.667732
594.635010
776.631832
847.662687
834.410787
741.502643
541.881919
379.973650
197.615623
107.176900
40.831566
16.768575
8.316636
7.888675
7.939935
8.126497
8.482933
8.727908
9.022951
9.768605
11.308789
13.300776
17.475486
21.840930
29.517412
35.946965
43.835640
47.806501
50.213933
##ZVALUE=365
0.338554
0.343919
0.382662
0.466704
0.468493
0.284910
0.305772
0.368953
0.351667
0.321865
0.335574
0.383854
0.383854
0.364780
0.439882
0.464916
0.469685
0.340939
0.392795
0.446439
0.486970
0.367761
0.432730
0.469685
0.498891
0.530481
0.382662
0.426769
0.444651
0.496507
0.614524
0.546575
0.425577
0.440478
0.436902
0.409484
0.574589
0.562668
0.548959
0.511408
0.473857
0.585914
0.515580
0.539422
0.599623
0.589490
0.706911
0.574589
0.586510
0.651479
0.592470
0.806451
0.617504
0.607967
0.773668
0.669956
0.902414
0.756979
0.862479
0.891685
1.015663
0.973940
1.131892
1.295805
2.292991
7.369518
32.947659
77.322721
195.102692
329.663754
536.206961
677.824616
814.274549
851.749778
777.758956
656.673908
449.551940
289.198756
134.628415
65.288544
20.417571
9.587407
7.252693
7.365942
7.472634
7.558465
7.976890
8.088946
8.312464
8.570552
9.926558
11.498928
15.053749
19.028783
25.274754
30.803680
##ZVALUE=370
0.326633
0.426769
0.339746
0.405908
0.535846
0.441670
0.527501
0.493526
0.435710
0.410676
0.310540
0.357628
0.202656
0.369549
0.400543
0.161529
0.370741
0.485778
0.533462
0.395775
0.418425
0.288486
0.440478
0.403523
0.429749
0.522733
0.362992
0.399947
0.312924
0.464916
0.459552
0.518560
0.451803
0.496507
0.438690
0.432730
0.467896
0.379682
0.463724
0.455976
0.391603
0.610948
0.544786
0.593662
0.388622
0.639558
0.434518
0.463724
0.506639
0.554919
0.571609
0.534654
0.773668
0.648499
0.617504
0.621676
0.721812
0.540614
0.731945
0.808835
0.883937
0.850558
0.830889
0.893474
0.993609
1.038909
1.394749
5.014539
17.285943
61.878562
128.240585
269.045830
418.420434
644.213557
778.368711
868.591666
846.360922
713.164806
555.846691
338.043571
200.487971
81.251860
36.621690
12.038946
7.513762
6.673932
6.727576
6.802678
7.058978
7.107854
7.184744
7.591844
7.891655
8.544922
10.063648
13.005733
##ZVALUE=375
0.326633
0.359416
0.395775
0.302792
0.242591
0.353456
0.374913
0.382662
0.312924
0.383854
0.419617
0.263453
0.464916
0.309944
0.372529
0.418425
0.414848
0.304580
0.351667
0.441670
0.375509
0.336766
0.338554
0.428557
0.438690
0.503659
0.538826
0.441670
0.546575
0.500679
0.478625
0.598431
0.298619
0.392795
0.326633
0.404716
0.384450
0.416636
0.449419
0.522733
0.523925
0.498891
0.427961
0.439882
0.477433
0.460744
0.490546
0.553727
0.652671
0.509620
0.513792
0.303984
0.468493
0.677705
0.438690
0.560880
0.531673
0.613928
0.663996
0.716448
0.617504
0.793934
0.813603
0.767708
0.801682
1.028776
0.940561
1.228452
1.481771
2.775788
8.095503
34.062862
81.447959
207.109451
351.892710
586.978793
754.498839
909.676552
944.281816
846.758485
689.554811
445.624590
293.002725
148.493648
74.849725
23.755431
10.110736
6.289482
6.337762
6.253719
6.320477
6.293654
6.473660
6.555915
6.674528
7.222891
##ZVALUE=380
0.445843
0.316501
0.302792
0.390410
0.315905
0.384450
0.343919
0.426769
0.377893
0.333786
0.364780
0.380874
0.467896
0.402927
0.528693
0.354648
0.344515
0.494719
0.335574
0.392795
0.285506
0.403523
0.205636
0.356436
0.366569
0.457764
0.546575
0.505447
0.316501
0.288486
0.410676
0.469685
0.349879
0.439882
0.394583
0.430942
0.372529
0.445843
0.507832
0.450611
0.500679
0.428557
0.584722
0.569820
0.406504
0.430942
0.502467
0.601411
0.439882
0.565648
0.565648
0.505447
0.588894
0.451803
0.510812
0.635982
0.606775
0.502467
0.617504
0.598431
0.572801
0.786781
0.723600
0.713468
0.845790
0.865459
0.883937
0.888705
1.211762
1.274943
1.446605
1.704693
4.329681
21.931529
56.900978
151.565671
270.101428
478.409529
656.374693
863.804817
948.535800
918.181539
802.967548
588.803887
416.886806
219.406486
118.035674
42.452812
17.074943
6.786585
5.759597
5.616546
5.713701
5.697608
5.687475
5.900860
##ZVALUE=385
0.377893
0.382662
0.365973
0.480413
0.320673
0.249743
0.367761
0.386834
0.279546
0.442863
0.242591
0.359416
0.236630
0.284910
0.409484
0.328422
0.195503
0.343919
0.321865
0.341535
0.400543
0.288486
0.418425
0.351667
0.372529
0.387430
0.272989
0.341535
0.447631
0.426769
0.367761
0.533462
0.376701
0.409484
0.452995
0.510812
0.397563
0.380874
0.385642
0.349879
0.473857
0.494719
0.297427
0.475645
0.425577
0.578761
0.475645
0.429749
0.508428
0.575781
0.463724
0.491738
0.436902
0.419617
0.471473
0.534654
0.392795
0.582933
0.582933
0.600815
0.475645
0.595450
0.707507
0.636578
0.733733
0.788569
0.762939
0.852942
0.925660
1.124740
1.123548
1.151562
1.058578
1.246929
1.973510
10.507703
31.115413
95.709562
184.507966
365.556479
539.580584
759.649873
869.112611
908.394456
854.939818
683.006644
517.100692
303.581953
179.270506
75.285435
31.253695
8.957982
5.366802
5.089641
4.862547
5.195737
##ZVALUE=390
0.320673
0.383854
0.286698
0.320673
0.393987
0.289679
0.449419
0.328422
0.392795
0.264645
0.288486
0.198483
0.350475
0.338554
0.223517
0.265837
0.152588
0.223517
0.386834
0.310540
0.475645
0.347495
0.352859
0.404716
0.317693
0.459552
0.385642
0.314713
0.319481
0.337958
0.442863
0.385642
0.417829
0.510812
0.409484
0.537634
0.489950
0.482798
0.336766
0.471473
0.418425
0.400543
0.445843
0.439882
0.524521
0.553727
0.416636
0.438690
0.492930
0.423789
0.486970
0.507832
0.412464
0.483990
0.457764
0.331998
0.594854
0.564456
0.469685
0.607967
0.550747
0.540614
0.571609
0.522733
0.440478
0.736713
0.737906
0.746846
0.908971
0.886917
0.872612
0.891685
1.006722
1.009703
0.938773
1.048446
1.370907
5.322695
18.341541
64.671636
132.971406
278.728604
417.846441
606.223941
720.434785
800.848007
787.983537
673.972964
545.758605
358.861685
220.997930
93.816519
44.303536
13.861656
6.123781
4.843473
##ZVALUE=395
0.191927
0.175834
0.195503
0.141859
0.344515
0.292659
0.251532
0.255704
0.237823
0.161529
0.236630
0.258684
0.248551
0.453591
0.260472
0.221729
0.224710
0.224710
0.344515
0.244975
0.305772
0.364780
0.328422
0.284910
0.336766
0.224710
0.206828
0.217557
0.306964
0.268817
0.377893
0.375509
0.252724
0.308752
0.319481
0.458956
0.321865
0.382662
0.321865
0.375509
0.349879
0.382662
0.329614
0.337958
0.334978
0.289679
0.390410
0.361800
0.498891
0.313520
0.310540
0.213981
0.289679
0.233650
0.229478
0.267625
0.360608
0.423789
0.299811
0.395775
0.489950
0.514984
0.519753
0.538826
0.528693
0.555515
0.598431
0.550747
0.567436
0.732541
0.754595
0.741482
0.869632
0.600815
0.807643
0.766516
0.833869
0.967979
0.995994
2.865791
11.684895
47.023892
96.713901
202.106833
320.814848
507.826805
644.621849
767.617822
795.402527
730.932951
614.050627
415.319800
274.391770
128.383636
63.485503
21.162629
##ZVALUE=400
0.399947
0.383854
0.389814
0.212789
0.364780
0.265837
0.301600
0.175834
0.391603
0.354648
0.302792
0.379682
0.429749
0.366569
0.303984
0.311732
0.304580
0.226498
0.384450
0.358820
0.370741
0.370741
0.357628
0.380874
0.348687
0.474453
0.260472
0.469685
0.365973
0.315905
0.464916
0.378489
0.504851
0.506639
0.476837
0.456572
0.426769
0.374913
0.372529
0.452995
0.310540
0.403523
0.372529
0.440478
0.487566
0.456572
0.381470
0.470877
0.392795
0.430942
0.354648
0.328422
0.353456
0.466704
0.507832
0.470877
0.519753
0.433922
0.475645
0.631809
0.501871
0.585914
0.505447
0.512600
0.636578
0.646710
0.706911
0.789762
0.796914
0.769496
0.888705
0.776649
0.696778
0.890493
0.712872
0.727773
0.832677
0.780821
0.778437
0.977516
1.023412
1.396537
6.175637
20.025969
65.683722
130.601525
267.322659
396.216512
581.271648
693.922639
769.742727
754.920840
640.607476
503.914952
314.498544
199.848413
##END
