##TITLE=QP00601
##FORMAT=SPECTACLE-ASCII V-1.2
##DATA TYPE=ULTRAVIOLET SPECTRUM
##SECOND TYPE=ULTRAVIOLET SPECTRUM
##DATE=05/24/18
##TIME=17:08:28
##SPECTROMETER/DATA SYSTEM=SPECTACLE
##XUNITS=NM EM
##YUNITS=ENERGY
##YFACTOR=1
##FIRSTX=220
##LASTX=410
##NPOINTS=96
##3DDATA=Equidistant
##ZUNITS=NM EX
##FIRSTZ=210
##LASTZ=400
##ZPOINTS=39
##XYDATA=(Y..Y)
##ZVALUE=210
5.431771
5.421638
5.161762
5.209446
5.495548
4.824996
4.894733
5.262494
4.681945
4.848838
3.850460
4.068613
3.785491
4.447699
5.023479
4.498959
5.722642
5.172491
4.881620
6.206632
4.848838
5.648732
5.521774
7.686615
6.683469
7.186532
7.274747
8.020997
8.426905
8.946657
8.503795
9.125471
8.074641
8.838773
10.556579
10.903478
9.736419
10.256767
10.871887
11.213422
11.522770
9.557605
11.346936
11.837482
12.504458
13.011694
13.333559
11.894703
12.486577
12.994409
13.382435
14.116764
13.947487
13.785958
13.289452
14.466643
13.905764
15.016794
15.744567
14.023781
14.414787
14.967918
15.566945
15.835762
18.976927
18.978715
23.037791
26.639700
35.839677
37.225485
43.044686
48.480630
53.027868
53.488612
59.642792
58.263540
58.086514
56.136847
49.676895
43.406487
37.207603
32.950640
28.921962
24.279952
20.553470
18.380880
17.491579
16.073585
16.269684
16.915798
16.732812
16.696453
15.845895
17.682910
19.995570
21.085739
##ZVALUE=215
20.413995
19.985437
15.998483
13.426542
12.121797
10.071993
9.907484
9.985566
10.583997
10.346770
8.465648
7.828474
6.952882
5.907416
5.288720
4.612803
5.017519
4.898906
4.874468
5.195737
6.026626
6.248951
6.563663
6.833673
6.675720
7.520914
7.690787
7.304549
8.272529
7.895827
9.200573
8.718967
9.118915
10.324717
9.814501
10.282993
9.899735
10.252595
10.603666
11.853576
9.996891
10.899901
11.015534
11.330843
12.663603
11.693835
11.790991
12.824535
11.894703
12.497902
12.574792
12.798905
12.647510
13.307929
13.440847
12.978911
14.082789
13.390779
13.971925
14.700890
14.034510
14.773607
15.214682
15.597939
16.635656
18.924475
19.285679
24.188757
26.921630
35.488605
35.652518
41.801929
45.197606
46.862960
45.558810
47.701597
44.759512
40.716529
39.326549
34.013987
30.821562
27.525425
25.843978
22.217631
19.467473
18.545985
17.957687
15.519857
16.689897
16.945601
16.208887
15.681982
16.835928
16.066432
15.685558
15.861988
##ZVALUE=220
71.646571
70.041418
69.022775
60.048699
48.268437
36.764741
29.168725
24.166703
20.761490
19.973516
22.254586
21.013618
19.428730
17.411709
13.515949
10.847449
8.335710
7.666945
6.028414
5.070567
5.524755
5.299449
5.899668
6.343722
6.768703
6.384850
6.417632
6.624460
6.749630
7.085800
8.083582
8.550882
8.330941
8.358955
9.259582
9.038448
9.379983
9.474754
9.280443
10.367632
10.288954
10.457635
11.154413
10.843873
11.075735
10.253787
12.419820
10.578632
11.949539
12.156963
11.591911
11.969805
11.876822
12.179613
12.660623
12.799501
12.517571
13.459921
13.630986
12.783408
14.107823
13.001561
14.425516
14.867783
16.090870
17.789602
18.585920
21.572709
24.879575
26.850700
31.162500
36.779642
36.236644
38.820505
38.518906
38.953424
36.938787
34.632683
30.942559
28.352737
25.649667
23.825765
22.384524
19.763708
17.985702
16.804934
17.144680
16.138554
15.291572
15.074611
15.116930
13.927817
14.446974
15.106797
14.773607
14.459491
##ZVALUE=225
115.442872
122.516751
145.388842
164.790750
165.240765
149.396658
129.573941
93.350410
73.023438
54.952502
41.963458
40.217638
38.213730
41.170716
37.586689
34.379959
27.810931
21.663904
16.758442
10.051727
7.950664
5.840659
5.671978
6.288886
5.658865
6.356835
6.098747
6.626844
6.642938
6.437898
7.667542
7.622838
8.078814
8.303523
8.690953
9.731650
9.477735
9.011626
9.152889
9.707808
9.250641
9.302497
10.628700
9.142756
9.507537
10.179877
11.037588
10.240674
10.927916
10.439754
10.758638
10.900497
12.294650
12.031794
11.820793
11.981726
12.815595
14.063716
13.754964
13.870597
14.630556
14.835596
15.551448
15.203953
15.480518
17.058849
18.687844
19.782782
22.735596
25.941730
29.445887
32.054782
34.816861
35.304427
34.260750
35.045743
34.398437
31.115413
28.963685
27.327538
23.915768
21.972656
22.359490
21.986961
20.322800
18.617511
18.844604
19.013882
18.614531
18.514991
17.811656
17.879605
18.116832
18.183589
17.906427
17.357469
##ZVALUE=230
83.838701
93.156695
148.369670
281.752944
286.002755
323.711634
334.270597
298.532844
214.920640
201.737881
143.751502
89.964867
73.152781
61.343908
61.976910
64.964890
65.885782
61.813593
51.955581
40.300488
30.663610
22.458434
12.836456
9.574890
7.120967
5.532503
6.330609
6.618500
6.609559
6.875992
7.539988
7.674694
7.024407
7.134676
8.490682
7.629991
8.105636
8.592606
8.705854
8.823872
8.495450
8.837581
9.147525
8.906722
9.873509
9.110570
9.619594
9.064674
10.107756
10.234714
10.363460
10.683537
11.556745
11.845827
12.713671
13.249516
13.476610
13.760924
13.967752
13.754964
15.538931
14.547706
15.026927
16.753674
17.193556
18.582940
20.075440
21.669865
24.396777
27.998686
31.097531
31.829476
33.630729
36.259890
36.172867
35.341978
33.684969
32.753944
30.962825
28.743744
26.636720
26.571751
24.885535
25.191903
22.194982
23.354888
23.069978
23.326874
23.720860
22.495985
22.307634
21.460652
21.576881
21.335483
21.631718
21.800995
##ZVALUE=235
21.054745
25.866628
54.673553
130.893588
209.339857
328.875780
413.502455
515.542626
539.921522
521.932840
438.931584
347.627997
226.416588
158.222914
108.013749
87.883472
83.041787
87.508559
91.723800
89.449883
80.678463
64.925551
51.646829
33.222437
23.420453
13.777614
9.733438
7.018447
6.214976
6.514788
6.665587
6.821752
6.704926
7.044673
7.369518
6.882548
7.031560
6.428957
6.964803
7.959604
6.824732
7.909536
7.847548
8.206964
7.852912
7.792711
7.822514
8.254647
8.345842
9.284616
8.674860
9.375811
9.871721
11.134744
11.245608
11.484623
11.772513
12.205839
13.214946
12.704730
14.430881
14.628768
15.402436
15.817881
17.245412
18.308759
19.412637
21.937490
24.603605
27.335882
28.744936
31.509995
32.592416
31.854510
34.009814
34.079552
34.896731
31.321645
30.831695
28.775930
28.954744
28.080940
27.351975
28.138757
27.213693
27.671456
25.534630
27.177930
26.273727
26.171803
25.396943
26.718974
26.402473
26.374459
26.041865
26.057959
##ZVALUE=240
1.875758
2.027750
7.541776
21.963716
64.329505
122.327805
243.903995
369.913578
538.911819
639.674664
710.187554
697.579980
626.267791
479.768515
359.050632
222.420692
155.041814
107.338428
90.461969
97.610950
104.201436
107.606649
101.229548
88.528991
69.253445
54.858923
37.657619
25.914907
15.747547
10.922551
7.302761
5.972981
6.330609
6.012917
5.500913
6.172657
6.612539
5.993843
5.808473
6.832480
6.719828
6.746650
6.558895
6.819963
6.622672
7.038713
6.923676
7.452965
7.645488
7.836819
7.685423
8.757710
8.210540
8.024573
9.130836
9.802580
9.682775
10.199547
10.362864
11.715889
11.853576
12.654662
13.352633
13.714433
15.032887
16.668439
17.654896
19.128919
21.482706
23.556948
26.242733
28.231740
28.895736
30.784607
31.534433
31.950474
31.186938
30.217767
30.232668
29.761791
28.638840
27.835965
27.942657
28.231740
27.498603
28.143525
26.939511
28.619766
28.620958
27.948618
27.344823
26.587844
28.367639
27.451515
27.359724
27.179718
##ZVALUE=245
1.330972
1.465678
1.176596
1.554489
3.581643
15.770793
41.451454
115.234852
209.320784
330.649018
535.782576
676.772594
797.099471
826.710463
755.327940
645.257831
465.095639
339.950919
229.507685
134.786963
98.442435
92.374682
99.710822
111.897588
113.825798
106.616616
94.442964
75.019002
58.991909
40.721893
28.079748
16.519427
11.437535
7.732511
6.240606
6.167889
6.276965
6.014705
5.775690
6.059408
6.038547
5.934834
5.921721
6.391406
6.232858
6.348491
6.526709
6.211996
6.682873
7.016659
6.973743
6.607771
7.430911
7.541776
7.576942
8.157492
7.865429
8.805990
8.620620
9.040833
9.527802
10.398626
10.552406
11.921525
12.678504
14.274716
15.093684
16.836524
18.513799
21.145940
22.083521
24.003983
25.602579
26.056767
27.908683
27.609468
27.624965
26.656985
27.210712
26.574731
25.886893
26.625991
26.118755
26.429892
26.620626
26.459694
27.090907
26.134849
26.874542
26.184916
26.241541
26.578903
26.619434
27.082562
26.299953
27.028918
##ZVALUE=250
1.425743
1.306534
1.533628
1.539588
1.408458
1.550913
2.372861
7.925630
35.031438
80.697536
199.616551
332.536697
487.766862
708.775520
839.419961
926.106572
909.387469
797.117949
661.291480
445.311666
296.900868
188.054442
106.159449
82.876682
89.449883
101.903677
112.940669
116.631985
112.254620
98.773837
85.353851
63.562989
45.862794
28.105974
18.180609
10.744929
7.935762
6.366968
5.892515
5.656481
6.033778
5.732775
6.005764
5.622506
6.058812
5.973577
6.114841
6.301999
6.339550
5.934834
6.444454
6.429553
6.331801
6.586909
7.182956
7.219911
7.071495
7.414818
7.597804
8.071661
8.480549
8.976460
9.073615
10.387897
10.909438
12.136698
12.696981
14.505982
15.679598
17.978549
19.121766
20.374656
21.959543
23.253560
23.523569
23.269653
22.669435
24.036765
23.430586
22.940636
23.532510
23.310781
23.435950
24.279952
23.203492
23.765564
23.913980
24.140477
24.387836
24.101734
24.230480
23.378730
24.237633
24.292469
24.374723
24.021864
##ZVALUE=255
1.249909
1.277924
1.368523
1.471639
1.328588
1.308918
1.364946
1.577735
1.791716
4.205704
22.374988
58.341622
121.266842
267.792940
427.096486
666.134953
829.417706
991.722941
1015.838981
966.911912
823.063850
651.369691
397.814512
250.833631
129.500628
87.089539
73.982477
83.794594
101.960897
112.907887
118.435621
116.872787
105.709434
84.015727
66.024661
43.095946
30.776858
17.261505
11.233687
7.424951
6.054640
5.849600
5.765557
5.604625
5.623698
6.027818
6.164908
6.103516
6.142855
6.046891
5.597472
5.942583
6.312728
6.276965
6.441474
6.732941
6.663799
6.781816
6.800890
7.142425
7.427931
7.749796
8.019805
8.475780
9.179711
10.073781
11.076927
12.717843
13.731718
14.650822
16.019940
17.051697
18.658638
18.920898
19.568801
20.268559
19.526482
20.292997
20.105839
19.930601
20.863414
20.100474
20.945668
20.497441
21.544695
21.520853
22.205710
21.878481
21.525621
21.772981
22.069812
22.169948
22.126436
22.752881
22.759438
22.583604
##ZVALUE=260
0.965595
1.031756
1.089573
1.278520
1.106858
1.310706
1.315475
1.313686
1.598597
1.468658
1.700521
2.325773
7.603765
37.250519
88.347793
218.188763
360.170603
602.406859
796.415806
1013.615727
1015.782952
1015.782952
988.786817
810.505748
529.661775
358.156562
200.606585
120.462775
71.828961
66.628456
77.200532
99.895000
112.506747
121.471882
119.777918
105.820894
89.508891
66.496730
47.854781
29.314756
19.639730
11.392832
8.173585
6.186962
6.313920
5.751848
6.105900
6.016493
5.750656
6.091595
6.261468
6.251931
6.424785
6.317496
6.430745
6.522536
6.267428
6.506443
6.772876
6.851554
7.263422
7.427931
7.887483
8.079410
8.825660
9.138584
10.023713
11.451840
12.174845
13.625622
15.014410
15.443563
16.694665
16.764998
17.759800
18.037558
17.871857
18.007755
17.984509
17.835498
18.343925
18.525720
18.934608
19.386411
19.217730
19.348860
19.981861
19.821525
19.211769
20.195842
19.908547
20.501614
20.030737
20.328760
20.967722
21.167994
##ZVALUE=265
0.981688
1.049638
1.028776
1.181960
1.064539
1.011491
1.004934
1.253486
1.252890
1.458526
1.361966
1.492500
1.667738
2.048612
3.908873
21.653771
57.142973
156.378746
285.698771
558.862686
805.446506
1009.109616
1015.788913
1015.788913
1015.788913
988.394618
715.717673
501.809716
274.217725
161.281824
93.491673
57.856441
62.733889
84.866881
102.078915
118.137598
123.605728
120.135546
107.876658
85.445642
67.629814
45.938492
31.656623
18.548965
12.138486
7.787943
6.545782
6.083846
6.207824
6.274581
6.347895
6.860495
6.280541
6.518960
6.639957
6.853938
6.640553
6.665587
6.393790
7.127523
7.172823
7.270575
7.359982
8.249879
8.251667
9.049773
9.345412
10.490417
11.992455
12.479424
13.820529
14.566779
15.305877
15.686750
16.110539
16.404986
16.205907
16.574860
16.131997
16.092658
16.817451
17.103553
17.315745
17.024875
17.664433
18.050671
18.316507
18.131733
18.977523
18.918514
18.773675
18.342733
19.089580
19.159913
19.167662
19.467473
##ZVALUE=270
0.997782
0.924468
1.069903
0.967979
0.796914
1.174808
1.101494
1.086593
1.204610
1.368523
1.251698
1.398921
1.390576
1.625419
1.513958
1.800656
2.160668
9.558797
29.883981
104.462504
217.741728
392.060876
713.138580
974.846482
1015.798450
1015.798450
1015.798450
1015.798450
938.827991
699.273944
484.095812
242.352486
133.735538
60.388446
47.857761
62.236786
81.089735
101.891756
114.348531
123.774409
120.405555
105.451941
90.440512
68.105459
49.682856
30.272603
20.560622
12.911558
9.336472
7.083416
6.508827
6.279945
6.268620
6.391406
6.513000
6.853938
7.010698
7.015467
7.127523
7.439852
7.185936
7.809997
7.993579
8.327961
8.343458
9.329915
9.516478
10.374784
11.126995
12.352467
13.274550
14.091730
14.526844
15.021563
14.806986
15.250444
15.748739
15.605688
15.500784
15.310645
15.679598
15.953779
16.000867
16.405582
17.044544
16.721487
16.802549
16.596913
17.229915
16.736984
17.248988
17.980933
17.951727
17.896891
18.187761
18.349886
##ZVALUE=275
0.842810
0.890493
0.898838
1.023412
0.896454
0.928640
0.936985
1.037717
0.916719
1.050830
1.087785
1.177788
1.292825
1.262426
1.176596
1.418591
1.570582
1.667738
1.794696
4.507899
17.936826
55.527687
171.172619
330.923796
642.770529
888.967514
1015.765667
1015.765667
1015.765667
1015.765667
1015.765667
919.174552
645.782948
339.437723
188.126564
77.590942
44.510961
43.803453
57.023764
79.537630
95.971823
113.747716
120.009780
117.199421
108.402967
86.513758
70.781708
50.238967
35.232902
21.821856
14.552474
9.376407
7.695556
7.227659
7.176995
7.124543
7.097721
7.013679
7.227659
7.652640
7.770658
7.802844
8.012652
8.497834
8.824468
9.306669
10.023713
10.418892
11.147857
12.492537
13.051629
13.698936
14.521480
14.595985
15.186667
14.975667
14.991760
14.653802
14.874935
15.213490
15.356541
15.222430
15.159845
15.707612
15.854836
16.202927
15.982985
16.562939
16.690493
16.494989
16.179681
16.317964
17.082691
16.810894
17.086864
16.981959
##ZVALUE=280
0.887513
0.945926
0.883937
0.992417
0.924468
0.750422
0.897646
1.020432
0.945926
1.023412
1.015663
1.109838
1.078844
1.062751
1.252890
1.403689
1.361966
1.334548
1.520514
1.698732
1.843572
2.675653
9.295940
48.675537
122.974515
300.456882
493.561625
831.387639
1015.794873
1015.794873
1015.794873
1015.794873
1015.794873
1015.794873
813.676715
473.029613
271.173716
111.284852
54.724813
32.736659
38.940907
57.831407
75.319409
97.010732
110.168457
117.685795
115.965605
104.979873
89.262724
68.462491
51.817894
33.042431
23.281574
13.841987
10.488629
7.848740
7.487535
7.768869
7.731915
7.827878
7.928610
8.337498
8.677840
8.654594
9.140968
9.512901
10.030866
10.674596
11.331439
12.365580
12.577772
13.695955
13.970733
14.353991
14.859438
14.830828
14.577508
14.686584
14.814734
14.767647
15.016794
15.566945
15.320778
15.366673
15.748739
15.725493
16.006827
16.168952
16.043782
16.347766
15.989542
16.123652
16.457438
15.983582
16.102791
16.632676
##ZVALUE=285
0.832677
0.840425
0.932813
1.035929
0.761747
0.899434
0.905991
0.913739
0.947714
0.861883
0.926852
1.032948
1.036525
0.990629
1.064539
1.250505
1.449585
1.199841
1.256466
1.297593
1.535416
1.632571
1.851916
2.310872
5.360842
19.854903
77.881813
171.339512
387.304425
633.924603
924.041867
1015.794873
1015.794873
1015.794873
1015.794873
1015.794873
1015.794873
702.487826
442.970395
203.900933
99.406838
36.112666
26.323795
37.454963
51.987767
74.087977
90.184808
106.303692
113.015771
113.249421
106.985569
90.024471
73.958635
52.006841
37.459731
22.652745
16.106963
10.881424
9.147525
8.663535
8.448958
8.582473
8.621812
8.838773
9.894967
10.032654
10.155439
10.961890
11.665821
12.566447
13.385415
14.051795
14.198422
14.675856
14.632940
14.851689
14.587641
15.073419
14.457703
14.658570
14.835000
14.888644
15.446544
15.609860
15.753508
16.359687
15.994906
15.704632
16.001463
15.942454
16.453862
15.925765
15.788674
15.936494
16.167760
15.599728
##ZVALUE=290
0.793934
0.754595
0.779629
0.842810
0.805855
0.802875
0.921488
0.806451
0.923872
0.992417
0.923872
1.026988
1.043677
1.111627
1.062751
1.090765
1.294613
1.368523
1.123548
1.449585
1.306534
1.471639
1.582503
1.658797
1.933575
2.153516
2.683401
7.884502
42.881966
105.282664
217.801929
485.589504
778.931975
1015.794873
1015.794873
1015.794873
1015.794873
1015.794873
1015.794873
929.567814
619.320869
309.377909
156.172514
53.473711
24.941564
23.930669
33.282638
49.831867
65.452456
86.519718
99.950433
111.086965
111.421943
103.582740
91.025829
70.044994
53.258538
35.941601
25.533438
16.433001
12.157559
9.766817
9.139776
9.430647
9.549856
10.079741
10.461807
11.248589
11.681914
12.768507
13.651848
13.898611
14.537573
14.704466
15.080571
14.669895
14.798641
15.071630
14.840961
15.040636
15.058517
15.231967
15.295744
15.492439
15.826821
15.874505
15.996695
15.901923
16.176701
16.317964
16.351938
15.484691
15.588999
16.065836
15.605688
15.900731
##ZVALUE=295
0.694990
0.694990
0.899434
0.972748
0.878572
0.945926
0.950694
0.812411
0.759959
0.949502
1.011491
0.928640
0.821948
1.040697
1.058578
0.892878
0.916719
0.937581
1.166463
1.344681
1.253486
1.254678
1.499653
1.494884
1.594424
1.631975
1.705885
1.882911
2.370477
3.395677
13.041496
64.649582
161.692500
405.091047
679.045916
1015.794873
1015.794873
1015.794873
1015.794873
1015.794873
1015.794873
1015.794873
840.575695
450.809002
241.505504
82.599521
35.093427
17.248988
20.577908
31.633973
43.614507
63.077807
77.822804
95.914602
104.215741
105.762482
100.226998
86.226463
72.192550
52.125454
38.538575
24.918914
18.209815
13.081431
11.122823
10.403991
10.584593
11.330843
11.731982
12.708902
13.432503
14.025569
14.340878
14.676452
14.878511
14.877915
14.824867
14.897585
15.097857
15.470982
15.634894
16.008615
16.030669
15.978813
16.131997
16.112924
16.022921
16.077757
16.109943
16.456842
16.062856
15.784502
15.898943
15.905499
15.701652
15.062690
##ZVALUE=300
0.800490
0.839829
0.685453
0.612736
0.815988
0.649691
0.728965
0.794530
0.724792
0.775456
0.823736
0.890493
0.987649
0.821948
0.971556
0.980496
1.009703
0.914931
0.961423
1.124740
0.948906
1.173615
1.250505
1.146793
1.293421
1.480579
1.757741
1.591444
1.745820
2.049804
2.081990
2.445579
8.100867
31.577945
119.471550
253.301859
563.886762
896.821022
1015.794873
1015.794873
1015.794873
1015.794873
1015.794873
1015.794873
990.744829
683.296919
345.835686
182.448626
62.542558
23.397803
14.046431
18.399954
28.636456
39.268732
57.161450
72.117448
90.800524
99.494457
102.266669
98.261833
85.349679
72.124600
54.032803
40.960908
26.923418
19.635558
14.683604
13.045669
12.529492
12.804866
13.443828
13.910532
14.413595
14.505982
14.984608
14.926791
15.112758
15.169978
15.509725
15.916824
15.545487
16.152859
16.066432
16.197562
16.802549
16.596913
16.544461
16.273856
16.239882
15.857816
16.351938
16.103983
15.633702
15.842915
15.895963
16.395450
##ZVALUE=305
0.988841
0.745654
0.742674
0.788569
0.825524
0.861883
0.874996
0.788569
0.796914
0.861883
0.776649
0.813603
0.903606
0.887513
0.894666
0.934601
1.018643
0.918508
0.920892
1.078844
1.172423
1.117587
1.173615
1.212955
1.248717
1.407862
1.307726
1.322627
1.500845
1.586676
1.670718
1.964569
2.370477
2.528429
3.503561
19.893646
63.088536
208.059549
402.243733
813.192725
1015.794873
1015.794873
1015.794873
1015.794873
1015.794873
1015.794873
1015.794873
876.942873
547.664762
250.157714
116.146803
34.600496
14.803410
13.392568
17.579794
27.722716
37.914515
55.255890
69.062710
85.597634
94.998479
98.204613
93.948841
82.651973
70.805550
53.078532
40.098429
27.605891
21.342635
16.580820
14.957786
14.400482
14.900565
14.689565
14.901757
14.802814
15.034676
15.640855
15.820861
15.636683
16.139746
16.252995
16.629696
16.811490
16.981959
16.590953
16.835928
16.584992
16.669631
16.454458
16.586781
16.268492
16.363859
16.345978
16.080737
15.866756
##ZVALUE=310
0.709891
0.890493
0.677705
0.583529
0.844598
0.695586
0.727773
0.667572
0.843406
0.652671
0.883937
0.842810
0.857711
0.778437
0.743866
0.967979
0.902414
0.794530
1.004934
0.886917
0.859499
1.103878
1.170635
1.115799
1.194477
1.226664
1.187921
1.422763
1.428723
1.464486
1.380444
1.453757
1.801848
1.868606
2.117753
2.151728
2.591610
8.270741
30.139685
116.942525
253.583789
578.219891
951.249599
1015.794873
1015.794873
1015.794873
1015.794873
1015.794873
1015.794873
1015.794873
850.671530
428.118706
220.024586
71.029663
24.998784
11.171699
12.142658
16.654730
23.055673
35.541654
46.815872
65.020919
77.084899
88.933706
93.301535
90.555549
83.125830
70.005655
56.421757
41.311979
31.806827
23.412704
18.881559
16.170740
15.308857
15.232563
15.054941
14.882684
15.181899
15.722513
15.898943
16.310811
16.557574
16.779900
16.783476
16.981959
16.628504
16.917586
16.899705
16.793609
16.629696
16.821623
16.340613
15.954971
16.224980
15.739799
##ZVALUE=315
0.663996
0.686646
0.718832
0.671744
0.785589
0.711679
0.838637
0.723600
0.707507
0.800490
0.781417
0.675917
0.612736
0.795722
0.797510
0.773668
0.783801
0.949502
1.010895
0.901818
0.914931
0.949502
1.014471
0.883937
1.047850
1.130700
1.269579
1.156926
1.152754
1.270771
1.276731
1.314878
1.517534
1.693964
1.448989
1.850724
2.012849
2.106428
2.587438
4.029870
14.738441
69.824457
168.009996
422.535539
740.645528
1015.794873
1015.794873
1015.794873
1015.794873
1015.794873
1015.794873
1015.794873
1015.794873
597.378016
324.718952
110.089779
39.780736
12.494922
10.406971
11.974573
15.164614
22.771955
31.332970
45.897961
58.865547
75.451732
84.291697
90.337992
88.700652
79.113841
69.513917
54.945946
43.146610
30.665994
23.835897
19.059777
16.775727
15.550852
15.493631
15.820861
15.786886
16.096830
16.513467
16.657710
16.792417
17.044544
16.764998
17.073750
16.958714
16.890764
16.872883
16.727448
16.128421
16.241670
16.188622
16.398430
##ZVALUE=320
0.656843
0.679493
0.785589
0.678897
0.710487
0.869632
0.822544
0.701547
0.804663
0.840425
0.842810
0.830889
0.751615
0.706911
0.668764
0.844598
0.718832
0.819564
0.904799
0.862479
0.958443
0.983477
0.949502
0.794530
0.833869
0.981688
1.045465
1.077652
1.158714
1.316667
1.239777
1.208782
1.257658
1.297593
1.356602
1.665950
1.577735
1.819730
1.812577
2.094507
2.231598
2.900958
7.431507
43.537617
117.864609
337.044597
601.273775
1015.797853
1015.797853
1015.797853
1015.797853
1015.797853
1015.797853
1015.797853
1015.797853
822.219849
469.902754
183.584690
77.889562
20.435452
10.771751
10.399818
11.546612
14.870763
19.947886
30.938983
41.442513
56.584477
69.143772
81.676841
86.399913
85.416436
79.512000
65.906644
54.888725
41.010976
32.143593
23.468733
20.015836
16.922951
16.285777
16.284585
16.178489
16.513467
16.427636
16.477704
16.898513
16.762614
16.493797
16.536713
16.696453
16.326904
16.238689
16.354918
16.174912
15.984774
##ZVALUE=325
0.670552
0.631809
0.556707
0.528693
0.624657
0.495911
0.831485
0.645518
0.603795
0.777841
0.775456
0.799894
0.675917
0.693798
0.855923
0.837445
0.599623
0.910759
0.740886
0.924468
0.857711
0.910759
0.993609
0.936985
1.019835
0.877976
1.095533
0.929832
1.046658
1.179576
1.146793
1.047850
1.135468
1.222491
1.302958
1.258850
1.362562
1.548529
1.613498
1.830459
1.814961
2.101660
2.139807
2.604723
3.977418
23.559928
69.268942
207.700729
407.372713
846.929550
1015.794873
1015.794873
1015.794873
1015.794873
1015.794873
1015.794873
1015.794873
1007.412672
663.346648
288.229585
130.160451
33.714771
13.161898
9.901524
10.083914
11.953712
14.602542
21.245480
29.306412
43.558478
54.670572
68.779588
77.979565
82.771778
81.379414
73.477626
64.005852
50.827861
40.478706
29.650927
23.834705
19.267797
17.493963
16.913414
16.335845
16.116500
16.537905
16.475916
16.291738
16.571879
16.385913
16.081929
16.104579
15.782714
15.722513
15.866756
##ZVALUE=330
0.631809
0.662804
0.586510
0.687838
0.761747
0.665784
0.667572
0.478625
0.739694
0.751615
0.837445
0.645518
0.592470
0.615716
0.796914
0.759959
0.788569
0.764728
0.721812
0.843406
0.690818
0.766516
0.815988
1.028776
0.753999
0.799894
0.955462
0.849962
0.933409
0.948906
1.030564
1.003742
1.015663
1.022816
1.113415
1.189709
1.277924
1.394749
1.241565
1.552701
1.567602
1.495481
1.719594
1.959801
2.012849
2.203584
2.830625
9.808540
33.967495
129.687786
274.243951
610.297918
961.862803
1015.794873
1015.794873
1015.794873
1015.794873
1015.794873
1015.794873
1015.794873
811.915994
385.149717
193.755627
62.475801
21.654963
10.348558
9.802580
10.711551
11.946559
15.556812
20.527840
29.597878
38.845539
53.523779
63.684583
74.625611
77.662468
76.526999
71.161985
60.132742
50.805807
38.174987
30.792952
23.528934
20.412803
18.045902
16.720891
16.159415
16.201735
15.907884
15.614629
15.517473
15.759468
15.608668
15.259981
15.338659
##ZVALUE=335
0.636578
0.653863
0.600815
0.529885
0.612736
0.656843
0.496507
0.608563
0.670552
0.593662
0.588894
0.669956
0.662804
0.596642
0.789762
0.681877
0.631809
0.838637
0.761747
0.722408
0.716448
0.590682
0.732541
0.683665
0.894666
0.879765
1.060963
0.849962
0.885725
0.955462
0.925660
0.861883
0.852942
0.897646
1.122952
0.949502
1.126528
1.000762
1.266599
1.280904
1.160502
1.327991
1.473427
1.530647
1.758933
1.908541
2.006888
2.249479
2.451539
4.532933
16.579628
78.746676
182.914734
455.283523
788.635612
1015.791893
1015.791893
1015.791893
1015.791893
1015.791893
1015.791893
1015.791893
983.555913
543.278456
283.666849
91.368556
32.913685
12.019873
10.293722
10.648966
11.291504
12.817979
14.891624
21.187663
27.475953
39.123893
48.922896
60.774684
68.402886
74.194670
72.563887
66.362619
59.024692
48.757792
40.449500
30.894876
24.473667
19.922853
17.596483
16.143918
15.702844
15.063882
14.990568
15.135407
15.016794
14.624596
##ZVALUE=340
0.675917
0.510812
0.564456
0.594854
0.781417
0.773668
0.647902
0.490546
0.580549
0.693798
0.658631
0.719428
0.587702
0.668764
0.643730
0.651479
0.764728
0.728965
0.799894
0.727773
0.736713
0.324845
0.693798
0.582933
0.787973
0.685453
0.800490
0.851750
0.657439
0.660419
0.819564
0.853539
0.813603
0.944734
0.987649
1.011491
1.061559
1.017451
1.183748
1.039505
1.153946
1.261830
1.349449
1.382828
1.487732
1.492500
1.617670
1.823902
1.843572
2.039671
2.500415
2.979636
10.981560
40.243864
151.144862
323.509574
721.936822
1015.790701
1015.790701
1015.790701
1015.790701
1015.790701
1015.790701
1015.790701
1015.790701
744.728446
353.505015
170.072913
43.569803
15.743971
10.900497
10.776520
10.973811
11.465549
12.796521
14.761686
20.042658
26.406646
37.397742
46.764612
58.933496
65.317750
69.735646
69.727898
64.475536
57.310462
47.325492
39.188862
29.464960
23.657680
19.037724
16.545653
15.178919
14.633536
14.468431
13.928413
##ZVALUE=345
0.635982
0.621676
0.493526
0.669956
0.689626
0.441670
0.647902
0.597835
0.697970
0.624657
0.566840
0.468493
0.600815
0.622869
0.500679
0.680685
0.680685
0.733733
0.674725
0.597835
0.654459
0.606775
0.710487
0.825524
0.791550
0.769496
0.676513
0.742674
0.902414
0.928640
0.776649
0.840425
0.926852
0.911951
0.881553
0.862479
0.989437
1.033545
1.072884
1.084805
0.982881
1.133680
1.169443
1.166463
1.237988
1.187921
1.283884
1.387596
1.652837
1.750588
1.817942
2.082586
2.252460
2.538562
4.961491
20.164847
103.819966
238.962770
570.196509
926.929712
1015.794873
1015.794873
1015.794873
1015.794873
1015.794873
1015.794873
1015.794873
944.993496
454.796553
222.131014
67.534447
25.683641
12.141466
11.428595
11.028647
10.864735
10.952950
12.064576
14.379621
18.207431
25.973916
33.517480
43.347478
51.740408
60.346723
63.522458
64.149499
61.258674
53.702593
46.652555
36.341548
29.482841
22.589564
18.888712
15.847683
14.635921
##ZVALUE=350
0.642538
0.566840
0.806451
0.588894
0.647902
0.641942
0.614524
0.611544
0.712872
0.654459
0.681877
0.755787
0.624657
0.668764
0.655651
0.667572
0.760555
0.613928
0.630617
0.672936
0.849962
0.609756
0.644922
0.922680
0.668764
0.829697
0.834465
0.766516
0.902414
0.901818
0.810623
0.926852
0.878572
0.766516
0.892878
0.982881
0.860691
0.969768
0.946522
1.050830
1.087785
1.021624
1.161695
1.204610
1.105666
1.359582
1.368523
1.322627
1.452565
1.387596
1.663566
1.821518
1.899600
1.981854
2.232790
2.489686
3.236532
9.132624
51.372647
134.944916
382.232666
695.039034
1015.794873
1015.794873
1015.794873
1015.794873
1015.794873
1015.794873
1015.794873
1015.794873
594.759583
323.273540
109.923482
40.654540
13.988614
10.638833
10.257959
10.098815
10.112524
10.478497
11.868477
13.643503
17.981529
22.580624
30.614734
37.871599
47.651529
53.527951
58.883429
59.715509
56.801438
51.471591
42.717457
35.505891
27.300715
22.558570
##ZVALUE=355
0.701547
0.556707
0.681877
0.569820
0.576973
0.580549
0.553727
0.792742
0.636578
0.655651
0.599623
0.599623
0.527501
0.615716
0.747442
0.719428
0.722408
0.683665
0.751615
0.837445
0.734925
0.679493
0.715852
0.704527
0.826716
0.879765
0.802875
0.767708
0.791550
0.911951
0.956655
0.897646
0.973940
0.793934
0.934601
1.045465
1.030564
0.892878
1.072884
1.083612
0.958443
0.954866
0.987649
1.134872
1.149774
0.999570
1.139641
1.131892
1.429915
1.415610
1.600981
1.654625
1.833439
1.720786
1.700521
1.900792
2.222657
2.384782
2.789497
5.737543
20.956993
98.545551
230.447650
564.135909
960.077643
1015.759706
1015.759706
1015.759706
1015.759706
1015.759706
1015.759706
1015.759706
846.867561
379.471779
178.491473
49.158931
17.816424
10.313988
9.830594
9.779930
9.569526
9.931922
10.072589
11.190772
12.812614
15.955567
19.927621
26.697516
33.042431
41.528940
47.949553
53.250790
54.598451
51.879883
47.950745
40.862560
##ZVALUE=360
0.678897
0.610948
0.719428
0.758767
0.656843
0.558496
0.765920
0.654459
0.638962
0.723600
0.621676
0.661612
0.872612
0.666976
0.749826
0.684857
0.782609
0.671744
0.755787
0.618696
0.752807
0.735521
0.733733
0.828505
0.780821
0.769496
0.865459
0.738502
0.960827
0.840425
0.762939
0.975728
0.776649
0.938773
0.895858
1.019835
0.903606
0.962615
1.050830
0.985861
1.019835
1.148582
1.196861
1.118779
1.130700
1.157522
1.240969
1.343489
1.322627
1.457930
1.450777
1.594424
1.335740
1.695752
1.806617
1.805425
2.024770
1.956820
2.376437
2.578497
2.996922
3.776550
8.852482
46.835542
131.223798
380.416512
687.303543
1015.793681
1015.793681
1015.793681
1015.793681
1015.793681
1015.793681
1015.793681
994.018912
523.485541
273.685455
95.977783
33.745766
11.369586
9.638667
9.346604
9.170771
9.191632
9.330511
9.350777
10.002851
11.376739
13.259649
17.211437
21.959543
29.520988
35.319924
42.843819
47.194958
49.580932
##ZVALUE=365
0.630617
0.742674
0.724792
0.695586
0.598431
0.701547
0.760555
0.767708
0.699759
0.722408
0.768900
0.755787
0.782609
0.720620
0.838637
0.767708
0.919700
0.784993
0.695586
0.793934
0.815988
0.789762
0.724792
0.758767
0.857711
0.901818
0.811815
0.909567
0.747442
0.816584
0.774860
0.792742
0.849962
0.922680
0.927448
0.909567
0.909567
0.980496
0.838637
1.061559
0.851750
1.083612
1.153946
1.069903
1.087785
1.172423
1.166463
1.246929
1.138449
1.323819
1.434684
1.268983
1.351833
1.545548
1.438856
1.562834
1.673698
1.855493
1.808405
1.959801
2.192855
2.457500
2.613664
3.000498
4.619956
23.026466
72.580576
225.178599
461.099744
950.956941
1015.814543
1015.814543
1015.814543
1015.814543
1015.814543
1015.814543
1015.814543
726.692677
397.183895
140.570998
51.676631
13.014674
9.295940
8.872747
8.479953
8.344650
8.581877
8.362532
8.494854
8.899570
9.493828
11.727810
14.304519
19.569993
24.351478
31.229854
##ZVALUE=370
0.468493
0.585914
0.663996
0.687838
0.593662
0.575781
0.679493
0.685453
0.591874
0.531673
0.627637
0.719428
0.582933
0.643730
0.635982
0.552535
0.629425
0.588894
0.730753
0.669956
0.827909
0.697970
0.713468
0.628829
0.713468
0.743866
0.789762
0.614524
0.804663
0.839829
0.762939
0.718832
0.802875
0.656843
0.814795
0.862479
0.860691
0.870824
0.874996
0.814795
0.801682
0.912547
0.823736
0.948906
0.943542
1.027584
1.137853
0.953674
1.032948
1.126528
1.005530
1.222491
1.199841
1.243949
1.255870
1.185536
1.361966
1.331568
1.427531
1.622438
1.433492
1.785755
1.833439
2.046824
2.196431
2.723932
3.032684
11.477470
40.655732
153.870583
326.424837
710.479617
1015.794873
1015.794873
1015.794873
1015.794873
1015.794873
1015.794873
1015.794873
917.518735
534.040928
208.777785
88.599920
21.478534
9.784698
8.281469
7.772446
7.708669
7.538795
7.502437
7.427931
7.767677
8.002520
8.771420
10.184646
12.615919
##ZVALUE=375
0.558496
0.506639
0.603795
0.557899
0.520945
0.638962
0.519753
0.454783
0.701547
0.523925
0.565648
0.608563
0.505447
0.731945
0.544786
0.811815
0.661612
0.590682
0.492930
0.648499
0.684857
0.658631
0.647902
0.727773
0.661612
0.582933
0.663996
0.658631
0.730753
0.650883
0.829697
0.701547
0.695586
0.633597
0.622869
0.707507
0.830889
0.770688
0.656843
0.673532
0.810623
0.836849
0.766516
0.801682
0.831485
0.740886
0.916719
0.865459
0.794530
1.040697
0.956655
0.883937
1.088977
1.007915
0.979900
1.004934
1.026988
1.235604
1.292825
1.368523
1.256466
1.445413
1.485944
1.545548
1.621842
1.956820
2.194643
2.620816
2.913475
6.036758
19.876957
82.644820
203.045011
523.071885
884.475708
1015.794873
1015.794873
1015.794873
1015.794873
1015.794873
1015.794873
1015.794873
743.253827
383.220911
193.291903
55.601001
17.413497
7.791519
7.191896
6.974936
7.004738
6.981492
6.919503
6.775856
6.702542
7.406473
##ZVALUE=380
0.503659
0.471473
0.529885
0.612736
0.436902
0.532866
0.669956
0.470877
0.490546
0.501871
0.531673
0.510812
0.595450
0.450611
0.397563
0.680685
0.465512
0.541806
0.600815
0.631809
0.686646
0.544786
0.420809
0.521541
0.542998
0.479817
0.513792
0.583529
0.499487
0.550747
0.627637
0.555515
0.579953
0.553727
0.680685
0.730753
0.753999
0.654459
0.669956
0.690818
0.826716
0.733733
0.681877
0.608563
0.727773
0.755787
0.756979
0.770688
0.691414
0.658631
0.679493
0.815988
0.985861
0.837445
0.884533
0.960827
0.857711
1.045465
1.020432
1.038909
1.162887
1.203418
1.252890
1.333952
1.360774
1.707673
1.718998
2.022982
2.254844
2.703667
2.867579
4.074574
10.557771
57.041645
149.793625
399.921536
701.937675
1015.794873
1015.794873
1015.794873
1015.794873
1015.794873
1015.794873
1015.794873
959.333777
502.325892
263.506770
88.633895
31.340718
9.241700
6.791949
6.389618
6.384850
6.256700
6.266832
6.107688
##ZVALUE=385
0.483990
0.486970
0.433922
0.559688
0.583529
0.499487
0.454783
0.619888
0.610948
0.448823
0.481606
0.738502
0.542998
0.454783
0.543594
0.363588
0.549555
0.432730
0.389814
0.582933
0.515580
0.374913
0.526905
0.814795
0.612736
0.456572
0.605583
0.509620
0.541806
0.628829
0.535846
0.605583
0.576973
0.621676
0.524521
0.584722
0.672936
0.660419
0.674725
0.704527
0.841618
0.723600
0.676513
0.581741
0.738502
0.793934
0.760555
0.640750
0.811815
0.717640
0.797510
0.734925
0.621676
0.910759
0.947714
0.836849
0.789762
1.060963
0.978708
0.914931
0.881553
1.074672
1.047850
1.102686
1.291633
1.434684
1.360774
1.830459
1.933575
2.009869
2.291799
2.245903
2.448559
2.738833
4.900694
29.590726
87.264776
253.552794
493.271947
955.333710
1015.794873
1015.794873
1015.794873
1015.794873
1015.794873
1015.794873
1015.794873
706.930757
415.881872
169.978738
64.808726
13.644695
6.778836
5.936623
5.699992
5.694628
##ZVALUE=390
0.581741
0.557899
0.461936
0.459552
0.467896
0.509620
0.591874
0.519753
0.554919
0.528693
0.554919
0.604987
0.534654
0.538826
0.556707
0.684857
0.615716
0.716448
0.456572
0.703931
0.573993
0.460744
0.690818
0.646710
0.642538
0.405908
0.587702
0.486970
0.575781
0.618696
0.725985
0.631809
0.633597
0.521541
0.609756
0.710487
0.738502
0.691414
0.609756
0.721812
0.775456
0.667572
0.660419
0.586510
0.754595
0.812411
0.645518
0.722408
0.774860
0.682473
0.812411
0.709891
0.803471
0.703931
0.826716
0.826716
0.808835
0.835657
0.904799
0.857711
0.983477
0.973940
1.092553
1.066923
1.208782
1.364946
1.617670
1.782775
1.926422
1.982450
2.152920
2.075434
2.175570
2.135634
2.330542
2.307892
2.987981
13.604760
50.288439
183.912516
378.539562
789.296627
1015.854478
1015.854478
1015.854478
1015.854478
1015.854478
1015.854478
1015.854478
925.753713
563.937426
238.031745
106.218457
25.172830
8.510947
5.775690
##ZVALUE=395
0.492930
0.481606
0.289679
0.522733
0.283718
0.497699
0.380874
0.467896
0.434518
0.595450
0.424981
0.531673
0.430942
0.508428
0.562668
0.461936
0.452995
0.515580
0.470877
0.495911
0.389814
0.565648
0.657439
0.611544
0.524521
0.578761
0.490546
0.500679
0.561476
0.516772
0.612736
0.504851
0.667572
0.513792
0.547767
0.382662
0.601411
0.465512
0.692606
0.587702
0.617504
0.684857
0.619888
0.620484
0.687838
0.650883
0.670552
0.826716
0.616908
0.608563
0.712872
0.699759
0.682473
0.738502
0.713468
0.855923
0.784993
0.796914
0.905991
0.998974
0.958443
1.044869
1.012683
1.212955
1.128912
1.335740
1.437664
1.524687
1.592636
1.724958
1.673698
1.820922
1.670718
1.792908
1.793504
1.927614
1.972914
2.024770
2.413988
7.342696
30.561686
128.802657
274.982452
591.960549
927.817822
1015.794873
1015.794873
1015.794873
1015.794873
1015.794873
1015.794873
1015.794873
746.628642
365.269780
177.763700
52.948594
##ZVALUE=400
0.355840
0.476837
0.428557
0.505447
0.393987
0.446439
0.408888
0.419617
0.310540
0.488758
0.364780
0.339746
0.639558
0.439882
0.342727
0.317693
0.468493
0.347495
0.461936
0.343919
0.460744
0.518560
0.432730
0.390410
0.596642
0.429749
0.537634
0.526905
0.526905
0.390410
0.399947
0.605583
0.623465
0.539422
0.445843
0.510812
0.527501
0.474453
0.628829
0.677705
0.430942
0.547767
0.524521
0.600815
0.606775
0.526905
0.627637
0.668764
0.671744
0.644922
0.772476
0.570416
0.599623
0.704527
0.706911
0.709891
0.715852
0.629425
0.684857
0.871420
0.936985
0.886917
1.023412
1.088977
1.166463
1.033545
1.446605
1.490712
1.641512
1.739860
1.562834
1.548529
1.472831
1.600981
1.341701
1.521707
1.699924
1.642704
1.811981
2.029538
2.397895
4.034638
14.466643
70.747733
170.166492
416.484475
710.229874
1015.745997
1015.745997
1015.745997
1015.745997
1015.745997
1015.745997
1015.745997
867.137909
463.911891
##END
