##TITLE=QP00602
##FORMAT=SPECTACLE-ASCII V-1.2
##DATA TYPE=ULTRAVIOLET SPECTRUM
##SECOND TYPE=ULTRAVIOLET SPECTRUM
##DATE=05/24/18
##TIME=17:11:58
##SPECTROMETER/DATA SYSTEM=SPECTACLE
##XUNITS=NM EM
##YUNITS=ENERGY
##YFACTOR=1
##FIRSTX=220
##LASTX=410
##NPOINTS=96
##3DDATA=Equidistant
##ZUNITS=NM EX
##FIRSTZ=210
##LASTZ=400
##ZPOINTS=39
##XYDATA=(Y..Y)
##ZVALUE=210
7.026792
6.157756
5.298853
5.361438
5.176663
5.227923
5.240440
5.313754
5.390644
5.451441
5.172491
5.064607
4.746914
5.672574
6.545782
6.551743
7.275939
6.257892
7.615685
8.645654
8.484721
8.861423
9.815693
10.135770
11.499524
11.699796
12.215972
12.503862
12.769699
12.434721
14.499426
13.713837
13.573766
14.870763
14.752746
14.898777
14.672875
16.027689
15.959740
19.027591
17.930865
17.458797
17.568469
18.531680
18.413663
20.048618
20.312667
20.554662
19.741654
21.546483
21.466613
23.313761
24.255514
23.417473
23.742914
25.216937
26.320815
26.531816
24.799705
25.721788
25.997758
28.401613
28.621554
30.424595
32.656789
36.308765
41.453838
52.794814
64.276457
76.598525
88.720918
99.226832
103.168488
108.398795
114.674568
116.510987
112.631917
105.830431
92.203617
85.009933
70.989728
60.118437
51.236749
42.050481
37.465692
33.883452
29.770732
31.392574
28.055906
27.200580
29.930472
29.606819
31.913519
37.692785
41.638613
44.384599
##ZVALUE=215
35.688877
34.400821
22.950768
18.155575
12.955666
11.250973
10.712743
12.512803
12.248755
10.743737
9.415746
9.863973
8.288622
8.138418
6.579757
6.562471
6.976724
7.424951
7.022619
8.601546
8.920431
9.247661
10.903478
9.951591
10.922551
11.984706
12.018681
11.206865
13.271570
12.601614
12.775660
13.277531
14.568567
14.360547
16.857982
14.790893
15.913844
15.895963
17.026663
17.514825
16.681552
15.541911
19.249916
17.742515
17.340779
19.114614
20.896792
19.907951
19.764900
19.937754
21.198988
21.184683
20.400882
20.403862
22.400618
21.345615
22.879839
22.339821
22.094846
22.907853
23.201704
24.989843
24.699569
23.739934
26.571751
29.694438
32.783747
40.224791
46.586990
56.864619
60.193539
69.398880
72.249770
76.515675
79.111457
79.176426
74.445605
70.537925
66.283941
57.292581
51.561594
45.294762
40.012598
33.145547
28.035641
29.342771
25.227666
24.241805
23.471713
24.000406
22.925735
23.429990
23.237467
22.289753
24.109483
24.393797
##ZVALUE=220
168.316960
159.225464
127.053857
90.714693
71.741939
48.929453
35.630465
25.815964
22.882819
21.988750
21.518469
20.327568
20.843744
19.303560
14.953613
11.867881
9.017587
8.084774
6.687641
6.630421
6.900430
6.860495
7.791519
7.291436
8.003712
8.795857
9.086728
8.760691
9.608865
10.270476
10.558963
11.342764
11.315942
10.736585
11.764765
10.647774
12.098551
12.727976
12.117624
12.143850
13.493896
13.302565
13.507605
14.124513
15.468597
14.360547
14.429688
15.056729
15.588999
16.239882
16.013980
15.160441
15.955567
17.018914
16.712546
18.495917
17.881989
19.400716
18.609762
18.469691
18.986464
20.360947
18.221736
20.935535
20.877719
24.039745
27.014613
32.866001
36.463737
41.151643
46.537519
52.435994
57.951808
60.277581
58.930516
58.240891
55.637956
48.790574
46.254992
41.571856
38.290620
34.609437
30.135512
28.963685
25.561452
23.827553
21.739602
21.522641
22.559762
20.165443
20.145774
19.839406
20.920634
20.425916
20.411611
21.434426
##ZVALUE=225
317.547917
322.344899
346.487761
303.063989
272.137523
220.290422
181.757808
120.645761
87.614655
63.916445
47.056675
40.251613
40.795803
41.095614
39.514899
36.122799
29.436946
23.241639
19.117594
12.781620
9.414554
8.358955
6.977916
7.639527
7.703900
8.109808
7.719994
9.048581
8.628964
9.789467
9.388924
10.229945
10.682940
10.952950
11.169910
10.315776
11.910796
11.977553
11.456609
12.844801
11.846423
12.387633
12.766719
12.381673
11.885762
13.630986
13.234615
13.550520
13.694763
14.213920
15.762448
14.366508
14.283657
15.273690
16.395450
16.133785
15.890598
16.461611
16.744733
16.805530
18.996000
17.533898
18.836856
19.484758
21.714568
21.973848
24.668574
27.196407
30.735731
37.837625
42.200685
46.477914
47.642589
51.469803
50.548911
47.866702
43.425560
43.905973
41.061640
37.146807
31.792521
30.437708
27.828813
26.007891
24.832487
23.066998
23.067594
23.081899
22.363663
23.635626
21.803975
22.378564
20.648837
21.546483
20.496845
20.857453
##ZVALUE=230
168.395638
186.769962
283.015966
425.714850
503.161550
533.353686
523.036718
468.346477
400.209427
321.337581
202.278495
131.122470
87.454915
69.897771
67.776442
68.690777
69.005489
63.365698
54.166913
43.023825
33.121705
21.829605
14.476776
10.302663
8.197427
7.446408
7.411838
8.125901
7.770658
8.185506
8.468628
8.185506
9.410977
9.476542
9.311438
9.640455
10.352731
10.232925
10.303855
11.158586
10.689497
11.067986
11.715889
10.895729
11.263490
11.880994
12.453794
12.610555
13.109446
13.483763
14.001727
14.150739
14.279485
15.913844
16.767979
15.796423
17.768741
17.661452
17.011762
18.116832
18.830895
18.545985
19.793510
19.752979
20.563602
23.709536
24.755001
29.068589
33.104420
36.827922
42.348504
46.458840
48.968792
49.185753
48.652887
49.082637
44.064522
42.829514
40.357709
36.327839
35.354495
31.970739
31.094551
29.301643
28.984547
26.472807
28.738976
26.596785
27.154684
28.501749
26.010871
26.534796
26.168823
26.346445
25.861859
25.503635
##ZVALUE=235
27.829409
34.659505
80.897808
216.798782
357.316732
561.161637
718.916655
884.919763
915.440917
887.551904
739.632845
575.735569
361.727476
237.383842
142.686963
104.493499
89.242458
89.186430
94.105601
91.179609
83.493590
67.578554
54.808855
35.711527
25.127530
15.915632
11.597872
9.584427
8.436441
7.990599
8.177757
8.612871
8.990765
9.844899
9.583831
10.006428
10.262728
9.647608
9.972453
10.504723
10.314584
10.244846
10.963678
10.440946
11.038780
11.501908
12.520552
11.606812
12.475848
12.761950
13.583899
13.787746
13.750792
15.016794
14.460683
14.936924
15.675426
15.863776
18.006563
18.430948
18.397570
19.976497
20.316839
20.348430
23.382902
24.661422
27.880669
31.900406
36.351681
41.076541
43.008924
46.132803
51.446557
52.326918
50.214529
49.801469
47.595501
46.673417
43.402910
42.180419
38.091540
37.168860
34.749508
33.152699
33.195615
31.891465
31.514764
31.462908
32.988787
31.337738
31.233430
31.622648
31.685829
30.272603
29.487610
30.570626
##ZVALUE=240
2.587438
2.705455
11.990666
35.924911
105.807781
203.968883
406.198502
610.427856
874.258876
1015.915871
1015.915871
1015.915871
1001.398563
786.968470
596.043468
345.607996
225.774646
135.755539
108.639002
101.417899
106.910467
111.550689
108.196735
94.698668
71.885586
56.837797
38.659573
27.762651
18.359423
12.456775
10.374784
9.129643
8.315444
8.352995
8.627772
8.569956
8.894801
8.931756
9.052753
9.002686
8.985996
9.069443
8.898973
9.596944
9.929538
9.578466
9.831786
10.532737
10.625720
10.162592
10.927916
11.363626
11.624694
11.737943
12.316704
13.005733
12.885928
13.749599
15.060902
14.954805
15.549660
16.458631
16.592741
17.510653
18.911958
20.617843
22.835732
26.403666
27.684569
32.638907
34.707785
39.945841
39.409995
40.900707
42.546988
41.256547
41.362643
38.399696
36.643744
36.372542
34.120679
34.170747
34.134984
32.984614
32.408834
31.498671
31.321645
30.905604
31.775832
31.058788
31.739473
31.245947
30.439496
30.604601
29.845834
31.010509
##ZVALUE=245
1.780987
1.886487
1.967549
2.250671
4.705787
22.046566
57.677627
159.871578
294.296741
469.253659
753.457546
952.090025
1015.794873
1015.794873
1015.794873
959.624648
707.093477
502.497554
337.345004
182.398558
121.753812
97.266436
101.449490
112.602711
116.648674
109.817982
96.946955
78.226924
61.167479
41.627884
29.362440
17.843843
12.299418
9.087920
8.035898
7.894635
7.372499
7.041693
7.539988
7.870793
7.785559
8.217692
7.380843
8.009672
8.103848
7.386804
7.608533
8.428693
8.693933
8.949637
8.739829
9.192824
9.471774
9.068847
9.279847
10.134578
10.602474
11.162758
10.641813
11.854768
12.284517
12.770891
12.740493
14.365911
15.253425
16.423464
18.612742
21.377802
23.565888
26.740432
28.614998
30.780435
32.171607
32.990575
33.080578
33.137798
33.437610
30.851960
30.903816
29.774904
29.989481
29.538870
29.245615
28.529763
28.668642
29.176474
28.560758
28.477907
29.426813
28.494596
28.689504
28.346777
29.305816
28.700829
28.383732
27.811527
##ZVALUE=250
1.248717
1.050830
1.238585
1.318455
1.514554
1.681447
2.718568
9.341836
43.127537
98.471642
246.688724
419.452786
636.253953
924.012661
1015.582681
1015.582681
1015.582681
1015.582681
964.884758
644.841790
420.012474
258.960724
136.205554
96.884966
91.524720
103.899837
113.039613
118.396878
111.362934
101.866722
86.644888
63.490868
46.551824
27.847886
19.669533
11.130571
7.967949
6.831884
7.134676
6.941557
6.764531
6.472468
6.758571
6.640553
6.927848
7.031560
7.585883
7.516742
7.525682
7.552505
7.467866
7.904768
8.043647
8.450747
8.812547
8.311868
8.581877
8.870959
9.692907
9.416938
9.775758
10.573864
10.934472
11.911988
12.449622
14.584661
15.797615
17.906427
18.618703
22.004843
24.814606
27.052760
27.578473
29.611588
28.632879
29.188991
28.057694
27.665496
26.979446
26.331544
26.112795
25.432706
25.148988
25.980473
25.510788
25.207996
26.805997
25.858879
25.809407
26.277900
25.578737
26.339889
26.225448
26.164651
26.493669
25.386810
##ZVALUE=255
1.368523
1.217723
1.514554
1.614690
1.401901
1.419783
1.657605
1.646876
1.884699
4.644990
25.432706
66.460967
141.478777
320.461988
505.364537
800.213814
999.267697
1015.794873
1015.794873
1015.794873
1015.794873
917.524695
560.334921
345.328450
173.326731
110.982656
80.571771
84.892511
102.839470
115.696788
119.091868
116.503835
108.126998
85.129738
67.617893
44.677854
30.718446
18.789768
12.182593
8.086562
6.901622
6.708503
6.382465
6.731749
6.516576
6.683469
6.831884
6.915927
6.996989
6.876588
6.533861
7.250905
7.340908
7.214546
7.308722
7.632971
8.003712
8.262992
7.970929
8.623600
8.310676
9.145737
9.429455
10.357499
10.889769
11.533499
12.609959
14.401674
16.291738
19.000769
19.728541
21.518469
22.467971
23.458600
22.893548
22.977591
22.854805
22.081733
22.714734
22.401810
21.138787
22.190809
21.745563
22.399426
22.330880
22.366643
22.860765
22.493601
22.801757
22.408962
22.632480
22.792816
23.479462
23.009777
24.691820
22.999644
##ZVALUE=260
1.290441
1.102686
1.170635
1.311898
1.204610
1.323819
1.370907
1.499653
1.343489
1.789927
1.882911
3.088713
10.030866
44.997931
99.890828
247.926712
418.239832
712.980628
955.290794
1015.794873
1015.794873
1015.794873
1015.794873
1015.794873
779.026747
518.649817
280.641913
162.668824
83.237886
70.160627
83.201528
99.020600
117.688775
122.950673
118.543506
108.761787
87.511539
69.174767
46.171546
32.277703
19.539595
13.320446
8.647442
7.449985
6.838441
6.779432
6.736517
6.398559
6.791949
6.908774
7.400513
6.988645
6.895661
7.255673
7.318854
7.188916
7.183552
7.692575
7.750988
8.142591
8.146763
8.428693
8.815527
9.062886
9.720922
11.144876
11.858940
13.343692
15.102625
16.627908
18.300414
18.763542
20.604730
21.030903
20.668507
20.987988
20.674467
20.405650
20.256639
20.098686
19.597411
19.663572
19.929409
20.386577
20.473599
20.920634
20.469427
21.024942
21.043420
20.918846
20.805597
21.649599
21.230578
21.883845
21.741986
21.459460
##ZVALUE=265
1.250505
1.173615
1.118779
1.320839
1.305938
1.289845
1.397729
1.556873
1.462698
1.517534
1.773834
2.039671
1.984835
2.363920
4.637837
26.209950
69.293976
189.137459
349.569917
685.478449
983.223915
1015.794873
1015.794873
1015.794873
1015.794873
1015.794873
1015.794873
767.929554
404.772758
238.415003
179.873705
69.943666
65.104961
85.738897
102.333426
119.346976
125.090480
118.962526
108.867884
87.579489
69.550872
46.957731
31.722784
18.932819
12.850761
8.698702
7.341504
6.760955
7.071495
6.881952
6.956458
7.094741
7.153749
6.980896
7.404685
7.247925
7.200837
6.984472
7.788539
7.687807
7.732511
8.215904
8.198619
8.942485
9.300709
10.159612
11.317730
12.415648
13.720989
15.533566
16.780496
17.635822
18.171668
19.253492
18.769503
18.516779
18.487573
18.029809
17.944574
17.635822
18.240809
17.706752
17.989874
18.344522
18.380880
19.249916
19.141436
19.110441
19.044876
19.611716
19.469857
19.861460
19.622445
19.682646
20.188689
20.406842
##ZVALUE=270
0.941753
1.047850
1.068711
1.032948
1.053810
1.067519
1.167655
1.091957
1.253486
1.414418
1.343489
1.576543
1.278520
1.577735
1.846552
2.078414
2.583861
10.839701
35.931468
126.608610
269.867778
494.368672
928.613544
1015.757918
1015.757918
1015.757918
1015.757918
1015.757918
1015.757918
1010.296941
731.686950
382.901430
208.077431
83.714724
54.082870
63.672662
80.832839
103.211999
115.967989
124.367476
120.626688
108.416677
92.172623
68.589449
50.283670
30.861497
21.481514
13.139844
9.731650
7.739663
7.095933
7.194877
6.913543
7.071495
7.395744
7.527471
7.841587
7.811785
7.984638
8.064508
8.230805
8.643866
8.411407
8.892417
9.459853
10.346770
11.158586
11.943579
13.391972
14.763474
16.049743
16.467571
17.421842
17.650723
17.741919
17.823577
17.208457
17.066598
16.741753
16.757846
16.907454
16.880631
16.823411
17.281771
17.329454
17.552972
17.965436
17.864704
18.312931
17.597675
18.102527
18.219948
18.381476
18.178821
18.154979
18.856525
##ZVALUE=275
1.016855
0.963807
1.068711
1.044869
1.208782
1.064539
1.208782
1.113415
1.415610
1.168847
1.228452
1.357794
1.307726
1.651645
1.631975
1.818538
1.897812
2.045631
2.188683
4.829764
18.792748
61.406493
197.438598
393.437743
786.627531
1015.785933
1015.785933
1015.785933
1015.785933
1015.785933
1015.785933
1015.785933
953.136683
500.767827
283.108950
115.685463
59.575438
45.487881
57.659745
80.839992
97.639561
113.819838
121.057630
118.269920
109.653473
88.422894
71.541667
50.390959
36.151409
21.892786
14.781952
10.393858
8.205771
7.644892
7.337928
7.559657
7.541776
7.807612
7.775426
8.373857
8.438826
8.535981
8.903742
9.418726
9.617805
10.507703
10.809898
11.920929
13.257861
14.372468
15.253425
16.062856
16.879439
17.072558
17.589927
17.478466
17.044544
16.852617
15.997887
16.726851
16.282797
16.444921
16.462803
15.958548
16.579628
16.854405
16.785860
17.064810
17.038584
17.185807
17.224550
17.534494
17.402768
17.539859
17.744899
17.437935
##ZVALUE=280
1.007915
0.936985
0.884533
0.938773
0.927448
1.134872
1.259446
1.152754
1.082420
1.097918
1.236796
1.204610
1.295805
1.376867
1.541972
1.563430
1.657605
1.711845
1.847744
1.836419
2.136827
3.314614
10.446906
54.752827
141.863823
352.575779
593.257546
987.966657
1015.794873
1015.794873
1015.794873
1015.794873
1015.794873
1015.794873
1015.794873
678.083897
401.728749
168.150663
79.431534
37.563443
39.718747
58.195591
75.589418
96.858740
110.499859
118.590593
116.368532
104.995966
90.696812
69.192648
53.335428
34.307837
23.926497
14.914870
10.715723
8.545518
7.934570
8.243918
8.120537
8.124709
8.297563
8.740425
9.034872
9.458661
9.791851
10.675788
10.981560
11.898875
12.809634
13.686419
14.690757
15.518665
15.619993
15.916824
16.087890
15.607476
16.300678
15.553832
15.682578
15.812516
15.973449
15.568733
15.945435
16.030669
16.012788
16.419888
16.154647
16.269684
16.593933
16.453862
16.403794
16.498566
16.415715
16.533732
16.683936
16.777515
##ZVALUE=285
0.856519
0.893474
0.813603
0.858903
0.947714
0.792742
1.053810
1.111627
1.037717
1.052618
1.064539
1.147985
0.931621
1.069903
1.368523
1.325607
1.458526
1.518726
1.312494
1.545548
1.790524
1.897812
2.206564
2.483726
6.148815
22.913814
87.793469
195.266604
449.894667
717.337728
999.342799
1015.806794
1015.806794
1015.806794
1015.806794
1015.806794
1015.806794
936.546922
597.710609
288.497806
142.070651
47.236681
28.889775
37.737489
52.035451
74.516535
89.823604
106.838942
114.829540
114.383698
107.561946
90.975761
74.687600
53.233504
38.176775
22.894740
16.420484
11.307597
9.486675
8.548498
8.596778
9.062886
8.894801
9.560585
9.797812
10.373592
11.129975
12.022853
12.867451
13.528466
14.131665
15.297532
15.841722
15.870929
15.568733
15.583634
15.628934
15.709996
15.572906
15.679598
15.727878
15.736818
15.849471
15.962720
16.105771
16.108751
16.605854
16.455650
16.555786
16.269684
16.118884
15.942454
15.970469
15.801787
16.451478
16.554594
##ZVALUE=290
0.772476
0.895858
0.835657
0.858903
0.849962
0.891685
0.834465
0.912547
0.929832
1.010895
1.189709
1.154542
1.136661
1.037717
1.164675
1.196861
1.165867
1.447797
1.324415
1.485944
1.441836
1.519918
1.906753
1.937747
2.135634
2.249479
3.199577
9.005666
46.842694
119.600892
249.958634
553.694963
888.746977
1015.794873
1015.794873
1015.794873
1015.794873
1015.794873
1015.794873
1015.794873
848.141909
443.254709
234.745741
79.878569
31.963587
25.216937
33.846498
50.422549
65.255761
86.409450
99.370480
111.047626
111.874938
104.812980
91.880560
70.235729
54.683685
36.817789
25.671721
16.872883
13.042688
10.307431
9.632707
9.535551
10.064840
10.721684
11.242628
12.221932
12.448430
13.617873
14.606714
15.075803
15.867949
15.574694
15.842915
15.533566
15.295744
15.383959
15.688539
15.738606
15.746951
15.972853
15.739799
16.159415
16.157627
16.585588
16.648769
16.403794
16.460419
16.360879
16.139746
16.721487
15.995502
16.356707
16.222596
16.164780
##ZVALUE=295
0.813603
0.878572
0.951886
0.949502
0.845790
0.963807
0.790954
1.019835
1.005530
1.000762
1.121759
0.892878
0.968575
1.109838
1.026988
1.102686
1.190901
1.210570
1.427531
1.199841
1.447797
1.365542
1.527667
1.490712
1.603961
2.010465
2.206564
2.326965
2.512932
3.939867
13.587475
70.677996
173.500776
439.808965
740.535855
1015.799642
1015.799642
1015.799642
1015.799642
1015.799642
1015.799642
1015.799642
1015.799642
633.570552
353.059769
123.751760
49.904585
19.935966
21.526814
32.492876
44.536591
64.321756
79.619884
96.959472
105.681419
107.496977
101.118684
87.019801
72.323680
51.912665
39.376616
25.202632
18.625855
13.213754
11.523962
11.009574
11.151433
11.559725
12.785792
13.479590
14.173985
14.958978
15.645623
15.658736
15.573502
15.738606
15.317798
15.620589
15.818477
15.934706
16.112924
16.126633
15.940666
16.295910
16.679764
16.584992
17.037988
16.480684
16.804934
16.394854
16.413927
16.691685
16.438961
16.291738
15.982985
16.316772
##ZVALUE=300
0.746846
0.778437
0.806451
0.826716
0.756979
0.727773
0.771880
0.951886
0.968575
1.090765
0.887513
0.802875
1.135468
0.983477
1.026988
1.135468
1.086593
1.095533
0.948906
1.208782
1.148582
0.999570
1.326799
1.255870
1.504421
1.488924
1.538992
1.728535
2.022982
2.284646
2.400875
2.895594
6.548762
41.354895
113.661885
315.911770
568.678975
997.214913
1015.794873
1015.794873
1015.794873
1015.794873
1015.794873
1015.794873
1015.794873
857.663751
527.384877
237.953663
106.443763
28.769970
15.575886
20.062923
27.597547
41.908622
55.624843
76.614618
88.639855
100.395679
104.089975
97.141862
88.353753
69.869757
56.086779
39.680600
28.659701
19.451976
15.641451
13.596416
13.338923
13.776422
14.403462
15.027523
15.548468
15.526414
16.047955
15.607476
15.948415
15.872717
16.228557
16.552806
16.538501
16.554594
16.853809
16.788840
16.953945
17.244816
17.140508
17.056465
16.982555
16.881824
16.685724
16.768575
16.419888
16.522408
16.631484
16.041994
##ZVALUE=305
0.912547
0.695586
0.726581
0.770688
0.768900
0.787973
0.839829
0.839829
0.929832
0.925660
0.914931
0.842810
0.845790
0.922680
0.961423
0.961423
0.867844
1.018643
1.042485
1.081824
1.083612
1.255870
1.251698
1.325607
1.444817
1.474619
1.314878
1.690984
1.741648
1.763701
1.898408
2.235770
2.341866
2.958775
4.100800
23.866892
74.893832
237.886906
456.617475
922.616720
1015.797853
1015.797853
1015.797853
1015.797853
1015.797853
1015.797853
1015.797853
1015.797853
796.621442
380.731821
186.908841
52.949786
18.949509
14.608502
18.171668
28.370619
39.093494
56.081414
69.720745
87.386966
95.155835
98.757744
95.724463
84.243417
71.455836
53.291917
40.837526
28.594732
22.391677
17.542839
16.035438
16.003847
15.911460
16.034842
16.257763
15.912652
16.083717
16.083717
16.049743
16.296506
16.798973
16.923547
17.128587
17.187595
17.392635
17.391443
17.386675
17.405748
17.682910
17.151833
17.352700
16.916990
16.591549
16.466975
16.748905
16.886592
##ZVALUE=310
0.701547
0.787973
0.711679
0.820756
0.923872
0.899434
0.740886
0.867844
0.954866
1.106858
0.836849
0.928640
0.933409
0.905991
0.966787
0.919700
0.976920
0.990629
0.920892
1.045465
1.207590
1.189709
1.279712
1.213551
1.328588
1.316667
1.352429
1.463890
1.512766
1.647472
1.681447
1.659989
1.995564
2.042651
2.255440
2.579689
3.084540
9.848475
37.848949
143.810511
306.624770
695.117712
1015.788913
1015.788913
1015.788913
1015.788913
1015.788913
1015.788913
1015.788913
1015.788913
1012.165546
565.639734
305.297971
102.748871
34.012794
12.252927
13.091564
17.244816
23.226738
35.511851
47.461987
65.197945
77.514648
89.840889
93.928576
92.282891
84.544420
70.260763
57.911873
41.832924
33.073425
24.693608
20.510554
17.377734
16.380548
16.192794
16.009808
15.937686
16.222000
16.621947
16.807914
17.121434
17.259717
17.747879
17.458797
17.996430
17.818809
17.852783
17.622709
17.395616
17.295480
17.120838
17.160773
16.775727
16.947985
16.768575
##ZVALUE=315
0.810623
0.661612
0.740886
0.818968
0.701547
0.865459
0.797510
0.628829
0.923872
0.859499
0.781417
0.942945
0.866652
0.920892
0.766516
0.801682
0.933409
1.015663
0.818968
1.031756
0.910759
1.059771
0.975728
1.092553
1.105666
1.088977
1.081824
1.318455
1.283884
1.384616
1.342893
1.495481
1.533628
1.775622
1.964569
2.091527
2.325773
2.519488
2.877712
3.946424
22.969842
72.650909
232.305527
453.817844
936.097503
1015.791893
1015.791893
1015.791893
1015.791893
1015.791893
1015.791893
1015.791893
1015.791893
855.184793
413.254499
195.267797
48.632622
16.709566
11.142492
11.980534
16.150475
22.103786
33.844709
44.501424
61.099529
73.506832
85.690618
90.563893
88.916421
81.890821
67.760944
57.091713
42.718649
32.762885
24.531484
20.424724
17.595887
16.509891
16.587973
16.719699
16.981959
17.008781
16.977787
17.394423
17.914772
17.682910
17.676950
17.585754
17.758608
17.884970
17.395616
17.406940
17.228723
17.180443
17.329454
16.714931
##ZVALUE=320
0.810623
0.768900
0.663996
0.644922
0.798702
0.672936
0.675917
0.888705
0.736713
0.767708
0.858903
0.930429
0.894666
0.805855
0.760555
0.909567
0.788569
0.910759
0.863671
0.955462
0.910759
0.835657
0.995994
1.107454
1.055598
1.127720
1.102686
1.119971
1.276731
1.369715
1.228452
1.336932
1.373887
1.501441
1.433492
1.627803
1.693964
1.836419
2.118945
2.542734
2.627969
2.983809
9.466410
34.798980
143.294930
311.317444
692.559481
1015.794873
1015.794873
1015.794873
1015.794873
1015.794873
1015.794873
1015.794873
1015.794873
1015.794873
565.676689
300.359726
100.744963
33.555627
11.495948
10.928512
12.245774
14.592409
21.599531
29.327869
43.139458
55.412650
72.086453
82.637668
88.158846
87.777972
79.737902
69.935918
54.987669
44.042468
31.904578
25.108457
19.919872
18.070936
17.428994
17.004609
17.350912
17.133951
17.449856
17.836690
17.769933
17.912984
17.834902
17.456412
17.741919
17.442703
17.025471
16.945601
17.012954
16.832948
##ZVALUE=325
0.739694
0.653863
0.721812
0.672936
0.700951
0.865459
0.590682
0.840425
0.675917
0.672936
0.771880
0.737906
0.822544
0.849962
0.767708
0.882745
0.853539
0.833869
0.597835
0.792742
0.795722
0.994802
0.965595
0.923872
1.014471
1.020432
1.072884
0.917912
1.048446
1.170635
1.181960
1.035929
1.338720
1.365542
1.468658
1.533628
1.641512
1.517534
1.764894
2.000928
2.161860
2.211928
2.565980
2.754927
5.187988
20.307899
94.849467
216.886997
531.745553
920.645595
1015.794873
1015.794873
1015.794873
1015.794873
1015.794873
1015.794873
1015.794873
1015.794873
774.194002
437.347889
161.303878
57.791471
14.687777
10.685921
11.019707
12.220740
15.721917
21.015406
32.223463
43.062568
58.852434
69.343448
80.100894
84.356666
81.714988
76.484680
65.297484
53.682923
40.201545
32.206774
24.117827
21.016598
18.608570
17.819405
17.702579
17.856956
17.336607
17.701983
17.464757
17.497540
17.713904
17.218590
17.168522
17.094612
16.783476
16.655922
##ZVALUE=330
0.596642
0.606775
0.657439
0.643730
0.625849
0.590682
0.495911
0.625849
0.595450
0.760555
0.719428
0.695586
0.639558
0.719428
0.762939
0.555515
0.700951
0.619888
0.591874
0.689626
0.694990
0.780821
0.778437
0.768900
0.894666
0.870824
0.803471
0.970960
0.936985
1.030564
0.829697
1.046658
1.166463
1.226664
1.188517
1.113415
1.311898
1.354814
1.456738
1.628995
1.671910
1.798868
2.046824
2.136827
2.260804
2.864599
3.449917
11.111498
41.974783
165.953636
352.301002
789.320469
1015.704870
1015.704870
1015.704870
1015.704870
1015.704870
1015.704870
1015.704870
1015.704870
1010.731459
526.657701
267.678499
85.927844
27.166605
11.409521
11.086464
11.646748
13.351440
17.208457
22.004843
30.803680
40.374994
55.043697
64.937472
75.715780
79.456568
78.293681
72.356462
61.268806
50.942898
38.682818
31.866431
25.085807
21.924973
18.958449
17.984509
17.488599
17.413497
17.056465
17.085671
16.975999
16.790628
16.849637
16.751885
16.687512
##ZVALUE=335
0.673532
0.698566
0.606775
0.733733
0.618696
0.607967
0.793934
0.696778
0.785589
0.792742
0.667572
0.896454
0.776649
0.582933
0.675917
0.751615
0.833869
0.781417
0.759959
0.878572
0.975728
0.948906
0.849962
0.915527
0.951886
0.883937
0.848770
1.024604
0.986457
1.034737
1.168847
0.986457
1.101494
1.209974
1.186728
1.099706
1.237988
1.323819
1.364946
1.459718
1.512766
1.570582
1.656413
1.862645
1.983643
2.122521
2.455711
2.587438
2.954602
5.345941
19.674897
97.050667
230.444074
568.934679
964.248776
1015.790701
1015.790701
1015.790701
1015.790701
1015.790701
1015.790701
1015.790701
1015.790701
763.166547
408.420563
134.067535
46.264529
14.327765
12.037754
12.206435
12.986660
14.294982
17.118454
22.597909
28.953552
40.740967
50.314665
62.085986
69.862604
75.420737
74.075460
68.092942
60.755610
50.430894
41.812658
32.050610
26.264787
21.627545
19.162893
17.856956
17.046928
16.367435
16.287565
16.525984
16.442537
16.353726
##ZVALUE=340
0.679493
0.664592
0.515580
0.701547
0.578761
0.486970
0.762939
0.702739
0.714660
0.724792
0.704527
0.781417
0.759959
0.760555
0.679493
0.707507
0.752807
0.750422
0.687838
0.833869
0.714660
0.849962
0.796914
0.724792
0.842810
0.889897
0.913739
0.881553
0.823736
1.061559
0.944734
1.144409
1.049638
1.018643
1.136661
1.220703
0.951886
1.063943
1.501441
1.214743
1.293421
1.396537
1.462698
1.636744
1.633763
1.845956
1.927614
2.009869
2.250671
2.519488
2.680421
3.765821
9.406805
55.456758
154.138803
431.213975
783.270597
1015.781760
1015.781760
1015.781760
1015.781760
1015.781760
1015.781760
1015.781760
1015.781760
921.417475
526.244640
209.996700
76.207519
17.722845
12.534857
12.341738
12.693405
12.815595
13.792515
16.614795
20.784736
28.357506
36.923885
49.706697
58.680773
67.972541
71.039796
70.822835
66.755414
57.901740
49.854517
39.313436
32.081604
25.111437
21.254420
17.811656
16.902685
16.055703
15.802979
15.528798
##ZVALUE=345
0.665784
0.621676
0.695586
0.521541
0.649691
0.666976
0.619888
0.747442
0.759959
0.537634
0.705719
0.679493
0.665784
0.662804
0.763535
0.774860
0.612736
0.762939
0.894666
0.803471
0.830889
0.751615
0.727773
0.761747
0.864863
0.864863
0.830889
0.947714
0.959635
0.945926
0.969768
0.874996
1.045465
0.995994
0.917912
1.006722
1.085997
1.069903
1.035929
1.086593
1.202822
1.214743
1.404881
1.393557
1.348853
1.498461
1.691580
1.745820
1.792908
2.042651
2.070665
2.353787
2.542734
3.057718
4.796982
27.293563
88.082552
276.596546
528.363585
999.090672
1015.794873
1015.794873
1015.794873
1015.794873
1015.794873
1015.794873
1015.794873
1015.794873
705.798864
298.726559
122.864842
30.970573
14.803410
12.746453
12.411475
12.149811
12.200475
13.278723
15.448928
20.345449
26.028752
36.317706
44.772625
54.628849
61.099529
66.183805
66.420436
62.689781
57.243705
47.052503
39.143562
29.741526
24.588704
20.217896
17.958879
16.254783
##ZVALUE=350
0.697970
0.731945
0.688434
0.749826
0.708699
0.687838
0.690818
0.814795
0.679493
0.705719
0.670552
0.799894
0.813603
0.802875
0.810623
0.729561
0.770688
0.805855
0.708699
0.633597
0.847578
0.828505
0.843406
0.934601
0.867844
0.975728
1.011491
0.922680
0.970960
0.918508
0.965595
0.992417
1.040697
1.025796
1.026988
1.029968
1.037717
1.025796
0.994802
1.188517
1.229644
1.107454
1.272559
1.302958
1.418591
1.522899
1.584888
1.669526
1.611710
1.796484
1.775622
1.981854
2.310872
2.311468
2.680421
2.963543
3.552437
13.134480
46.769977
175.912976
375.072956
852.696896
1015.786529
1015.786529
1015.786529
1015.786529
1015.786529
1015.786529
1015.786529
1015.786529
913.876891
430.180430
190.910697
45.156479
16.746521
12.260675
11.420846
11.270642
11.341572
11.816621
12.796521
15.529990
18.858910
24.584532
30.856729
40.499568
48.166513
56.151748
60.039759
61.516762
58.929920
52.029490
45.821667
36.768913
30.898452
23.936629
##ZVALUE=355
0.650883
0.713468
0.768900
0.772476
0.929832
0.800490
0.760555
0.711679
0.687838
0.732541
0.721812
0.782609
0.697970
0.748634
0.774860
0.860691
0.890493
0.905991
0.877976
0.855923
0.858903
0.922680
0.815988
0.875592
1.024604
1.110435
0.980496
0.978708
0.983477
1.086593
0.998974
1.045465
1.113415
1.089573
1.121759
1.213551
1.275539
1.142621
1.201630
1.178980
1.172423
1.287460
1.188517
1.426935
1.356602
1.453757
1.345873
1.555681
1.580715
1.704693
1.727939
1.846552
2.038479
2.215505
2.400875
2.569556
2.611876
3.018975
3.338456
7.003546
25.755763
118.509531
270.284414
645.144582
1014.178991
1015.791893
1015.791893
1015.791893
1015.791893
1015.791893
1015.791893
1015.791893
1015.791893
576.562881
276.826620
74.733496
23.555756
12.227893
11.167526
11.040568
11.248589
11.172891
11.511445
12.649894
14.166832
17.464757
21.325946
28.209686
34.739971
42.835474
49.311519
54.968596
56.232810
54.035783
50.705671
42.890906
##ZVALUE=360
0.660419
0.812411
0.789762
0.726581
0.701547
0.711679
0.860691
0.716448
0.876784
0.905991
0.934601
0.757575
0.875592
0.819564
0.763535
0.892878
0.943542
0.761747
0.836849
1.055598
1.034737
0.858903
0.828505
0.979900
0.850558
0.891685
0.949502
0.951886
1.065731
1.039505
1.009703
1.069903
1.109838
1.130700
1.316667
1.084805
1.165867
1.272559
1.309514
1.080632
1.236796
1.287460
1.349449
1.477599
1.587868
1.473427
1.413822
1.548529
1.581907
1.734495
1.787543
1.825690
1.920462
2.017617
2.225637
2.387762
2.497435
2.730489
2.939701
3.398657
3.822446
4.751682
11.401772
58.566928
165.574551
478.103757
870.352983
1015.794873
1015.794873
1015.794873
1015.794873
1015.794873
1015.794873
1015.794873
1015.794873
819.993615
431.579947
149.028897
47.996640
13.342500
11.405945
11.005998
10.786653
10.835528
10.594726
10.816455
11.541843
12.749434
14.686584
18.471479
22.961497
30.705929
36.764741
44.430494
48.689842
51.078796
##ZVALUE=365
0.803471
0.743866
0.775456
0.706911
0.739694
0.869632
0.662804
0.892878
0.836849
0.762939
0.774860
0.734925
0.825524
0.722408
0.704527
0.867844
0.906587
0.895858
0.902414
0.840425
0.870824
0.904799
1.047850
0.928640
1.022816
0.909567
0.968575
0.938773
0.962615
1.060963
1.115799
0.865459
1.018643
0.994802
1.065731
0.925660
1.082420
1.055598
0.965595
1.275539
1.261830
1.103878
1.285672
1.336932
1.398921
1.340508
1.455545
1.467466
1.305938
1.465678
1.638532
1.526475
1.674891
1.742840
2.007484
2.056956
2.173781
2.129674
2.430677
2.644658
2.806783
3.243685
3.479719
4.159808
5.692840
29.626489
91.129541
284.867883
586.174726
1015.794873
1015.794873
1015.794873
1015.794873
1015.794873
1015.794873
1015.794873
1015.794873
1015.794873
620.254874
220.971704
78.856945
16.910434
10.824800
10.246634
9.826422
9.837747
9.720922
9.682775
9.865761
10.141730
10.976791
12.947917
15.476942
20.579696
25.452971
32.602549
##ZVALUE=370
0.680685
0.769496
0.805855
0.798702
0.860691
0.845790
0.747442
0.546575
0.742674
0.604987
0.787973
0.858903
0.708699
0.823736
0.859499
0.774860
0.739694
0.701547
0.697970
0.877976
0.734925
0.814795
0.745654
0.800490
0.839829
0.844598
0.901818
0.961423
0.894666
0.837445
0.728965
0.892878
1.000762
1.011491
0.879765
0.996590
1.080632
0.900626
1.064539
1.049638
1.013875
0.983477
1.020432
1.084805
1.153946
1.254678
1.158714
1.107454
1.251698
1.321435
1.255870
1.383424
1.384616
1.474619
1.538992
1.640916
1.552701
1.727939
1.737475
1.856685
2.038479
2.237558
2.427697
2.754927
2.962947
3.501773
4.145503
14.096498
53.027868
206.736922
443.838835
952.023864
1015.800834
1015.800834
1015.800834
1015.800834
1015.800834
1015.800834
1015.800834
1015.800834
761.637688
307.985544
132.705569
35.482645
12.825727
9.163618
9.238720
8.928776
8.911490
8.792877
8.584857
8.504987
8.989573
9.746552
10.994673
13.666749
##ZVALUE=375
0.619888
0.695586
0.663996
0.567436
0.569820
0.638962
0.646710
0.555515
0.467896
0.635982
0.629425
0.577569
0.790954
0.599623
0.560880
0.629425
0.622869
0.791550
0.712872
0.713468
0.698566
0.643730
0.735521
0.530481
0.678897
0.674725
0.806451
0.760555
0.730753
0.764728
0.725985
0.754595
0.569820
0.790954
0.784993
0.889897
0.948906
0.707507
0.812411
0.842810
0.919700
0.872612
1.018643
0.812411
1.021624
0.899434
0.861883
1.112819
1.049638
1.191497
1.086593
1.255870
1.087785
1.277924
1.156926
1.366735
1.370907
1.284480
1.485944
1.493692
1.667738
1.711845
1.902580
2.085567
2.191663
2.466440
2.614856
3.274679
3.714561
7.694960
27.395487
119.225383
287.987590
726.803541
1015.774608
1015.774608
1015.774608
1015.774608
1015.774608
1015.774608
1015.774608
1015.774608
1015.774608
576.866865
285.245776
78.386664
23.060441
9.306669
8.539557
8.237958
8.067489
7.849932
8.040667
7.873774
7.933974
7.983446
##ZVALUE=380
0.522733
0.747442
0.699759
0.748634
0.634789
0.630617
0.681877
0.540614
0.573993
0.588894
0.625849
0.581741
0.469685
0.623465
0.479817
0.600815
0.638962
0.649691
0.520945
0.654459
0.630617
0.658631
0.650883
0.705719
0.598431
0.755787
0.852942
0.766516
0.668764
0.708699
0.809431
0.773668
0.686646
0.777841
0.694990
0.892878
0.591874
0.703931
0.910759
0.774860
0.892878
0.851750
0.902414
0.838637
0.763535
0.857711
1.006722
0.915527
0.931621
1.121759
1.122952
1.117587
1.181960
1.068711
1.133680
1.308918
1.192689
1.211762
1.304746
1.582503
1.358986
1.574755
1.740456
1.868606
1.940727
2.084970
2.389550
2.954602
2.993941
3.724694
4.066825
5.101562
14.109612
82.787871
217.313766
576.852560
971.645713
1015.794873
1015.794873
1015.794873
1015.794873
1015.794873
1015.794873
1015.794873
1015.794873
783.972740
413.633585
136.455894
45.647621
11.647940
8.305907
7.715821
7.481575
7.244945
7.360578
7.302761
##ZVALUE=385
0.588894
0.611544
0.489950
0.657439
0.421405
0.586510
0.437498
0.494719
0.489950
0.673532
0.544786
0.536442
0.536442
0.621676
0.568628
0.443459
0.714660
0.441670
0.594854
0.696778
0.607967
0.779629
0.706911
0.651479
0.675917
0.666976
0.747442
0.546575
0.627637
0.753999
0.645518
0.742674
0.549555
0.773668
0.787973
0.869632
0.823736
0.753999
0.757575
0.756979
0.728965
0.858903
0.840425
0.968575
0.883937
0.963807
0.855923
0.816584
0.951886
0.861883
0.990629
1.015663
0.956655
0.918508
1.040697
1.193881
1.075864
1.253486
1.160502
1.324415
1.428723
1.492500
1.622438
1.667738
1.770854
2.069473
2.207756
2.490878
2.701879
3.008842
3.206730
3.280640
3.469586
3.738999
6.594658
42.004585
128.484964
388.617516
764.073730
1015.794873
1015.794873
1015.794873
1015.794873
1015.794873
1015.794873
1015.794873
1015.794873
1015.794873
669.399500
274.671912
103.797913
19.571781
8.549690
7.287860
6.944537
6.775856
##ZVALUE=390
0.462532
0.432730
0.507832
0.424981
0.395775
0.567436
0.511408
0.613928
0.699759
0.482798
0.663996
0.546575
0.615716
0.514984
0.583529
0.564456
0.527501
0.513792
0.544786
0.615716
0.690818
0.552535
0.655651
0.663996
0.552535
0.711679
0.524521
0.636578
0.671744
0.804663
0.712872
0.755787
0.652671
0.706911
0.736713
0.604987
0.664592
0.779629
0.738502
0.835657
0.750422
0.830889
0.792742
0.784993
0.700951
0.762939
0.802875
0.814795
0.956655
0.871420
1.042485
0.884533
0.978708
0.996590
1.032948
0.955462
1.035929
0.967979
1.114607
1.148582
1.246929
1.352429
1.375675
1.606941
1.568794
1.890659
2.020597
2.301931
2.574921
2.754927
2.813935
2.968907
2.954602
3.010631
3.010631
3.177524
4.161596
17.818809
63.496828
237.378478
504.276752
1008.080840
1015.794873
1015.794873
1015.794873
1015.794873
1015.794873
1015.794873
1015.794873
1015.794873
930.782557
400.553942
182.861686
46.155453
12.993813
7.074475
##ZVALUE=395
0.529885
0.528693
0.584722
0.512600
0.479817
0.589490
0.628829
0.588894
0.488758
0.452995
0.405908
0.586510
0.540614
0.529885
0.604987
0.549555
0.588894
0.546575
0.559688
0.469685
0.543594
0.657439
0.468493
0.613928
0.627637
0.394583
0.562668
0.668764
0.716448
0.775456
0.678897
0.532866
0.627637
0.581741
0.678897
0.590682
0.690818
0.725985
0.722408
0.681877
0.785589
0.667572
0.733733
0.790954
0.755787
0.697970
0.794530
0.772476
0.819564
0.955462
0.904799
0.913739
1.005530
0.957847
1.016855
1.040697
1.030564
1.043677
1.132488
1.196861
1.263618
1.391768
1.334548
1.508594
1.641512
1.843572
1.900792
2.057552
2.314448
2.623796
2.376437
2.425909
2.466440
2.353787
2.407432
2.612472
2.788901
3.017783
3.555417
9.196997
37.725568
164.350867
364.082456
824.233890
1015.792489
1015.792489
1015.792489
1015.792489
1015.792489
1015.792489
1015.792489
1015.792489
1015.793085
605.497956
295.090675
86.735487
##ZVALUE=400
0.527501
0.422597
0.483990
0.521541
0.557899
0.385642
0.542998
0.387430
0.634789
0.479817
0.621676
0.676513
0.498891
0.578761
0.499487
0.595450
0.499487
0.503659
0.667572
0.553727
0.583529
0.618696
0.587702
0.529885
0.551939
0.597835
0.709891
0.625849
0.560880
0.664592
0.595450
0.724792
0.616908
0.461936
0.717640
0.518560
0.732541
0.681877
0.599623
0.724792
0.726581
0.666976
0.823736
0.731945
0.873804
0.769496
0.771880
0.766516
0.794530
0.725985
0.885725
0.929832
0.896454
0.975728
0.866652
1.017451
0.983477
0.908971
0.944734
1.127720
1.124740
1.186728
1.254678
1.235604
1.641512
1.826882
1.902580
2.140999
2.213717
2.156496
2.216697
2.282858
2.022982
1.936555
1.939535
2.042651
1.956820
2.182722
2.367496
2.841949
3.238916
5.407929
18.035769
80.313683
198.913813
523.298979
929.719806
1015.794873
1015.794873
1015.794873
1015.794873
1015.794873
1015.794873
1015.794873
1015.794873
796.609521
##END
