##TITLE=QP00302
##FORMAT=SPECTACLE-ASCII V-1.2
##DATA TYPE=ULTRAVIOLET SPECTRUM
##SECOND TYPE=ULTRAVIOLET SPECTRUM
##DATE=05/24/18
##TIME=18:01:51
##SPECTROMETER/DATA SYSTEM=SPECTACLE
##XUNITS=NM EM
##YUNITS=ENERGY
##YFACTOR=1
##FIRSTX=220
##LASTX=410
##NPOINTS=96
##3DDATA=Equidistant
##ZUNITS=NM EX
##FIRSTZ=210
##LASTZ=400
##ZPOINTS=39
##XYDATA=(Y..Y)
##ZVALUE=210
4.209876
4.018545
4.238486
4.304647
4.364848
4.711747
4.354715
5.024672
4.249811
4.563928
3.392696
3.421903
3.873706
3.624558
3.276467
4.056692
4.289746
3.906488
5.419850
5.116463
5.699992
5.393624
5.284548
5.842447
6.436706
7.199645
5.993843
6.266832
6.665587
7.599592
7.151961
6.955862
7.500648
7.622838
7.591844
8.479953
8.486509
8.816719
8.884668
8.537769
8.811951
8.748770
7.916689
9.728670
9.184480
8.478761
9.185672
10.070801
9.539723
10.411739
9.967685
9.609461
12.202859
10.279417
10.316968
10.937452
10.626912
9.883642
10.226965
10.755658
10.991693
11.022687
10.926723
11.372566
13.856888
14.192462
15.750527
18.272996
22.600889
25.959611
28.751493
34.253597
38.318634
39.624572
41.191578
40.583611
38.479567
37.612915
34.139752
29.993653
26.878715
21.113753
19.281507
17.293692
17.500520
13.369918
11.482835
11.675954
10.684729
11.621714
12.508631
13.224483
12.649894
15.017986
14.934540
16.182661
##ZVALUE=215
21.519661
22.936463
16.207695
12.600422
9.910464
9.344816
8.547902
8.536577
9.736419
9.410977
9.171963
7.454753
5.793571
5.800724
4.689693
4.434586
4.390478
4.939437
4.543662
4.169941
4.947782
5.964637
5.837679
5.111694
5.866885
6.634593
6.660819
6.557703
6.980896
7.083416
7.322431
7.684827
8.153915
9.883642
8.098483
7.328987
8.569956
8.500814
8.381605
8.753538
8.432865
9.281635
8.658767
9.513497
10.120869
8.973479
9.685755
8.884668
9.498000
9.875894
9.275675
10.422468
9.180903
9.826422
11.016726
9.577870
10.268688
10.611415
11.442900
9.972453
11.139512
10.654926
11.485815
12.216568
12.088418
12.973547
15.234947
17.192960
20.178556
23.427606
25.742650
28.635859
30.734539
32.678843
34.739971
34.580827
32.952428
32.599568
29.866695
26.873946
23.993850
20.475984
18.405914
15.046000
14.875531
14.241934
12.673736
13.125539
11.425614
11.662841
10.902882
12.195706
10.539889
11.845827
10.862947
11.860728
##ZVALUE=220
78.948736
77.591538
77.420473
64.699650
53.282976
38.558841
30.124784
22.313595
21.930933
20.951629
20.306706
19.033551
17.617941
16.012788
13.959408
11.383891
9.441972
6.926656
6.240606
6.014705
5.776882
6.109476
5.593896
6.063581
5.928874
6.915927
5.797744
8.291602
7.574558
7.527471
7.101893
7.733703
8.313656
7.884502
7.940531
8.944869
8.948445
8.433461
8.990765
9.023547
10.269880
9.203553
8.531809
9.703636
9.156466
10.223985
9.326935
9.565949
8.350611
9.434819
8.079410
9.622574
9.737611
10.087490
11.002421
10.029674
10.695457
10.348558
10.503531
10.482669
11.030436
10.625720
11.883974
11.161566
12.200475
13.433695
15.630722
15.829802
19.102693
20.980835
24.275780
26.040673
29.969811
29.318929
30.173659
30.183792
28.413534
29.308796
24.401546
22.888780
20.046830
18.781424
16.807914
16.177893
14.214516
13.520718
14.355779
12.496710
12.599826
13.019443
12.503862
11.786819
11.838675
11.484623
11.716485
12.699962
##ZVALUE=225
132.520795
135.679841
168.104768
191.971660
186.737776
166.805983
144.080520
100.013614
73.783994
55.437684
41.536689
38.012862
38.921833
40.560961
37.161708
34.946799
27.095675
23.655891
15.495420
10.647774
8.666515
5.776882
6.131530
5.437732
5.339980
5.299449
6.000996
6.000996
6.092787
6.491542
6.183982
6.177425
6.894469
7.348657
6.727576
7.292628
6.995797
7.884502
7.883906
8.385777
9.069443
7.696748
8.584857
8.271933
9.197593
8.350611
8.437634
9.382963
8.496642
8.874536
8.553863
9.297729
9.011626
9.010434
9.958744
9.273887
9.302497
9.899735
10.227561
10.339618
9.869933
10.816455
11.536479
12.181997
13.048649
15.383959
15.205741
17.406940
18.839836
21.639466
22.923946
25.830865
28.072000
28.233528
27.353764
27.232766
25.829673
26.324987
25.001764
21.994710
20.368695
20.354986
19.830465
17.565489
17.275810
17.583966
16.629696
15.750527
15.561581
14.768839
14.302731
15.864968
15.939474
14.563799
14.584661
16.675591
##ZVALUE=230
92.471838
99.454522
157.012939
244.744420
299.920440
345.755816
359.968543
326.246619
281.514525
194.434524
135.114789
94.232559
70.137978
61.603785
63.304901
66.000819
66.469908
60.781837
50.380826
41.625500
28.877854
19.689798
11.919737
9.087920
6.037951
5.853772
5.436540
5.919933
5.559921
6.127954
6.118417
6.345510
6.927848
5.896688
6.485581
6.701946
6.504655
6.825924
7.133484
7.109642
7.987618
8.177757
7.389784
7.668734
8.013844
8.053780
7.758737
7.602572
7.868409
8.621812
8.855462
8.642673
9.288788
9.258986
9.299517
8.752942
10.226965
9.042621
10.241866
9.536743
10.627508
11.416674
12.756586
12.767911
13.882518
14.705658
15.664697
17.943978
19.583702
22.410750
24.106503
25.966763
28.035641
29.656887
28.584599
28.363466
28.666854
27.542710
25.737882
24.994612
23.207664
22.304654
21.078587
21.191835
22.398829
21.425486
20.580888
21.148920
20.876527
20.824671
20.084977
19.604564
20.844936
20.067692
20.525455
20.569563
##ZVALUE=235
20.904541
24.875998
56.999922
136.037469
218.597651
339.183807
433.219671
522.854924
548.321009
529.881716
441.950560
352.121592
227.558613
159.786940
107.169747
89.391470
83.206892
86.605549
91.742873
89.317560
83.773732
66.921711
51.494837
34.155846
23.488998
13.426542
9.166598
6.177425
5.249977
5.897880
5.916953
5.461574
5.880594
5.974770
5.627871
6.505847
6.104708
6.349683
6.513596
6.509423
6.470680
6.548762
6.645918
6.420612
6.581545
7.040501
7.002950
6.716847
6.965995
7.377863
7.396936
7.518530
8.004904
8.102655
8.522868
9.095669
7.986426
9.074807
10.085702
9.486675
10.853410
11.915565
12.283921
12.125969
14.853477
14.645457
16.128421
19.071698
20.190477
23.375750
24.333596
25.689602
28.206706
30.050874
29.109716
30.533671
29.868484
28.181672
28.090477
27.544498
25.475621
26.154518
25.845766
25.880933
24.860501
24.983883
25.984645
25.130510
25.841594
24.703741
24.801493
24.079680
25.145411
24.718642
24.034977
25.264621
##ZVALUE=240
1.738667
2.397895
5.442500
26.592612
60.252547
140.308738
235.259533
414.571762
557.640791
728.256702
829.417706
841.853023
784.279704
620.752573
485.115647
345.722437
199.234486
134.394765
97.057819
95.094442
103.304982
109.221935
102.194548
89.610815
70.459843
54.276586
39.906502
24.340749
16.602874
9.735823
7.790923
6.111860
5.744696
6.053448
6.137490
6.375909
5.987883
6.350875
5.756617
5.927682
5.848408
6.137490
5.900860
5.849600
5.492568
5.949736
6.816983
6.674528
6.151795
6.981492
6.658435
7.470846
7.295609
7.837415
7.668734
7.763505
8.333921
8.387566
9.115934
10.077953
10.793805
11.039972
10.828972
12.139678
13.376474
13.907552
14.845729
17.545819
20.645857
22.063851
24.211407
26.622415
28.157830
29.236674
29.576421
29.655695
29.752851
29.569864
28.217435
27.264953
28.041601
27.735829
27.272701
26.395917
26.671886
27.483702
26.766658
26.122928
28.678775
26.415586
26.487708
27.883649
26.951432
26.672482
26.599765
26.441813
##ZVALUE=245
1.670718
1.391768
1.594424
1.659989
3.859997
13.656616
49.874783
105.784535
244.717598
377.941728
596.649647
742.794871
851.889849
895.506740
844.722986
690.134764
547.947884
360.011458
239.925981
140.825510
101.526976
90.072751
100.667477
111.808777
112.756491
110.878944
94.112754
79.830885
56.705475
42.819977
30.047894
16.792417
12.120605
6.758571
6.169677
5.597472
5.387664
5.609989
5.149841
4.947782
5.800724
5.434752
5.660653
5.468726
5.411506
5.681515
5.621910
5.441904
5.582571
5.632639
5.502701
6.083846
5.719662
6.104708
6.284714
6.750822
6.814599
6.917715
7.717609
8.321404
9.071827
9.125471
9.756684
10.696650
11.265874
12.910962
13.886690
14.459491
16.746521
18.207431
20.529628
22.222996
24.216771
25.985837
24.730563
25.563836
25.356412
25.746822
25.668740
24.906993
25.810599
24.964809
25.128722
24.798512
24.953485
24.714470
25.174618
26.139617
26.544929
25.463700
25.134683
25.428534
24.804473
24.573803
25.071502
25.263429
##ZVALUE=250
1.577735
1.409650
1.414418
1.511574
1.339912
1.740456
2.713799
7.546544
35.516620
80.767870
200.514793
337.019563
495.393872
714.710951
849.449635
943.715572
919.878483
801.234841
658.251643
439.899564
290.629864
183.553696
104.753971
81.884861
89.875460
103.300810
114.846826
118.685961
110.505819
99.854469
85.891485
62.361956
46.250820
27.436614
17.991662
10.950565
6.875992
5.873442
5.306602
5.155802
5.195737
5.389452
5.143881
4.869699
4.983544
5.193949
5.156994
5.053878
4.926920
5.206466
4.839897
5.357862
5.645752
5.267859
5.464554
6.018877
5.807877
6.093979
6.408691
6.783605
7.065535
7.401705
7.890463
8.813739
9.507537
10.162592
11.316538
12.737513
13.394952
15.846491
16.871691
19.429922
20.354986
21.123886
20.656586
21.510720
22.094846
21.380782
21.787882
21.593571
21.945834
21.222830
22.159815
21.800995
21.458864
22.155643
22.525787
22.475719
22.059679
22.482872
23.384690
22.769570
22.689700
23.117661
23.375750
23.659468
##ZVALUE=255
0.873804
0.925660
0.984669
1.249909
1.348853
1.168847
1.455545
1.238585
1.855493
3.696680
21.506548
54.776669
117.074847
265.297890
416.917801
657.740831
825.877786
985.145569
1015.784740
961.159468
825.973749
644.714832
396.502018
245.697498
124.001503
84.469914
74.225664
82.521439
101.462603
114.038587
119.016767
113.752484
106.528997
83.609819
65.114498
43.013692
29.834509
16.907454
10.398626
6.526709
4.900694
4.621744
4.440546
4.458427
4.799962
4.404783
4.722476
4.435778
4.489422
4.344583
4.880428
4.854798
4.514456
4.746914
5.090833
5.041957
4.944801
5.432963
5.665421
5.873442
6.109476
6.306767
6.875992
7.359982
7.575750
8.791685
9.321570
10.837913
11.211634
13.133883
14.128685
15.217662
15.992522
16.628504
18.263459
17.131567
17.465949
17.986894
18.035769
19.179583
18.058419
18.493533
18.850565
19.418597
19.559860
19.597411
19.917488
19.858479
20.039678
20.592809
20.443797
20.248890
20.841956
21.058917
20.907521
20.582676
##ZVALUE=260
0.998974
0.821948
1.112819
1.019835
1.019835
1.046658
1.091957
1.278520
1.377463
1.438856
1.643896
2.144575
7.172823
32.858849
78.117847
193.897486
329.598784
556.027889
748.629570
989.305973
1015.788913
1015.788913
996.204019
817.484856
543.727875
366.530418
200.077891
118.469000
69.361925
66.374540
77.751875
99.670887
111.621618
120.977759
119.134784
103.445649
89.007616
65.171719
46.632886
29.207468
18.753409
9.964705
6.889701
5.255938
4.527569
4.407763
4.361868
4.611611
4.393458
4.442930
4.610419
4.706979
4.593730
4.691482
4.554987
4.516840
5.060434
5.249977
5.067587
5.413890
5.601645
5.984902
5.825758
6.693602
7.345676
7.652640
8.398890
9.251833
10.803938
11.247993
11.825562
13.004541
14.056563
14.478564
15.848875
15.612841
15.360713
16.252995
16.100407
16.608834
16.150475
16.850829
17.236471
17.620921
17.424822
17.816424
18.006563
18.028617
18.195510
18.642545
18.537641
18.960834
18.889904
19.275546
19.415617
19.609928
##ZVALUE=265
0.886917
0.927448
0.957847
1.037717
0.983477
1.118779
1.165867
1.075864
1.235604
1.457930
1.404881
1.600981
1.725554
1.806617
4.136562
23.103952
58.891773
155.925751
276.807547
520.435572
745.522976
963.611603
1015.799642
1015.799642
1015.799642
996.621847
747.586489
528.697968
287.144780
172.281861
99.944472
59.465766
61.302781
84.831715
100.680590
116.983652
124.001503
117.656589
107.479692
86.721778
67.388415
44.411421
30.328631
17.470717
10.773540
6.307960
5.281568
4.938841
4.653931
4.825592
4.612803
4.752874
4.689693
5.179644
5.079508
5.144477
5.291700
5.133748
5.213618
5.884767
5.584955
5.935431
6.149411
6.482601
6.750822
7.881522
7.935762
8.961558
10.076761
11.142492
11.745691
12.919903
13.309717
13.905764
14.647841
14.736652
14.803410
14.849901
14.905930
15.081763
14.654994
15.765429
15.932918
15.907884
16.680956
16.613603
16.869903
17.301440
17.262697
17.159581
17.612576
17.776489
17.766953
18.127561
18.279552
18.661618
##ZVALUE=270
1.034737
0.962615
1.089573
0.911951
0.817776
0.959635
1.145601
1.013875
1.067519
1.150966
1.094937
1.278520
1.188517
1.641512
1.544952
1.678467
2.220869
10.116696
32.542944
113.730431
229.407549
401.763916
704.043508
941.608548
1015.806794
1015.806794
1015.806794
1015.806794
929.241776
705.098510
487.412810
250.249505
136.356950
60.950518
48.175454
61.372519
78.956485
101.783872
113.648772
122.602582
120.039582
107.316971
90.066791
67.295432
48.534870
28.744936
19.464493
11.193752
7.677674
5.841851
5.211830
4.803538
4.893541
5.136728
5.056858
5.313754
5.790591
5.644560
5.683899
5.788803
5.977750
6.133914
6.382465
6.812811
7.075667
7.832646
8.219481
8.871555
9.426475
10.754466
11.736751
12.249947
13.065934
13.517737
13.828874
13.963580
13.900995
14.247894
14.094710
14.022589
14.023781
14.441609
14.830828
14.920831
15.590787
15.347600
15.895963
16.102791
16.523600
16.527772
16.544461
16.882420
16.491413
17.369986
17.303824
17.005801
##ZVALUE=275
0.812411
0.794530
0.813603
0.864863
0.865459
0.880957
0.991821
0.856519
0.932813
1.073480
1.006722
1.024604
1.104474
1.179576
1.219511
1.392961
1.413822
1.491904
1.800656
4.448891
17.976761
52.179694
163.924694
313.071012
588.482618
811.066031
1015.794873
1015.794873
1015.794873
1015.794873
1015.794873
886.929035
576.145649
360.615849
165.530443
85.904002
42.081475
41.514635
59.079528
75.351596
98.202825
109.380484
119.686723
117.893815
105.714798
91.200471
67.344904
51.168799
32.745600
21.246672
11.837482
8.791685
6.236434
5.411506
5.661845
5.549788
5.515814
5.769730
5.853772
6.115437
6.489754
6.478429
6.710887
7.097721
7.277727
7.682443
8.531809
8.924603
9.495616
10.895729
11.516809
11.950731
12.819767
13.356805
13.644695
13.901591
13.892651
13.426542
14.007688
13.935566
13.564825
14.247894
14.669895
14.951825
14.896989
15.026927
15.419722
15.141964
15.524626
15.858412
15.696883
15.740991
16.195774
16.071796
15.802979
16.142726
##ZVALUE=280
0.662804
0.602603
0.471473
0.770688
0.668764
0.702739
0.699759
0.796914
0.743866
0.736713
0.808835
0.707507
0.825524
1.044869
1.060963
1.091957
1.100898
1.148582
1.228452
1.380444
1.668930
1.704693
10.011792
35.672784
119.323730
227.819681
438.807607
650.361776
959.772468
1015.623808
1015.623808
1015.623808
1015.623808
1001.774669
779.991746
452.020764
264.723897
108.305812
52.014589
31.701922
38.084984
56.348443
73.598623
95.271468
108.342767
117.298961
114.841461
104.087591
89.754462
67.340732
51.078796
32.204986
21.786690
12.669563
8.609891
6.291866
5.688667
5.850792
5.751848
6.000996
6.129742
6.485581
6.845593
7.037520
7.312894
7.747412
8.232594
9.174943
9.559989
10.392666
11.130571
11.979938
12.464523
12.754798
12.854934
13.284683
13.240576
13.267994
13.251901
13.223886
13.584495
13.917685
14.507771
14.271736
14.545918
14.564991
14.976859
14.911890
15.034676
15.311837
15.434623
15.228987
15.456676
14.921427
15.193820
15.624762
##ZVALUE=285
0.544786
0.727773
0.759959
0.674725
0.792742
0.653863
0.739694
0.787973
0.729561
0.708699
0.774860
0.809431
0.819564
0.842810
0.889897
0.959635
0.909567
1.181960
1.159906
1.194477
1.259446
1.225471
1.598001
1.655817
4.336834
15.718937
61.587691
139.451623
318.049788
508.222580
806.695819
1009.241939
1015.698910
1015.698910
1015.698910
1015.698910
893.214941
636.245012
339.836478
188.241005
71.778893
33.509731
25.461912
33.501983
52.262545
69.077611
90.662837
103.832483
112.951994
113.497972
103.287697
91.586709
69.771409
52.998662
35.001636
22.913814
13.573766
9.514689
7.032752
6.397963
6.511807
6.803870
7.015467
7.391572
7.917881
8.146763
8.863807
9.096861
10.113716
10.491610
11.429787
11.862516
12.285709
12.526512
12.744665
12.944937
13.165474
13.293624
13.296604
13.858676
13.934970
14.129877
14.317632
14.475584
14.158487
14.972687
14.904737
15.050769
14.837980
15.110970
15.148520
14.923811
14.895797
14.765859
14.634728
15.042424
##ZVALUE=290
0.749826
0.678897
0.636578
0.695586
0.794530
0.790954
0.780821
0.820756
0.847578
0.843406
0.864863
0.814795
0.773668
0.859499
0.839829
0.921488
0.877976
1.018643
1.075864
1.106858
1.120567
1.149774
1.362562
1.447797
1.515746
1.575947
2.414584
6.657839
34.253597
82.901716
206.983685
362.882018
643.758774
886.926651
1015.794873
1015.794873
1015.794873
1015.794873
990.560651
775.949955
473.237038
283.525586
118.260980
52.316785
20.699501
21.316409
32.571554
45.505762
66.811442
81.767440
99.560618
108.374953
109.711885
104.032755
88.535547
72.394609
49.869418
36.730766
23.015738
16.037822
10.260940
8.626580
7.424951
7.871985
7.939935
8.696914
8.837581
9.537935
10.405779
10.960698
11.789799
12.272000
12.811422
12.950897
13.340712
13.421774
13.297796
13.528466
14.103651
14.184713
14.411807
14.232993
14.835596
14.773607
14.762878
14.970899
15.108585
15.182495
15.100837
15.321970
15.144944
15.242696
15.164614
14.960766
15.320778
15.086532
##ZVALUE=295
0.719428
0.727773
0.752807
0.664592
0.792742
0.652671
0.730753
0.726581
0.926852
0.698566
0.732541
0.820756
0.833869
0.706911
0.766516
0.870824
0.913739
0.892878
0.961423
0.919700
0.989437
1.006722
1.074672
1.179576
1.217723
1.355410
1.576543
1.509786
2.003908
2.745986
14.136434
45.773983
145.153403
288.113952
568.162799
811.474919
1015.794873
1015.794873
1015.794873
1015.794873
1015.794873
965.059996
709.142685
400.328636
229.980946
83.122849
34.882426
16.436577
19.057989
27.529597
43.261647
58.898926
79.771876
91.973543
104.462504
105.412602
99.120736
88.321567
69.718957
54.178834
36.497712
25.856495
16.584992
12.702942
10.353923
9.888411
9.858608
10.945797
11.766553
12.465715
13.274550
13.504624
14.272928
14.355779
14.513731
14.553666
14.835596
14.458895
14.672875
14.856458
15.398860
15.198588
15.255809
15.577674
15.772581
15.629530
16.167760
15.918612
15.785694
15.788674
15.605688
15.669465
15.566945
15.375614
15.611649
15.375614
##ZVALUE=300
0.596642
0.569820
0.566840
0.656843
0.778437
0.581741
0.675917
0.669956
0.709891
0.753999
0.750422
0.647902
0.696778
0.810623
0.824928
0.627637
0.825524
0.958443
0.953674
0.868440
1.022816
1.014471
1.156926
1.031756
1.109838
1.181960
1.297593
1.474619
1.444817
1.667738
2.039671
2.087951
4.433990
26.815534
77.027678
223.760605
401.442051
732.877851
992.665887
1015.794873
1015.794873
1015.794873
1015.794873
1015.794873
894.096494
530.152917
325.796604
144.109726
64.566731
19.622445
13.360977
18.035769
25.455952
40.503740
53.881407
74.524879
87.376833
98.724961
101.008415
95.933676
85.761547
69.050789
54.483414
37.978888
27.877688
18.215775
14.345646
11.718869
11.447668
11.742711
12.483597
12.795925
13.257861
13.585687
14.208555
14.299750
14.239550
14.505982
14.877915
14.793873
15.298724
15.440583
15.684962
15.901923
15.890598
15.786886
16.140938
15.861988
15.727878
15.743971
15.400648
15.326738
15.298724
15.149713
15.368462
15.120506
##ZVALUE=305
0.601411
0.508428
0.677705
0.656843
0.789762
0.648499
0.559688
0.557899
0.684857
0.695586
0.727773
0.824928
0.634789
0.768900
0.828505
0.845790
0.733733
0.771880
0.832677
0.756979
0.891685
0.839829
0.922680
0.979900
1.086593
1.126528
1.077652
1.205802
1.219511
1.357794
1.301765
1.688600
1.851916
1.871586
2.628565
14.139414
43.765903
147.654414
295.899510
601.890683
882.714987
1015.793681
1015.793681
1015.793681
1015.793681
1015.793681
977.607965
644.904971
416.892767
195.960999
94.949603
28.575659
12.822747
12.045503
16.247630
25.961995
36.357641
53.633451
68.161488
84.165931
92.911720
97.291470
93.678832
82.301497
70.190430
51.974654
39.130449
27.509928
20.569563
15.945435
14.205575
13.339520
13.413429
13.913512
13.866425
14.146566
14.554858
15.051961
14.826655
15.567541
15.762448
15.773773
16.148686
16.543865
16.556978
16.570687
16.749501
16.335845
16.008615
16.280413
15.837550
16.251802
15.863776
15.461445
15.890598
15.896559
##ZVALUE=310
0.627637
0.550747
0.684857
0.572801
0.648499
0.528693
0.454783
0.626445
0.645518
0.712872
0.650883
0.652671
0.404716
0.688434
0.735521
0.737906
0.641942
0.754595
0.548959
0.894666
0.913739
0.915527
0.781417
0.878572
0.920892
0.896454
1.009703
1.079440
1.142621
1.013875
1.263618
1.309514
1.346469
1.527667
1.534820
1.817942
2.022982
5.951524
20.149946
78.570843
179.322958
435.658693
715.445876
1015.792489
1015.792489
1015.792489
1015.792489
1015.792489
1015.792489
825.724602
557.222962
281.537771
149.327517
51.595569
19.560456
9.738803
10.939837
15.677810
21.758676
34.171939
45.945644
63.899755
76.561570
88.860989
93.167424
90.247989
84.124804
69.560409
56.492686
40.303469
31.198859
22.569895
18.869638
15.370846
14.758706
14.694929
14.389753
14.717579
15.155673
15.628934
15.911460
16.159415
16.348958
16.490817
16.552806
16.972423
16.777515
16.646981
16.768575
16.799569
16.676784
16.616583
16.421676
16.235709
16.264915
16.057491
##ZVALUE=315
0.609756
0.730753
0.784993
0.662804
0.654459
0.631809
0.674725
0.609756
0.764728
0.733733
0.703931
0.777841
0.736713
0.742674
0.774860
0.814795
0.636578
0.861883
0.865459
0.958443
0.828505
0.829697
0.956655
0.805855
0.960827
0.846982
0.988841
0.996590
0.920892
1.050830
1.097918
1.214743
1.238585
1.263618
1.400709
1.505613
1.715422
1.804829
1.827478
3.213882
11.474490
50.150752
121.465921
311.117768
554.276705
974.624753
1015.872955
1015.872955
1015.872955
1015.872955
1015.872955
1015.872955
761.964917
408.584476
217.985511
75.784922
29.645562
10.703802
9.353757
10.877848
13.975501
21.852851
30.261874
44.615865
58.062673
74.668527
83.816648
89.273453
88.829994
79.817772
69.315434
54.870844
42.890906
30.381680
23.961663
18.523932
16.724467
15.597939
15.214682
15.489459
15.915632
16.092658
16.516447
16.775727
16.722679
16.631484
17.459989
17.296672
17.194748
17.303824
16.996861
16.474724
16.325712
16.419888
16.380548
16.258955
##ZVALUE=320
0.508428
0.632405
0.598431
0.583529
0.579953
0.446439
0.572801
0.602603
0.572801
0.668764
0.755787
0.710487
0.650883
0.674725
0.716448
0.675917
0.610948
0.640750
0.743866
0.537634
0.807643
0.819564
0.819564
0.777841
0.750422
0.810623
0.864863
0.990629
0.970960
0.992417
0.967979
0.954866
1.038909
1.072884
1.164675
1.178980
1.326799
1.340508
1.545548
1.556873
1.821518
2.163649
5.251765
29.932857
79.147816
223.793983
408.514738
764.998794
1015.802026
1015.802026
1015.801430
1015.802026
1015.802026
1015.801430
986.150503
571.251512
318.704844
124.318600
53.494573
15.987754
9.645820
9.307861
10.924935
14.202595
19.238591
29.975772
40.499568
56.175590
68.830848
81.452727
85.774660
85.167885
78.277588
65.528750
54.152608
40.737987
31.844974
23.725629
19.712448
16.995668
16.500950
16.026497
16.570687
16.469955
16.397834
16.956925
17.096996
16.819835
16.937852
16.894937
16.779900
16.807914
16.420484
16.754866
16.515851
16.472936
##ZVALUE=325
0.511408
0.553727
0.641942
0.618696
0.584722
0.379682
0.530481
0.560880
0.573993
0.680685
0.663996
0.619888
0.605583
0.589490
0.493526
0.590682
0.541806
0.615716
0.599623
0.612736
0.611544
0.438690
0.508428
0.729561
0.836849
0.722408
0.703931
0.747442
0.839829
0.916719
0.905991
0.837445
0.880957
0.919700
0.921488
1.053810
1.218915
1.206994
1.158714
1.390576
1.376867
1.573563
1.624823
2.035499
2.893806
18.719435
52.396655
154.766440
295.683742
609.668493
916.177034
1015.787721
1015.787721
1015.787721
1015.787721
1015.787721
1015.787721
707.896948
425.899625
181.791782
82.808733
23.383498
10.944605
8.708835
9.201765
11.002421
14.146566
20.468831
28.664470
42.690635
54.096580
67.954659
77.024698
82.377791
80.953836
72.957873
64.122677
50.481558
40.341616
29.465556
24.109483
19.209981
17.884970
16.932487
16.590953
16.777515
16.634464
16.863942
16.549826
16.417503
16.188622
16.315579
16.091466
15.980601
16.028881
16.068816
##ZVALUE=330
0.458956
0.547767
0.392795
0.587702
0.457764
0.678897
0.565648
0.562668
0.454783
0.466704
0.606775
0.486970
0.569820
0.583529
0.556707
0.633597
0.609756
0.600815
0.647902
0.700951
0.601411
0.690818
0.718832
0.568628
0.762939
0.900626
0.789762
0.689626
0.591874
0.900626
0.805855
0.842810
0.921488
0.902414
0.941753
0.911951
0.951886
1.025796
1.065731
1.218915
1.173615
1.233816
1.330972
1.576543
1.659989
1.825690
2.377629
5.985498
33.110976
88.931918
364.962816
459.760427
1005.187035
1015.794873
1015.794873
1015.794873
1015.794873
1015.794873
1015.794873
975.805521
331.875682
283.991694
140.908957
43.294430
16.473532
9.353757
9.570718
9.669662
11.622906
14.688969
25.786757
30.115843
39.489865
53.119659
63.252449
74.221492
78.003407
77.107549
71.096420
59.598684
50.147772
37.855506
30.703545
24.223924
20.904541
17.900467
16.935468
16.472936
16.048551
16.165972
15.888810
15.958548
15.885830
15.688539
15.554428
15.743971
##ZVALUE=335
0.407696
0.551939
0.451803
0.549555
0.525713
0.534654
0.522733
0.546575
0.497699
0.540614
0.537634
0.526905
0.443459
0.598431
0.647902
0.618696
0.647902
0.541806
0.581741
0.666976
0.707507
0.562668
0.665784
0.648499
0.696778
0.745654
0.621676
0.611544
0.752807
0.693798
0.712872
0.859499
0.797510
0.878572
0.901818
0.869632
0.961423
1.044869
0.922680
1.023412
1.083612
1.109838
1.140833
1.258850
1.360774
1.556873
1.407862
1.902580
2.059937
3.728867
13.834834
64.295530
151.016712
374.360085
643.215775
1015.794873
1015.794873
1015.794873
1015.794873
1015.794873
1015.794873
1015.794873
812.571049
431.523919
225.971937
74.203610
27.606487
10.895729
9.625554
9.976625
10.409951
12.401938
14.806986
20.508766
27.567744
38.871765
48.595667
61.269999
68.160892
73.613524
73.794723
66.732764
59.420466
48.238635
39.490461
30.456781
24.867654
20.097494
17.989874
16.436577
15.708804
15.549660
15.315413
15.078783
15.128851
15.132427
##ZVALUE=340
0.494719
0.440478
0.601411
0.535846
0.409484
0.537634
0.586510
0.484586
0.715852
0.641942
0.490546
0.557899
0.550747
0.505447
0.416636
0.714660
0.533462
0.523925
0.789762
0.513792
0.463724
0.541806
0.631809
0.559688
0.765920
0.570416
0.712872
0.515580
0.747442
0.563860
0.703931
0.762939
0.741482
0.875592
0.749826
0.742674
0.874996
0.857711
0.895858
0.921488
0.895858
0.953674
1.135468
1.089573
1.184940
1.215935
1.444817
1.439452
1.549721
1.791716
1.872778
2.461672
6.826520
39.076805
106.818676
305.469036
558.956861
978.450775
1015.800834
1015.800834
1015.800834
1015.800834
1015.800834
1015.800834
982.429981
544.593930
301.209688
118.110776
44.438839
13.417602
10.152459
10.325909
10.456443
10.980964
12.064576
15.214682
19.485950
27.171969
35.633445
48.421621
57.331920
66.207647
69.534779
69.247484
64.985752
56.302547
48.596859
37.717819
31.036735
23.993850
20.063519
16.843677
15.472770
14.749765
14.904737
14.529824
##ZVALUE=345
0.532866
0.687838
0.460744
0.520945
0.437498
0.501871
0.376701
0.504851
0.518560
0.555515
0.385642
0.618696
0.672936
0.577569
0.565648
0.456572
0.506639
0.530481
0.622869
0.580549
0.601411
0.525713
0.583529
0.705719
0.621676
0.587702
0.611544
0.612736
0.658631
0.643730
0.735521
0.795722
0.658631
0.780821
0.776649
0.557899
0.732541
0.782609
0.662804
0.882745
0.909567
0.984669
1.009703
0.901818
0.986457
1.062751
1.237988
1.170635
1.211762
1.178980
1.373887
1.643896
1.746416
1.941919
3.291965
22.699833
70.838928
205.382705
389.750600
766.242743
1015.794873
1015.794873
1015.794873
1015.794873
1015.794873
1015.794873
1015.794873
685.777664
387.150645
151.268840
66.986680
20.547509
11.690855
10.612607
10.273457
10.321736
10.675788
11.667609
13.907552
19.142628
25.008917
34.829974
43.301582
52.654743
59.155822
64.292550
65.327883
61.288476
55.743456
46.116710
38.206577
28.492808
23.506880
18.979907
16.433001
14.904737
##ZVALUE=350
0.261664
0.356436
0.264645
0.309944
0.423789
0.384450
0.413656
0.331998
0.467896
0.414848
0.280738
0.424981
0.349879
0.412464
0.399947
0.359416
0.327826
0.342727
0.404716
0.455976
0.414848
0.430942
0.434518
0.515580
0.280738
0.323653
0.293851
0.361800
0.413656
0.450611
0.424981
0.500679
0.540614
0.536442
0.544786
0.558496
0.693798
0.705719
0.676513
0.627637
0.694990
0.790954
0.724792
0.925660
0.826716
0.892878
0.867844
1.017451
0.985861
0.885725
1.102686
1.074672
1.341701
1.533628
1.603961
1.731515
2.184510
10.092854
38.221478
139.078498
283.415914
609.852672
931.960940
1015.615463
1015.615463
1015.615463
1015.615463
1015.615463
1015.615463
844.525695
522.134900
233.579874
102.784634
26.073456
11.874437
9.542704
9.195805
9.117723
9.311438
10.059476
11.208653
14.002919
16.936660
23.010969
28.818846
39.008856
46.642423
54.620504
58.176517
59.271455
57.003498
50.507784
43.703914
34.369826
28.223991
21.960735
##ZVALUE=355
0.617504
0.491738
0.489950
0.478625
0.641942
0.517964
0.600815
0.526905
0.408888
0.351667
0.487566
0.434518
0.407696
0.566840
0.558496
0.430942
0.568628
0.489950
0.628829
0.426769
0.631809
0.573993
0.566840
0.582933
0.623465
0.619888
0.540614
0.448823
0.640750
0.601411
0.541806
0.614524
0.542998
0.683665
0.648499
0.676513
0.545979
0.687838
0.643730
0.846982
0.749826
0.803471
0.813603
0.706911
0.920892
0.957847
1.046658
1.189709
1.075864
1.047850
1.146793
1.283884
1.497865
1.538992
1.545548
1.366735
1.728535
1.946688
2.167821
3.689528
20.999908
64.913630
200.423002
384.853482
785.974860
1015.734673
1015.734673
1015.734673
1015.734673
1015.734673
1015.734673
1011.716723
614.194870
338.149667
124.195814
49.360991
14.141798
9.627938
9.094477
8.988976
9.243488
9.223819
9.750724
10.520816
12.621880
15.100837
20.389557
25.397539
34.470558
41.171908
48.890710
52.764416
54.428577
52.950978
47.304630
41.965842
##ZVALUE=360
0.484586
0.525713
0.669956
0.479817
0.550747
0.455976
0.620484
0.544786
0.508428
0.573993
0.634789
0.714660
0.598431
0.591874
0.612736
0.583529
0.557899
0.581741
0.773668
0.752807
0.664592
0.690818
0.616908
0.695586
0.771880
0.585914
0.752807
0.860691
0.651479
0.813603
0.746846
0.554919
0.638962
0.799894
0.686646
0.846982
0.798702
0.882745
0.832677
0.852942
0.932813
0.897646
0.914931
0.871420
0.994802
0.919700
1.020432
1.029968
0.873804
1.092553
1.221895
1.063943
1.371503
1.321435
1.408458
1.394749
1.629591
1.666546
1.807809
1.961589
2.190471
2.952814
7.470846
38.174987
102.930665
281.628966
498.617887
884.338617
1015.808582
1015.808582
1015.808582
1015.808582
1015.808582
1015.808582
791.261792
400.958657
212.304592
75.340867
26.691556
9.554625
8.444786
8.340478
8.507967
8.394718
8.703470
9.141564
9.499788
10.957718
12.975931
16.590953
21.320581
28.930902
34.978986
42.493939
46.571493
49.686432
##ZVALUE=365
0.600815
0.671744
0.624657
0.573993
0.611544
0.523925
0.583529
0.396967
0.532866
0.552535
0.597835
0.644922
0.640750
0.680685
0.536442
0.510812
0.539422
0.690818
0.547767
0.615716
0.493526
0.536442
0.662804
0.564456
0.792742
0.562668
0.646710
0.610948
0.649691
0.735521
0.587702
0.544786
0.646710
0.763535
0.594854
0.784993
0.798702
0.769496
0.691414
0.853539
0.660419
0.840425
0.638962
0.856519
0.835657
0.923872
0.890493
0.956655
1.032948
0.944734
1.069903
1.083612
1.041889
1.204610
1.255870
1.137853
1.353621
1.550913
1.567602
1.511574
1.814961
1.894832
2.300739
2.403855
3.745556
22.830963
68.912506
204.578638
406.704545
811.738968
1015.792489
1015.792489
1015.792489
1015.792489
1015.792489
1015.793085
985.337496
575.947762
316.986442
112.655759
42.127967
11.744499
8.531809
7.910728
7.966757
7.723570
7.721782
7.906556
8.099675
8.598566
9.225607
11.440516
14.232993
19.514561
24.314523
31.292439
##ZVALUE=370
0.511408
0.591874
0.606775
0.449419
0.559688
0.435710
0.583529
0.456572
0.665784
0.362992
0.439882
0.615716
0.589490
0.435710
0.402927
0.645518
0.549555
0.377893
0.488758
0.560880
0.448823
0.749826
0.605583
0.656843
0.696778
0.475645
0.622869
0.520945
0.694990
0.666976
0.725985
0.719428
0.723600
0.673532
0.742674
0.752807
0.619888
0.738502
0.841618
0.776649
0.792742
0.837445
0.811815
0.749826
0.778437
0.985861
0.904799
0.851750
0.980496
0.969768
1.044869
0.882745
0.893474
1.165867
1.028776
1.101494
1.025796
1.174808
1.331568
1.223683
1.526475
1.504421
1.760721
1.879930
1.979470
2.440810
2.843738
10.428429
40.470958
154.721737
315.397978
642.120838
973.541737
1015.790701
1015.790701
1015.790701
1015.790701
1015.790701
1015.790701
737.934709
417.319536
160.761476
69.473982
21.263957
9.453893
7.462502
7.222891
7.247925
7.072687
7.157922
7.204413
7.430911
7.585883
8.593798
9.647608
12.384653
##ZVALUE=375
0.599623
0.568628
0.535846
0.510812
0.648499
0.722408
0.621676
0.626445
0.613928
0.661612
0.534654
0.531673
0.648499
0.612736
0.565648
0.690818
0.657439
0.525713
0.668764
0.575781
0.697970
0.615716
0.613928
0.683665
0.689626
0.662804
0.564456
0.677705
0.538826
0.683665
0.555515
0.772476
0.674725
0.824928
0.660419
0.705719
0.694990
0.822544
0.643730
0.714660
0.677705
0.784993
0.879765
0.929832
0.775456
1.027584
0.948906
0.828505
0.934601
0.846982
0.737906
0.868440
0.926852
0.976920
0.887513
1.182556
0.977516
1.004934
1.114607
1.103878
1.249909
1.213551
1.229644
1.720786
1.778603
1.755953
1.994967
2.218485
2.792478
5.086660
17.270446
75.406432
187.487602
483.098030
810.241699
1015.895009
1015.895009
1015.895009
1015.895009
1015.895009
1015.895009
972.152948
637.570620
300.451517
144.756436
40.795803
14.238954
7.174611
6.818771
6.582737
6.533861
6.675720
6.593466
6.642938
6.756783
6.896853
##ZVALUE=380
0.467896
0.511408
0.427961
0.465512
0.426769
0.529885
0.362992
0.533462
0.616908
0.418425
0.563860
0.466704
0.545979
0.382662
0.384450
0.475645
0.575781
0.567436
0.439882
0.499487
0.570416
0.407696
0.558496
0.518560
0.485778
0.628829
0.526905
0.558496
0.483990
0.491738
0.549555
0.558496
0.542998
0.767708
0.673532
0.523925
0.623465
0.561476
0.615716
0.600815
0.508428
0.731945
0.607967
0.747442
0.704527
0.724792
0.707507
0.582933
0.815988
0.831485
0.749826
0.688434
0.838637
0.886917
0.762939
0.976920
0.824928
1.025796
1.155734
0.846982
1.033545
1.183748
1.162887
1.120567
1.418591
1.505613
1.639724
1.952648
2.003908
2.341866
2.605915
3.265738
8.821487
46.802759
126.998425
354.224443
633.235574
1015.819907
1015.819907
1015.819907
1015.819907
1015.819907
1015.819907
1015.819907
775.267482
390.732884
201.577544
67.236423
24.477839
8.205771
6.280541
6.034970
6.151795
5.742908
5.775690
6.024837
##ZVALUE=385
0.542998
0.476837
0.460744
0.515580
0.543594
0.469685
0.492930
0.545979
0.508428
0.537634
0.373721
0.426769
0.522733
0.529885
0.482798
0.621676
0.663996
0.478625
0.629425
0.595450
0.538826
0.526905
0.470877
0.544786
0.557899
0.519753
0.429749
0.524521
0.621676
0.611544
0.608563
0.535846
0.569820
0.609756
0.527501
0.650883
0.574589
0.692606
0.673532
0.505447
0.612736
0.630617
0.602603
0.859499
0.781417
0.602603
0.797510
0.730753
0.519753
0.680685
0.707507
0.809431
0.780821
0.976920
0.861883
0.920892
0.879765
0.929832
0.892878
1.059771
0.916719
0.932813
0.963807
1.131892
1.221895
1.407862
1.483560
1.669526
1.824498
2.152920
2.125502
2.240539
2.307892
2.446771
4.701614
26.227832
75.717568
223.661661
445.197821
903.915763
1015.882492
1015.882492
1015.882492
1015.882492
1015.882492
1015.882492
989.521742
572.738051
325.625539
128.732920
48.507452
11.353493
6.264448
5.623698
5.659461
5.479455
##ZVALUE=390
0.289679
0.422597
0.454783
0.271797
0.514984
0.374913
0.304580
0.477433
0.440478
0.400543
0.459552
0.412464
0.397563
0.331998
0.423789
0.568628
0.491738
0.332594
0.449419
0.408888
0.394583
0.248551
0.410676
0.415444
0.470877
0.409484
0.465512
0.478625
0.625849
0.610948
0.484586
0.479817
0.528693
0.633597
0.437498
0.476837
0.512600
0.541806
0.590682
0.681877
0.502467
0.455976
0.689626
0.605583
0.536442
0.543594
0.554919
0.638962
0.545979
0.568628
0.764728
0.610948
0.698566
0.677705
0.684857
0.757575
0.725985
0.769496
0.640750
0.778437
0.807643
0.828505
0.903606
1.011491
1.212955
1.279712
1.405478
1.599789
1.631975
1.851916
1.834631
1.742840
1.844764
1.781583
1.997948
2.063513
2.808571
12.939572
46.179891
161.998868
333.209038
708.594918
1008.147001
1015.794873
1015.794873
1015.794873
1015.794873
1015.794873
1015.794873
789.949894
455.965996
183.188915
81.379414
22.155643
8.331537
5.636811
##ZVALUE=395
0.526905
0.342727
0.490546
0.425577
0.540614
0.207424
0.529885
0.491738
0.492930
0.336766
0.496507
0.421405
0.363588
0.448823
0.494719
0.354648
0.472665
0.571609
0.479817
0.530481
0.412464
0.362992
0.466704
0.404716
0.473857
0.483990
0.598431
0.526905
0.516772
0.574589
0.405908
0.505447
0.725985
0.586510
0.548959
0.616908
0.471473
0.543594
0.581741
0.601411
0.565648
0.666976
0.661612
0.571609
0.635982
0.490546
0.507832
0.597835
0.737906
0.612736
0.607967
0.595450
0.763535
0.713468
0.700951
0.701547
0.801682
0.806451
0.831485
0.754595
0.828505
0.818968
0.753999
1.021624
1.031756
1.134872
1.427531
1.475811
1.568794
1.792908
1.684427
1.696944
1.669526
1.510978
1.467466
1.490712
1.831651
1.849532
2.399683
6.610751
28.542876
118.745565
238.995552
493.772626
784.904957
1015.851498
1015.851498
1015.851498
1015.851498
1015.851498
1015.851498
967.617035
646.466613
313.484669
150.014758
45.331717
##ZVALUE=400
0.350475
0.454783
0.272989
0.494719
0.487566
0.326633
0.429749
0.424981
0.303984
0.410676
0.416636
0.510812
0.292659
0.502467
0.450611
0.396967
0.494719
0.482798
0.291467
0.353456
0.435710
0.490546
0.600815
0.440478
0.477433
0.521541
0.491738
0.497699
0.430942
0.484586
0.533462
0.474453
0.469685
0.469685
0.542998
0.577569
0.482798
0.460744
0.417829
0.537634
0.576973
0.428557
0.602603
0.388622
0.524521
0.617504
0.655651
0.614524
0.502467
0.505447
0.545979
0.617504
0.556707
0.683665
0.696778
0.595450
0.679493
0.758767
0.780821
0.623465
0.898838
0.725985
0.798702
1.052618
1.126528
1.121759
1.225471
1.397729
1.321435
1.490712
1.464486
1.219511
1.373887
1.429915
1.317859
1.320839
1.276731
1.476407
1.366735
1.740456
1.888871
3.488660
12.135506
61.870813
151.709914
373.035669
635.771751
1014.672518
1015.794873
1015.794873
1015.794873
1015.794873
1015.794873
1015.794873
801.363587
415.538549
##END
