##TITLE=QP00301
##FORMAT=SPECTACLE-ASCII V-1.2
##DATA TYPE=ULTRAVIOLET SPECTRUM
##SECOND TYPE=ULTRAVIOLET SPECTRUM
##DATE=05/24/18
##TIME=17:58:22
##SPECTROMETER/DATA SYSTEM=SPECTACLE
##XUNITS=NM EM
##YUNITS=ENERGY
##YFACTOR=1
##FIRSTX=220
##LASTX=410
##NPOINTS=96
##3DDATA=Equidistant
##ZUNITS=NM EX
##FIRSTZ=210
##LASTZ=400
##ZPOINTS=39
##XYDATA=(Y..Y)
##ZVALUE=210
4.337430
5.031824
3.662705
4.435778
4.553795
4.592538
3.748536
4.218817
4.776716
3.871918
3.601909
3.844500
3.865957
3.683567
3.706813
3.830791
4.558563
4.140735
4.860759
4.790425
5.337596
5.848408
6.587505
5.375743
6.467700
6.953478
6.193519
6.524920
6.075501
6.836653
8.364916
7.001758
7.105470
8.317828
8.023977
7.948875
9.515882
8.168817
8.522868
8.911490
8.434653
9.017587
9.749532
9.151697
8.538961
9.452701
9.818673
10.642409
9.837747
9.736419
10.078549
9.451509
9.883642
10.706782
10.349751
10.755658
10.953546
10.725856
10.404587
12.306571
11.416674
11.242628
12.202859
12.801886
13.448000
15.842915
17.148852
21.487474
24.413466
26.412606
31.186938
36.038756
39.456487
42.001605
43.007731
43.565631
41.397810
40.433407
38.261414
30.893683
29.611588
23.017526
20.579696
17.996430
15.014410
13.247728
14.365911
12.204647
11.684895
11.632442
12.992620
13.763905
12.973547
13.813972
15.594959
17.335415
##ZVALUE=215
17.640591
17.710924
14.080405
10.561943
10.555983
9.783506
9.209514
8.797646
8.777976
9.687543
9.515882
7.583499
5.873442
5.455613
5.027652
4.749894
4.516840
4.919767
4.210472
5.066991
5.274415
4.755855
5.641580
5.626678
6.021857
5.848408
5.962849
7.041693
6.589890
7.480979
7.458925
6.964803
7.522702
8.496642
8.453727
8.298755
8.258820
9.029508
8.538961
7.761717
9.479523
8.153915
8.578897
8.794665
9.624958
9.409785
9.679794
10.217428
10.367632
9.650588
11.771917
10.877848
10.706782
10.740757
10.491610
10.831952
10.261536
10.825992
11.328459
10.193586
11.230707
11.735559
12.648702
12.430549
12.055635
14.443994
16.940832
18.445849
21.970868
25.066733
29.152632
29.380918
32.299757
35.431981
35.978556
36.015511
32.975674
31.483769
29.883981
26.723742
21.891594
19.606948
17.935634
16.313791
15.224814
14.195442
13.685822
14.264584
13.212562
12.163520
11.985898
12.481809
11.431575
10.622740
12.198687
12.130737
##ZVALUE=220
65.330863
62.489510
59.592724
51.604509
43.501854
34.661889
27.639866
22.093654
19.903779
19.451976
21.166801
20.199418
17.195940
16.716719
13.592839
10.401607
7.888675
5.849600
5.126595
4.428625
4.350543
4.689693
4.764795
5.747676
5.129576
6.821752
5.777478
5.763769
5.860925
6.994605
6.900430
6.861687
6.697774
7.370710
7.371902
7.350445
7.256866
7.870793
8.583665
7.785559
8.478761
8.342862
8.012652
8.172989
7.949471
8.987784
8.783937
9.373426
9.366870
9.384751
8.051991
8.598566
9.266734
9.590983
9.506941
9.637475
9.666681
9.882450
9.323955
9.491444
9.955764
10.617971
10.448694
10.957718
11.559725
12.617707
13.807416
16.213655
17.089844
22.710562
23.612976
26.997924
25.855899
27.609468
28.247833
27.961731
29.326677
26.133657
26.187897
22.082925
19.798875
18.353462
16.416907
16.718507
13.709664
12.893677
12.919903
13.300776
12.810826
12.279749
11.715889
12.053847
11.142492
11.797547
10.922551
11.084676
##ZVALUE=225
102.588534
109.813809
129.218698
147.920847
148.553848
134.800673
114.367604
85.215569
64.118505
48.179626
39.386749
37.037730
37.506819
39.623976
39.012432
35.053492
26.379824
21.543503
14.579892
10.332465
6.903410
6.137490
4.570484
5.120635
5.341768
5.449653
5.361438
5.596876
5.847812
5.693436
6.365776
6.714463
6.584525
6.907582
6.366968
7.137656
7.834435
7.924438
7.339716
7.670522
8.299947
8.351803
8.163452
8.773804
7.750988
8.543730
8.765459
8.513927
8.823872
8.433461
8.509755
9.632707
9.247661
9.201765
9.500980
10.118484
9.521842
9.398460
10.061860
10.890961
11.173487
10.629892
10.688901
11.404753
12.215972
13.618469
15.850663
16.398430
18.571615
18.725991
22.386909
24.852753
26.509762
26.042461
26.537776
26.478767
24.955869
23.944974
23.925900
21.890998
19.637942
19.425750
19.208789
16.652942
16.748905
15.625954
16.026497
15.678406
15.119910
15.244484
14.543533
14.624596
15.494823
14.797449
15.486479
14.306903
##ZVALUE=230
75.967908
84.395409
133.453608
207.379460
256.516933
299.892426
310.388803
282.234550
248.221755
199.325681
135.641694
95.889568
67.847967
60.431957
61.853528
66.090822
65.990686
61.392784
52.323937
40.812492
32.083988
19.675493
13.735890
7.634759
6.506443
5.022883
5.818605
5.864501
5.628467
6.147623
5.833507
6.119609
7.253885
6.426573
6.892681
6.483793
6.503463
7.146597
6.597638
7.496476
8.184910
7.663965
7.417798
7.446408
7.946491
7.996559
8.339882
8.414984
7.776618
8.495450
8.353591
8.855462
8.528829
8.585453
9.451509
9.523630
9.941459
10.360479
10.739565
10.981560
11.387467
11.762977
11.860728
12.412667
14.119744
14.767647
16.067624
16.682744
19.644499
21.659732
23.638606
25.829673
26.982427
29.277802
29.181838
28.884411
28.213859
28.155446
26.796460
25.618672
23.504496
23.035407
22.010803
21.204948
20.871758
20.561814
20.822883
20.459890
21.326542
19.482970
20.767450
19.671917
19.286871
20.594597
19.084811
18.757582
##ZVALUE=235
18.806458
21.099448
60.659647
110.617876
206.696987
291.866660
406.150818
471.761823
509.116650
483.615994
404.450893
323.373675
238.815546
150.611997
113.279819
85.032582
82.310438
85.675716
89.811683
91.596842
78.982711
67.723989
49.573779
34.399629
21.454692
14.885664
8.420944
6.269813
5.604625
4.850626
5.683899
5.134940
5.430579
5.334616
5.341768
5.891919
5.925894
5.809665
6.071925
6.423593
6.074905
6.571412
6.202459
5.816817
6.299615
6.888509
6.532669
7.004738
5.889535
6.990433
7.054806
7.274747
7.105470
7.166862
7.989407
8.092523
8.541942
8.806586
9.331703
9.254813
10.133982
10.486841
11.126995
12.080669
12.653470
13.964772
15.431643
17.450452
18.325448
20.604730
21.924973
25.049448
26.285648
28.145909
27.637482
28.322935
27.323961
27.155876
26.810765
25.734901
25.705695
24.848580
25.427938
23.742914
24.422407
24.674535
24.519563
24.407506
24.640560
24.339557
24.314523
23.199916
22.678971
23.497939
23.362637
23.815632
##ZVALUE=240
1.484752
1.775622
6.958842
21.154881
62.853694
119.394660
229.617953
346.619487
508.155823
599.141717
659.026504
647.568703
591.234565
460.523963
349.836946
223.056674
154.819489
107.102990
92.461705
97.387433
104.047656
106.289983
101.027489
91.407895
70.670843
54.695606
37.349463
26.516914
14.566779
10.232925
6.794930
5.753636
5.917549
5.535483
5.432963
5.065799
5.043745
5.126595
5.484819
5.586743
4.870892
5.461574
5.581975
5.741715
5.371571
5.693436
5.703568
6.190538
5.806684
6.167889
6.691813
5.899668
6.577969
6.948709
7.112622
8.075833
8.362532
7.657409
8.734465
9.076595
9.643435
9.864569
10.894537
11.911988
11.563897
14.392734
15.113950
17.096996
18.880963
21.586418
22.017956
24.795532
24.951696
26.532412
27.662516
27.609468
27.958751
26.202798
27.580857
26.381612
26.455522
26.398897
25.872588
25.489926
25.796890
26.865602
26.385784
26.464462
26.861429
26.420951
25.652647
25.065541
25.601983
25.914907
25.069714
26.231408
##ZVALUE=245
1.516938
1.342893
1.534820
1.724958
4.308820
12.413859
45.904517
98.363757
220.150948
343.057513
533.787608
656.281710
747.581720
789.550543
738.585591
603.624582
475.939512
315.302610
214.139819
124.058723
95.102787
89.720488
103.076696
110.771656
113.881826
108.861923
94.177723
78.464746
58.508515
41.374564
30.248761
16.639829
11.518598
7.325411
5.757809
5.177855
5.273819
5.201697
5.260706
5.240440
5.758405
5.075932
5.482435
5.360842
5.597472
5.217791
5.321503
5.414486
5.709529
5.440712
5.930662
5.725622
5.597472
5.400777
6.267428
6.437898
6.570816
7.254481
7.298589
7.934570
8.302927
8.664727
8.826852
10.469556
10.945797
12.246966
13.532639
14.719963
16.063452
18.217564
19.402504
20.883679
22.678971
23.494959
25.151968
24.836659
25.126934
25.109649
24.869442
24.313927
23.965836
23.486614
24.163723
25.509596
24.816990
24.223924
24.427772
25.031567
24.950504
25.062561
24.517775
25.183558
24.938583
24.378896
24.193525
25.871992
##ZVALUE=250
1.276731
1.173615
1.173615
1.368523
1.274943
1.322627
2.176762
7.141829
33.051968
73.378682
183.809400
306.021571
453.585982
648.624897
772.002935
863.908529
849.343538
747.218728
613.393784
413.002968
273.638964
175.588727
100.108981
83.091855
88.781714
98.983645
113.927722
117.673874
110.127926
100.871921
88.336468
62.478781
44.917464
27.225614
17.312765
9.911656
7.197857
5.381703
4.920959
4.931688
4.713535
5.122423
5.224943
5.079508
4.928708
4.783869
4.720688
4.780889
4.915595
5.103946
5.337596
5.480647
5.136728
5.540848
5.181432
5.462766
5.892515
6.418824
5.878806
6.919503
7.283688
7.406473
8.030534
8.155704
8.500814
9.973645
11.103749
11.804700
13.279915
15.004873
16.581416
17.850995
19.220710
19.772649
20.033717
21.040440
20.481944
21.194816
20.107627
20.963550
20.994544
21.578670
22.412539
21.457672
21.465421
22.517443
22.236705
22.375584
22.587776
24.006963
22.857785
22.676587
22.561550
22.674799
23.374557
23.691654
##ZVALUE=255
1.032948
1.092553
0.981688
1.074672
1.136661
1.324415
1.357794
1.567602
1.631975
3.791451
19.906759
52.566528
112.239718
245.594978
386.371613
604.651570
758.670568
901.961923
936.575532
862.200856
741.765499
572.938919
350.410938
218.738914
113.459826
80.293417
72.742701
81.217885
103.037953
115.353465
118.331909
115.251541
105.393529
83.825588
64.567924
42.328835
29.878616
16.224980
10.272861
6.544590
5.418658
4.757643
4.687905
4.687905
4.839897
4.590750
4.782677
4.767776
4.565716
4.662871
4.877448
4.775524
4.566908
4.954934
4.874468
4.729629
5.046725
5.031824
5.455613
5.775690
5.971789
6.170869
6.629825
6.744862
7.929802
8.255839
9.625554
10.565519
11.227727
13.039708
13.242960
14.734864
15.652776
16.568899
16.782880
17.456412
17.668605
17.974973
17.922521
18.177629
18.162727
18.755794
18.901825
18.966794
18.816590
19.963980
20.269752
20.266771
20.185709
20.920634
21.195412
21.132827
21.143556
21.388531
21.793842
21.532774
##ZVALUE=260
0.945926
1.036525
1.006722
1.089573
0.989437
1.121759
1.122952
1.075864
1.274943
1.199841
1.534820
2.063513
9.056926
25.887489
80.242753
164.619684
344.204903
515.595675
691.811442
926.658511
1015.794873
1015.794873
935.479999
708.246827
508.181453
287.922621
178.833604
93.933940
67.959428
66.707730
79.029799
102.398992
113.416910
121.440887
117.919445
104.647875
89.447498
64.660907
47.900677
28.448701
18.997788
10.786653
7.354617
5.178452
5.031824
4.550815
4.641414
4.898906
4.551411
4.783869
4.636645
4.932880
4.524589
4.620552
4.902482
5.123615
4.837513
4.752874
5.119443
5.562901
5.655885
5.976558
6.403923
6.597638
7.537603
7.762909
8.550882
9.431839
10.602474
10.866523
12.122989
13.540983
13.947487
14.892817
14.822483
15.284419
15.592575
15.957952
16.106963
15.955567
16.591549
16.927719
17.753839
17.560720
18.106699
18.591881
18.497705
18.952489
18.880963
18.609762
19.528866
19.463897
19.489527
19.592643
20.032525
20.371675
##ZVALUE=265
0.919700
0.977516
0.891685
1.104474
1.149774
1.260638
1.182556
1.166463
1.206994
1.297593
1.328588
1.585484
1.528859
1.983643
3.413558
18.524528
48.115849
129.846931
238.379836
469.199419
678.368807
884.844661
1015.892625
1015.892625
1015.892625
897.792578
653.973818
456.469655
250.710845
142.539740
83.942413
55.808425
61.870813
84.166527
102.095604
118.956566
122.109652
118.581653
109.059811
85.363984
68.088770
45.472980
31.230450
17.603636
11.305809
6.786585
5.740523
5.287528
4.871488
4.931688
4.781485
5.207658
5.023479
5.005598
5.000830
5.100965
5.034804
5.352497
5.638599
5.302429
5.700588
6.143451
6.423593
6.652474
7.038713
7.933974
8.102655
9.434819
9.848475
10.973811
12.183785
13.170838
13.309717
14.043450
14.559627
14.704466
15.385747
14.802814
14.580488
15.415549
15.661716
15.778542
16.491413
16.331673
16.743541
17.507672
17.805696
17.521977
17.901659
18.248558
18.046498
18.358827
18.601418
18.689632
18.594861
19.136667
##ZVALUE=270
0.958443
0.880957
0.831485
0.921488
0.834465
0.903606
1.020432
1.127720
1.022816
0.976920
1.218915
1.134872
1.015663
1.328588
1.505613
1.536608
2.061725
8.219481
25.129914
85.822940
180.562735
325.638652
608.163476
841.931701
1015.794873
1015.794873
1015.794873
1015.794873
875.328779
653.692484
440.243483
221.512914
118.487477
56.126714
46.749711
62.235594
79.343915
101.731420
114.515424
123.512745
120.754838
107.289553
91.784596
67.268610
49.123764
29.662848
19.753575
11.814833
8.118749
5.881786
5.200505
5.348921
5.144477
5.041957
5.214810
5.262494
5.509853
5.632639
5.882978
6.055832
5.838871
6.149411
6.426573
6.736517
7.189512
7.573962
7.991791
8.849502
9.301901
10.584593
11.268854
12.336969
12.720823
13.579726
13.755560
14.197826
14.523864
14.612675
13.802648
14.395714
14.728904
14.786720
15.381575
15.487671
15.852451
16.549826
15.981793
16.228557
16.865730
16.724467
16.696453
17.483830
17.017722
17.327666
17.147660
17.649531
##ZVALUE=275
0.899434
0.733733
0.693798
0.774860
0.984669
0.824928
0.930429
0.783801
0.917912
1.003742
0.934601
0.946522
1.075864
1.160502
1.344681
1.245737
1.287460
1.520514
1.699924
3.535748
13.365746
40.672421
128.142834
251.146555
491.973758
693.205595
942.322612
1015.794873
1015.794873
1015.794873
1014.170647
783.968568
560.061932
299.957991
169.077516
69.515705
42.517781
42.166710
56.017637
78.563690
95.307827
113.493800
119.786859
117.681623
107.627511
87.355971
69.890618
49.390793
34.573674
19.981861
13.632774
8.028746
6.475449
5.516410
5.715489
5.504489
5.788803
5.781651
5.864501
6.092787
6.554723
6.497502
6.458759
6.924868
7.586479
7.420778
8.431673
9.094477
9.586811
10.526776
11.176467
12.432933
12.377501
13.007522
13.273954
13.611913
13.578534
13.879538
13.624430
13.963580
14.358759
14.915466
14.415979
15.052557
15.012622
15.457869
15.859604
15.792847
15.960932
16.346574
15.912652
15.837550
15.992522
16.142726
16.370416
16.767979
##ZVALUE=280
0.807643
0.657439
0.676513
0.765920
0.594854
0.687838
0.920892
0.808835
0.856519
0.876784
1.045465
0.947714
1.044869
0.858903
1.046658
1.035929
1.102686
1.130700
1.228452
1.520514
1.459718
1.869798
8.317828
29.312968
98.530650
190.529823
376.109481
566.705465
849.922895
1015.495658
1015.792489
1015.792489
1015.792489
928.725600
711.581707
423.709750
256.751776
111.519694
55.141449
32.955408
37.524700
57.630539
74.389577
95.313787
109.122992
117.396712
116.994977
105.165839
91.078877
67.698956
51.489472
32.409430
22.136569
12.936592
9.267926
6.509423
6.157756
5.828738
6.102920
6.283522
6.506443
6.979704
7.119775
7.380843
7.823706
8.142591
8.947849
9.507537
9.829998
10.242462
11.346936
11.861920
12.023449
12.523532
13.181567
13.056993
13.265610
13.473630
13.989806
13.897419
13.958812
14.560819
14.322996
14.956594
14.545918
15.221834
15.382767
15.238523
15.228987
15.729666
15.576482
14.930964
15.677810
15.725493
15.712976
15.844703
##ZVALUE=285
0.729561
0.670552
0.721812
0.667572
0.698566
0.720620
0.710487
0.804663
0.839829
0.871420
0.877976
0.775456
0.917912
0.813603
0.978708
1.072884
0.955462
1.116991
1.212955
1.413822
1.147985
1.524687
1.522899
1.926422
3.291965
37.491918
55.009723
256.108642
275.685787
574.463606
726.734996
1015.794873
1015.794873
1015.794873
1015.794873
992.091894
915.049911
618.995428
407.846570
112.894773
94.975829
37.368536
26.044846
45.039654
51.440597
72.177649
93.174577
105.384588
112.179518
112.826824
106.405616
90.017915
73.406696
51.617622
37.030578
21.682978
14.323592
9.570718
7.605553
6.779432
6.808639
6.875992
7.185936
7.612705
7.955432
8.370876
8.783937
9.496808
10.266900
10.706782
11.462569
12.769699
12.571812
13.560653
13.191700
13.511777
13.179779
13.781786
13.852715
13.936758
13.869405
14.088750
14.757514
15.075803
15.289783
15.274882
15.052557
15.362501
15.147924
15.867949
15.460849
15.288591
15.000701
15.368462
15.725493
15.388727
##ZVALUE=290
0.661612
0.710487
0.747442
0.789762
0.859499
0.931621
0.931621
0.814795
0.881553
0.804663
0.949502
0.894666
0.791550
0.824928
0.979900
1.063943
1.055598
1.074672
1.108646
1.051426
1.196861
1.440644
1.382828
1.643896
1.694560
1.742840
2.223849
6.518960
34.929514
85.619688
175.963640
394.681692
635.993481
986.864567
1015.836000
1015.836000
1015.836000
1015.836000
1015.836000
745.508075
504.278541
261.555910
138.826966
50.380826
24.002790
22.723675
31.974912
47.929883
63.534975
84.570646
99.186897
110.095739
111.309886
103.112459
90.495944
69.604516
53.107738
34.982562
24.819970
15.284419
10.988712
8.452535
7.774830
8.139610
8.130670
8.451939
8.986592
9.756684
10.540485
11.444688
11.807680
12.516975
12.813807
13.450980
13.667941
14.112592
13.954639
13.582706
13.941526
14.550686
14.674664
14.780760
14.871955
14.987588
15.192628
15.321970
15.636683
15.290976
15.547872
15.415549
15.477538
15.572906
15.172958
15.347600
15.104413
15.675426
##ZVALUE=295
0.546575
0.634789
0.537634
0.671744
0.593662
0.717640
0.769496
0.690818
0.829697
0.739694
0.671744
0.711679
0.601411
0.699759
0.791550
0.714660
0.830889
0.644922
0.969768
1.101494
0.948906
1.146793
1.159906
1.197457
1.224875
1.272559
1.500845
1.659989
1.733899
2.653003
12.213588
38.716793
96.867681
254.920721
433.997512
739.724636
973.106623
1015.790701
1015.790701
1015.790701
1015.790701
903.407931
643.478036
343.386531
187.747478
69.112778
29.017925
15.524626
19.059777
30.029416
42.344928
61.724782
77.061653
94.306469
103.551745
105.627775
99.988580
83.956718
71.299672
51.514506
37.961602
23.922920
17.267466
11.843443
10.303855
9.356737
9.498000
9.670854
10.432601
11.551976
11.816621
12.300611
12.836456
13.365746
13.767481
14.041662
13.918877
14.162660
14.508963
14.662743
14.763474
15.024543
14.955997
15.640855
15.313625
15.765429
15.665889
15.493631
15.871525
15.522838
15.632510
15.285611
15.154481
15.024543
15.060902
15.021563
##ZVALUE=300
0.668764
0.559688
0.491738
0.614524
0.676513
0.639558
0.540614
0.554919
0.761747
0.693798
0.792742
0.750422
0.770688
0.684857
0.602603
0.766516
0.772476
0.776649
0.706911
1.017451
0.915527
0.826716
0.839829
1.011491
1.146793
1.084805
1.242757
1.251698
1.278520
1.443624
1.570582
1.773834
6.316900
23.990870
84.070563
169.625878
361.316800
567.251444
877.752900
1015.794873
1015.794873
1015.794873
1015.794873
1015.794873
784.176588
536.364913
283.071399
150.745511
51.812530
20.113587
13.039708
17.030835
26.554465
37.755966
56.206584
72.157979
89.610815
97.879767
101.511478
97.924471
85.483789
72.081685
53.324699
40.259957
25.942922
19.029975
13.769865
11.944771
11.353493
11.296868
12.011528
12.624860
13.272762
13.591647
14.039874
13.900995
14.409423
14.553666
14.772415
15.152693
15.346408
15.508533
16.040802
15.805960
16.292930
16.153455
16.229749
16.073585
15.929937
15.599728
15.873909
15.723705
15.588999
15.521646
15.283823
15.805960
##ZVALUE=305
0.559688
0.589490
0.584722
0.474453
0.561476
0.560880
0.658631
0.654459
0.712872
0.739694
0.730753
0.710487
0.685453
0.531673
0.656843
0.742674
0.639558
0.793934
0.726581
0.797510
0.810623
0.732541
0.837445
1.046658
0.924468
0.896454
1.108646
1.074672
1.146793
1.132488
1.248717
1.510978
1.620650
1.863837
2.463460
15.351772
49.189925
151.602626
281.770825
533.012748
761.101842
1015.799642
1015.799642
1015.799642
1015.799642
1015.799642
924.045444
613.218546
394.636989
178.647637
83.761811
25.263429
11.813641
11.898875
15.879869
25.792718
36.487579
54.200888
68.293810
84.490776
93.380809
97.589493
94.268918
82.499981
70.289969
52.464604
40.297508
26.599765
20.441413
15.536547
13.739467
13.334751
13.391972
13.673902
14.072657
14.163852
14.432669
14.559627
14.984608
15.291572
15.757680
15.932918
15.930533
16.195774
16.601682
16.347766
16.177893
16.650558
16.474724
16.145706
16.066432
15.403628
16.018748
15.738606
15.350580
15.783906
##ZVALUE=310
0.516772
0.609756
0.570416
0.555515
0.629425
0.662804
0.552535
0.434518
0.583529
0.680685
0.511408
0.525713
0.585914
0.682473
0.697970
0.748634
0.590682
0.765920
0.610948
0.761747
0.805855
0.806451
0.808835
0.798702
0.829697
0.983477
0.898838
0.865459
0.938773
0.921488
1.044869
1.213551
1.163483
1.328588
1.444817
1.713634
1.791716
5.761981
21.410584
82.126856
173.994899
381.820798
600.302815
922.269821
1015.793681
1015.793681
1015.793681
1015.793681
1015.793681
822.541714
574.211478
303.693414
165.258646
56.242943
20.264983
9.698868
10.802746
15.393496
21.493435
34.096837
45.953989
64.208508
75.859427
88.036656
92.823505
90.533495
83.035827
68.575740
56.494474
39.393902
30.396581
22.455454
18.023849
15.254617
14.459491
14.315844
14.361739
14.774799
14.962554
15.330911
16.012788
15.945435
16.074777
16.692877
16.651750
17.423630
16.637444
16.794801
16.758442
16.790628
16.358495
16.544461
16.245842
15.811920
15.846491
15.887618
##ZVALUE=315
0.412464
0.638962
0.375509
0.600815
0.392795
0.624657
0.532866
0.517964
0.490546
0.752807
0.559688
0.398755
0.471473
0.705719
0.691414
0.687838
0.564456
0.437498
0.754595
0.715852
0.520945
0.799894
0.659823
0.585914
0.762939
0.833869
0.783801
0.746846
0.879765
1.001954
1.071692
1.042485
1.121759
1.080632
1.298785
1.266599
1.447797
1.611710
1.882911
3.024936
11.389852
55.400729
130.181909
312.519670
522.597432
860.752463
1015.794873
1015.794873
1015.794873
1015.794873
1015.794873
973.134637
715.413690
405.638814
227.307677
80.169439
29.968619
10.706782
8.923411
10.829568
13.901591
21.782517
30.465722
44.695735
58.107972
74.669719
83.939433
89.623928
88.139772
79.739690
69.555640
54.692626
42.492747
30.163527
23.383498
18.274784
16.413927
15.381575
15.275478
15.363693
15.609860
16.156435
16.313791
16.653538
16.687512
17.254949
16.792417
17.052889
16.817451
16.304851
16.588569
16.587973
16.504526
16.284585
15.944839
16.196966
##ZVALUE=320
0.596642
0.580549
0.525713
0.552535
0.497699
0.463724
0.559688
0.659823
0.676513
0.556707
0.605583
0.589490
0.744462
0.436902
0.549555
0.522733
0.708699
0.598431
0.575781
0.729561
0.792742
0.725985
0.598431
0.803471
0.839829
0.622869
0.730753
1.030564
0.905991
0.839829
0.797510
0.977516
0.995994
0.967979
1.000762
1.058578
1.164675
1.300573
1.272559
1.394749
1.625419
1.963973
4.987717
31.066537
87.747574
241.239667
415.917635
721.752644
981.900692
1015.794873
1015.794873
1015.794873
1015.794873
1015.794873
872.540474
512.540936
303.234458
130.712986
57.628751
15.611649
8.862615
8.921623
10.073781
13.825893
18.977523
29.485822
40.403605
56.742430
69.030523
81.221461
86.001754
84.841847
78.733563
65.988898
54.380894
40.215850
31.250715
23.624897
19.638538
17.252564
16.504526
16.161799
16.059875
16.726851
16.655922
16.670823
16.892552
17.052889
16.786456
16.583800
16.374588
16.806722
16.483665
16.431808
16.337633
16.379952
##ZVALUE=325
0.558496
0.616908
0.598431
0.383854
0.461936
0.414848
0.595450
0.465512
0.482798
0.457764
0.557899
0.603795
0.628829
0.574589
0.527501
0.648499
0.457764
0.627637
0.581741
0.657439
0.508428
0.428557
0.611544
0.739694
0.657439
0.620484
0.850558
0.943542
0.879765
0.745654
0.933409
0.805855
0.726581
0.892878
0.932813
0.852942
1.023412
1.158714
1.061559
1.164675
1.172423
1.526475
1.613498
1.695752
2.853870
19.448996
59.038997
174.784660
324.631929
629.844666
894.391537
1015.794873
1015.794873
1015.794873
1015.794873
1015.794873
913.971663
564.410686
348.369479
157.790780
74.787736
23.292899
10.723472
8.501410
8.746982
10.824800
13.598800
20.370483
28.078556
41.870475
54.187775
67.498684
76.708794
82.957745
80.835819
72.921515
63.587427
51.095486
40.564537
29.571652
23.864508
19.306540
17.749667
16.923547
16.633868
16.530752
16.655922
16.885996
16.776919
16.531944
16.229749
16.237497
16.183853
16.376972
16.139746
16.222596
##ZVALUE=330
0.547767
0.621676
0.358820
0.498891
0.610948
0.536442
0.503659
0.583529
0.491738
0.623465
0.473857
0.449419
0.566840
0.566840
0.564456
0.620484
0.722408
0.556707
0.572801
0.537634
0.640750
0.815988
0.588894
0.739694
0.482798
0.633597
0.691414
0.849962
0.680685
0.951886
0.971556
0.767708
0.909567
0.857711
0.844598
0.963807
1.099706
1.089573
0.984669
1.031756
1.165867
1.181960
1.318455
1.529455
1.413822
1.790524
2.004504
6.652474
25.339723
104.789734
224.084854
487.564802
752.452612
1015.794873
1015.794873
1015.794873
1015.794873
1015.794873
1015.794873
746.304989
488.189459
228.507519
116.260648
39.815903
16.345978
9.298921
9.134412
10.037422
11.329651
15.022755
19.789934
29.000640
38.715601
53.501725
63.240528
73.319674
78.027844
76.657534
71.537495
60.585737
50.630569
38.016438
31.112432
23.988485
20.113587
17.698407
16.901493
16.132593
16.132593
16.033649
16.176701
15.968680
15.886426
15.754700
15.473962
15.506744
##ZVALUE=335
0.472665
0.460744
0.538826
0.413656
0.413656
0.433922
0.616908
0.447631
0.623465
0.380874
0.579953
0.576973
0.469685
0.425577
0.479817
0.567436
0.572801
0.678897
0.642538
0.590682
0.601411
0.533462
0.565648
0.560880
0.655651
0.699759
0.604987
0.710487
0.731945
0.693798
0.571609
0.724792
0.656843
0.750422
0.714660
0.837445
0.845790
0.861883
0.793934
0.971556
0.910759
1.131892
1.040697
1.285672
1.133680
1.359582
1.472831
1.631975
1.736879
3.317595
11.978745
56.288838
133.572817
340.414643
585.739017
981.691480
1015.794873
1015.794873
1015.794873
1015.794873
1015.794873
886.631608
611.653924
323.107839
170.274973
57.725906
23.111701
10.442734
9.153485
9.657741
10.411739
11.840463
14.537573
20.413995
27.012825
38.739443
48.524737
60.894489
68.911910
73.991418
72.982907
66.394806
59.258938
48.682690
40.450692
30.399561
25.056601
20.068884
17.629862
16.192794
15.571713
15.078783
15.095472
15.037656
14.959574
15.056729
##ZVALUE=340
0.533462
0.475645
0.504851
0.561476
0.459552
0.496507
0.421405
0.499487
0.394583
0.484586
0.423789
0.454783
0.467896
0.477433
0.629425
0.538826
0.542998
0.536442
0.535846
0.564456
0.493526
0.606775
0.567436
0.377893
0.728965
0.569820
0.741482
0.747442
0.669956
0.709891
0.598431
0.612736
0.712872
0.643730
0.742674
0.687838
0.855923
0.725985
0.846982
0.900626
0.919700
0.932813
0.898838
1.047850
1.146793
1.158714
1.164675
1.348853
1.478791
1.825690
1.830459
2.321601
5.434752
32.962561
92.136860
261.870027
483.419895
871.830583
1015.794873
1015.794873
1015.794873
1015.794873
1015.794873
1015.794873
825.628638
440.200567
244.035721
96.770525
36.841631
11.953712
9.801984
9.931922
10.088682
10.730624
11.865497
14.949441
19.187927
27.140975
35.049915
48.293471
56.626797
66.261888
69.217682
69.077611
65.222979
55.830479
47.980547
37.538409
30.700564
23.516417
19.658804
16.582608
15.465617
14.722943
14.457703
14.622808
##ZVALUE=345
0.528693
0.443459
0.392795
0.516772
0.550747
0.395775
0.492930
0.481606
0.604987
0.521541
0.419617
0.579953
0.473857
0.414848
0.541806
0.398755
0.570416
0.465512
0.440478
0.421405
0.423789
0.583529
0.520945
0.652671
0.632405
0.551939
0.673532
0.640750
0.540614
0.521541
0.591874
0.647902
0.620484
0.719428
0.607967
0.731945
0.705719
0.917912
0.879765
0.736713
0.797510
0.886917
0.890493
0.807643
0.876784
0.950694
0.919700
1.224875
1.086593
1.345873
1.254678
1.526475
1.560450
1.858473
2.707839
14.976859
47.352910
146.610737
289.599895
592.948794
880.268812
1015.794873
1015.794873
1015.794873
1015.794873
1015.794873
977.898836
604.276657
339.437723
132.242441
59.320927
18.495917
10.593534
9.833574
9.725690
9.641647
10.106564
11.426806
13.421774
18.832684
24.743676
34.794807
42.634606
52.411556
59.041977
63.830614
64.530969
60.876608
55.151582
45.560598
37.616491
28.136969
23.115873
17.984509
15.749931
14.224648
##ZVALUE=350
0.560880
0.427961
0.544786
0.438690
0.346899
0.546575
0.498891
0.518560
0.443459
0.444651
0.444651
0.538826
0.487566
0.548959
0.453591
0.587702
0.395775
0.438690
0.613928
0.686646
0.671744
0.543594
0.553727
0.590682
0.673532
0.575781
0.586510
0.711679
0.646710
0.602603
0.689626
0.651479
0.574589
0.690818
0.709891
0.680685
0.749826
0.768900
0.693798
0.812411
0.862479
0.732541
0.761747
0.778437
0.937581
0.968575
0.970960
0.968575
0.967979
1.076460
0.919700
1.197457
1.242757
1.460910
1.363754
1.817942
1.997948
7.444620
26.318431
97.010732
204.662681
459.365845
723.854899
1015.794873
1015.794873
1015.794873
1015.794873
1015.794873
1015.794873
654.881001
402.525663
181.879997
82.055926
22.412539
11.134744
8.865595
8.620620
8.731484
8.970499
9.577870
10.702610
13.431907
16.655922
22.596717
28.777719
38.614869
45.820475
54.011941
57.971478
59.145689
56.557655
50.063729
43.192506
34.026504
28.152466
21.515489
##ZVALUE=355
0.455976
0.601411
0.492930
0.358820
0.478625
0.360608
0.609756
0.483990
0.455976
0.360608
0.386834
0.438690
0.408888
0.541806
0.494719
0.424981
0.584722
0.529885
0.558496
0.486970
0.622869
0.455976
0.641942
0.600815
0.644922
0.564456
0.635982
0.651479
0.568628
0.761747
0.819564
0.636578
0.706911
0.769496
0.601411
0.774860
0.872612
0.609756
0.631809
0.797510
0.759959
0.690818
0.780821
0.749826
0.869632
0.849962
0.644922
0.795722
0.960827
1.081824
0.989437
0.992417
1.176596
1.340508
1.184940
1.414418
1.527667
1.731515
1.881719
3.834963
14.129877
64.043999
145.313740
339.205861
556.894541
934.861898
1015.794873
1015.794873
1015.794873
1015.794873
1015.794873
879.656672
568.558574
256.907940
120.436549
33.581853
13.363957
8.519888
8.311868
8.440614
8.576512
8.617640
9.007454
10.196567
11.786819
15.239716
19.255877
26.501417
32.476783
40.975809
47.086477
52.902699
53.930879
52.050948
47.952533
40.687919
##ZVALUE=360
0.483990
0.498891
0.597835
0.471473
0.333786
0.321865
0.425577
0.507832
0.478625
0.302792
0.512600
0.493526
0.531673
0.595450
0.526905
0.495911
0.549555
0.498891
0.464916
0.615716
0.503659
0.584722
0.626445
0.578761
0.798702
0.864863
0.621676
0.500679
0.681877
0.576973
0.496507
0.545979
0.577569
0.740886
0.681877
0.745654
0.763535
0.793934
0.747442
0.753999
0.623465
0.778437
0.858903
0.867844
0.878572
0.905991
0.951886
0.890493
0.911951
0.871420
1.020432
1.006722
1.045465
1.290441
1.189709
1.314878
1.395941
1.295805
1.548529
1.772642
1.990795
2.461672
6.134510
31.904578
85.576773
234.505534
410.244465
732.984543
1003.994942
1015.794873
1015.794873
1015.794873
1015.794873
1015.794873
774.961710
417.220592
216.566920
70.941448
25.550723
9.307861
8.194447
7.816553
8.099675
8.016825
7.938743
8.338690
8.950830
10.429621
12.362599
16.149879
20.846725
28.613806
34.540892
42.262673
46.610832
49.075484
##ZVALUE=365
0.420809
0.466704
0.426769
0.480413
0.398755
0.478625
0.506639
0.596642
0.382662
0.428557
0.598431
0.422597
0.351667
0.708699
0.637770
0.491738
0.596642
0.489950
0.555515
0.648499
0.672936
0.563860
0.665784
0.564456
0.561476
0.542998
0.737906
0.729561
0.579953
0.573993
0.556707
0.580549
0.764728
0.723600
0.699759
0.619888
0.762939
0.821948
0.701547
0.591874
0.821948
0.697970
0.851750
0.763535
0.883937
0.788569
0.601411
0.774860
0.954866
0.866652
1.031756
0.968575
0.922680
0.981688
1.050830
1.088977
1.165867
1.142621
1.339912
1.276731
1.612902
1.901984
1.890659
2.292991
3.298521
16.672611
55.688620
175.794959
344.886780
676.182508
974.997878
1015.794873
1015.794873
1015.794873
1015.794873
1015.794873
984.941721
588.280559
331.040621
117.146969
43.734908
11.231899
7.983446
7.625818
7.466674
7.511973
7.250905
7.651448
7.489920
8.006692
8.951426
10.994673
13.685822
18.058419
23.371577
30.440688
##ZVALUE=370
0.552535
0.374913
0.478625
0.482798
0.387430
0.484586
0.510812
0.559688
0.549555
0.475645
0.467896
0.639558
0.568628
0.662804
0.497699
0.588894
0.530481
0.455976
0.546575
0.279546
0.457764
0.420809
0.439882
0.493526
0.578761
0.560880
0.540614
0.600815
0.577569
0.530481
0.637770
0.662804
0.580549
0.654459
0.730753
0.664592
0.594854
0.725985
0.675917
0.591874
0.687838
0.820756
0.744462
0.627637
0.876784
0.779629
0.789762
0.725985
0.719428
0.865459
0.767708
0.810623
0.814795
0.786781
1.033545
0.951886
1.050830
1.043677
1.030564
1.183748
1.094937
1.308918
1.588464
1.509786
1.864433
1.820922
2.437830
8.369684
32.197833
128.569603
262.673497
547.335744
857.845545
1015.794873
1015.794873
1015.794873
1015.794873
1015.794873
1015.794873
688.725710
408.647656
167.060494
73.460937
21.174550
8.886456
6.865859
6.799698
6.722808
6.866455
6.693602
6.732941
6.938577
7.318854
8.335710
9.617805
12.427568
##ZVALUE=375
0.454783
0.453591
0.410676
0.531673
0.395775
0.609756
0.461936
0.389814
0.477433
0.262856
0.305772
0.433922
0.507832
0.523925
0.604987
0.604987
0.453591
0.525713
0.510812
0.449419
0.373721
0.316501
0.476837
0.598431
0.501871
0.471473
0.417829
0.436902
0.602603
0.490546
0.612736
0.463724
0.492930
0.512600
0.710487
0.504851
0.685453
0.641942
0.594854
0.648499
0.628829
0.588894
0.729561
0.712872
0.774860
0.814795
0.657439
0.759959
0.712872
0.707507
0.831485
0.780821
0.722408
0.767708
0.763535
0.814795
0.731945
0.789762
0.999570
1.020432
1.070499
1.035929
1.260638
1.162887
1.350641
1.454949
1.735687
1.928806
2.153516
4.642606
14.846921
63.266754
157.817602
407.405496
692.172647
1015.794873
1015.794873
1015.794873
1015.794873
1015.794873
1015.794873
907.466412
611.932874
319.255590
160.517693
46.540499
14.773607
6.779432
6.261468
6.197691
6.241798
6.095767
6.226897
6.399751
6.161928
6.673932
##ZVALUE=380
0.351667
0.395775
0.448823
0.518560
0.427961
0.447631
0.441670
0.491738
0.393987
0.606775
0.538826
0.400543
0.504851
0.436902
0.510812
0.469685
0.424981
0.357628
0.464916
0.364780
0.407696
0.317693
0.506639
0.504851
0.473857
0.498891
0.537634
0.608563
0.579953
0.651479
0.518560
0.332594
0.641942
0.565648
0.654459
0.534654
0.486970
0.451803
0.511408
0.620484
0.412464
0.464916
0.457764
0.435710
0.615716
0.716448
0.669956
0.555515
0.534654
0.651479
0.624657
0.742674
0.562668
0.726581
0.804663
0.712872
0.865459
0.828505
0.942945
0.782609
0.903606
0.862479
1.027584
1.103878
1.213551
1.269579
1.413822
1.745820
1.924634
2.215505
2.334714
3.140569
8.209944
42.711496
115.429759
319.205523
567.061901
975.970030
1015.794873
1015.794873
1015.794873
1015.794873
1015.794873
1015.794873
799.870491
423.757434
229.572654
81.402659
29.106736
8.237958
6.053448
5.765557
5.898476
5.818605
5.756617
5.752444
##ZVALUE=385
0.408888
0.312924
0.425577
0.524521
0.319481
0.344515
0.421405
0.442863
0.474453
0.301600
0.424981
0.362992
0.351667
0.472665
0.301600
0.377893
0.460744
0.367761
0.381470
0.442863
0.393987
0.533462
0.626445
0.439882
0.520945
0.401735
0.336766
0.480413
0.459552
0.487566
0.490546
0.634789
0.678897
0.532866
0.398755
0.436902
0.467896
0.494719
0.525713
0.419617
0.325441
0.455976
0.517964
0.409484
0.661612
0.769496
0.591874
0.578761
0.601411
0.582933
0.651479
0.755787
0.710487
0.642538
0.709891
0.692606
0.813603
0.900626
0.681877
0.759959
0.974536
0.916719
0.790954
1.094937
1.046658
1.118779
1.302958
1.463890
1.531839
1.609921
1.898408
2.002716
2.124906
2.232790
4.010797
26.557446
78.547001
218.936801
418.388844
814.634562
1015.794873
1015.794873
1015.794873
1015.794873
1015.794873
1015.794873
997.319818
603.125691
354.518890
147.737861
58.901906
13.177991
6.294847
5.535483
5.390644
5.238652
##ZVALUE=390
0.382662
0.473857
0.491738
0.508428
0.470877
0.285506
0.594854
0.312924
0.451803
0.416636
0.406504
0.537634
0.409484
0.466704
0.450611
0.466704
0.491738
0.349879
0.593662
0.359416
0.429749
0.376701
0.398755
0.286698
0.583529
0.483990
0.462532
0.567436
0.403523
0.460744
0.258684
0.418425
0.501871
0.535846
0.510812
0.579953
0.392795
0.649691
0.513792
0.509620
0.596642
0.650883
0.580549
0.603795
0.479817
0.570416
0.736713
0.590682
0.546575
0.799894
0.732541
0.636578
0.527501
0.679493
0.691414
0.618696
0.759959
0.694990
0.692606
0.787973
0.849962
0.870824
0.856519
0.888705
1.064539
1.225471
1.356602
1.330972
1.561642
1.831651
1.760721
1.836419
1.942515
1.727939
1.846552
2.022982
2.433658
10.604858
41.751862
161.950588
340.597630
716.642737
1006.463766
1015.848517
1015.848517
1015.848517
1015.848517
1015.848517
1015.848517
906.991959
550.154448
223.785639
95.079541
22.284985
8.121729
5.365610
##ZVALUE=395
0.395775
0.367761
0.446439
0.380874
0.285506
0.372529
0.397563
0.231862
0.406504
0.471473
0.415444
0.442863
0.430942
0.443459
0.323653
0.441670
0.337958
0.461936
0.669956
0.428557
0.447631
0.506639
0.429749
0.417829
0.435710
0.552535
0.464916
0.354648
0.483990
0.490546
0.440478
0.475645
0.473857
0.769496
0.598431
0.525713
0.410676
0.427961
0.525713
0.520945
0.427961
0.618696
0.527501
0.567436
0.540614
0.551939
0.550747
0.668764
0.545979
0.585914
0.691414
0.512600
0.589490
0.697970
0.673532
0.628829
0.686646
0.613928
0.760555
0.840425
0.782609
0.850558
0.924468
0.954866
0.985861
1.198649
1.309514
1.377463
1.554489
1.521707
1.631975
1.616478
1.690984
1.696944
1.784563
1.646876
1.775622
2.025962
2.491474
6.552935
25.580525
107.499957
234.167576
510.074496
826.933980
1015.794873
1015.794873
1015.794873
1015.794873
1015.794873
1015.794873
1015.794873
795.632005
365.253687
170.776844
47.765970
##ZVALUE=400
0.410676
0.348687
0.372529
0.312924
0.411868
0.329614
0.413656
0.502467
0.314713
0.401735
0.270605
0.411868
0.369549
0.479817
0.360608
0.470877
0.339746
0.521541
0.425577
0.362992
0.346899
0.627637
0.541806
0.444651
0.274777
0.502467
0.457764
0.499487
0.515580
0.607967
0.692606
0.400543
0.427961
0.367761
0.493526
0.586510
0.524521
0.545979
0.490546
0.517964
0.461936
0.424981
0.604987
0.402927
0.702739
0.357628
0.506639
0.587702
0.523925
0.685453
0.477433
0.660419
0.649691
0.610948
0.595450
0.673532
0.525713
0.620484
0.752807
0.725985
0.680685
0.691414
0.834465
0.913739
1.001954
1.010895
1.221895
1.386404
1.302958
1.487732
1.411438
1.337528
1.459718
1.340508
1.361966
1.604557
1.454949
1.435876
1.634955
1.853704
2.040863
3.479719
12.191534
52.022934
126.662850
332.230926
588.616729
993.620753
1015.794873
1015.794873
1015.794873
1015.794873
1015.794873
1015.794873
936.783552
520.834923
##END
