##TITLE=FQP00651
##FORMAT=SPECTACLE-ASCII V-1.2
##DATA TYPE=ULTRAVIOLET SPECTRUM
##SECOND TYPE=ULTRAVIOLET SPECTRUM
##DATE=02/28/18
##TIME=15:04:25
##SPECTROMETER/DATA SYSTEM=SPECTACLE
##XUNITS=NM EM
##YUNITS=ENERGY
##YFACTOR=1
##FIRSTX=220
##LASTX=410
##NPOINTS=96
##3DDATA=Equidistant
##ZUNITS=NM EX
##FIRSTZ=210
##LASTZ=400
##ZPOINTS=39
##XYDATA=(Y..Y)
##ZVALUE=210
4.537702
4.459620
3.910661
3.705621
3.566742
4.421473
4.272461
5.849600
5.545616
6.323457
6.372929
6.138682
8.538961
8.149743
8.529425
8.918643
11.751652
12.375712
12.649894
13.882518
15.422702
16.176701
17.486811
17.449856
18.091798
20.647645
21.865964
23.338795
22.868514
24.363995
24.779439
24.732947
27.019978
28.001666
29.623508
29.573441
30.426979
31.976700
30.559897
30.315518
31.804442
33.637881
30.972958
31.910539
34.509897
34.366846
37.278533
34.954548
35.629869
38.798451
38.379431
40.117502
41.486621
40.960908
43.411851
41.970611
42.343736
42.629838
43.268800
41.401982
42.821765
46.110749
45.819879
44.300556
45.838952
49.114823
52.745938
56.690574
68.473816
80.533624
98.084807
116.707683
138.648748
155.664682
176.574588
193.127990
212.414861
219.580531
214.009881
209.525824
199.138522
181.741714
159.555674
132.430792
109.806657
88.865757
67.924857
55.423975
45.698881
42.679906
40.101409
39.921999
39.598942
39.937496
41.954517
39.533973
##ZVALUE=215
35.721660
33.774972
30.568838
25.248528
18.023849
14.046431
9.587407
7.951856
9.631515
9.457469
10.986924
9.422898
9.190440
10.465980
10.717511
11.732578
10.070801
13.297796
13.299584
14.108419
15.667677
14.664531
17.055869
17.434955
19.043684
19.347668
19.379854
20.864606
20.682812
21.969676
22.358894
21.197796
22.317767
24.184585
23.977757
24.220943
23.939610
25.491714
25.289655
26.629567
26.224852
27.756691
28.643608
28.803945
29.265881
29.179454
30.167699
31.625628
30.817986
32.234788
33.627748
30.115843
32.644868
36.515594
35.014749
35.489798
34.897923
36.647916
36.463737
35.005808
34.310818
36.252737
36.245584
37.411451
38.452744
41.658878
43.663979
49.944520
54.081678
62.885880
78.277588
93.578696
106.304884
123.067498
136.188865
148.391724
153.476596
157.479644
164.146423
155.377984
149.064660
134.645700
123.302937
103.862882
88.848472
68.148971
54.904819
43.374896
38.464665
35.466552
35.209656
34.882426
33.888817
32.613873
33.223629
31.806827
##ZVALUE=220
133.064985
136.365891
148.387551
141.724944
124.259591
90.556741
62.900782
33.935905
24.034977
18.508434
18.934608
19.036531
20.029545
18.162727
17.197728
15.981793
15.133619
14.950633
13.900995
14.848709
16.676784
16.464591
16.433597
16.434789
18.284917
19.924641
21.002889
19.042492
21.432638
23.934841
23.894906
25.184751
24.935603
23.263693
23.822784
26.072860
24.914742
23.866892
26.119947
25.866628
24.163723
27.453899
26.406646
27.125478
27.293563
27.712584
28.769970
28.817654
28.413534
30.892491
29.631853
30.257702
31.634569
30.248761
30.178428
28.728843
31.639934
30.563474
34.612417
31.288862
31.213760
32.628775
31.667948
32.522678
32.778978
33.382773
35.207868
39.399862
44.148564
53.167939
57.965517
71.304440
83.982944
97.081661
110.391974
116.761923
125.363469
128.844976
131.664872
127.876997
123.008490
115.666986
103.574991
91.392994
74.850917
61.374903
47.882795
39.219856
35.426617
33.850670
33.557415
33.176541
31.351447
30.922890
28.576851
29.297471
##ZVALUE=225
198.995471
211.162567
273.545980
375.863910
401.562452
403.373837
378.401875
295.346975
209.901929
146.235824
77.757835
46.280622
34.014583
32.807589
33.846498
30.715466
29.363632
26.359558
21.198988
20.623803
17.505884
16.052723
17.885566
18.785596
18.728971
20.037889
20.965934
21.893978
22.028685
25.082827
23.191571
24.760962
25.175810
24.789572
26.370883
26.690960
28.072000
27.937889
26.258826
27.656555
27.567744
28.586984
26.958585
28.068423
27.221441
29.635429
30.239820
28.883815
30.578971
32.451749
31.065941
30.756593
31.328797
32.869577
32.295585
30.665994
34.547448
33.397675
32.208562
33.623576
34.019947
34.166574
35.048723
34.975410
35.685897
38.580894
39.305687
41.789412
47.347546
55.240989
62.818527
74.269772
80.572963
95.764995
104.596615
112.916827
116.825700
119.375587
121.012926
115.508437
108.278990
93.472600
80.275536
67.709684
59.401989
49.419999
44.305921
38.825870
38.194656
33.387542
33.373833
33.930540
32.264590
30.400753
30.170679
30.192733
##ZVALUE=230
156.679749
177.473426
290.906429
505.308509
663.968921
855.761766
944.738984
940.427780
856.511593
647.704601
475.729704
275.820494
163.807869
85.377693
63.397884
58.308840
62.882900
60.545802
53.684711
48.137903
38.470626
31.365752
23.527741
22.048950
19.046664
18.957853
21.217465
21.975636
23.047924
23.780465
21.811724
23.393631
22.425652
24.495721
24.475455
25.330782
23.795962
24.213791
24.196506
26.260614
24.018884
25.313497
25.629997
25.959611
26.028752
26.792884
25.642514
26.120543
28.612614
25.065541
27.737617
27.566552
28.039813
28.303862
28.676987
29.582977
29.497743
28.376579
30.751824
30.441880
29.946566
29.551983
29.640794
31.180978
29.978752
31.548738
35.562515
36.814809
41.846633
46.351552
52.596927
61.646700
70.416927
79.430938
85.936785
92.635751
90.453625
90.932846
85.298419
82.334876
78.611970
71.368814
61.555505
53.397417
45.799613
40.763617
35.363436
32.147765
31.294823
30.443668
28.340816
28.431416
27.273893
24.270415
25.887489
25.682449
##ZVALUE=235
68.600774
81.435442
172.540545
385.057926
623.834729
971.767902
1015.710831
1015.710831
1015.710831
1015.710831
1015.710831
994.924903
642.665625
417.803526
228.061676
138.411522
90.252757
88.294744
96.628666
98.153949
92.057586
76.936483
63.490868
49.778819
37.768483
27.673841
23.219585
20.219684
18.001795
18.144846
17.974973
18.883944
18.480420
20.209551
18.291473
20.394921
19.676685
18.892884
18.807650
18.830895
19.666553
19.699931
19.428730
19.919872
19.166470
20.696521
20.467639
19.375682
18.536448
19.109845
21.710992
20.427704
20.471811
18.245578
20.378828
19.896626
20.209551
18.598437
18.635988
19.062757
19.498467
19.512773
21.366477
19.150972
18.380880
20.393729
22.676587
23.462772
26.558638
31.419992
33.837557
39.581656
43.605566
45.942664
50.781965
51.339865
49.703717
52.093863
47.394633
43.476820
42.062998
38.076639
32.879710
28.928518
25.749803
21.620989
19.672513
19.501448
18.587708
20.564795
19.569993
18.047690
17.509460
17.222762
17.020702
16.554594
##ZVALUE=240
2.467632
3.982782
22.632480
58.460832
157.761574
273.243785
484.936833
663.585663
884.910822
971.499681
989.489555
895.458460
758.064985
551.257730
404.620767
243.808627
168.275833
115.348697
100.442767
107.973814
115.320683
117.912889
116.917491
106.604695
87.177753
70.148706
50.424933
38.060546
24.571419
18.720627
15.049577
11.098981
11.554956
12.199879
10.814667
11.019707
10.831952
11.990666
11.030436
10.926723
10.310411
8.996725
11.631846
11.049509
9.896755
10.203719
9.349585
9.439588
8.646846
10.383725
10.476708
10.277629
10.503531
10.304451
10.203719
10.195971
10.375977
11.046529
12.529492
11.001825
11.280775
11.931658
10.880828
12.545586
12.368560
12.521744
13.547540
13.446808
15.823841
16.820431
16.949773
19.105673
20.473599
23.449659
24.747849
24.983883
25.703907
26.223660
24.450421
23.169518
21.671653
19.915700
20.005703
18.480420
18.335581
18.039942
18.333793
17.379522
16.424656
17.845631
16.921759
16.583800
15.414953
15.780926
15.653968
16.912818
##ZVALUE=245
1.859665
1.347661
1.561642
1.972914
5.299449
14.005899
45.856833
99.195838
256.046653
410.512686
668.506026
857.450962
997.601748
1015.730500
987.970829
780.313015
623.237491
385.888815
243.607759
136.425495
105.710626
101.624727
114.154816
129.573941
134.195685
126.791000
116.762519
97.944736
74.201822
57.675838
41.998625
26.836991
17.408729
12.632608
10.323524
8.983612
9.653568
8.808970
9.988546
8.179545
8.785725
9.346604
9.191632
8.881688
10.026693
8.325577
8.823872
7.883906
8.936524
8.398890
8.468628
8.552670
8.012652
8.156896
9.207726
8.115768
8.262992
8.316636
9.062886
8.712411
8.835793
9.718537
9.320974
9.642839
9.716749
10.051727
10.714531
11.158586
11.401772
12.533665
13.532639
16.403794
17.175674
17.369986
17.987490
18.542409
18.506646
17.819405
17.793775
15.353560
15.751719
16.424656
15.585423
15.854836
15.212893
15.088916
15.560985
14.710426
14.900565
15.039444
14.490485
15.422702
14.625788
14.338493
14.200807
14.118552
##ZVALUE=250
1.109838
1.395941
1.331568
1.096725
1.383424
1.623631
2.672672
9.275675
37.957430
80.180764
175.954700
272.847414
379.726887
497.359633
570.220947
604.847670
572.884679
498.988628
411.008596
283.100009
195.201635
135.664940
94.851851
91.280937
106.757879
120.086670
135.528445
139.511824
134.133697
120.762587
101.422668
78.481436
58.146715
35.166740
22.750497
12.899637
9.113550
6.633997
6.444454
5.956888
6.590486
6.137490
5.825758
5.767941
5.463958
5.386472
5.593896
5.575418
5.417466
5.106926
5.161762
4.842877
4.923940
5.570650
4.795790
5.625486
5.191565
5.518794
5.650520
5.378723
5.587935
6.244779
5.797744
6.268620
6.279945
7.404685
6.848574
8.229613
8.525848
8.879900
10.107756
10.733604
11.217594
11.105537
12.419820
12.384653
12.367964
13.942719
12.958646
12.502670
13.162494
12.566447
12.568831
13.949871
13.655424
13.365746
13.241768
12.862682
13.989806
14.947653
12.660623
12.947917
12.776852
12.288690
13.534427
13.197660
##ZVALUE=255
0.807643
0.905991
0.802875
0.994802
1.088977
0.883937
0.959635
1.492500
1.829863
3.991723
20.514727
51.585436
96.148849
195.781589
288.549662
422.334671
509.305000
591.001511
604.014993
565.688610
486.455560
387.645960
243.773460
166.491866
98.094940
84.586740
86.025000
102.628469
124.316812
137.279630
142.819881
138.553977
130.011439
104.291439
81.710815
51.669478
36.450624
20.240545
13.139844
8.397698
6.902814
6.666780
6.831884
5.284548
5.475879
5.816817
5.448461
5.583763
5.421638
5.383492
5.165935
5.094409
5.063415
5.270839
4.986525
4.695654
4.312992
5.001426
5.095601
5.296469
5.280972
4.532933
4.808903
5.147457
6.241798
6.513000
6.733537
6.735921
7.874966
7.331967
8.620620
8.639693
9.143949
9.714961
10.248423
10.326505
9.994507
11.264682
12.024641
11.923909
11.848807
11.648536
11.508465
12.205839
12.276769
12.532473
11.708736
12.639761
12.707710
12.219548
11.937618
13.175607
12.809634
13.547540
13.098717
13.006926
##ZVALUE=260
1.095533
1.074672
1.017451
1.270771
1.357794
1.328588
1.080632
1.182556
1.238585
1.455545
1.504421
2.283454
8.058548
32.552481
68.130493
157.768726
248.124003
385.832787
496.076941
620.664954
665.910840
662.735701
582.903624
478.310585
323.132873
225.943923
134.865642
93.470812
71.225762
80.016851
97.983479
124.802589
139.925480
151.062608
142.949820
129.174590
109.523535
77.028871
56.415796
34.497976
23.902655
14.151931
9.673834
6.582737
5.557537
5.283952
5.288720
5.761981
5.942583
5.411506
5.364418
5.377531
4.954934
4.801750
4.671812
5.022883
4.591942
4.639626
5.150437
5.091429
4.960895
5.722642
5.759597
6.228685
6.030798
5.928874
6.110668
6.901622
6.605983
7.316470
7.689595
7.701516
8.391738
9.006858
8.951426
9.711981
9.654760
9.901524
10.613799
10.152459
11.549592
11.176467
10.791421
11.577606
11.082888
12.222528
11.354685
12.165904
12.790561
12.250543
11.893511
12.307763
12.335777
12.695789
12.365580
12.662411
##ZVALUE=265
0.974536
0.907779
0.931621
0.870824
1.067519
0.979900
1.314878
1.030564
1.172423
1.178980
1.013875
1.059771
1.451969
1.436472
3.775954
21.939874
52.450895
122.018456
208.488703
363.004804
493.507981
612.509847
719.418526
729.352832
660.898685
563.226938
418.857932
292.884707
163.120627
106.364489
73.617697
64.594746
76.539516
107.411742
128.252506
145.657659
151.665807
143.244863
129.679441
102.295876
82.207918
54.636002
36.593676
20.892620
13.360977
7.670522
5.973577
5.856752
5.755424
5.293489
5.530715
5.007982
4.981756
5.062819
4.492998
4.584789
5.177855
4.550815
4.484653
4.825592
4.958510
4.681945
5.348921
5.209446
5.290508
5.417466
5.635619
6.192923
5.830526
6.200671
6.970763
7.562637
7.993579
7.705688
9.519458
9.375811
9.378791
10.139942
9.177923
9.773970
9.831786
9.909868
10.439754
10.212660
10.437965
11.028647
10.703802
10.587573
11.098981
10.294914
10.815859
10.738969
11.614561
10.659695
11.523962
10.831952
##ZVALUE=270
0.756979
0.724792
0.767708
0.606775
0.838637
0.938773
0.776649
0.938773
1.078844
0.847578
0.801682
0.961423
1.077652
0.995994
1.351833
1.720786
1.983643
10.261536
29.789805
92.618465
170.327425
282.382965
469.364524
607.460737
740.043521
772.392750
747.478604
663.501024
515.805483
381.870866
258.831978
138.991475
83.820820
53.356886
57.869554
80.831647
103.651881
130.579472
145.645738
152.572989
149.616599
129.952431
108.751655
78.696609
57.534575
34.018755
21.678805
13.093948
8.615851
5.947948
5.212426
5.067587
5.041957
4.612803
5.339980
4.884601
4.928708
4.717708
4.720688
5.396605
5.284548
5.017519
4.912615
5.148649
4.775524
5.564690
5.613565
6.109476
6.168485
6.787777
6.595850
7.364750
7.179976
8.175969
8.245707
8.643866
8.664727
8.493662
8.754730
8.813739
9.274483
9.628534
9.283423
9.208918
9.521842
9.584427
9.687543
9.856820
10.198951
10.613799
9.892583
10.436773
10.414720
10.208488
10.536909
10.573864
##ZVALUE=275
0.857711
0.777841
0.729561
0.886917
0.841618
0.892878
0.818968
0.897646
0.811815
0.958443
0.931621
1.103878
0.974536
1.026988
1.095533
1.139641
1.360774
1.373887
1.692772
4.686713
18.240809
50.675869
138.525963
241.615772
420.836806
551.871657
696.170926
766.418576
788.346529
727.514029
625.026822
454.993844
320.090652
171.179771
100.467801
50.838590
42.605996
57.341456
76.000690
102.691650
124.744773
142.279863
148.159862
141.840577
129.186511
100.749731
81.427693
54.819584
38.577914
21.765828
14.023781
8.239746
6.359816
5.183816
4.779696
4.891753
5.206466
5.005598
4.915595
4.906654
5.162954
5.528927
5.381703
5.273819
6.096959
5.754828
5.719662
5.988479
6.472468
6.625652
6.679893
7.602572
7.333755
7.590652
8.348823
8.358955
9.041429
8.435845
8.515716
8.491874
9.230971
8.773804
9.199977
8.953810
9.548664
9.399652
9.588599
9.339452
9.784698
9.683967
9.096861
9.595752
9.605885
9.443760
9.704828
9.963512
##ZVALUE=280
0.783801
0.762939
0.713468
0.648499
0.684857
0.736713
0.711679
0.741482
0.790954
0.893474
0.743866
0.857711
0.826716
1.044869
0.792742
0.761747
0.896454
1.015663
1.059771
1.405478
1.422763
2.497435
9.090900
41.744709
96.447468
215.809941
331.431627
503.463745
637.185574
734.946728
796.840787
768.876672
658.890605
525.473952
344.707966
227.262974
116.423965
64.791441
36.492944
36.230683
50.441623
74.616671
97.302794
124.696493
139.131546
144.162774
141.969919
124.198794
105.167627
81.826448
56.437850
39.067864
22.452474
13.564825
7.752776
5.883574
5.034804
5.037785
5.296469
5.055666
5.349517
5.237460
5.550981
5.821586
5.923510
6.021857
6.077886
5.872846
6.582737
6.557703
7.239580
7.063746
7.371902
7.538795
8.200407
7.713437
7.962584
8.491874
8.104444
8.869767
8.600950
8.276701
8.830428
8.714795
9.060502
9.003878
9.328723
8.980632
9.397864
9.211898
9.351969
9.238720
9.287000
8.927584
8.764863
9.520650
##ZVALUE=285
0.683665
0.519753
0.636578
0.613928
0.694990
0.704527
0.611544
0.664592
0.696778
0.613928
0.777841
0.619888
0.790954
0.853539
0.652671
0.926852
0.809431
0.897646
0.913739
0.959635
1.213551
1.106858
1.406670
1.456738
5.164742
17.794967
60.445666
120.753646
249.197483
365.687609
532.182455
642.523766
743.079782
761.317611
694.440603
593.459606
422.593951
291.840434
155.789852
90.249777
40.923953
28.022528
33.704638
47.579408
71.510673
93.598962
117.859840
133.421421
140.853524
136.374831
122.514963
105.108619
77.990890
59.168935
36.615729
23.615956
12.648702
8.734465
6.165504
5.574822
5.283952
5.132556
5.520582
5.279779
5.496740
5.964637
5.552769
6.572604
6.785989
6.794930
6.834865
7.190704
7.669926
7.908940
8.093715
7.791519
8.221865
8.420944
8.503795
8.808970
8.427501
8.995533
8.047819
8.145571
9.002686
8.651614
8.692741
8.679628
8.517504
9.154677
8.929968
8.962750
8.511543
9.150505
8.872747
8.968711
##ZVALUE=290
0.522733
0.548959
0.708699
0.622869
0.623465
0.548959
0.635982
0.693798
0.561476
0.657439
0.524521
0.537634
0.686646
0.719428
0.673532
0.942945
0.723600
0.816584
0.969768
0.870824
0.773668
1.074672
1.201630
1.173615
1.230836
1.288652
2.038479
6.866455
33.225417
77.528954
146.493912
288.009644
427.387953
601.515770
705.431700
772.341490
743.782520
631.159544
512.852669
346.179605
228.210688
113.003850
61.778426
27.657747
22.068620
32.656789
44.729710
68.529844
87.846518
113.540888
127.158761
137.072802
133.824944
119.429827
101.311803
74.410439
55.282712
35.365820
23.649931
14.199615
9.368658
6.847978
6.321669
5.655885
5.887747
6.146431
6.328821
6.608963
6.810427
6.732941
7.250905
7.670522
8.077621
8.404851
8.322597
8.104444
8.398890
8.592606
8.292794
8.914471
8.492470
8.603930
8.494854
8.517504
8.538961
8.794665
8.918643
9.161830
9.005666
8.789897
8.668900
8.408427
8.880496
8.494854
8.754730
8.586645
##ZVALUE=295
0.480413
0.592470
0.561476
0.544786
0.527501
0.732541
0.528693
0.597835
0.490546
0.665784
0.501871
0.711679
0.603795
0.708699
0.749826
0.673532
0.869632
0.964999
0.693798
0.945926
0.950694
0.808835
1.033545
0.957847
1.127720
1.184940
1.300573
1.345873
1.582503
3.198981
16.259551
47.099590
103.151798
233.450532
366.449952
558.401942
676.691532
782.913566
796.443820
712.187886
604.892969
430.422425
294.547677
152.150989
85.135698
34.587979
20.855665
19.701719
26.256442
44.201612
61.421990
86.607933
105.156898
121.495724
128.356814
125.695467
114.778876
94.719529
77.120662
53.220987
37.759542
22.803545
15.350580
9.910464
7.711649
6.707907
6.513000
6.887913
6.784797
7.382631
7.542968
7.847548
8.035898
8.614659
8.853674
8.889437
8.832812
8.998513
8.952618
9.028912
8.721948
8.644462
9.210706
9.060502
9.066463
9.271502
8.882880
9.050965
8.941889
9.098649
8.800626
9.042621
8.766651
8.810759
8.889437
8.946657
##ZVALUE=300
0.531673
0.530481
0.614524
0.603795
0.602603
0.603795
0.493526
0.601411
0.440478
0.512600
0.550747
0.325441
0.678897
0.632405
0.601411
0.676513
0.655651
0.761747
0.697970
0.749826
0.778437
0.636578
0.791550
0.895858
0.908971
1.042485
1.004934
1.166463
1.433492
1.208782
1.556873
1.727939
7.166862
24.335980
79.543591
150.941610
297.879577
435.114503
616.144538
714.260936
782.642961
764.259696
653.567910
531.653762
345.747471
225.554705
112.749934
60.411692
25.137663
14.950633
16.697645
23.568869
38.830638
54.507852
78.283548
97.391009
116.464496
122.267604
122.215748
113.872886
93.615651
77.259541
54.295659
39.584637
24.096966
16.558766
10.679960
8.265972
7.585883
7.350445
7.604957
7.738471
8.125901
8.381605
8.310676
8.650422
8.808970
8.956790
8.843541
9.234548
8.869767
9.270906
9.115934
9.495616
8.931756
9.315610
9.474754
9.255409
8.878708
8.728504
8.961558
9.016991
9.066463
8.764863
8.589625
8.866787
##ZVALUE=305
0.537634
0.551939
0.436902
0.423789
0.588894
0.567436
0.612736
0.407696
0.602603
0.652671
0.709891
0.609756
0.604987
0.496507
0.689626
0.539422
0.676513
0.577569
0.695586
0.609756
0.712872
0.753999
0.470877
0.723600
0.895858
0.737906
0.778437
1.044869
0.905991
0.968575
0.844598
1.167655
1.258850
1.378655
2.732873
16.018748
43.144822
119.341612
211.075544
372.915864
510.215759
670.389533
758.686662
771.911740
703.438520
549.683571
420.084596
262.917876
163.307786
72.798729
37.414432
15.333891
11.256933
15.239716
22.471547
38.583875
53.521991
76.045990
93.568563
109.600425
116.121769
116.292834
108.796954
90.024471
74.221492
51.637888
37.413836
24.109483
16.570687
11.183619
9.248853
8.433461
8.057952
8.492470
8.512735
8.585453
8.428693
8.584857
9.283423
8.902550
9.258986
9.596944
9.353757
9.433627
9.375811
9.029508
9.387732
9.312630
9.384751
9.393692
9.325743
9.000897
8.399487
8.800626
9.087920
8.947849
##ZVALUE=310
0.348687
0.486970
0.519753
0.574589
0.594854
0.542998
0.541806
0.312924
0.347495
0.462532
0.599623
0.585914
0.367761
0.627637
0.649691
0.724792
0.621676
0.685453
0.611544
0.558496
0.669956
0.504851
0.539422
0.623465
0.883937
0.818968
0.765920
0.738502
0.830889
0.884533
0.759959
0.970960
0.937581
1.098514
1.077652
1.287460
1.565814
6.777644
21.048784
70.631504
138.176680
278.563499
410.986543
594.180822
704.635978
774.362683
748.886466
636.836886
514.951944
334.572792
221.385956
110.389590
58.575869
23.013949
11.835694
10.189414
13.710856
21.197796
31.533837
48.736930
65.122843
86.994767
99.648833
109.396577
110.468864
102.512836
90.975761
71.910620
55.027604
35.897493
26.549697
17.478466
12.940764
10.112524
8.895993
8.996725
8.715987
8.484721
8.926988
9.486675
8.990765
9.141564
9.380579
9.384751
9.360909
9.283423
9.536743
9.555817
9.234548
9.411573
9.385943
9.239912
8.875728
8.820891
9.139776
9.023547
##ZVALUE=315
0.458956
0.365973
0.487566
0.410676
0.357628
0.328422
0.319481
0.373721
0.367761
0.399947
0.265837
0.415444
0.339746
0.417829
0.406504
0.411868
0.484586
0.529885
0.693798
0.487566
0.498891
0.651479
0.584722
0.585914
0.678897
0.539422
0.700951
0.641942
0.642538
0.626445
0.595450
0.647902
0.724792
0.792742
1.003742
0.834465
0.974536
1.308918
1.251698
2.919436
10.591745
42.680502
91.875792
207.890868
333.704948
525.859594
644.022822
738.629699
756.943822
675.518513
569.591522
400.614738
278.139710
145.963430
78.496933
31.176805
15.298724
8.490682
9.379983
13.022423
18.808842
31.031966
43.476820
63.932538
77.398419
95.257759
104.579926
104.519725
99.750757
83.196759
70.367455
51.707625
37.918687
24.071932
17.526746
11.856556
10.246634
9.402633
9.038448
9.304881
8.993745
9.171963
8.979440
8.861423
9.303689
9.576678
9.405613
9.480715
9.395480
9.183884
9.313822
9.168983
9.143949
9.241700
8.837581
9.205937
##ZVALUE=320
0.343919
0.446439
0.462532
0.368953
0.473857
0.529885
0.405908
0.580549
0.458956
0.506639
0.504851
0.335574
0.448823
0.406504
0.697970
0.446439
0.567436
0.554919
0.468493
0.613928
0.581741
0.517964
0.573993
0.453591
0.438690
0.477433
0.563860
0.643730
0.710487
0.603795
0.814795
0.791550
0.906587
0.687838
0.840425
0.821948
0.890493
0.949502
0.973940
1.043677
1.286864
1.555681
4.966855
24.729967
61.667562
152.952671
254.104733
419.638753
547.710657
686.578751
747.084022
731.077790
655.412674
499.324799
360.984802
201.367736
112.098455
45.420527
21.968484
9.707808
7.914901
9.042621
11.571646
17.813444
26.055574
42.143464
55.999756
74.199438
88.116527
98.577738
99.617839
93.605518
83.800554
64.420700
51.104426
34.582615
25.509000
16.881824
13.259649
10.408759
9.798408
9.322762
9.036660
9.390712
9.235740
9.352565
9.256601
9.271502
9.402633
9.317994
9.351969
9.127855
8.906722
9.197593
8.586645
9.025931
##ZVALUE=325
0.413656
0.421405
0.403523
0.451803
0.345707
0.527501
0.501871
0.430942
0.548959
0.491738
0.501871
0.562668
0.499487
0.472665
0.328422
0.490546
0.445843
0.584722
0.589490
0.375509
0.501871
0.436902
0.534654
0.483990
0.501871
0.528693
0.578761
0.581741
0.716448
0.540614
0.532866
0.469685
0.618696
0.680685
0.677705
0.777841
0.791550
0.797510
0.900626
0.994802
0.836849
1.039505
1.093745
1.327991
2.668500
14.901757
38.810968
103.518963
185.548663
343.001485
473.366976
621.784925
696.684718
710.852742
652.816892
505.790710
377.497673
225.851536
136.522651
61.784983
30.917525
12.259483
7.858872
7.377863
8.429885
11.803508
16.552806
26.734471
38.893819
57.241917
70.910454
84.901452
91.515779
92.981458
87.642670
74.244738
61.583519
45.864582
34.514666
22.353530
17.189980
12.697577
10.997653
9.803772
9.593964
9.447932
9.402633
9.238720
9.211898
9.200573
9.022951
9.062886
8.851886
8.970499
9.005666
8.996725
##ZVALUE=330
0.340939
0.393987
0.317693
0.247955
0.488758
0.428557
0.400543
0.557899
0.429749
0.505447
0.442863
0.506639
0.413656
0.430942
0.481606
0.393987
0.621676
0.578761
0.428557
0.402927
0.565648
0.640750
0.379682
0.567436
0.523925
0.581741
0.525713
0.691414
0.648499
0.642538
0.610948
0.586510
0.548959
0.570416
0.576973
0.551939
0.580549
0.748634
0.529885
0.786781
0.912547
0.901818
0.871420
1.034737
1.017451
1.158714
1.520514
6.527901
20.609498
69.839954
134.607553
268.504620
388.857722
552.307963
646.264553
700.372458
669.353008
555.030704
438.661575
279.478431
179.248452
84.229708
44.137836
17.392635
9.372830
7.037520
7.243752
8.532405
11.040568
17.401576
24.531484
36.902428
49.966574
67.849755
78.624487
87.338686
88.196993
81.556439
72.638988
56.468844
45.073628
30.617714
23.449659
16.923547
13.367534
11.017919
9.812713
9.505749
9.183884
9.103417
9.052753
8.923411
8.594990
8.941889
8.622408
8.745790
##ZVALUE=335
0.297427
0.262856
0.334978
0.428557
0.488758
0.244975
0.432730
0.413656
0.484586
0.469685
0.406504
0.355840
0.473857
0.442863
0.397563
0.378489
0.407696
0.517964
0.399947
0.412464
0.485778
0.464916
0.265837
0.468493
0.582933
0.501871
0.591874
0.411868
0.333786
0.543594
0.447631
0.652671
0.576973
0.549555
0.579953
0.500679
0.633597
0.623465
0.530481
0.579953
0.737906
0.793934
0.575781
0.886917
0.718832
1.011491
0.976920
1.074672
1.271963
2.994537
10.662675
42.201877
90.111494
198.163986
313.004851
478.656888
584.815741
662.868023
667.542815
590.923429
492.454767
332.833529
227.019787
117.939711
61.847568
22.908449
11.321902
7.385612
7.043481
7.474422
8.502603
10.989904
15.297532
24.836659
35.143495
50.769448
62.117577
75.146556
81.961751
82.857609
78.640580
66.203475
56.336522
43.597817
33.922791
23.379922
17.942786
13.095737
10.880828
9.607673
9.243488
8.782744
8.692741
8.735657
8.678436
8.581877
##ZVALUE=340
0.391603
0.301600
0.457764
0.495911
0.299811
0.272989
0.353456
0.445843
0.343919
0.426769
0.342727
0.533462
0.323653
0.402927
0.485778
0.275970
0.425577
0.432730
0.440478
0.434518
0.450611
0.588894
0.626445
0.543594
0.572801
0.510812
0.501871
0.650883
0.438690
0.458956
0.452995
0.393987
0.397563
0.456572
0.441670
0.690818
0.620484
0.563860
0.574589
0.598431
0.558496
0.721812
0.743866
0.505447
0.649691
0.936985
0.749826
1.061559
0.934601
1.065731
1.068711
1.661777
5.353689
25.432706
62.273741
154.599547
254.782438
407.109857
522.452593
630.362630
656.468868
611.422658
528.527498
386.983752
269.172788
140.428543
77.695847
32.799840
14.909506
7.661581
7.008910
6.910563
7.368922
8.567572
10.786653
16.276836
23.380518
34.509897
45.622587
60.975552
70.465803
77.049732
77.609420
72.904825
66.183805
53.483844
43.911934
31.509995
24.355650
17.073750
12.783408
10.323524
9.226799
8.334517
8.575916
7.852912
##ZVALUE=345
0.452995
0.440478
0.294447
0.289679
0.515580
0.378489
0.199676
0.413656
0.301600
0.421405
0.428557
0.309944
0.470877
0.272989
0.384450
0.311732
0.412464
0.415444
0.427961
0.360608
0.523925
0.385642
0.350475
0.410676
0.427961
0.462532
0.472665
0.539422
0.376701
0.468493
0.405908
0.487566
0.527501
0.473857
0.394583
0.620484
0.305772
0.415444
0.601411
0.553727
0.619888
0.635982
0.593662
0.605583
0.475645
0.508428
0.551939
0.771880
0.791550
0.722408
0.790954
1.009703
0.890493
1.171827
3.084540
11.201501
45.192838
93.999505
197.808743
300.868750
454.551578
555.070639
632.090569
640.620589
561.195016
461.413860
311.265588
202.688575
95.040798
47.846437
17.509460
9.630919
7.187724
6.888509
6.855726
6.956458
7.847548
9.984970
14.633536
20.853877
32.502413
42.265654
54.738522
62.061548
70.469975
71.976781
68.810582
62.556863
51.705837
41.969419
31.030774
23.298860
16.535521
12.873411
9.693503
8.600950
##ZVALUE=350
0.380874
0.348687
0.231862
0.326633
0.396967
0.260472
0.358820
0.295639
0.404716
0.320673
0.413656
0.432730
0.444651
0.236630
0.449419
0.469685
0.323653
0.416636
0.312924
0.320673
0.346899
0.422597
0.514984
0.373721
0.436902
0.531673
0.439882
0.340939
0.433922
0.550747
0.545979
0.485778
0.463724
0.308752
0.398755
0.484586
0.437498
0.472665
0.576973
0.565648
0.590682
0.465512
0.624657
0.584722
0.677705
0.663996
0.740886
0.600815
0.532866
0.711679
0.603795
0.733733
0.757575
0.883937
1.017451
1.017451
1.486540
7.114410
21.987557
69.582462
132.103562
257.970691
367.688537
499.932766
576.158762
609.739423
573.922992
468.959808
356.721878
212.680697
129.175782
60.448647
29.199719
10.690689
7.177591
6.634593
6.513596
6.564856
6.670952
7.755756
9.563565
14.402866
19.302964
27.850866
36.718845
48.367977
56.662560
64.131618
65.837502
63.158870
58.379769
47.943592
39.697886
28.856993
22.433996
15.861988
##ZVALUE=355
0.252724
0.338554
0.370741
0.354648
0.425577
0.237823
0.325441
0.331998
0.298619
0.363588
0.246763
0.413656
0.256896
0.320673
0.238419
0.458956
0.506639
0.389814
0.376701
0.318885
0.478625
0.341535
0.339746
0.395775
0.316501
0.435710
0.471473
0.403523
0.403523
0.565648
0.563860
0.465512
0.470877
0.465512
0.423789
0.339746
0.424981
0.489950
0.434518
0.568628
0.531673
0.464916
0.445843
0.495911
0.595450
0.524521
0.674725
0.614524
0.572801
0.619888
0.587702
0.718832
0.668764
0.758767
0.843406
0.890493
0.908971
1.009703
1.265407
2.654791
13.128519
37.652850
103.840828
178.004503
315.099955
423.874855
539.615750
587.807894
569.580793
499.233007
365.645885
264.136791
147.449970
81.343651
33.162832
15.515685
7.467866
6.321669
5.907416
5.855560
6.215572
6.372929
7.060766
8.503795
12.096763
16.168952
24.162531
30.888915
42.806864
50.264001
57.360530
59.255958
57.773590
53.602457
45.666695
38.746595
##ZVALUE=360
0.403523
0.415444
0.496507
0.477433
0.546575
0.491738
0.357628
0.289679
0.218749
0.247955
0.445843
0.276566
0.458956
0.389814
0.453591
0.415444
0.394583
0.325441
0.651479
0.488758
0.488758
0.471473
0.451803
0.254512
0.465512
0.340939
0.279546
0.499487
0.417829
0.287890
0.333786
0.407696
0.382662
0.477433
0.411868
0.483990
0.504851
0.550747
0.611544
0.618696
0.484586
0.383854
0.421405
0.566840
0.315905
0.501871
0.502467
0.403523
0.732541
0.559688
0.681877
0.752807
0.774860
0.821948
0.619888
0.643730
0.724792
0.818968
0.914931
0.935793
1.086593
1.441836
6.257892
19.215941
64.038634
123.295784
241.040587
348.080993
484.616756
550.905466
564.267635
520.673990
417.059660
313.047767
184.012651
109.440684
47.279000
22.210479
8.833408
5.999804
5.761981
5.812645
5.660653
5.733967
5.613565
6.316900
7.652640
9.559989
14.045835
19.085407
27.827621
34.653544
44.353604
50.085783
54.324865
54.003000
##ZVALUE=365
0.379682
0.382662
0.479817
0.317693
0.246763
0.426769
0.462532
0.294447
0.278950
0.382662
0.356436
0.471473
0.435710
0.292659
0.312924
0.496507
0.339746
0.405908
0.408888
0.207424
0.335574
0.524521
0.411868
0.506639
0.414848
0.444651
0.382662
0.415444
0.255704
0.382662
0.331998
0.335574
0.267625
0.331998
0.317693
0.313520
0.577569
0.446439
0.467896
0.509620
0.463724
0.364780
0.400543
0.512600
0.476837
0.622869
0.568628
0.579953
0.457764
0.353456
0.419617
0.633597
0.656843
0.637770
0.664592
0.686646
0.690818
0.645518
0.774860
0.848770
0.716448
0.988841
1.014471
1.113415
2.540946
12.637973
34.261942
93.720555
171.825886
306.600928
404.999852
504.432917
546.234846
525.866747
456.780791
332.667828
235.051513
130.016804
70.746541
26.723742
12.232661
6.324649
5.235672
5.362630
5.070567
5.227923
5.074739
5.334616
5.389452
6.441474
8.140802
11.581779
16.135573
23.545623
29.751658
38.213730
##ZVALUE=370
0.363588
0.302792
0.352859
0.352859
0.340939
0.163913
0.412464
0.410676
0.383854
0.378489
0.394583
0.315905
0.418425
0.398755
0.420809
0.322461
0.412464
0.360608
0.428557
0.411868
0.242591
0.391603
0.514984
0.389814
0.443459
0.335574
0.332594
0.434518
0.429749
0.416636
0.440478
0.462532
0.492930
0.442863
0.505447
0.466704
0.423789
0.433922
0.344515
0.411868
0.510812
0.386834
0.308752
0.459552
0.514984
0.518560
0.562668
0.453591
0.479817
0.497699
0.456572
0.548959
0.560880
0.484586
0.602603
0.541806
0.535846
0.544786
0.513792
0.781417
0.626445
0.722408
0.826716
0.755787
1.014471
0.930429
1.539588
6.582737
21.118522
69.514513
133.293867
252.234936
356.943607
478.042960
529.696941
531.757474
483.519435
371.991992
272.207856
152.194500
86.423755
35.976768
17.797947
7.830858
5.278587
4.997849
4.769564
4.911423
4.679561
4.878640
4.941821
5.000830
5.681515
7.231832
9.916425
14.373660
##ZVALUE=375
0.320673
0.443459
0.328422
0.417829
0.183582
0.212789
0.351667
0.399947
0.346899
0.412464
0.391603
0.304580
0.298619
0.300407
0.301600
0.254512
0.432730
0.252724
0.200868
0.381470
0.390410
0.349879
0.407696
0.367761
0.532866
0.436902
0.337958
0.469685
0.351667
0.399947
0.289679
0.350475
0.340939
0.439882
0.381470
0.462532
0.522733
0.510812
0.484586
0.446439
0.517964
0.529885
0.556707
0.440478
0.361800
0.438690
0.338554
0.397563
0.461936
0.505447
0.388622
0.405908
0.435710
0.505447
0.549555
0.436902
0.398755
0.511408
0.509620
0.660419
0.476837
0.763535
0.588894
0.785589
0.681877
0.813603
0.724792
0.922680
1.166463
3.583431
11.668801
40.898919
89.492798
195.886493
296.567678
429.469943
503.074527
540.368557
515.486002
418.360829
320.654511
197.259784
124.513507
63.221455
32.528639
11.937618
6.585717
4.786849
4.779696
4.582405
4.596710
4.510880
4.464984
4.526973
4.613996
5.162954
##ZVALUE=380
0.361800
0.375509
0.347495
0.408888
0.360608
0.441670
0.374913
0.318885
0.422597
0.212789
0.303984
0.326633
0.412464
0.339746
0.468493
0.436902
0.604987
0.409484
0.439882
0.643730
0.459552
0.297427
0.360608
0.397563
0.405908
0.346899
0.355840
0.424981
0.481606
0.469685
0.314713
0.414848
0.573993
0.489950
0.369549
0.463724
0.477433
0.497699
0.317693
0.481606
0.637770
0.353456
0.476837
0.249743
0.422597
0.446439
0.429749
0.443459
0.540614
0.620484
0.423789
0.320673
0.456572
0.379682
0.438690
0.466704
0.600815
0.411868
0.649691
0.492930
0.479817
0.636578
0.642538
0.530481
0.716448
0.684857
0.734925
0.821948
0.966787
1.054406
1.263618
2.002716
7.181764
31.328797
70.071816
154.415965
245.826840
384.373665
471.714735
536.710620
531.862974
455.232859
374.360681
259.542465
175.306797
86.735487
45.174956
16.967654
7.775426
4.759431
4.421473
4.356503
4.378557
4.091859
4.157424
4.161596
##ZVALUE=385
0.307560
0.229478
0.150800
0.206828
0.184774
0.099540
0.141859
0.274777
0.337958
0.306964
0.329614
0.283718
0.343919
0.409484
0.248551
0.268817
0.332594
0.198483
0.163913
0.206828
0.150800
0.450611
0.220537
0.297427
0.187755
0.426769
0.135899
0.319481
0.301600
0.488758
0.551939
0.241995
0.381470
0.304580
0.297427
0.295639
0.280738
0.229478
0.359416
0.294447
0.442863
0.220537
0.247955
0.389814
0.378489
0.368953
0.340939
0.479817
0.498891
0.367761
0.399947
0.405908
0.384450
0.403523
0.228882
0.266433
0.351667
0.287890
0.298619
0.557899
0.486970
0.395775
0.468493
0.416636
0.423789
0.571609
0.546575
0.805855
0.703931
0.833869
0.842810
0.859499
0.874996
1.138449
3.096461
16.320944
42.800903
110.780597
190.064907
325.956941
424.641967
510.216951
530.244708
501.326919
438.444018
321.730971
229.081511
124.785900
71.627498
29.657483
13.093948
5.066991
4.171729
3.796816
3.914833
3.448725
##ZVALUE=390
0.351667
0.204444
0.104904
0.263453
0.274777
0.422597
0.111461
0.160933
0.367761
0.319481
0.449419
0.374913
0.195503
0.475645
0.349879
0.314713
0.258684
0.345707
0.223517
0.043511
0.241995
0.167489
0.334978
0.286698
0.517964
0.258684
0.396967
0.393987
0.333786
0.411868
0.304580
0.343919
0.392795
0.217557
0.232458
0.337958
0.325441
0.277758
0.357628
0.477433
0.329614
0.298619
0.393987
0.297427
0.320673
0.382662
0.348687
0.357628
0.399947
0.300407
0.304580
0.260472
0.318885
0.457764
0.470877
0.375509
0.396967
0.359416
0.491738
0.501871
0.518560
0.419617
0.592470
0.468493
0.479817
0.509620
0.675917
0.674725
0.612736
0.606775
0.715852
0.762939
0.774860
0.766516
0.855923
1.092553
1.728535
8.762479
26.690960
82.953572
153.725743
280.492902
374.773741
473.626852
522.242785
529.080629
489.986539
390.820503
298.092961
183.276534
107.589960
44.101477
20.374656
6.678700
4.355907
3.701448
##ZVALUE=395
0.247955
0.437498
0.479817
0.316501
0.407696
0.397563
0.201464
0.239611
0.164509
0.192523
0.258684
0.332594
0.343919
0.392795
0.378489
0.271797
0.299811
0.232458
0.186563
0.463724
0.315905
0.366569
0.432730
0.305772
0.228882
0.298619
0.386834
0.379682
0.296831
0.331998
0.302792
0.430942
0.319481
0.296831
0.406504
0.222921
0.480413
0.434518
0.146627
0.271797
0.378489
0.427961
0.375509
0.367761
0.457764
0.403523
0.369549
0.525713
0.489950
0.484586
0.533462
0.304580
0.410676
0.419617
0.348687
0.433922
0.474453
0.443459
0.430942
0.496507
0.435710
0.533462
0.535846
0.462532
0.396967
0.623465
0.573993
0.672936
0.680685
0.796914
0.829697
0.773668
0.752807
0.753999
0.769496
0.772476
0.812411
0.819564
1.007915
4.536510
16.118884
57.529807
114.822984
224.444866
323.298573
456.126928
533.994436
589.584708
576.859713
501.821637
408.333540
260.105729
168.271661
80.036521
37.489533
11.936426
##ZVALUE=400
0.357628
0.295639
0.279546
0.306964
0.333786
0.339746
0.326633
0.312924
0.281930
0.296831
0.235438
0.289679
0.239611
0.304580
0.300407
0.250936
0.410676
0.167489
0.313520
0.338554
0.413656
0.343919
0.360608
0.312924
0.335574
0.266433
0.333786
0.438690
0.346899
0.493526
0.413656
0.330806
0.363588
0.311732
0.416636
0.464916
0.376701
0.374913
0.364780
0.452995
0.478625
0.429749
0.503659
0.340939
0.395775
0.416636
0.376701
0.486970
0.406504
0.428557
0.300407
0.524521
0.386834
0.446439
0.502467
0.570416
0.307560
0.481606
0.443459
0.354648
0.211596
0.495911
0.511408
0.318885
0.575781
0.565648
0.484586
0.756979
0.606775
0.650883
0.668764
0.837445
0.757575
0.715852
0.705719
0.764728
0.639558
0.668764
0.792742
0.938773
1.105666
3.203750
9.173751
33.792853
74.243546
166.611671
260.600448
389.429927
471.398830
538.615584
547.828674
495.502949
425.208807
304.065943
211.398602
110.579729
##END
