##TITLE=FQP00601
##FORMAT=SPECTACLE-ASCII V-1.2
##DATA TYPE=ULTRAVIOLET SPECTRUM
##SECOND TYPE=ULTRAVIOLET SPECTRUM
##DATE=02/28/18
##TIME=15:22:57
##SPECTROMETER/DATA SYSTEM=SPECTACLE
##XUNITS=NM EM
##YUNITS=ENERGY
##YFACTOR=1
##FIRSTX=220
##LASTX=410
##NPOINTS=96
##3DDATA=Equidistant
##ZUNITS=NM EX
##FIRSTZ=210
##LASTZ=400
##ZPOINTS=39
##XYDATA=(Y..Y)
##ZVALUE=210
3.804564
4.233718
3.547668
3.660917
3.153682
3.985763
4.271865
4.990697
5.509853
5.983710
5.000830
5.852580
6.365776
7.043481
7.935762
7.330775
8.198619
9.991527
9.649992
10.123849
12.081861
11.319518
13.066530
14.017820
15.331507
14.839768
14.452934
16.148686
16.812682
18.809438
19.446611
19.752979
20.967722
20.519495
20.751953
21.162629
22.316575
22.811890
23.198724
22.946000
24.379492
24.344921
24.767518
25.816560
27.475953
28.353930
29.217601
29.795766
29.780865
30.428767
29.736757
30.067563
30.240417
32.815933
32.052994
32.290816
32.943487
34.641623
32.294989
34.581423
35.692453
36.329627
35.921931
37.632585
35.563707
39.736629
41.799545
46.779513
54.749846
62.964559
75.868964
90.761781
105.649829
124.427676
130.523443
134.872794
138.589740
142.667890
133.480430
128.512979
121.769905
108.926892
99.268556
85.048676
69.736838
56.101680
48.524737
37.861466
35.087466
32.127500
31.313896
27.597547
29.340982
30.746460
29.107928
30.396581
##ZVALUE=215
17.140508
15.573502
16.418695
13.088584
10.056496
7.964969
6.601810
6.616712
6.202459
7.689595
8.541942
7.668734
6.082654
6.741881
6.314516
7.642508
6.797910
7.861853
8.019805
9.104609
9.681582
10.323524
11.203885
12.221932
13.121963
13.436675
15.025735
15.754700
17.452836
17.681718
20.287633
22.567511
23.322701
22.934675
23.070574
22.437572
25.632977
25.142431
25.699735
24.886727
25.511980
26.073456
25.037527
23.569465
24.721622
25.808811
24.908781
24.842620
25.077462
24.835467
26.267767
23.411512
24.892688
24.390817
24.358630
23.567677
26.262999
24.573803
24.616718
26.121736
25.783777
26.998520
27.026534
25.748610
28.660893
29.154420
30.209422
32.585859
37.493706
46.572685
53.535700
65.156817
74.078441
90.107918
98.956823
107.993484
113.224983
113.511682
114.820600
111.535788
102.210641
91.581941
76.661706
63.679814
50.384998
38.416982
33.092499
25.823712
24.899840
22.697449
21.035671
19.042492
21.042824
20.946860
19.518733
22.007823
##ZVALUE=220
49.343705
50.801635
54.679513
57.311654
52.984953
40.876865
32.175779
21.913648
14.774799
13.166666
13.592839
14.874935
14.099479
12.875795
13.250709
10.931492
8.115768
8.836985
8.060932
7.762909
7.352829
7.674694
8.344650
7.647872
9.106994
11.631846
11.879802
12.496710
14.966726
14.853477
18.014908
18.077493
20.378828
21.751523
21.064878
22.145510
21.397471
23.409724
21.411777
20.308495
21.030903
21.373630
19.695759
18.605590
17.936826
18.545985
19.341707
17.237663
16.619563
17.629862
18.417835
17.715693
16.121864
16.851425
15.819669
16.408563
16.136765
14.779568
14.404655
16.178489
14.277697
16.418695
16.122460
13.978481
15.000701
14.003515
13.659596
14.301538
15.486479
15.245676
18.924475
20.069480
22.353530
24.950504
25.249720
28.136969
26.975870
26.162863
27.691722
27.003884
24.492741
23.985505
19.402504
18.356442
15.141964
14.009476
11.501908
9.592772
9.853840
8.294582
8.880496
8.349419
7.816553
8.232594
7.560849
8.832812
##ZVALUE=225
41.720867
43.059587
54.625869
73.084831
76.470971
75.101852
71.816444
55.032969
46.837926
37.269592
27.069449
25.232434
26.561618
26.734471
25.858879
24.574995
20.903945
18.276572
12.272596
8.976460
7.116795
5.606413
5.517602
5.674958
6.829500
7.288456
8.111000
10.872483
12.490749
13.716817
15.678406
17.841458
20.618439
18.765926
19.448996
20.318627
20.726919
21.155477
21.325946
19.056797
18.865466
17.893910
18.891692
15.984774
16.281605
15.600920
14.688969
13.433695
12.836456
11.303425
12.065768
11.002421
9.937882
9.159446
10.506511
8.311868
7.790923
8.108616
8.231997
8.667707
8.228421
7.933974
7.705688
8.728504
8.199811
7.893443
7.808805
8.637905
8.747578
9.443760
9.833574
10.126829
11.045933
10.991693
11.555552
10.974407
12.393594
11.887550
11.549592
11.580586
10.933876
11.455417
11.436939
9.212494
10.392666
9.709597
10.179877
9.962916
10.639429
9.733438
8.284450
8.721948
9.329915
9.362698
9.820461
8.446574
##ZVALUE=230
26.436448
32.935739
48.314929
77.451468
105.575919
130.675435
147.138834
140.079856
130.645633
111.273527
80.903769
59.884787
46.026707
43.220520
43.438673
50.668716
52.816868
50.681829
43.312907
35.511851
28.556585
18.950701
11.873841
7.078648
5.742908
5.287528
6.764531
8.408427
8.991957
10.521412
11.571646
13.681650
14.882684
16.204715
18.023849
17.139912
16.557574
17.945766
17.521977
17.605424
15.522838
15.775561
16.220808
13.989806
13.937950
13.081431
12.691617
12.696981
12.140870
11.890531
10.823607
10.960698
10.405779
10.455847
9.875894
10.499954
9.153485
10.276437
9.308457
9.935498
10.506511
9.905696
10.057688
10.643601
10.488629
10.995865
10.997653
11.339784
12.618899
12.645721
14.173985
14.389753
16.053915
16.359687
15.542507
16.984940
18.089414
18.449426
15.450716
17.011762
17.264485
15.849471
16.965866
16.768575
16.327500
14.816523
16.353726
15.198588
14.226437
15.561581
16.313791
15.689731
16.062856
15.043616
14.515519
15.980601
##ZVALUE=235
10.376573
9.539723
26.272535
51.407814
106.038451
145.316720
211.536884
255.633593
290.566683
295.587778
251.240730
210.248828
165.739655
113.725662
86.585879
71.298480
72.700977
76.888800
84.196925
83.096623
79.292655
67.571998
52.430630
36.037564
24.376512
16.497970
10.349751
9.830594
8.436441
8.455515
10.005832
11.304617
10.920763
11.978745
11.798739
13.350844
12.702942
12.314916
13.638735
12.620687
13.721585
11.892915
12.661815
12.002587
13.150573
10.879636
10.868907
10.144711
11.905432
10.452867
12.155771
10.280609
10.843873
11.484623
10.831952
11.815429
11.371970
11.265874
11.254549
11.904836
12.529492
11.674762
10.831952
12.334585
12.971759
14.552474
14.615655
15.620589
16.027689
16.161799
17.900467
20.335913
19.927621
20.636916
22.585988
21.858811
21.873713
24.119616
23.658872
23.627877
22.708774
22.904873
23.744702
23.069978
22.422671
23.450851
23.159981
25.032759
23.807883
23.811460
22.177696
22.990704
22.781491
23.838878
22.143722
21.193624
##ZVALUE=240
1.869798
2.210736
3.496408
14.492869
32.937527
74.830651
128.371716
227.834582
316.965580
382.337570
451.701880
449.494720
401.549935
346.945524
249.722600
185.172558
123.682618
101.686716
94.802976
98.857880
110.281706
115.702748
115.589499
103.063583
84.610581
64.102411
51.260591
32.401681
21.571517
15.352964
12.320876
10.283589
10.307431
11.584759
10.343790
9.538531
11.982918
11.617541
11.180639
10.886788
11.698604
12.283921
11.978745
11.147857
12.127757
12.272596
10.624528
12.157559
11.703968
12.307763
11.066794
12.675524
12.302995
10.317564
11.159778
11.749864
10.842681
11.585951
12.772679
12.180805
11.751652
13.592839
14.104843
15.039444
14.236569
15.299916
16.817451
16.930699
17.503500
19.168854
18.601418
22.190809
23.712516
23.928881
24.623871
25.469661
26.754737
27.092695
26.694536
29.494762
28.133988
27.558804
28.291941
27.083755
29.309988
29.683709
29.082894
28.640628
28.038621
29.919744
29.441714
27.161837
28.935671
27.979612
29.174685
28.262734
##ZVALUE=245
1.433492
1.606941
2.005696
1.897812
3.595948
8.306503
28.882623
66.804886
154.365897
236.023664
375.325680
454.044938
520.763993
546.540618
524.298549
440.271497
359.002948
247.657895
175.001621
116.642714
97.146630
96.401572
115.390420
130.744576
134.050846
130.685568
120.570660
102.464557
75.991750
56.658983
42.226911
28.065443
19.618869
15.206933
13.548732
13.080835
13.529658
12.872815
13.728738
11.650920
13.028979
13.854504
13.454556
12.888908
13.231635
14.563799
11.829734
13.155937
12.679696
12.079477
12.287498
11.842847
11.880994
11.796951
12.033582
10.630488
11.459589
11.839867
10.861754
12.394786
11.895895
12.233853
12.617707
13.406873
14.048815
13.324618
15.780926
15.272498
17.200708
18.339753
18.816590
19.652843
22.614598
21.622777
24.654865
26.156902
24.853945
25.654435
27.805567
27.658939
28.042793
27.891994
28.903484
30.484796
28.147697
27.216673
27.662516
30.771494
29.368997
30.120611
30.202866
28.509498
27.411580
30.584931
26.985407
28.939843
##ZVALUE=250
1.274943
1.249909
1.291633
1.369715
1.538992
1.827478
2.402663
5.233884
22.684932
53.241849
136.959553
225.044489
330.772996
474.594831
561.479926
630.826950
620.414615
560.221672
471.752882
332.513452
231.926441
157.476664
102.478862
95.923543
109.073520
125.528574
138.237476
143.751502
140.655637
133.255720
113.634467
86.707473
66.519976
45.441985
31.882524
23.994446
19.517541
17.103553
17.587543
16.785860
17.229915
16.676784
16.358495
16.654730
17.241836
14.695525
15.616417
14.657974
14.200807
14.095902
14.010668
13.893843
13.508797
12.723804
12.377501
12.491941
11.337996
12.175441
11.909604
11.024475
11.741519
11.651516
12.518764
12.252927
12.517571
12.690425
14.281869
15.418530
14.833808
15.797615
17.784834
19.294620
19.976497
21.515489
22.267699
22.328496
22.729635
24.046898
24.750829
24.836659
23.982525
26.035905
27.024746
27.486682
26.570559
28.055906
27.870536
27.503967
27.338862
28.272867
28.369427
28.390884
27.827621
29.851794
29.570460
29.308796
##ZVALUE=255
1.263618
1.268983
1.129508
1.089573
1.126528
1.307726
1.645684
1.411438
1.544952
3.931522
12.602806
42.751431
93.921423
201.796889
304.319859
466.972589
566.124916
684.664845
703.749657
653.240681
570.205450
474.514961
302.400589
200.252533
118.228793
94.552636
91.208816
108.091831
133.769512
147.476792
156.890750
155.740976
144.960880
120.045543
97.219944
71.467757
53.287745
36.311746
30.050874
23.734570
21.223426
21.156669
20.576715
21.809936
20.158887
18.667579
18.352866
18.214583
15.948415
15.770793
16.127825
14.962554
13.971925
13.769865
13.577938
13.917685
12.695789
11.151433
12.568831
11.928678
12.086630
11.381507
12.743473
12.736917
12.612939
12.141466
13.799667
12.530684
14.752746
15.162826
15.403628
16.899705
17.086864
19.418597
19.849539
20.658970
20.807981
22.653937
21.292567
22.627711
22.326708
23.314953
23.555756
23.922920
25.949478
24.949908
25.659800
26.121736
24.871826
25.431514
27.369857
26.467443
27.436614
26.611686
27.523637
26.764870
##ZVALUE=260
1.185536
0.957847
1.229644
1.189709
1.105666
1.189709
1.436472
1.167655
1.250505
1.551509
1.802444
2.303720
6.060600
24.691820
59.819818
150.882602
250.777602
413.495898
550.981760
704.568624
774.315000
773.237944
669.042468
561.400652
380.100608
261.910558
158.200860
108.261704
83.717704
90.456605
114.131570
142.034888
159.932971
172.124505
170.012712
153.288841
132.906437
102.997422
82.624555
55.969954
46.260953
33.721924
29.978752
26.241541
24.062991
22.404790
21.289587
21.801591
20.205975
19.573569
18.811822
18.282533
15.727878
15.317798
14.472604
14.104843
13.409853
13.093948
12.796521
12.827516
12.883544
12.305975
12.019873
12.177825
11.968613
12.369752
12.917519
13.161898
14.123917
14.837980
14.726520
16.426444
15.937686
17.353892
17.739534
18.894672
18.806458
21.179914
20.028949
21.121502
21.755695
21.565557
22.885799
22.135973
22.550821
23.133755
22.384524
24.393797
24.596453
24.009943
24.844408
25.177598
25.339723
24.918914
24.907589
25.547743
##ZVALUE=265
1.153946
1.092553
1.045465
1.146793
1.075864
1.318455
1.151562
1.296997
1.096725
1.266599
1.409650
1.559854
1.365542
1.918674
3.402829
16.954541
43.819547
115.264654
203.972459
384.430885
542.936921
684.296489
818.905830
833.426714
765.343904
657.934546
493.308902
361.346006
212.028623
136.849880
99.021792
86.170435
101.493597
134.266615
156.168938
177.631974
182.980895
174.375772
159.219503
132.362843
109.843612
82.023740
63.296556
44.775605
34.995675
27.750731
25.426745
24.584532
22.767782
21.101832
20.269752
18.358827
18.219948
17.086864
16.514659
15.042424
14.687777
13.624430
12.836456
12.538433
12.560487
12.361407
12.981892
11.750460
12.313724
12.536645
12.511611
13.166666
13.594627
13.508797
14.913678
14.979839
15.850663
16.231537
17.086864
19.113421
17.886758
18.934608
19.861460
19.540787
21.194816
20.618439
21.260977
22.047758
22.105575
22.055507
22.180676
23.382902
22.363663
22.844672
23.726821
23.343563
23.897886
24.474859
25.217533
25.888681
##ZVALUE=270
1.008511
0.989437
1.073480
1.040697
1.008511
0.884533
1.112819
0.932813
1.093745
1.066923
1.210570
1.339912
1.220703
1.451969
1.327991
1.664758
1.984835
7.440448
22.698641
80.186725
162.075758
283.304453
499.664545
663.812757
830.301642
882.973671
859.569907
780.818462
614.533424
467.378497
362.140536
190.621614
120.189786
82.793832
84.318519
109.599829
132.625699
161.605477
176.495910
184.905529
179.352760
156.379938
137.361884
103.526711
80.479980
56.409836
43.833852
31.740665
26.825666
23.211837
20.641685
19.915700
18.385649
17.245412
16.229749
15.422702
14.937520
13.344884
13.413429
12.576580
12.540817
12.813807
12.512803
12.432933
11.862516
12.605786
12.021661
12.692809
13.440847
14.247894
14.155507
14.492869
15.685558
16.868711
16.809702
16.701818
17.832518
18.360615
17.714500
19.154549
19.197464
20.641685
20.201802
20.281672
20.313859
21.275878
21.275878
21.401644
21.990538
22.669435
22.471547
22.343993
23.263693
23.098588
23.028851
24.115443
##ZVALUE=275
1.018643
0.846982
0.887513
0.865459
0.791550
0.940561
1.112819
1.045465
0.902414
1.068711
1.155734
1.206994
1.439452
1.162887
1.258850
1.239777
1.510978
1.449585
1.761913
3.375411
12.587905
52.066445
114.486814
262.634754
422.073007
636.837482
771.359801
898.822546
918.814540
851.428509
745.117664
551.381707
394.140482
223.767757
141.259432
82.583427
68.276525
79.294443
99.256635
129.202604
151.233673
169.347525
176.209807
166.461468
153.161883
121.421814
100.901723
70.821643
54.526925
35.640597
27.008653
20.467639
17.396808
15.091896
14.424920
13.437867
13.375878
12.985468
12.471676
12.708902
12.646914
12.093782
12.233853
11.965632
12.149811
12.293458
12.846589
12.654662
13.762712
13.934970
13.837814
14.947653
15.357733
15.806556
16.447902
17.463565
18.164515
17.679930
18.076897
17.886758
19.099712
19.311905
19.624829
19.269586
20.287633
20.201802
20.522475
20.929575
21.186471
21.452904
21.811724
21.546483
21.387935
22.142529
21.871924
22.372603
##ZVALUE=280
0.717640
0.887513
0.760555
0.811815
0.832677
0.909567
0.906587
0.932813
0.857711
1.038909
0.976920
1.053810
0.898838
0.959635
1.121759
1.258850
1.008511
1.098514
1.374483
1.422763
1.654625
2.000928
8.973479
29.640794
99.609494
187.868476
351.957679
514.090657
732.629895
856.467485
927.799940
922.434926
832.762718
636.614561
475.253463
274.763703
168.577433
83.234906
53.533912
50.749779
63.791871
90.820789
113.143921
138.438940
155.617595
159.141421
152.718425
137.630701
116.943717
88.514686
67.280531
45.189857
32.201409
21.539927
15.781522
12.664795
11.814833
11.617541
11.908412
11.782646
11.163950
11.703968
11.439919
11.877418
12.128949
12.515783
12.170672
12.817979
13.108850
14.232993
14.440417
14.552474
15.182495
16.402602
15.863776
16.990900
17.545819
17.815828
18.621683
18.656850
18.883944
19.569993
19.637942
20.003915
19.556880
20.088553
20.498633
20.350814
20.857453
21.000504
20.753741
21.374822
20.677447
21.730661
21.725893
21.845698
##ZVALUE=285
0.762939
0.837445
0.789762
0.712872
0.698566
0.903606
0.847578
0.961423
0.778437
0.921488
0.933409
0.895858
0.859499
0.784993
0.870824
1.155734
0.881553
1.009703
1.012683
1.084805
1.214743
1.372695
1.446605
1.847744
4.619956
15.533566
55.869818
117.389560
254.334807
406.588912
569.065809
780.472755
898.414850
950.508714
894.685984
728.318691
577.676892
359.766483
226.052999
110.116005
60.233474
35.824776
38.352609
57.522655
76.668859
106.113553
125.103593
142.734647
150.449872
145.540833
135.232806
109.573603
91.093779
62.614679
44.227839
26.233792
19.417405
13.608932
11.254549
10.650754
10.547638
10.833740
10.823607
11.079907
11.967421
11.720657
12.515783
12.932420
13.384819
14.211535
14.985800
14.909506
16.133785
16.142726
16.142726
16.686916
17.372966
18.217564
18.223524
18.501878
18.885732
19.489527
20.259619
19.923449
20.058751
19.763708
20.788908
20.498633
20.029545
20.648837
19.988418
21.092892
20.436645
20.704865
20.417571
21.170974
##ZVALUE=290
0.852942
0.693798
0.648499
0.708699
0.710487
0.675917
0.805855
0.878572
0.845790
0.904799
0.942945
0.853539
0.865459
0.917912
0.821948
0.897646
0.755787
0.862479
0.693798
0.959635
0.979900
1.121759
1.229644
1.192689
1.575947
1.835823
2.235770
6.334782
29.357672
75.205564
149.154663
316.233635
483.648777
714.673996
854.128003
950.043797
937.790871
806.952715
670.495629
452.266932
300.959945
152.029991
80.923438
35.174489
27.079582
35.831928
49.203634
72.993636
93.230605
119.932890
133.364797
143.861771
142.174959
127.635002
107.653737
82.210898
61.627626
40.971637
28.520823
17.958879
14.182925
11.713505
11.119843
11.023879
11.131763
11.914968
12.522936
12.612939
13.279915
14.330745
14.797449
15.166998
15.969872
16.830564
16.776919
17.534494
17.603636
18.593669
18.703938
19.059777
19.656420
19.921660
19.856691
20.189881
20.218492
20.336509
20.193458
20.938516
20.210743
20.525455
20.864606
21.003485
20.372868
20.678639
20.346642
19.759536
##ZVALUE=295
0.606775
0.622869
0.781417
0.742674
0.753999
0.736713
0.640750
0.850558
0.817776
0.703931
0.747442
0.761747
0.790954
0.707507
0.876784
0.737906
0.755787
0.637770
0.939965
1.052618
0.889897
1.202822
1.003742
1.177788
1.145601
1.190901
1.399517
1.530647
1.901984
3.031492
10.573864
45.603514
106.433630
251.267552
398.955941
627.073646
782.522559
919.995904
951.011777
874.805450
754.649639
541.912913
379.394889
205.282569
111.544728
43.036938
24.387836
22.160411
28.864741
46.265721
64.136982
90.314746
109.072924
128.671527
137.817860
133.612752
123.375654
101.167560
82.189441
58.010817
42.902827
27.628541
19.682646
14.684796
12.654662
12.519956
12.188554
12.719631
13.197660
14.070868
14.533997
15.037656
15.903711
16.541481
17.457604
18.077493
18.063784
18.576980
18.547773
19.537807
19.999743
19.681454
19.835830
20.845532
21.165609
20.830631
20.831823
20.911694
21.046996
20.917654
20.788908
20.288825
20.585656
20.606518
19.826889
20.222664
##ZVALUE=300
0.693798
0.738502
0.605583
0.489950
0.594854
0.789762
0.741482
0.686646
0.744462
0.664592
0.619888
0.682473
0.711679
0.727773
0.730753
0.724792
0.774860
0.749826
0.783801
0.872612
0.954866
0.924468
1.085997
0.936985
1.087785
1.035929
1.132488
1.228452
1.190901
1.366735
1.624823
1.932979
6.762743
23.028851
81.874728
160.991549
330.389738
496.233702
714.709759
846.971869
944.849849
934.792757
804.522634
664.081573
444.603562
292.433500
148.105621
79.659820
31.161904
17.747879
18.967986
26.322603
42.647719
58.290958
83.574653
101.362467
121.343732
129.941702
129.444599
120.473504
100.251436
82.852840
59.903860
44.694543
29.172897
21.701455
15.990734
14.571548
14.339685
14.200807
15.254617
15.053749
16.025901
16.398430
17.235875
17.338991
18.033981
18.423796
19.233823
19.710660
20.342469
20.589828
20.864606
20.809770
20.674467
21.788478
21.401644
21.069646
20.978451
20.965934
21.098852
20.773411
21.137595
21.051764
20.048618
20.182729
##ZVALUE=305
0.542998
0.540614
0.592470
0.537634
0.577569
0.713468
0.628829
0.703931
0.801682
0.699759
0.707507
0.697970
0.580549
0.647902
0.616908
0.580549
0.563860
0.765920
0.813603
0.811815
0.854731
0.917912
0.785589
0.792742
0.805855
0.941753
1.054406
1.038909
1.116991
1.264811
1.354814
1.456738
1.533628
1.745820
3.454685
12.540817
53.866506
118.169785
262.330770
407.096744
626.938939
777.934790
920.717716
947.446823
866.521597
738.326907
531.956553
374.709964
200.807452
109.532475
41.308999
20.047426
13.316870
15.741587
26.242733
38.326979
59.455633
77.391863
99.186897
113.435984
123.885870
124.283433
113.278627
99.364519
77.359676
61.044693
42.311549
31.171441
21.617413
17.550588
16.133785
16.083717
16.175508
16.846657
17.466545
18.086433
18.572807
19.212961
19.797683
19.700527
21.466613
21.025538
21.872520
21.860600
22.563934
21.790862
21.922588
21.951795
21.903515
21.744967
21.355748
20.894408
21.155477
20.758510
20.869970
20.984411
##ZVALUE=310
0.540614
0.623465
0.534654
0.448823
0.577569
0.522733
0.503659
0.608563
0.608563
0.557899
0.702739
0.694990
0.730753
0.667572
0.599623
0.729561
0.772476
0.655651
0.607967
0.664592
0.723600
0.756979
0.988841
0.743866
0.846982
0.949502
1.032948
0.861883
0.934601
1.165867
1.109838
1.118779
1.074672
1.276731
1.306534
1.564622
1.899600
6.719828
23.232698
78.900456
156.190395
321.928859
485.006571
705.952644
843.651891
942.444801
933.947563
816.354752
675.711036
452.835560
302.109718
150.641799
79.157948
29.134750
13.816953
11.912584
14.994740
23.554564
33.678412
52.453876
68.627596
92.005730
105.393529
116.869807
117.998719
110.445619
97.882748
78.775883
62.022805
43.738484
34.093857
24.585724
21.201968
18.512607
18.673539
18.114448
19.069910
19.252896
20.297766
20.336509
21.218657
21.377802
21.654963
22.500753
22.606850
22.354722
22.378564
22.813678
22.666454
22.210479
21.943450
22.245646
21.452904
21.343827
21.751523
21.652579
##ZVALUE=315
0.533462
0.588894
0.630617
0.491738
0.505447
0.444651
0.642538
0.648499
0.618696
0.555515
0.705719
0.672936
0.749826
0.691414
0.696778
0.536442
0.561476
0.646710
0.535846
0.703931
0.663996
0.618696
0.676513
0.799894
0.585914
0.745654
0.831485
0.796914
0.916719
0.975728
0.899434
0.966787
0.980496
0.953674
1.220703
1.317859
1.310706
1.489520
1.763701
3.100634
11.439919
49.666762
112.798810
254.343748
402.700901
627.900958
777.720809
916.144848
954.269767
873.801708
751.053691
545.473695
385.046601
204.545856
111.425519
41.673779
18.343925
10.265708
10.975599
15.246868
21.434426
34.277439
47.348738
66.868663
84.762573
103.232861
110.900998
113.335848
109.751821
93.197823
79.752803
60.285926
47.752857
33.789873
26.651621
22.764802
20.913482
19.865632
19.598603
20.523667
20.826459
21.528602
21.897554
22.159815
22.744536
22.681952
22.897720
23.012757
23.408532
22.866726
22.653937
22.421479
22.699833
22.292733
21.700859
21.744967
##ZVALUE=320
0.490546
0.569820
0.527501
0.609756
0.467896
0.514984
0.507832
0.532866
0.609756
0.520945
0.482798
0.492930
0.508428
0.756979
0.585914
0.630617
0.640750
0.375509
0.510812
0.618696
0.556707
0.808835
0.660419
0.727773
0.622869
0.698566
0.744462
0.700951
0.821948
0.729561
0.930429
0.913739
0.877976
0.972748
0.992417
0.968575
1.185536
1.198649
1.126528
1.464486
1.334548
1.894832
5.327463
28.031468
73.914528
188.616514
310.560465
510.748625
679.907799
863.445997
936.977863
929.265022
839.226842
644.806623
474.832654
262.087584
149.549842
63.443780
28.918982
12.244582
10.141730
11.284947
14.492869
21.190643
30.199885
47.394633
62.301755
81.272721
95.088482
107.539892
110.539794
104.878545
92.948675
75.358748
59.997439
44.992566
35.347939
27.876496
23.759604
22.024512
21.486878
21.718740
21.754503
22.079945
22.541881
22.754669
22.742748
23.352504
22.974610
23.178458
22.799969
22.805929
22.588968
22.252798
22.295713
22.089481
##ZVALUE=325
0.539422
0.443459
0.481606
0.561476
0.576973
0.612736
0.568628
0.617504
0.542998
0.438690
0.531673
0.441670
0.573993
0.583529
0.606775
0.503659
0.542998
0.617504
0.614524
0.622869
0.560880
0.650883
0.725985
0.699759
0.644922
0.791550
0.708699
0.866652
0.905991
0.711679
0.814795
0.856519
0.822544
0.922680
0.960827
0.927448
1.019835
0.923872
1.261830
1.087785
1.176596
1.105666
1.392961
1.695752
2.860427
18.505454
49.314499
130.194426
232.237577
432.494879
598.918796
799.873471
903.148651
941.515565
878.169537
696.839690
533.104539
325.186849
196.812749
86.692572
42.685866
15.761852
10.277629
10.123849
11.106730
14.892817
20.306706
32.479763
44.287443
62.775612
77.943802
94.210505
102.557540
104.967952
99.605918
86.400509
74.501634
57.715774
45.944452
34.890771
29.411912
24.943948
23.106933
23.050904
22.232533
22.536516
22.139549
22.702813
22.680759
22.308826
22.712946
22.309422
22.609830
22.640824
22.684932
22.180676
##ZVALUE=330
0.515580
0.523925
0.437498
0.339746
0.477433
0.469685
0.516772
0.531673
0.566840
0.449419
0.615716
0.449419
0.602603
0.557899
0.583529
0.531673
0.625849
0.430942
0.643730
0.686646
0.527501
0.665784
0.799894
0.662804
0.722408
0.667572
0.788569
0.768900
0.829697
0.666976
0.777841
0.511408
0.746846
0.720620
0.808835
0.896454
0.928640
1.007915
0.932813
1.082420
1.025796
1.093745
1.081824
1.150966
1.298785
1.417994
1.777411
7.877946
26.785731
88.456869
169.661641
338.034034
496.460795
714.590549
846.701860
934.126973
905.813575
768.473744
618.876815
397.583842
257.146955
120.167732
62.300563
23.541451
12.569427
10.295510
10.270476
12.307763
14.977455
22.409558
30.618906
44.685602
57.601929
76.952577
89.569688
98.979473
100.079775
94.825625
86.153746
69.200993
56.622624
42.834878
35.282969
29.086471
25.902987
23.610592
22.431612
22.604465
22.280812
22.043586
22.053719
21.648407
21.651983
21.879673
21.975636
21.670461
##ZVALUE=335
0.350475
0.488758
0.372529
0.283718
0.318885
0.299811
0.402927
0.182986
0.309944
0.352859
0.374913
0.341535
0.499487
0.300407
0.380874
0.435710
0.511408
0.367761
0.316501
0.467896
0.364780
0.254512
0.368953
0.348687
0.427961
0.297427
0.467896
0.457764
0.563860
0.613928
0.490546
0.629425
0.603795
0.635982
0.593662
0.567436
0.603795
0.776649
0.684857
0.675917
0.757575
0.679493
0.748634
0.855923
0.863671
0.983477
1.087785
1.180768
1.578927
2.874732
17.383695
48.594475
132.552981
235.956907
434.261560
603.093505
803.977847
892.930627
911.411643
845.418572
668.919683
508.173704
304.615498
183.897614
79.918504
37.867427
15.152693
10.537505
10.383725
11.191964
13.125539
15.833974
21.943450
29.574633
43.366551
55.623651
71.885586
84.082484
93.943477
94.813704
89.068413
81.314445
68.249702
56.977868
44.474602
37.147999
28.868914
25.318861
22.952557
22.174716
21.274686
21.234751
21.412969
21.116734
21.285415
21.434426
##ZVALUE=340
0.357628
0.400543
0.494719
0.444651
0.140667
0.402927
0.260472
0.460744
0.352859
0.484586
0.495911
0.365973
0.237823
0.355840
0.268817
0.461936
0.584722
0.402927
0.591874
0.523925
0.595450
0.478625
0.501871
0.568628
0.503659
0.359416
0.702739
0.550747
0.613928
0.601411
0.536442
0.595450
0.638962
0.564456
0.625849
0.531673
0.609756
0.668764
0.454783
0.630617
0.737906
0.855923
0.812411
0.758767
0.883937
0.798702
0.947714
1.054406
1.063943
1.164675
1.251698
2.031922
6.836653
33.990741
82.981586
202.729702
343.002677
559.563637
707.695484
862.450600
909.943581
860.635638
750.308037
551.743507
388.082862
203.656554
113.415718
47.180653
20.954609
11.126995
10.583997
11.347532
11.975765
13.801455
16.245842
22.187829
29.213428
43.102503
54.518580
71.191788
81.481934
90.283751
90.413690
86.571574
79.200864
65.665841
55.414438
42.597651
35.693645
28.504729
24.895668
21.835566
21.232963
20.360947
19.747615
20.041466
##ZVALUE=345
0.360608
0.401735
0.401735
0.389814
0.392795
0.510812
0.465512
0.384450
0.508428
0.579953
0.318885
0.444651
0.452995
0.637770
0.382662
0.535846
0.398755
0.572801
0.435710
0.472665
0.544786
0.445843
0.360608
0.486970
0.362992
0.482798
0.503659
0.610948
0.617504
0.662804
0.643730
0.571609
0.674725
0.456572
0.615716
0.719428
0.664592
0.818968
0.645518
0.769496
0.756979
0.879765
0.886917
0.781417
0.918508
0.892878
0.663996
0.860691
0.983477
0.990629
1.153946
1.376867
1.225471
1.519918
2.975464
18.866658
53.797960
141.372681
248.431563
446.075797
606.855750
795.825720
883.503556
893.524885
813.755989
623.238683
461.877584
272.004008
154.177547
62.389970
30.046701
13.214946
10.917783
11.102557
11.570454
12.057424
13.265610
16.061664
20.289421
29.786825
39.200783
53.256750
63.641667
74.182749
80.832839
84.186792
81.223845
73.485970
64.974427
52.070618
44.020414
33.598542
28.262734
23.656487
21.576881
19.990802
##ZVALUE=350
0.387430
0.394583
0.583529
0.580549
0.553727
0.451803
0.471473
0.315905
0.436902
0.228882
0.383854
0.440478
0.504851
0.462532
0.515580
0.525713
0.537634
0.640750
0.434518
0.578761
0.433922
0.576973
0.670552
0.482798
0.450611
0.644922
0.621676
0.586510
0.664592
0.574589
0.697970
0.460744
0.546575
0.610948
0.549555
0.470877
0.571609
0.605583
0.689626
0.650883
0.637770
0.658631
0.706911
0.830889
0.809431
0.886917
0.795722
0.812411
0.847578
0.795722
0.962615
0.936985
1.056790
1.092553
1.026988
1.204610
2.162457
9.893775
30.598640
95.065832
182.138681
362.830758
520.552993
716.035962
833.766460
901.280642
855.704546
695.130825
536.750555
325.480700
197.228789
87.386966
41.353703
15.635490
11.147857
10.594726
10.804534
11.103749
11.828542
13.625622
15.594959
20.497441
26.873946
36.717653
45.953989
58.587790
66.625476
74.146986
76.828599
74.534416
68.980455
58.972836
50.965548
40.843487
33.656955
26.742816
##ZVALUE=355
0.346899
0.547767
0.510812
0.362992
0.500679
0.535846
0.410676
0.535846
0.500679
0.506639
0.468493
0.432730
0.342727
0.383854
0.514984
0.397563
0.356436
0.672936
0.392795
0.608563
0.798702
0.521541
0.567436
0.586510
0.551939
0.646710
0.558496
0.516772
0.504851
0.615716
0.577569
0.488758
0.620484
0.532866
0.530481
0.605583
0.567436
0.563860
0.633597
0.767708
0.803471
0.677705
0.710487
0.690818
0.754595
0.707507
0.875592
0.838637
0.671744
0.674725
0.950694
0.951886
0.951886
0.954866
1.004934
1.101494
1.274943
1.301765
1.619458
3.101826
19.862652
54.127574
141.594410
250.177979
451.617837
614.028573
795.328617
881.697536
870.098472
767.647028
567.948818
412.035584
230.885744
127.156973
50.125718
24.151802
11.342764
9.916425
10.414720
10.018945
10.795593
11.563897
12.926459
14.195442
18.440485
23.007989
31.599998
39.027929
51.737428
59.289932
66.681504
69.202781
68.288445
63.975453
55.203438
48.564672
##ZVALUE=360
0.362992
0.291467
0.419617
0.489950
0.417829
0.445843
0.373721
0.351667
0.253916
0.382662
0.515580
0.396967
0.381470
0.351667
0.334978
0.527501
0.398755
0.531673
0.493526
0.608563
0.478625
0.541806
0.329614
0.374913
0.367761
0.565648
0.398755
0.322461
0.545979
0.526905
0.563860
0.620484
0.435710
0.535846
0.478625
0.540614
0.566840
0.565648
0.490546
0.464916
0.520945
0.586510
0.635982
0.682473
0.744462
0.611544
0.702739
0.781417
0.769496
0.716448
0.880957
0.776649
0.715852
0.796914
0.866652
0.959635
1.121759
1.072884
1.225471
1.332760
1.326799
2.232790
7.311702
34.840703
84.417462
203.690529
333.045721
536.061525
697.145462
851.462483
885.002017
814.827681
686.344504
468.181968
312.283635
150.947571
78.344941
30.195713
14.546514
9.556413
9.281635
9.615421
9.772778
10.102987
10.462999
11.214614
12.831688
15.663505
19.335747
26.258826
33.301711
44.030547
51.823854
59.426427
63.023567
63.486695
##ZVALUE=365
0.279546
0.398755
0.336766
0.374913
0.407696
0.629425
0.523925
0.369549
0.460744
0.345707
0.490546
0.336766
0.538826
0.276566
0.607967
0.475645
0.489950
0.457764
0.567436
0.516772
0.502467
0.635982
0.548959
0.655651
0.530481
0.499487
0.550747
0.425577
0.532866
0.625849
0.546575
0.732541
0.719428
0.626445
0.624657
0.542998
0.645518
0.586510
0.577569
0.548959
0.431538
0.470877
0.570416
0.592470
0.610948
0.696778
0.841618
0.852942
0.808835
0.745654
0.800490
0.799894
0.841618
0.858903
0.787973
1.009703
0.971556
0.998974
0.987649
1.037717
1.045465
1.396537
1.374483
1.568794
3.278852
19.350648
52.335858
134.918690
246.309638
451.090932
605.268478
772.753954
851.280689
836.496949
731.747746
531.515479
375.880599
205.262899
111.528635
41.320920
19.085407
9.628534
8.891821
8.941889
8.682609
9.217858
9.526610
9.898543
10.259748
11.313558
13.211966
17.360449
21.820664
29.959679
36.518574
45.804977
##ZVALUE=370
0.462532
0.431538
0.520945
0.668764
0.564456
0.493526
0.526905
0.640750
0.690818
0.652671
0.473857
0.608563
0.483990
0.437498
0.787973
0.544786
0.552535
0.418425
0.434518
0.552535
0.566840
0.554919
0.641942
0.780821
0.473857
0.649691
0.561476
0.568628
0.691414
0.517964
0.559688
0.703931
0.622869
0.717640
0.665784
0.618696
0.586510
0.654459
0.588894
0.632405
0.593662
0.682473
0.659823
0.772476
0.643730
0.637770
0.682473
0.713468
0.885725
0.822544
0.724792
0.759959
0.807643
0.693798
0.904799
0.843406
0.949502
0.887513
0.955462
0.997782
1.012683
1.146793
1.264811
1.330972
1.286864
1.529455
2.078414
10.122657
33.468604
105.489492
192.441940
360.627770
516.119599
713.658929
807.454586
822.631717
750.122666
587.225556
434.831977
243.148804
136.570930
55.002570
27.170777
12.144446
8.501410
7.871985
8.272529
8.276701
8.428693
8.760691
8.653998
9.455681
9.935498
12.554526
15.029907
20.413995
##ZVALUE=375
0.459552
0.487566
0.442863
0.342727
0.479817
0.361800
0.403523
0.461936
0.495911
0.490546
0.504851
0.439882
0.368953
0.358820
0.427961
0.483990
0.434518
0.485778
0.514984
0.435710
0.294447
0.419617
0.384450
0.485778
0.555515
0.479817
0.285506
0.443459
0.430942
0.452995
0.761747
0.536442
0.526905
0.474453
0.625849
0.637770
0.424981
0.436902
0.389814
0.466704
0.542998
0.581741
0.556707
0.498891
0.402927
0.563860
0.684857
0.669956
0.543594
0.706911
0.593662
0.772476
0.582933
0.704527
0.474453
0.723600
0.619888
0.798702
0.567436
0.804663
0.738502
0.846982
0.819564
0.904799
0.994802
1.125932
1.097918
1.431704
1.692772
5.210638
18.149614
64.430833
134.211779
287.174582
438.180566
635.796785
751.398802
817.983747
787.966847
648.469925
501.600504
307.053924
194.409490
95.914602
48.874617
17.796755
9.581447
7.341504
7.147789
7.577538
7.595420
7.718801
7.869601
7.949471
8.798838
9.290576
##ZVALUE=380
0.393987
0.375509
0.298619
0.381470
0.424981
0.426769
0.517964
0.438690
0.349879
0.495911
0.432730
0.383854
0.474453
0.359416
0.426769
0.456572
0.406504
0.525713
0.304580
0.362992
0.378489
0.433922
0.444651
0.489950
0.461936
0.430942
0.625849
0.374913
0.363588
0.492930
0.503659
0.475645
0.609756
0.548959
0.599623
0.599623
0.562668
0.576973
0.554919
0.342727
0.527501
0.542998
0.706911
0.503659
0.520945
0.591874
0.451803
0.451803
0.497699
0.693798
0.633597
0.396967
0.607967
0.532866
0.749826
0.593662
0.676513
0.639558
0.723600
0.648499
0.806451
0.773668
0.730753
0.764728
0.943542
0.996590
0.869632
1.103878
1.029968
1.369715
1.528859
2.389550
12.650490
38.482547
115.515590
207.515955
382.160544
542.591810
723.748803
801.384449
802.412629
722.000003
562.218428
424.093604
247.112513
146.384835
61.596632
29.006600
10.781884
7.526875
6.719828
6.742477
6.722808
6.902814
7.083416
7.335544
##ZVALUE=385
0.394583
0.459552
0.305772
0.325441
0.431538
0.337958
0.485778
0.385642
0.260472
0.508428
0.486970
0.493526
0.374913
0.440478
0.423789
0.400543
0.292659
0.468493
0.329614
0.458956
0.414848
0.415444
0.358820
0.407696
0.497699
0.501871
0.530481
0.498891
0.520945
0.540614
0.543594
0.590682
0.567436
0.638962
0.512600
0.564456
0.661612
0.527501
0.696778
0.521541
0.481606
0.407696
0.549555
0.503659
0.495911
0.687838
0.557899
0.551939
0.521541
0.426769
0.479817
0.717640
0.518560
0.566840
0.505447
0.633597
0.794530
0.727773
0.700951
0.544786
0.568628
0.529885
0.587702
0.686646
0.778437
0.803471
0.816584
0.910759
0.974536
1.193881
1.179576
1.335740
1.455545
1.868606
4.779696
26.937723
68.464875
166.328549
286.889672
487.490892
635.658503
773.083568
809.111595
767.078996
670.460463
489.612818
347.509980
188.531876
107.189417
44.562817
19.571781
7.900000
6.152987
5.918741
6.218553
6.262660
##ZVALUE=390
0.357628
0.444651
0.446439
0.360608
0.379682
0.311732
0.330806
0.329614
0.529885
0.470877
0.433922
0.341535
0.432730
0.531673
0.423789
0.520945
0.415444
0.377893
0.341535
0.444651
0.422597
0.500679
0.430942
0.388622
0.414848
0.420809
0.411868
0.424981
0.603795
0.423789
0.336766
0.539422
0.591874
0.646710
0.766516
0.465512
0.534654
0.611544
0.480413
0.565648
0.481606
0.575781
0.405908
0.407696
0.596642
0.477433
0.495911
0.669956
0.589490
0.586510
0.433922
0.443459
0.467896
0.513792
0.526905
0.651479
0.690818
0.784993
0.676513
0.734925
0.668764
0.568628
0.650883
0.636578
0.622869
0.814795
0.926852
0.818968
0.814795
1.060963
1.169443
1.108646
1.102686
1.211762
1.281500
1.427531
2.829432
11.662841
51.316619
115.063787
253.751874
391.060710
574.961901
699.427724
804.902911
815.785527
725.207925
606.459975
415.474772
278.228521
144.080520
74.877739
26.516914
11.679530
6.328821
5.767941
##ZVALUE=395
0.475645
0.327826
0.323653
0.442863
0.350475
0.209808
0.339746
0.389814
0.272989
0.412464
0.355840
0.535846
0.480413
0.566840
0.451803
0.299811
0.360608
0.399947
0.304580
0.517964
0.429749
0.316501
0.386834
0.513792
0.557899
0.363588
0.531673
0.381470
0.496507
0.480413
0.598431
0.537634
0.446439
0.387430
0.562668
0.618696
0.723600
0.509620
0.500679
0.549555
0.676513
0.579953
0.589490
0.713468
0.534654
0.637770
0.411868
0.599623
0.477433
0.632405
0.586510
0.784993
0.472665
0.541806
0.625849
0.591874
0.518560
0.611544
0.645518
0.458956
0.674725
0.743866
0.624657
0.620484
0.739694
0.777841
0.870824
0.725985
0.935793
1.053810
1.021624
1.142621
1.063943
1.002550
1.052618
1.086593
1.159906
1.316667
1.818538
8.222461
28.799772
95.604658
175.066590
321.359634
464.897752
659.456849
772.515535
838.057995
811.415911
682.102442
534.382463
330.525637
204.657912
88.862777
43.279529
15.407801
##ZVALUE=400
0.320673
0.483990
0.366569
0.397563
0.465512
0.461936
0.380874
0.450611
0.433922
0.374913
0.459552
0.368953
0.373721
0.331998
0.473857
0.515580
0.492930
0.420809
0.471473
0.334978
0.256896
0.363588
0.452995
0.386834
0.450611
0.349879
0.398755
0.513792
0.506639
0.568628
0.465512
0.481606
0.379682
0.458956
0.598431
0.571609
0.611544
0.437498
0.523925
0.538826
0.524521
0.566840
0.578761
0.488758
0.583529
0.565648
0.442863
0.482798
0.398755
0.531673
0.614524
0.494719
0.527501
0.440478
0.597835
0.631809
0.471473
0.549555
0.608563
0.539422
0.699759
0.624657
0.791550
0.660419
0.632405
0.781417
0.745654
0.864863
0.946522
0.924468
0.997782
0.809431
1.023412
1.013875
1.067519
0.935793
0.995994
1.093745
1.055598
1.098514
1.453757
4.269481
15.217662
54.760575
115.365982
248.963833
388.325453
588.814616
709.604621
812.468529
818.371773
715.190768
584.587455
386.469960
254.163742
127.426982
##END
