##TITLE=QP00652
##FORMAT=SPECTACLE-ASCII V-1.2
##DATA TYPE=ULTRAVIOLET SPECTRUM
##SECOND TYPE=ULTRAVIOLET SPECTRUM
##DATE=02/28/18
##TIME=15:00:38
##SPECTROMETER/DATA SYSTEM=SPECTACLE
##XUNITS=NM EM
##YUNITS=ENERGY
##YFACTOR=1
##FIRSTX=220
##LASTX=410
##NPOINTS=96
##3DDATA=Equidistant
##ZUNITS=NM EX
##FIRSTZ=210
##LASTZ=400
##ZPOINTS=39
##XYDATA=(Y..Y)
##ZVALUE=210
4.377961
5.216599
3.302693
3.227592
2.793670
4.022717
4.355907
4.084706
4.533529
4.289746
5.263686
4.805923
5.395412
5.092621
6.355643
7.029772
7.844567
8.216500
8.166432
8.533597
10.222793
9.901524
10.819435
12.145638
11.802912
13.601780
12.360811
13.299584
13.518929
12.688637
14.274716
14.619827
14.902949
15.511513
15.459657
15.615821
16.569495
18.415451
17.682910
16.941428
17.894506
18.215775
17.890930
18.920898
18.744469
20.218492
18.585920
19.530654
21.180511
20.990968
20.063519
21.736622
21.559000
22.039413
22.526979
21.586418
23.133755
22.065639
24.148822
23.096800
22.174716
22.925735
23.308992
22.526979
23.899674
25.628805
27.638674
31.018853
34.939647
44.152737
48.789978
61.782598
71.419477
81.189871
86.733699
90.457797
94.898939
96.735954
95.928907
93.564987
85.466504
74.083805
63.446760
56.663752
49.370527
38.373470
34.834743
29.168725
26.219487
23.639798
23.169518
21.812916
21.348000
22.898912
22.907853
22.278428
##ZVALUE=215
23.187995
22.669435
18.915534
13.369918
11.276603
9.114742
7.718801
6.618500
8.727908
7.400513
8.356571
7.025599
6.339550
6.655455
7.089972
7.082820
7.289648
8.150935
7.898808
8.504987
10.387897
9.774566
10.469556
11.036992
12.068748
11.781454
13.158917
12.769699
13.674498
13.207793
13.432503
13.930798
14.273524
15.797615
14.807582
17.255545
15.207529
16.154647
17.288923
15.764832
18.114448
16.910434
17.853975
18.041730
18.313527
18.723607
18.018484
19.426942
19.817948
20.504594
20.024776
19.582510
21.911860
21.303892
21.701455
20.366907
20.652413
20.923615
24.205446
23.162961
23.769736
23.582578
23.257732
22.272468
25.559664
25.243759
27.093887
29.983521
35.152435
40.811896
49.143434
58.000684
63.487887
74.685812
81.635714
90.100765
94.298720
93.006492
98.964572
93.196630
90.130568
81.059933
69.594979
62.454939
53.549409
43.945909
37.670732
30.308962
26.568770
25.139451
22.808909
20.958781
20.705462
22.767782
22.200942
22.664666
##ZVALUE=220
79.489946
79.695582
86.107850
84.573627
79.704523
62.578917
47.028661
29.699802
20.204782
14.970899
15.792847
16.070604
15.960932
15.046597
11.256933
10.838509
9.874701
8.682609
8.917451
8.292794
7.742643
9.625554
9.330511
10.313988
9.773970
12.546778
13.162494
12.046695
12.920499
12.864470
13.152957
13.652444
13.845563
16.783476
15.756488
14.565587
15.466809
17.036796
16.205907
17.558932
18.106699
17.859936
19.286871
18.817782
19.074678
19.326806
20.866990
19.301772
19.954443
20.573735
19.773841
20.993948
20.263791
22.287965
22.077560
21.454692
21.293759
21.237731
22.356510
22.535920
24.763942
24.312735
24.679899
24.102926
24.426579
23.501515
25.274754
26.817918
31.992793
37.463903
43.404698
49.539804
60.351491
68.337917
73.123574
80.479980
85.640550
93.184710
88.446736
83.229542
86.439848
80.919862
76.248646
64.685941
56.269765
46.588778
38.060546
31.978488
29.268861
22.898912
23.926497
21.929741
21.460652
21.618605
20.046830
22.520423
##ZVALUE=225
106.585622
114.211440
148.947835
186.516643
201.908946
195.511580
182.463527
139.040947
102.897882
70.835948
44.198632
31.990409
28.300881
29.083490
31.606555
28.833747
25.451779
22.966862
18.148422
13.969541
11.185408
10.199547
10.249615
11.362433
10.374784
11.167526
11.553764
11.393428
12.176633
12.319684
13.247728
13.350844
13.858676
15.123487
14.603734
14.073849
13.837814
14.327765
14.885664
16.093850
14.276505
15.569925
15.712976
15.881658
15.794635
16.804934
18.079877
17.283559
17.005801
18.124580
18.077493
18.279552
18.315911
18.888712
18.866658
17.680526
18.367767
19.101501
18.590689
19.057989
18.909574
19.300580
19.999743
19.665956
19.946694
20.636916
20.581484
23.551583
24.525523
27.762651
34.855604
36.973953
43.108463
48.004985
53.242445
57.068467
55.605769
58.712959
57.738423
56.669712
53.553581
48.194528
42.983890
40.844679
32.193661
27.394891
23.717880
21.176934
17.921925
18.009543
17.895699
16.206503
16.749501
17.045736
16.164780
16.088486
##ZVALUE=230
71.188807
80.762506
124.404430
224.386454
298.740864
368.696451
400.009751
402.768850
356.493592
286.083817
185.002685
123.433471
70.901513
54.478645
51.659942
53.678751
55.181980
54.157972
44.839978
40.850639
31.074882
21.481514
17.912984
12.255907
8.710623
8.522868
9.492636
8.169413
8.440614
9.804964
9.576678
9.332895
10.308623
9.696484
10.226965
9.187460
9.858608
10.717511
9.908676
11.234879
10.042787
10.854602
10.121465
10.824800
11.565685
11.677742
10.764599
11.741519
12.656450
10.387897
11.707544
12.470484
10.679960
12.872815
12.477636
11.382699
11.375546
13.092756
13.055801
12.308955
13.314486
13.881922
12.334585
15.001893
14.464855
14.080405
17.244816
16.626716
19.062757
19.943714
24.813414
27.899742
28.978586
32.919645
34.859776
35.851598
34.019947
33.464432
33.827424
30.752420
32.239556
27.743578
28.041601
25.842786
23.136735
20.683408
19.292831
16.852617
17.665625
13.989806
13.962984
15.176535
14.935732
14.004707
13.651848
14.313459
##ZVALUE=235
20.406842
23.752451
48.469901
119.218826
187.931657
300.173759
397.303700
516.784787
563.601851
581.796765
513.500571
421.221852
276.940465
199.965835
122.331977
90.299845
81.705451
84.758997
89.570880
90.519786
83.704591
70.340633
58.683753
39.746761
28.804541
17.818809
12.781620
9.498000
9.785891
9.924769
9.347796
9.228587
9.913445
8.463860
9.203553
9.405613
10.575652
9.311438
10.174513
10.839701
10.152459
10.540485
9.870529
10.234714
10.008812
10.579824
11.823773
10.184646
10.257959
11.483431
11.116862
10.678768
11.029840
10.905862
11.935830
10.339618
10.514855
12.056828
11.122823
12.748837
12.078881
12.299418
12.919903
14.634728
13.565421
13.919473
14.118552
15.572906
18.180609
19.816756
21.482706
24.367571
28.133988
28.741956
31.250715
30.092597
30.531883
30.515790
29.333830
27.873516
24.259686
24.154782
22.363663
21.101832
21.583438
19.076467
17.546415
16.536713
17.582774
17.811656
18.149614
15.618801
15.973449
15.869737
15.901923
17.372966
##ZVALUE=240
1.977682
2.228618
7.805824
23.737550
67.899823
127.452612
261.383653
388.553739
580.297709
704.650879
833.168030
839.887857
781.114697
637.207031
497.556925
289.937854
188.871622
121.540427
103.100538
100.688934
111.835003
119.105577
114.283562
103.309751
83.990693
69.676638
47.267675
34.642816
21.468997
16.013980
13.121963
10.366440
9.953976
9.493828
8.904934
9.517670
9.887815
9.383559
9.818673
9.183884
7.847548
9.115934
8.908510
8.367896
8.652806
10.749698
9.905696
10.542870
10.536909
9.726882
10.195971
9.667873
10.707974
10.900497
10.833740
10.392666
10.947585
12.622476
11.604428
12.632608
12.676716
13.662577
13.260841
13.572574
13.872981
15.409589
14.212728
16.225576
20.114779
22.249818
23.958683
27.779937
29.754639
35.188794
33.036470
36.355853
37.606955
37.979484
36.294460
34.160614
33.471584
32.229424
30.294657
27.848482
24.834871
23.885965
22.343993
20.963550
20.891428
20.185709
18.249750
20.420551
20.873547
18.443465
18.090606
19.504428
##ZVALUE=245
1.285672
1.370907
1.636744
1.633763
4.929900
13.010502
44.461489
105.177760
246.636868
391.601920
622.917414
772.982836
887.765884
930.684805
863.236785
692.954659
542.993546
353.413820
231.902003
136.074424
104.777813
102.788806
111.606717
125.916600
133.548975
128.268600
110.485554
97.305775
72.370768
55.443645
40.272474
25.113821
18.021464
12.935996
10.401607
9.243488
8.807778
9.094477
7.870793
8.723736
9.320974
7.666945
8.312464
8.279681
8.397698
7.504821
8.250475
8.579493
9.669662
8.566976
8.436441
8.815527
8.498430
8.319616
8.750558
9.325743
9.120703
10.280609
10.973811
11.502504
11.231899
10.625720
10.976791
11.705756
12.310743
14.078617
14.217496
15.617609
16.038418
18.903613
19.079447
23.281574
24.552941
27.697682
29.388666
30.026436
31.288862
28.257966
28.187633
26.673675
28.181672
27.104616
24.461746
23.014545
22.354722
20.013452
19.124746
17.988682
19.899607
17.118454
17.865896
18.090606
17.832518
18.896461
18.811822
18.257499
##ZVALUE=250
1.267791
1.544952
1.504421
1.751781
1.723766
1.828671
2.973676
11.247993
59.630871
130.575895
292.897820
467.270613
647.774935
864.710808
961.976647
1012.312770
954.673886
789.078474
632.772446
416.116714
276.725888
179.512501
112.559795
96.955895
110.178590
121.417642
136.041641
144.165754
135.138631
123.543739
100.862980
81.405640
57.960749
35.757422
24.627447
14.973879
10.322928
7.344484
6.627440
8.089542
6.619692
6.731749
6.422997
7.376671
7.431507
6.657839
7.067919
6.683469
6.787777
6.419420
6.687641
6.658435
6.783605
6.749630
6.815791
7.044673
7.583499
7.802844
7.596612
8.848906
8.942485
8.652806
7.976890
9.189844
10.044575
9.512901
11.375546
11.971593
13.854504
15.401840
15.728474
17.732978
19.460917
19.822717
21.963716
21.839738
23.585558
22.247434
22.471547
20.932555
19.316673
19.901991
18.415451
18.827915
17.824769
16.058683
16.461611
16.391873
15.380979
16.121864
16.029477
15.780926
14.746785
15.952587
15.465617
16.852617
##ZVALUE=255
1.075864
1.058578
1.058578
1.068711
1.129508
1.261830
1.586676
1.780987
1.500845
5.238652
30.936003
78.956485
163.841844
340.915918
506.329536
731.115937
869.934559
969.042778
973.919630
865.311027
726.450682
564.280748
346.326828
217.161775
121.640563
95.108747
90.445876
102.730989
125.083923
138.634443
146.215558
142.010450
127.365589
101.010799
81.462860
54.199696
36.303997
21.330714
14.208555
8.768439
6.419420
5.416870
5.991459
6.093979
5.784631
6.285906
6.118417
5.781651
5.827546
5.410910
5.524755
5.518794
5.770922
5.493760
5.445480
5.686879
5.498528
5.337596
5.930662
5.918741
6.511807
6.359816
6.923676
6.801486
6.138682
7.429719
8.230805
8.274913
9.489655
10.278821
11.919737
12.034774
12.618899
13.579726
15.769601
15.147924
15.917420
14.765859
15.303493
14.180541
13.995767
13.723969
14.249682
15.016794
14.279485
13.971925
13.709664
14.928579
13.448596
14.667511
12.661815
14.639497
13.733506
13.680458
13.811588
14.919639
##ZVALUE=260
1.089573
0.919700
0.985861
1.098514
1.141429
1.248717
1.140833
1.320839
1.258850
1.046658
1.440644
2.203584
11.099577
32.252669
88.239908
175.894499
338.587761
487.172008
685.547590
803.002715
905.689597
887.666941
775.872469
628.221035
485.422015
286.400914
183.675885
101.455450
80.118775
83.727837
102.255940
127.516985
139.019489
147.831440
140.393972
125.591755
108.793974
77.251792
57.673454
35.780668
22.853613
12.091994
8.250475
5.667806
5.266666
5.188584
4.883409
4.805923
5.131960
5.094409
4.724860
5.248785
5.440712
5.110502
5.125999
5.265474
4.893541
5.290508
5.506873
5.259514
5.281568
5.808473
5.668998
5.645752
6.144643
6.555915
6.691813
7.465482
8.518696
8.503795
9.815693
10.303855
10.982752
12.059808
12.763739
12.286901
12.457967
13.352633
11.876822
12.074709
12.300611
12.870431
11.870861
12.061596
11.397600
12.579560
12.741685
12.220740
12.566447
12.575984
12.279749
11.908412
12.578964
13.304949
12.805462
13.373494
##ZVALUE=265
1.023412
0.849962
1.006722
1.024604
0.847578
0.894666
1.000762
1.100898
0.944734
1.407862
1.114607
1.317859
1.658797
1.603961
3.916621
23.683906
58.426857
144.645572
253.091455
462.800860
646.599531
822.004676
1008.066535
1015.710831
1010.326743
899.313688
695.003867
505.671501
277.767777
161.385536
96.558928
70.907474
79.271793
108.455420
126.608610
144.102573
150.030851
141.734481
126.485825
104.611516
79.927444
53.397417
35.891533
20.605922
12.384653
7.276535
6.148815
5.273819
5.232692
5.434752
4.729629
5.408525
5.222559
5.720854
4.941821
5.567670
5.132556
5.052686
5.285740
4.865527
5.337000
5.709529
5.675554
5.401969
6.363988
6.437898
7.032752
7.119775
7.720590
8.454919
8.851886
9.428859
10.460615
11.655688
11.258721
11.631846
11.733770
11.930466
11.580586
11.726618
11.223555
11.478662
10.891557
11.297464
11.405945
11.755824
11.198521
11.004806
11.297464
11.816621
12.093782
11.960864
11.822581
12.525916
12.088418
12.500882
##ZVALUE=270
0.766516
0.782609
0.907779
0.852942
0.936985
1.017451
0.999570
0.959635
1.202822
1.196861
1.089573
1.372695
1.505613
1.336932
1.444817
1.524687
2.252460
11.552572
35.367608
109.070539
207.572579
345.040560
598.548651
795.266032
988.934636
1015.668511
1011.867523
912.274718
704.694986
520.218611
311.446786
192.486644
97.306967
60.761571
60.951710
76.326728
105.761886
126.802921
144.317746
150.605440
144.493580
129.611492
103.612542
81.652999
54.102540
36.742687
20.413995
13.145804
8.143783
5.854964
4.888773
5.122423
5.067587
5.192757
5.039573
5.301833
4.937649
4.820824
5.516410
4.976988
5.331635
6.224513
5.301833
5.967617
5.621910
6.198883
6.715655
6.933808
7.238984
7.894635
8.703470
8.660555
10.130405
9.731650
10.406971
10.345578
11.050701
11.265874
10.464787
10.594726
10.383725
10.145903
10.719895
10.041595
9.414554
10.080934
10.091662
9.637475
10.706782
10.718703
10.862947
11.196733
10.656714
11.305809
11.086464
11.210442
##ZVALUE=275
0.701547
0.920892
0.665784
0.930429
0.791550
0.789762
0.923872
0.926852
0.968575
0.751615
0.935793
0.963807
1.273751
1.045465
1.092553
1.207590
1.394749
1.428723
1.899600
6.278753
24.384856
65.115690
181.910992
327.730775
579.406619
765.155554
962.190628
1015.701890
1015.701890
1014.493704
843.482614
658.180714
462.837815
244.913697
139.759779
66.660643
49.167871
55.609941
75.698495
103.095770
121.357441
141.894817
147.361755
142.762661
125.024915
100.017786
78.344941
52.789450
37.855506
21.196604
13.097525
8.256435
6.443858
5.293489
5.426407
5.178452
5.081892
5.601645
5.294681
5.414486
5.756617
5.836487
5.439520
6.126761
5.629659
5.975962
6.881952
6.821752
7.011890
7.489920
8.037686
9.023547
9.660721
10.295510
10.109544
10.250807
10.727644
10.383725
9.905696
9.951591
10.623932
9.576678
10.011792
9.757876
9.859800
9.614825
9.277463
9.813905
9.978414
9.443760
10.013580
9.686947
9.633899
10.254979
9.758472
10.248423
##ZVALUE=280
0.676513
0.587702
0.645518
0.707507
0.660419
0.776649
0.671744
0.772476
0.683665
0.631809
0.809431
0.955462
0.851750
0.860691
0.958443
0.924468
1.193881
1.102686
1.446605
1.334548
1.769662
2.078414
13.440847
45.632720
140.161514
262.453556
477.885008
689.277649
956.633687
1015.603542
1015.603542
1015.603542
1015.603542
805.662870
589.130521
332.513452
196.876526
89.158416
50.018430
40.160418
52.160621
76.955557
99.332929
124.583840
139.329433
144.140720
137.912631
121.373534
102.688670
74.760914
55.844784
35.166740
23.195744
12.686849
8.763671
6.367564
5.625486
5.530715
5.347729
5.409718
5.624890
5.741715
5.679727
6.016493
6.265640
6.472468
6.865859
6.994605
7.206798
7.762909
8.396506
8.882880
9.498596
9.516478
10.242462
10.348558
10.239482
10.200739
9.755492
9.609461
9.494424
9.735823
9.376407
9.656549
9.473562
9.254813
9.377599
9.351969
9.415746
9.787679
9.181499
9.400845
9.274483
9.647608
9.807944
9.391904
##ZVALUE=285
0.711679
0.735521
0.661612
0.618696
0.722408
0.863671
0.717640
0.968575
0.786781
0.951886
0.863671
0.860691
0.719428
1.090765
0.836849
0.877976
1.103878
1.222491
1.156926
1.148582
1.273751
1.293421
1.756549
1.917481
5.450845
31.606555
75.093508
188.749433
327.980518
584.918857
803.290009
1015.710831
1015.710831
1015.710831
1015.710831
970.794559
741.664767
443.970561
274.365544
129.472613
65.759420
33.018589
33.656955
51.929951
69.988966
98.181963
116.720796
133.757591
139.033794
134.841800
123.402476
100.838542
81.583858
55.192709
38.163662
22.338629
14.443994
8.746982
6.497502
5.903840
5.626678
5.854964
5.791783
6.110668
6.362796
6.611943
6.464720
6.836653
7.239580
7.965565
8.298755
9.005666
8.685589
9.391904
9.915829
9.611845
10.143518
9.762645
9.539723
9.955764
9.530783
9.151697
9.520650
9.247661
9.058714
9.236932
9.429455
9.511709
9.329915
9.719729
9.151697
9.633899
9.365678
9.330511
9.322762
9.415746
##ZVALUE=290
0.664592
0.629425
0.548959
0.619888
0.653863
0.720620
0.732541
0.815988
0.881553
0.839829
0.931621
0.797510
0.942945
0.765920
0.741482
1.056790
0.824928
1.038909
0.975728
1.132488
1.286864
1.483560
1.469851
1.480579
1.767874
1.830459
2.784729
10.222793
47.655702
109.203458
257.184505
438.861847
773.410797
1010.478735
1015.712023
1015.712023
1015.712023
1015.712023
914.973021
655.473471
360.341668
206.494927
86.854696
43.003559
25.399923
31.639934
48.384666
65.974593
91.658831
110.919476
129.316449
134.795904
132.407546
121.873617
99.943876
79.465508
53.630471
37.698746
22.877455
15.338659
9.443760
7.685423
6.361604
6.311536
6.899834
6.497502
6.953478
6.963611
7.424951
7.999539
8.266568
9.028912
9.235740
9.525418
9.514689
10.025501
9.717941
9.614825
9.093881
9.257793
9.682775
9.616613
9.101629
9.382963
9.482503
9.491444
9.374619
9.170771
9.443760
9.327531
9.159446
9.447932
9.070635
9.612441
9.362698
9.483695
##ZVALUE=295
0.405908
0.330806
0.473857
0.551939
0.539422
0.547767
0.568628
0.411868
0.502467
0.522733
0.514984
0.463724
0.704527
0.464916
0.650883
0.666976
0.608563
0.604987
0.459552
0.818968
0.859499
0.987649
0.974536
1.073480
1.198649
1.274943
1.605749
1.321435
2.076626
3.767610
22.333860
66.172481
149.271488
353.859663
563.557744
903.394818
1015.524864
1015.524864
1015.524864
1015.524864
1015.524864
749.914050
502.739549
250.722766
134.091973
51.290989
26.005507
20.728707
27.532578
44.394732
60.958862
86.996555
104.513764
123.304725
128.539801
126.905441
116.699934
94.022751
76.125860
53.106546
37.201643
22.824407
15.003681
9.926558
7.922649
6.694794
6.613731
7.212758
7.191896
8.208752
8.012652
8.548498
9.074807
9.038448
8.950830
9.380579
9.149909
9.257793
8.753538
8.894801
9.035468
8.965731
9.406805
8.822680
9.304881
9.174943
8.959770
8.947849
9.105802
8.678436
9.098649
8.923411
8.905530
8.536577
8.640885
9.018779
##ZVALUE=300
0.512600
0.629425
0.574589
0.632405
0.526905
0.650883
0.614524
0.662804
0.692606
0.676513
0.548959
0.684857
0.660419
0.792742
0.587702
0.886917
0.928640
0.760555
0.932813
0.864863
0.970960
1.012683
1.016855
1.106858
1.043677
1.308918
1.373887
1.568794
1.422763
1.675487
2.038479
2.448559
9.918809
33.010840
113.000870
224.462748
470.368862
722.588897
1015.710831
1015.710831
1015.710831
1015.710831
1015.710831
991.126895
648.164749
412.208438
198.232532
102.597475
36.472678
18.383861
18.301606
24.919510
40.310621
54.847002
79.044700
97.522736
115.744472
120.891929
119.444728
112.838745
93.588829
77.595711
54.089427
39.801598
24.104714
17.042756
11.486411
8.862615
8.150935
7.807612
8.463860
8.767843
9.156466
8.895993
9.545684
10.098815
9.675622
9.656549
9.554625
9.930730
9.728670
9.169579
9.259582
9.123683
9.505749
9.580851
9.243488
9.233952
9.046793
9.205937
9.061694
9.250641
8.892417
8.829832
9.102821
9.217858
##ZVALUE=305
0.614524
0.564456
0.740886
0.593662
0.769496
0.794530
0.595450
0.728965
0.707507
0.657439
0.688434
0.765920
0.510812
0.791550
0.750422
0.784993
0.851750
0.833869
0.811815
0.926852
0.963807
0.953674
0.966787
1.015663
1.090765
1.045465
1.067519
1.122952
1.219511
1.530647
1.574755
1.691580
1.802444
2.045631
3.789663
23.490787
65.648556
190.290809
345.070958
647.089481
921.740532
1015.710831
1015.710831
1015.710831
1015.710831
1015.710831
875.539780
533.593893
321.776867
137.821436
64.175725
21.839738
13.950467
16.081929
23.375750
38.505793
54.162741
76.441765
92.313886
110.109448
115.804672
114.016533
106.369853
89.537501
72.090626
51.161647
37.755966
23.979545
17.261505
11.678934
9.939671
9.553432
9.481907
9.989738
9.428859
9.736419
9.388924
9.324551
9.516478
9.563565
9.591579
9.489655
9.480715
9.767413
9.679794
9.797812
9.777546
9.582639
9.873509
9.170771
9.459853
9.236932
9.263754
9.073615
8.721948
8.842945
##ZVALUE=310
0.527501
0.364780
0.624657
0.720620
0.581741
0.409484
0.610948
0.469685
0.439882
0.617504
0.655651
0.628829
0.404716
0.631809
0.689626
0.823736
0.775456
0.594854
0.826716
0.776649
0.743866
0.787973
0.798702
0.860691
1.010895
0.972748
1.035929
1.119971
1.118779
1.083612
1.164675
1.390576
1.374483
1.573563
1.754761
1.985431
2.261996
9.927750
32.101870
111.231804
225.688815
484.306812
755.021572
1015.710831
1015.710831
1015.710831
1015.710831
1015.710831
1015.710831
746.147037
482.685566
228.049755
116.514564
38.976669
16.701818
12.108684
14.276505
22.805929
31.774640
49.152970
65.253973
85.930824
98.910928
109.017491
111.500621
103.094578
89.974999
69.646835
53.296685
36.603808
26.797652
17.554760
13.843775
10.924935
10.167956
9.579659
9.748936
9.446740
9.124875
9.279847
9.600520
9.643435
9.354949
9.511709
9.880662
9.813905
9.515882
9.713769
9.766817
9.726882
9.523630
9.091496
9.377599
9.194613
9.008646
9.173751
##ZVALUE=315
0.475645
0.582933
0.555515
0.515580
0.618696
0.442863
0.531673
0.579953
0.632405
0.580549
0.675917
0.629425
0.562668
0.505447
0.539422
0.693798
0.663996
0.711679
0.651479
0.752807
0.814795
0.849962
0.781417
0.832677
0.959635
0.831485
0.826716
0.966787
1.070499
1.052618
1.238585
1.139641
1.276731
1.431704
1.345873
1.423955
1.612902
1.842976
2.209544
4.443526
16.806722
69.250464
157.553554
369.865894
600.142479
972.013474
1015.712023
1015.712023
1015.712023
1015.712023
1015.712023
925.687551
656.871796
351.763964
188.459754
67.163706
26.940703
10.802746
10.131001
14.122725
19.408464
31.514764
44.250488
63.793659
78.985691
96.361637
102.794766
104.379654
98.487735
84.110498
69.508553
51.251650
38.154721
25.373697
18.508434
13.177991
11.298656
9.788871
9.660721
9.718537
9.523630
9.332895
9.202957
9.429455
9.772778
9.578466
9.553432
9.698868
9.781718
9.409785
9.474754
9.474754
9.209514
9.248853
8.871555
9.063482
##ZVALUE=320
0.552535
0.419617
0.479817
0.479817
0.566840
0.459552
0.473857
0.578761
0.612736
0.547767
0.550747
0.573993
0.651479
0.562668
0.484586
0.597835
0.616908
0.715852
0.628829
0.691414
0.628829
0.757575
0.788569
0.803471
0.795722
0.874996
0.761747
0.812411
0.771880
1.031756
1.217723
1.106858
1.000762
0.989437
1.018643
1.182556
1.147985
1.619458
1.610518
1.842976
1.932979
2.732873
7.561445
41.040778
107.761621
293.028951
494.565964
831.604004
1015.710831
1015.710831
1015.710831
1015.710831
1015.710831
1015.710831
881.311893
513.730645
293.349624
118.994713
47.882795
13.983846
9.831786
10.344982
12.688637
18.622875
26.730895
43.139458
56.185722
75.054765
88.532567
98.307729
98.993778
94.355941
84.285736
65.282583
51.261783
35.421848
25.409460
17.713904
13.806820
10.659695
10.177493
9.529591
9.447932
9.967685
9.969473
9.419918
9.542704
9.424686
9.466410
9.182692
9.441972
9.256601
9.331703
9.179711
9.332895
8.747578
##ZVALUE=325
0.432730
0.477433
0.585914
0.449419
0.409484
0.588894
0.478625
0.482798
0.428557
0.659823
0.466704
0.504851
0.614524
0.615716
0.607967
0.724792
0.681877
0.510812
0.625849
0.662804
0.658631
0.530481
0.667572
0.704527
0.632405
0.683665
0.867844
0.743866
0.760555
0.769496
0.819564
0.922680
0.896454
1.026988
1.010895
1.001954
1.248717
1.192689
1.284480
1.380444
1.373887
1.540780
1.602769
2.100468
4.269481
29.746890
82.137585
224.111676
402.522683
738.474727
988.293886
1015.710831
1015.710831
1015.710831
1015.710831
1015.710831
866.218805
545.363426
337.343812
145.899653
66.865683
19.827485
9.858608
8.653998
9.256601
12.476444
17.311573
27.293563
38.940907
57.427883
69.981813
85.633993
92.298985
94.015598
88.343620
74.472427
62.086582
46.160817
34.835935
22.591949
16.934872
12.661815
11.022687
10.048747
9.603500
9.455681
9.241700
9.338856
9.282827
9.120703
9.347796
9.099841
9.317994
9.009838
9.121895
9.120703
##ZVALUE=330
0.589490
0.518560
0.522733
0.532866
0.538826
0.522733
0.508428
0.460744
0.461936
0.503659
0.521541
0.491738
0.510812
0.706911
0.542998
0.669956
0.530481
0.462532
0.613928
0.628829
0.522733
0.535846
0.641942
0.666976
0.560880
0.774860
0.592470
0.739694
0.728965
0.770688
0.712872
0.769496
0.846982
0.856519
0.979900
1.026988
1.019835
1.129508
1.115799
1.088977
1.305938
1.229644
1.374483
1.563430
1.731515
2.060533
2.864003
13.397932
46.605468
165.482759
327.047706
664.560795
971.382856
1015.710831
1015.710831
1015.710831
1015.710831
1015.710831
1015.710831
685.120821
442.712903
206.508636
98.890662
32.075644
13.045669
8.623600
8.755922
9.926558
12.189746
18.695593
25.803447
39.116740
51.863790
69.112778
80.834627
88.440776
87.403655
81.721544
73.059797
56.362748
44.546723
30.820966
23.936629
16.989708
13.560653
10.907650
10.119677
9.654760
9.618998
9.261966
9.071827
8.899570
9.068847
9.008646
8.652806
9.008646
##ZVALUE=335
0.433922
0.584722
0.553727
0.432730
0.463724
0.404716
0.477433
0.484586
0.521541
0.624657
0.438690
0.457764
0.447631
0.424981
0.611544
0.558496
0.646710
0.685453
0.512600
0.658631
0.599623
0.621676
0.736713
0.611544
0.690818
0.722408
0.728965
0.862479
0.711679
0.774860
0.800490
0.849962
0.822544
0.832677
0.776649
0.778437
0.924468
0.693798
1.153946
0.865459
1.100898
1.217723
1.233816
1.354814
1.587868
1.480579
1.796484
1.936555
2.378821
4.725456
28.867722
82.989931
432.479978
479.487777
751.373768
1015.720963
1015.720963
1015.720963
1015.720963
1015.720963
1015.720963
820.634961
541.676879
271.247625
138.427615
44.418573
18.344522
9.370446
8.519888
8.783937
9.812713
12.884736
16.926527
27.092695
35.779476
51.840544
63.169599
75.921416
80.645680
82.840919
78.329444
67.130923
55.875778
42.321682
32.580495
22.971630
17.585754
13.075471
11.051893
9.946823
9.157658
9.072423
8.943677
8.614659
8.984804
8.681417
##ZVALUE=340
0.476837
0.650883
0.670552
0.557899
0.549555
0.458956
0.596642
0.419617
0.666976
0.670552
0.717640
0.492930
0.689626
0.596642
0.732541
0.629425
0.741482
0.806451
0.658631
0.754595
0.679493
0.698566
0.733733
0.678897
0.720620
0.806451
0.817776
0.831485
0.850558
0.690818
0.774860
0.888705
0.781417
0.838637
0.909567
1.006722
1.057982
0.921488
1.098514
0.954866
1.015663
1.173615
1.253486
1.308918
1.306534
1.456738
1.553893
1.760721
1.806617
1.821518
2.131462
3.591776
12.307763
67.915916
167.467594
421.140790
700.917840
1015.838981
1015.838981
1015.838981
1015.838981
1015.838981
1015.838981
970.959663
664.997697
333.736539
178.138614
71.403980
29.313564
11.102557
9.103417
9.112954
9.269714
10.350943
12.252927
17.582774
23.898482
35.417676
46.733618
60.741901
71.350932
76.172948
77.846646
73.096752
65.687895
52.953959
43.099523
31.068921
24.063587
16.976595
12.897849
10.408759
9.487867
9.065866
8.917451
8.699894
##ZVALUE=345
0.402927
0.673532
0.530481
0.627637
0.647902
0.413656
0.461936
0.475645
0.535846
0.414848
0.457764
0.640750
0.413656
0.574589
0.507832
0.612736
0.488758
0.625849
0.568628
0.484586
0.618696
0.512600
0.807643
0.651479
0.723600
0.876784
0.839829
0.857711
0.899434
0.795722
0.685453
0.864863
0.719428
0.853539
0.691414
0.774860
1.021624
0.912547
0.840425
0.810623
0.787973
0.977516
1.007915
0.999570
1.126528
1.101494
1.272559
1.378655
1.423955
1.522899
1.816750
1.755953
2.018809
2.490878
5.494952
35.591722
107.526779
299.313664
545.146465
969.380736
1015.740037
1015.740037
1015.740037
1015.740037
1015.740037
1015.740037
845.210552
469.053388
251.502395
91.862679
39.380789
14.496446
9.718537
9.194613
9.032488
9.086728
9.379983
11.426806
15.103817
23.142695
32.183528
45.215487
54.344535
64.113736
69.087744
71.489811
69.088936
61.341524
53.565502
40.911436
32.485723
23.128986
17.470717
12.469888
10.370612
9.084940
##ZVALUE=350
0.573993
0.328422
0.579953
0.505447
0.424981
0.543594
0.471473
0.592470
0.457764
0.499487
0.579953
0.464916
0.560880
0.499487
0.569820
0.500679
0.445843
0.379682
0.520945
0.441670
0.523925
0.556707
0.489950
0.549555
0.562668
0.571609
0.785589
0.588894
0.691414
0.577569
0.481606
0.645518
0.522733
0.706911
0.562668
0.714660
0.674725
0.755787
0.775456
0.810623
0.738502
0.808835
0.992417
0.990629
0.799894
0.926852
0.954866
1.143813
1.192689
1.085997
1.308918
1.299977
1.427531
1.656413
1.781583
2.021790
3.139973
18.774867
55.812597
171.380639
327.486396
649.836659
936.132669
1015.710831
1015.710831
1015.710831
1015.710831
1015.710831
933.960676
537.377000
316.542983
131.602883
54.779649
15.987754
9.546876
8.276701
7.760525
7.434487
7.624626
8.715987
10.082722
15.178919
19.635558
28.440952
36.709905
48.462749
55.798888
64.269900
66.639781
63.704848
58.832765
48.473477
40.218830
28.962493
22.557974
16.253591
##ZVALUE=355
0.412464
0.477433
0.492930
0.613928
0.379682
0.436902
0.553727
0.399947
0.555515
0.510812
0.437498
0.543594
0.484586
0.572801
0.644922
0.506639
0.440478
0.660419
0.507832
0.353456
0.434518
0.595450
0.468493
0.594854
0.590682
0.639558
0.590682
0.582933
0.592470
0.606775
0.644922
0.658631
0.725985
0.722408
0.611544
0.668764
0.823736
0.806451
0.830889
0.845790
0.914931
0.705719
0.774860
0.824928
0.876784
0.973940
0.900626
1.163483
1.192689
1.097918
1.104474
1.373887
1.392961
1.433492
1.616478
1.609921
1.755953
2.016425
2.580881
8.630753
33.436418
126.543641
255.895853
532.296896
840.272903
1015.710831
1015.710831
1015.710831
1015.710831
1015.710831
1015.710831
750.528574
461.207628
193.974972
87.921619
24.970770
11.534691
8.023977
7.910728
7.347465
7.252693
7.469654
8.256435
9.887815
11.869669
17.864704
23.631454
34.198761
41.293502
51.174760
56.414604
59.873462
58.353543
53.537488
46.679974
37.638545
##ZVALUE=360
0.573993
0.489950
0.469685
0.432730
0.457764
0.365973
0.278950
0.474453
0.434518
0.508428
0.456572
0.598431
0.475645
0.471473
0.485778
0.455976
0.675917
0.568628
0.651479
0.545979
0.716448
0.469685
0.459552
0.613928
0.697970
0.582933
0.641942
0.608563
0.563860
0.686646
0.621676
0.530481
0.490546
0.586510
0.548959
0.600815
0.745654
0.801682
0.748634
0.710487
0.714660
0.661612
0.560880
0.748634
0.788569
0.904799
0.924468
0.910759
0.844598
0.983477
0.997782
1.209974
1.118779
1.211762
1.330972
1.352429
1.591444
1.499653
1.828671
2.100468
2.405643
3.749728
12.993813
66.533685
163.476467
388.565660
621.868968
969.913006
1015.681624
1015.681624
1015.681624
1015.681624
1015.681624
834.282637
560.294986
277.336836
143.942833
50.386786
18.017888
7.715821
7.268786
6.867647
6.612539
6.538630
6.944537
7.053614
8.062720
10.589957
13.985634
20.354986
26.935935
36.777854
43.788552
51.042438
53.792000
54.185987
##ZVALUE=365
0.379682
0.353456
0.437498
0.381470
0.377893
0.317693
0.421405
0.378489
0.398755
0.445843
0.475645
0.472665
0.555515
0.603795
0.363588
0.533462
0.461936
0.650883
0.408888
0.499487
0.476837
0.490546
0.621676
0.393987
0.473857
0.460744
0.468493
0.461936
0.550747
0.422597
0.634789
0.629425
0.515580
0.636578
0.618696
0.724792
0.631809
0.652671
0.627637
0.606775
0.793934
0.632405
0.673532
0.664592
0.789762
0.935793
0.773668
0.787973
0.699759
0.921488
1.006722
0.941753
1.025796
0.970960
0.966787
1.017451
1.251698
1.223683
1.271963
1.476407
1.644492
1.871586
1.968741
2.185702
4.917979
31.904578
88.732839
240.606666
440.511703
774.266720
997.945666
1015.707850
1015.707850
1015.707850
1015.707850
805.154443
568.688512
297.881961
161.055923
57.722926
22.888780
8.316636
6.699562
6.319880
6.215572
6.043911
5.951524
6.002784
6.135702
6.891489
8.480549
12.254715
16.050935
24.146438
30.259490
38.739443
##ZVALUE=370
0.485778
0.396967
0.497699
0.567436
0.261664
0.376701
0.306964
0.421405
0.473857
0.543594
0.428557
0.483990
0.413656
0.447631
0.335574
0.385642
0.366569
0.466704
0.529885
0.504851
0.542998
0.450611
0.474453
0.569820
0.688434
0.474453
0.433922
0.589490
0.411868
0.328422
0.476837
0.564456
0.539422
0.623465
0.594854
0.597835
0.545979
0.671744
0.619888
0.552535
0.637770
0.576973
0.632405
0.613928
0.769496
0.535846
0.694990
0.639558
0.612736
0.775456
0.709891
0.737906
0.816584
0.794530
0.853539
0.851750
1.147985
0.986457
0.914931
1.265407
1.234412
1.261830
1.657605
1.506805
1.751781
2.224445
3.621578
15.196800
84.389448
199.236870
450.500846
691.564679
1003.393531
1015.679836
1015.679836
1015.679836
1015.679836
957.896709
629.350543
408.157706
192.399621
99.280477
36.347508
14.373660
6.631613
5.968809
5.721450
5.491972
5.324483
5.159974
5.216599
5.560517
6.245971
7.622838
10.605454
14.047623
##ZVALUE=375
0.306964
0.259876
0.331998
0.284910
0.280738
0.241995
0.253916
0.154972
0.308752
0.335574
0.260472
0.501871
0.479817
0.439882
0.483990
0.308752
0.380874
0.451803
0.401735
0.410676
0.354648
0.354648
0.336766
0.563860
0.328422
0.384450
0.452995
0.502467
0.509620
0.318885
0.316501
0.420809
0.275970
0.262856
0.337958
0.425577
0.399947
0.466704
0.368953
0.440478
0.341535
0.556707
0.615716
0.689626
0.629425
0.503659
0.541806
0.744462
0.649691
0.631809
0.671744
0.664592
0.640750
0.482798
0.797510
0.757575
0.780821
0.916719
0.937581
0.804663
0.897646
0.985861
0.955462
1.166463
1.110435
1.510978
1.606941
1.881719
2.140999
7.657409
27.724504
102.627873
227.149725
509.325862
784.126520
1015.655994
1015.655994
1015.655994
1015.655994
1006.822586
783.988833
465.292931
286.450982
136.689544
66.242814
20.446777
8.715987
5.667806
5.474687
5.332828
5.046725
4.690886
4.781485
4.992485
4.950762
5.382895
##ZVALUE=380
0.327826
0.373721
0.356436
0.307560
0.361800
0.281930
0.330806
0.263453
0.344515
0.251532
0.336766
0.485778
0.383854
0.445843
0.443459
0.552535
0.442863
0.440478
0.396967
0.409484
0.586510
0.518560
0.611544
0.367761
0.616908
0.573993
0.422597
0.450611
0.359416
0.681877
0.493526
0.495911
0.354648
0.490546
0.482798
0.490546
0.587702
0.370741
0.275970
0.442863
0.517964
0.446439
0.508428
0.656843
0.593662
0.609756
0.649691
0.435710
0.634789
0.889897
0.719428
0.730753
0.668764
0.729561
0.707507
0.703931
0.825524
0.661612
1.001954
0.789762
0.706911
0.957847
1.022816
0.939965
1.166463
1.265407
1.371503
1.669526
1.890659
2.207756
2.490878
4.387498
17.188787
83.395839
201.216936
477.153659
756.152868
1015.712023
1015.712023
1015.712023
1015.712023
1015.712023
944.296718
621.335506
400.914550
185.815692
91.106892
30.161738
12.588501
6.070733
5.093813
5.082488
4.879832
4.506707
4.720688
4.479885
##ZVALUE=385
0.270605
0.375509
0.306964
0.325441
0.151992
0.316501
0.164509
0.338554
0.207424
0.348687
0.190735
0.481606
0.403523
0.358820
0.427961
0.255704
0.432730
0.479817
0.508428
0.409484
0.337958
0.339746
0.334978
0.438690
0.489950
0.448823
0.560880
0.409484
0.364780
0.410676
0.300407
0.282526
0.414848
0.327826
0.409484
0.398755
0.458956
0.264645
0.534654
0.315905
0.510812
0.404716
0.352859
0.485778
0.302792
0.402927
0.549555
0.560880
0.551939
0.465512
0.652671
0.525713
0.621676
0.734925
0.612736
0.603795
0.568628
0.699759
0.652671
0.782609
0.862479
0.724792
0.778437
0.866652
0.986457
0.994802
1.105666
1.205802
1.551509
1.736879
1.794696
1.956820
2.128482
2.796650
7.904768
42.581558
114.910603
324.062705
580.518842
992.461443
1015.658975
1015.658975
1015.658975
1015.658975
1015.658379
856.947899
581.367016
301.982760
165.905952
64.045787
24.815798
7.207990
5.348921
4.846454
4.447699
4.459620
##ZVALUE=390
0.372529
0.398755
0.413656
0.381470
0.290871
0.335574
0.445843
0.428557
0.331998
0.389814
0.478625
0.536442
0.457764
0.495911
0.497699
0.424981
0.283718
0.528693
0.402927
0.462532
0.333786
0.279546
0.474453
0.326633
0.370741
0.477433
0.492930
0.433922
0.480413
0.358820
0.454783
0.442863
0.445843
0.382662
0.672936
0.510812
0.671744
0.611544
0.503659
0.557899
0.606775
0.589490
0.500679
0.614524
0.505447
0.451803
0.680685
0.670552
0.535846
0.723600
0.662804
0.691414
0.531673
0.365973
0.578761
0.681877
0.675917
0.750422
0.789762
0.714660
0.867844
0.710487
0.947714
0.749826
0.863671
1.032948
0.980496
1.403689
1.345873
1.628995
1.765490
1.904964
1.849532
1.866817
2.118945
2.189875
3.708005
22.095442
71.327686
226.982832
436.504483
827.405453
1015.710831
1015.710831
1015.710831
1015.710831
1015.710831
1015.710831
783.509016
447.627902
247.237682
93.317628
39.893985
11.188984
5.688667
4.788637
##ZVALUE=395
0.505447
0.482798
0.674725
0.467896
0.403523
0.480413
0.517964
0.505447
0.480413
0.417829
0.468493
0.458956
0.515580
0.513792
0.509620
0.492930
0.653863
0.439882
0.398755
0.331998
0.510812
0.430942
0.602603
0.584722
0.613928
0.435710
0.527501
0.643730
0.585914
0.720620
0.517964
0.618696
0.647902
0.650883
0.524521
0.527501
0.376701
0.767708
0.585914
0.624657
0.637770
0.544786
0.579953
0.602603
0.576973
0.551939
0.535846
0.685453
0.549555
0.474453
0.756979
0.881553
0.753999
0.734925
0.681877
0.636578
0.865459
0.777841
0.798702
0.953674
0.847578
0.924468
0.931621
0.872612
1.011491
1.133680
1.168847
1.212955
1.353621
1.501441
1.639724
1.530647
1.802444
1.623631
1.838803
2.011657
2.156496
2.339482
2.958775
12.876987
46.437979
159.946680
310.801864
620.314479
951.249003
1015.810966
1015.810966
1015.810966
1015.810966
1015.810966
1015.810966
690.292716
405.588746
160.550475
68.391562
20.326972
##ZVALUE=400
0.447631
0.298619
0.432730
0.437498
0.364780
0.425577
0.554919
0.389814
0.436902
0.344515
0.325441
0.323653
0.481606
0.475645
0.290871
0.395775
0.492930
0.484586
0.372529
0.287890
0.374913
0.224710
0.323653
0.474453
0.361800
0.321865
0.382662
0.500679
0.507832
0.315905
0.281930
0.564456
0.490546
0.325441
0.501871
0.319481
0.476837
0.479817
0.458956
0.476837
0.566840
0.596642
0.556707
0.414848
0.490546
0.534654
0.546575
0.642538
0.511408
0.412464
0.479817
0.488758
0.631809
0.722408
0.683665
0.720620
0.747442
0.651479
0.700951
0.869632
0.838637
0.731945
0.654459
0.884533
0.897646
1.013875
0.985861
1.000762
1.130700
1.350641
1.513958
1.502633
1.510978
1.507998
1.467466
1.432896
1.620650
1.519918
1.804829
1.879930
2.351999
6.541610
23.602843
87.127686
189.386606
430.956483
701.050758
1015.703678
1015.703678
1015.703678
1015.703678
1015.703678
1015.703678
884.977579
568.499565
267.196894
##END
