##TITLE=QP00601
##FORMAT=SPECTACLE-ASCII V-1.2
##DATA TYPE=ULTRAVIOLET SPECTRUM
##SECOND TYPE=ULTRAVIOLET SPECTRUM
##DATE=02/28/18
##TIME=15:11:51
##SPECTROMETER/DATA SYSTEM=SPECTACLE
##XUNITS=NM EM
##YUNITS=ENERGY
##YFACTOR=1
##FIRSTX=220
##LASTX=410
##NPOINTS=96
##3DDATA=Equidistant
##ZUNITS=NM EX
##FIRSTZ=210
##LASTZ=400
##ZPOINTS=39
##XYDATA=(Y..Y)
##ZVALUE=210
2.058744
2.386570
2.069473
2.054572
2.580881
2.702475
2.563000
2.894998
2.277493
2.439618
2.271533
1.969934
2.166629
2.008677
2.473593
2.364516
2.143979
2.346635
2.528429
2.336502
2.939701
2.598763
2.392530
2.873540
2.742410
3.046989
3.940463
2.679825
3.062487
3.319979
3.424883
3.747940
3.585815
3.255606
3.155470
3.350973
3.855824
3.491640
3.655553
3.948808
3.826618
3.599524
3.617406
3.498793
3.492832
3.914833
3.763437
4.472733
3.318787
3.598928
3.650784
3.419518
3.954768
3.687739
4.294515
3.987551
3.381968
3.430843
3.841519
3.410578
3.387928
3.924966
4.260540
3.607869
4.407763
4.404783
5.128980
4.955530
5.727410
5.766749
7.559657
7.486939
7.878542
8.811951
11.216998
9.388924
10.541677
10.260940
9.699464
8.384585
7.978678
8.099675
6.501675
4.795790
5.507469
5.066991
4.647970
4.415512
3.866553
4.080534
3.726482
4.442930
4.425645
5.361438
4.673600
5.092621
##ZVALUE=215
5.737543
6.387830
5.826950
5.159974
4.465580
3.613830
4.411936
5.030632
5.777478
5.469918
5.272627
4.549623
4.099607
3.300905
2.828836
2.681613
2.462864
2.111793
2.356768
2.833605
2.298951
2.903938
2.813935
2.691746
3.152490
2.915859
3.470778
2.764463
3.109574
3.871918
2.888441
3.872514
3.028512
3.283620
3.863573
3.682971
3.400445
3.855824
4.104972
4.226565
3.843904
3.888607
4.063845
3.893971
3.510714
3.522635
4.035830
3.979802
4.587770
4.173517
3.819466
4.114509
3.698468
3.893971
4.990697
4.128814
4.248619
4.639626
3.837943
3.998876
3.920794
3.798604
4.448891
4.473925
4.364848
4.005432
4.440546
4.902482
5.558729
5.827546
6.306767
7.885695
9.122491
9.404421
9.343624
9.309649
8.651614
9.535551
8.297563
8.427501
8.068681
6.733537
6.619692
6.085634
5.076528
5.169511
5.178452
4.911423
4.543662
4.101992
4.345775
4.159808
4.531741
4.859567
4.716516
5.123615
##ZVALUE=220
20.520687
21.084547
20.596981
22.002459
20.500422
16.626716
14.659762
11.152625
10.652542
10.969639
12.012720
11.333823
11.238456
10.336637
7.756948
7.605553
5.771518
3.869534
3.550649
3.107786
2.979636
2.776980
3.654957
3.807545
3.257990
3.879666
3.784895
3.335476
4.168749
3.496408
4.007816
4.441738
4.069805
3.679991
4.191995
3.597736
3.438592
3.793836
3.696680
3.973842
4.065633
4.491806
4.821420
4.089475
4.335642
4.580617
4.478693
3.929734
4.193783
3.796816
4.539490
4.574656
3.926754
4.566908
4.163980
3.282428
4.590750
4.934669
4.446507
4.243851
4.586577
4.678965
4.677773
4.914999
4.944801
4.917979
5.462766
5.952716
6.163716
7.086992
7.076859
8.175969
9.183884
9.573698
10.056496
10.645986
9.760857
10.952950
10.767579
9.976625
9.939671
8.935928
8.353591
7.442832
7.079840
6.898642
6.110668
5.556941
6.223917
6.193519
5.155802
6.228685
5.551577
6.009936
5.785823
6.262660
##ZVALUE=225
40.950775
46.397448
52.501559
64.533949
64.931512
60.647726
58.309436
46.130419
36.230683
29.817820
24.178624
21.865964
24.902821
27.855635
25.404692
25.966763
20.055771
15.901923
12.142658
7.678866
6.091595
3.791451
3.398657
3.647804
3.801584
3.319979
4.035830
4.306436
4.292727
3.793836
4.231930
4.211664
4.801750
4.213452
4.146695
4.783869
4.593730
4.635453
4.667640
4.306436
4.723668
4.520416
4.778504
4.569888
5.007982
5.412698
4.880428
5.332828
4.841685
4.363656
5.062819
4.847646
5.012751
4.597902
5.504489
5.699992
5.140901
6.146431
4.987717
6.007552
6.087422
6.430745
5.430579
6.591678
6.423593
6.526709
7.032752
7.925630
7.817745
8.920431
9.035468
8.656979
10.473728
11.484623
12.902617
11.932850
11.904836
12.490749
12.399554
11.491776
10.717511
11.118650
10.000467
10.494590
10.082722
9.354949
7.945895
8.679628
10.565519
9.493828
8.669496
8.891821
9.647608
7.419586
8.626580
8.975863
##ZVALUE=230
37.554502
42.686462
63.119531
103.611946
130.447745
155.810714
161.416531
157.225728
142.374635
116.212964
80.453753
60.075521
48.198700
44.285655
45.106411
49.308538
53.864717
47.082901
45.051575
37.953854
28.859973
18.356442
12.283921
7.738471
5.232692
4.881620
3.686547
4.116893
4.704595
4.521608
4.229546
4.029870
5.171895
4.313588
4.714727
4.736781
5.220771
5.091429
4.399419
4.709959
6.267428
5.697608
4.304647
4.680753
5.615950
4.881620
4.831553
4.867911
5.620718
6.312728
5.256534
5.993843
6.293654
5.881786
5.822778
5.749464
6.948709
6.667972
6.298423
6.709695
7.024407
7.730722
7.838607
7.382631
8.437634
8.526444
9.646416
10.514855
10.262728
10.557771
12.076497
13.645887
14.029741
15.444756
15.521646
16.329885
16.489625
16.780496
17.286539
16.796589
15.213490
15.239716
15.669465
16.088486
15.205741
14.864802
14.877915
15.235543
14.481544
13.783574
14.618635
14.514923
16.544461
14.294982
14.397502
14.316440
##ZVALUE=235
13.165474
17.885566
33.510923
79.243779
122.544765
189.101696
241.137743
299.868584
319.470763
317.466855
272.711515
227.671862
158.807635
110.252500
84.101558
73.693991
73.183775
75.476766
83.122849
83.320737
81.338882
67.305565
51.911473
35.604835
24.434924
15.715957
11.347532
7.717609
6.527901
5.716681
5.824566
6.534457
5.489588
5.671978
5.661845
5.755424
6.165504
6.197691
4.935861
6.054640
6.322861
5.401969
5.737543
6.312728
6.635785
5.609989
6.631613
6.280541
6.172657
6.423593
6.835461
6.753802
5.961657
6.217957
6.890893
7.288456
7.883906
7.706881
8.573532
7.922649
8.382797
9.466410
9.544492
9.219646
10.393858
10.654926
11.020899
11.779666
14.240742
13.777614
16.613603
17.635822
18.591881
19.737482
21.017790
21.113753
22.048950
21.985769
19.845963
20.567775
21.244884
22.501945
21.323562
20.559430
20.541549
22.519827
22.454858
19.264817
21.722913
21.803975
23.553967
21.519661
21.323562
20.805597
21.040440
21.303892
##ZVALUE=240
1.911521
1.952648
5.913973
15.142560
49.088001
87.503791
173.701644
256.428719
373.040438
438.268781
490.828753
474.782586
436.992645
343.699455
263.373852
175.548792
125.954747
98.183751
92.372894
100.631714
109.615922
115.215778
115.642548
105.171800
81.548691
67.984462
47.550797
33.629537
20.871758
14.410615
9.552836
8.855462
7.207990
7.299781
7.078648
7.207990
6.687641
6.987453
6.871819
7.685423
7.216930
6.051660
6.982684
7.235408
6.422997
6.648898
7.016659
6.324649
7.060766
6.979704
6.778836
6.660819
7.244945
6.562471
7.275939
7.703900
7.407665
8.457899
8.629560
9.178519
10.459423
9.958744
10.153651
11.446476
11.732578
11.667609
13.664961
13.018847
15.315413
17.646551
17.536879
19.939542
20.313859
22.466779
23.450851
24.147630
23.813844
26.076436
26.962757
25.119781
24.613738
27.445555
25.616884
24.796724
27.289987
28.394461
27.422905
26.795864
26.301742
26.719570
26.546717
24.788976
25.500655
25.743842
27.651787
25.074482
##ZVALUE=245
1.418591
1.536608
1.409650
1.878738
3.259778
13.092756
31.816959
89.949965
162.690878
298.854709
401.932001
530.406833
578.143001
594.958663
551.734567
476.139784
353.475809
260.705948
163.381696
119.701624
97.704530
98.177791
116.167665
127.686858
133.802891
127.942562
117.838979
94.632506
74.434876
51.240921
37.687421
21.224618
13.996959
9.781718
8.072853
7.866621
6.901622
7.328987
7.136464
6.462932
6.689429
7.298589
6.521940
6.305575
6.831884
5.508661
6.481409
6.610751
5.664825
6.382465
5.785823
6.165504
6.955862
7.016659
6.458759
7.599592
6.719828
7.076859
6.807446
7.920861
7.679462
8.565784
9.643435
10.522604
10.058880
10.697842
13.022423
13.681650
13.600588
15.165806
16.816854
17.943978
18.712878
21.081567
21.172762
23.116469
23.597479
22.853613
24.137497
23.865700
25.354624
25.206804
24.949908
25.397539
27.406812
25.347471
25.303960
25.970936
27.004480
26.737452
25.980473
25.488734
25.844574
26.722550
27.423501
26.310682
##ZVALUE=250
1.342893
1.408458
1.167655
1.300573
1.600981
1.572967
2.875924
7.258654
30.755997
65.241456
160.638690
263.168812
375.388861
533.457994
626.925826
682.776570
662.854910
572.320819
480.529666
335.833430
230.994821
154.754519
103.203654
96.714497
106.828809
122.266412
136.493444
142.717957
133.455992
123.960972
107.766986
79.675913
57.673454
36.025643
25.000572
13.736486
9.975433
7.888675
7.515550
7.581711
6.635785
6.807446
6.502867
6.766915
6.049871
6.058812
5.317926
6.115437
5.795956
5.926490
5.725622
5.278587
6.507635
5.644560
5.120635
5.655885
6.167889
6.252527
6.796718
6.834865
7.165670
7.485747
8.370876
8.436441
9.011626
10.498762
10.624528
11.651516
13.182759
13.587475
16.033649
16.617775
16.542673
18.422604
19.650459
19.787550
20.310879
21.771789
21.227598
21.726489
22.482872
22.506714
24.458766
23.244619
24.039745
24.489760
24.802685
24.331808
24.333000
25.621653
25.295615
25.439858
24.670959
25.527477
26.183724
26.593804
##ZVALUE=255
0.997782
1.124740
1.274943
1.379848
1.142621
1.325607
1.291633
1.515746
1.980662
4.246831
20.797849
51.506758
108.017921
228.853822
352.378488
528.547764
642.249584
739.680529
760.738850
697.357655
603.145957
474.638939
298.577547
196.852684
114.814639
91.962814
89.922547
103.431940
125.207901
138.473511
147.689581
142.105818
127.501488
102.162957
82.701445
54.505467
37.449598
21.114945
14.518499
8.979440
6.685853
6.120801
5.985498
5.731583
5.446672
5.530715
5.524755
5.866885
5.932450
5.579591
5.092621
5.448461
4.954934
5.381703
5.455613
4.857779
5.606413
5.561709
5.790591
6.638765
6.294847
6.717443
6.468892
6.992817
8.037686
8.199811
9.213686
10.561943
10.581613
12.376904
12.741685
13.319850
15.407801
16.247630
16.664863
18.517971
18.046498
18.739700
19.910932
19.382834
19.990802
20.755529
22.268891
21.811724
23.012757
23.143888
22.362471
22.407770
23.023486
23.825765
22.786856
23.598671
23.045540
25.002956
24.241805
24.011731
##ZVALUE=260
1.051426
1.158714
0.837445
1.008511
1.121759
1.084805
1.217723
1.644492
1.337528
1.520514
1.826882
2.440810
8.428693
34.709573
77.907443
187.386870
301.214457
478.220582
623.075962
775.540471
838.083029
838.553905
725.217462
589.639544
395.471454
266.183615
157.095790
103.505850
77.129602
80.797672
99.193454
124.130845
141.590834
150.391459
143.804550
128.180981
108.104944
79.075694
59.600472
34.208894
22.689700
12.496710
8.468628
6.249547
5.546808
5.201697
4.843473
4.796982
4.817843
5.106926
5.103946
5.390644
5.524755
5.106926
5.419850
4.966855
5.581975
5.577803
5.334616
5.926490
6.196499
6.879568
6.670952
7.455945
7.613897
8.157492
8.355975
10.288954
9.890795
10.896921
12.010932
12.993813
13.436675
14.755726
16.145706
15.569925
17.195940
18.100739
18.075705
17.689466
18.411875
19.702911
19.124746
20.588636
20.708442
20.410419
22.002459
21.621585
21.976829
22.124648
22.430420
22.661686
21.976829
21.985769
23.199916
23.343563
##ZVALUE=265
1.021624
0.873804
0.797510
0.822544
1.207590
1.092553
0.935793
0.970960
0.942945
1.312494
1.150966
1.506805
1.494884
2.051592
4.770756
24.758577
58.308840
145.723820
251.177549
453.167558
615.144968
762.925744
908.108950
919.800997
820.976496
703.820586
514.273643
363.269448
204.920769
124.797821
80.924630
67.515969
78.855753
109.368563
129.145980
149.490833
152.805448
144.699812
131.189823
102.538466
80.865622
54.661632
36.842823
19.284487
12.137890
7.082820
5.624890
5.266666
4.736781
4.363656
4.919767
4.580617
4.942417
4.943609
4.754663
4.864931
5.088449
5.127788
5.578995
5.549788
5.997419
6.453991
6.637573
6.903410
7.084608
7.408857
8.558631
9.188652
9.294748
10.368824
10.808706
11.751652
12.589693
13.603568
13.660789
15.347600
15.550852
15.444756
17.042756
16.799569
18.744469
18.017888
18.520951
17.981529
18.114448
19.063950
19.440651
19.474626
20.321608
20.542741
20.530820
20.669699
20.366907
20.741820
21.328926
22.019744
##ZVALUE=270
0.696778
0.917912
0.939965
0.943542
0.809431
1.058578
0.871420
0.970960
1.000762
1.066923
1.103878
1.237988
1.335740
1.481771
1.770854
1.577735
2.986789
10.565519
32.049417
99.226832
194.948912
385.910869
555.465817
768.023729
894.078612
965.252519
926.824808
802.363753
665.211678
455.228686
310.429931
160.773993
97.486973
60.093999
59.733987
80.764890
104.171634
131.295919
145.836473
153.036714
147.990584
128.251910
108.499527
79.242587
58.047771
34.049749
22.202730
12.211800
8.012652
5.810857
5.297661
4.844666
5.148649
4.727840
5.324483
5.276799
5.946755
5.700588
5.921721
6.115437
5.742908
6.552935
7.017851
6.740689
7.378459
7.516742
8.164644
8.961558
9.611845
10.217428
10.842681
12.332797
12.489557
13.165474
13.470650
14.205575
14.954805
14.995933
15.744567
16.034842
17.079711
16.632676
17.333627
18.564463
17.548800
18.396974
18.565655
18.952489
19.457936
19.590855
19.766688
20.414591
20.591617
19.764900
20.327568
21.026731
##ZVALUE=275
0.652671
0.762939
0.846982
0.773668
0.848770
1.046658
0.779629
0.890493
0.775456
0.783801
0.882745
0.940561
1.099706
0.977516
0.943542
1.145601
1.161695
1.212955
1.686811
5.849004
22.031665
61.560869
165.928602
296.702981
517.364740
683.252811
857.548714
953.593850
976.563692
907.955766
790.717602
580.874681
408.926010
216.610432
125.936866
62.144995
47.279000
57.645440
77.018738
105.944872
123.769641
143.517852
150.002837
142.189860
128.252506
100.794435
80.463886
56.150556
37.951469
22.174716
13.646483
8.209944
6.285906
5.445480
5.559921
5.679727
5.548596
5.868673
5.733967
5.994439
6.228685
6.729960
6.882548
7.089972
7.291436
8.305907
8.137822
8.740425
9.086728
9.619594
10.681748
11.791587
11.916757
12.911558
13.857484
14.622808
13.838410
15.092492
15.233755
16.210675
16.039610
16.557574
16.766787
17.082691
16.891956
17.774701
17.596483
18.051863
18.235445
18.119812
19.290447
17.951727
18.275976
19.223690
18.197894
18.712878
##ZVALUE=280
0.693798
0.907779
0.808835
0.813603
0.907779
0.667572
0.791550
0.820756
0.779629
0.915527
0.885725
1.007915
1.112819
1.111627
1.035929
1.258850
1.018643
1.154542
1.451969
1.477599
1.683831
2.220869
15.438795
50.281882
142.504573
247.341990
426.926613
589.316487
797.924995
922.912955
985.561013
960.201621
859.142542
650.081635
480.277538
273.945928
164.843798
75.808764
44.382811
39.751530
53.205490
78.742504
99.910498
126.417875
139.781833
147.071481
141.944885
123.081803
105.030537
76.460838
57.269931
36.045909
23.569465
13.604760
9.243488
6.430745
6.299615
6.009936
6.809831
6.519556
6.270409
6.899834
7.197857
7.886887
8.444786
8.663535
9.155869
9.172559
9.599924
10.957718
11.130571
11.529922
12.373924
13.211966
13.544559
14.540553
14.792681
14.716983
14.894605
15.523434
14.976859
16.139746
16.560555
16.973615
16.955733
17.616749
17.467737
18.175840
17.671585
18.080473
17.761588
18.453598
18.069744
19.329786
19.060969
18.497705
##ZVALUE=285
0.814795
0.585914
0.718832
0.834465
0.805855
0.732541
0.768900
0.790954
0.732541
0.768900
0.898838
0.842810
1.079440
1.076460
0.878572
0.974536
1.210570
1.212955
1.084805
1.289845
1.339912
1.469851
1.738667
1.850724
6.967783
24.503469
81.513524
157.094002
316.544771
473.748446
643.173456
845.106840
953.631997
991.814733
922.237635
749.524832
586.786866
369.029641
230.976939
110.637546
60.327649
31.520724
32.943487
52.025914
71.458817
101.482868
117.938519
136.890411
142.607689
139.237642
126.263499
102.820992
83.023906
56.973696
39.117932
22.357702
15.098453
9.619594
8.090734
6.996989
7.425547
7.461905
7.875562
8.013844
8.917451
8.726716
8.735657
8.947849
10.349751
11.079907
11.687875
12.448430
13.272762
13.799667
14.369488
14.371872
14.993548
15.165806
15.423894
16.004443
16.575456
16.822815
16.839504
16.828775
16.736984
16.743541
17.066598
17.485619
17.270446
17.452836
18.115640
17.784834
18.210411
17.534494
18.027425
17.782450
##ZVALUE=290
0.349879
0.559688
0.509620
0.675917
0.579953
0.341535
0.507832
0.561476
0.468493
0.538826
0.499487
0.545979
0.601411
0.588894
0.695586
0.536442
0.691414
0.698566
0.781417
0.922680
0.895858
1.021624
1.089573
1.185536
1.220703
1.520514
2.450943
8.640885
45.047998
103.268623
191.312432
375.002623
548.808575
778.338909
913.984776
1000.405550
979.373455
834.563971
682.868958
459.926724
303.408504
151.454806
80.314875
33.551455
24.441481
32.608509
45.408607
69.198608
89.349747
115.236640
128.140450
137.311816
136.616826
121.164918
103.951693
75.742006
56.931973
37.031770
25.410652
15.234947
11.001825
8.424520
8.586645
8.269548
8.618832
9.079576
9.499788
10.372996
10.764599
11.306405
11.804700
12.410879
13.130903
13.481975
14.397502
14.271736
15.177727
15.507936
15.935898
15.677810
15.852451
15.901923
16.516447
16.686916
17.114878
17.357469
17.390847
17.115474
17.214417
17.446876
17.323494
17.748475
17.723441
17.660856
17.800927
18.167496
##ZVALUE=295
0.457764
0.399947
0.329614
0.251532
0.297427
0.242591
0.347495
0.328422
0.366569
0.528693
0.234842
0.522733
0.440478
0.441670
0.598431
0.527501
0.538826
0.716448
0.496507
0.577569
0.659823
0.639558
0.848770
0.735521
0.828505
1.011491
1.137853
1.295805
1.668930
3.484488
23.528934
64.370632
166.870952
288.828611
500.136614
667.083859
869.179964
970.512033
994.156599
930.335522
756.993890
593.226552
367.371440
231.436491
106.644630
52.246451
22.485852
19.365549
29.160976
42.303801
65.726638
84.808469
109.112859
123.783946
131.251812
130.970478
115.223527
100.077987
76.360703
58.626533
38.458705
26.179552
16.691685
12.843609
10.050535
9.619594
9.557605
10.294914
11.001825
11.853576
11.988878
12.551546
13.429523
13.876557
14.251471
14.920831
15.496612
15.699863
16.158819
16.418695
16.593933
17.128587
17.509460
17.512441
17.340779
18.258691
17.751455
18.325448
17.653704
17.698407
17.401576
17.937422
17.464757
17.309785
17.341971
17.283559
##ZVALUE=300
0.622869
0.403523
0.538826
0.652671
0.642538
0.672936
0.712872
0.731945
0.684857
0.748634
0.778437
0.644922
0.633597
0.766516
0.764728
0.754595
0.938773
0.969768
0.826716
0.878572
0.951886
0.747442
1.077652
1.065731
1.006722
1.291633
1.262426
1.431704
1.459718
1.591444
1.713634
6.719828
9.964705
36.329627
111.019611
202.098489
383.065939
557.022691
776.262879
905.026793
999.909639
989.076495
859.721899
713.937879
481.737852
314.556956
159.455538
85.542798
32.826662
17.455816
17.653704
25.257468
40.268898
56.225657
79.485774
97.008944
117.029548
124.471784
124.419928
116.620660
97.427964
79.414845
57.019591
42.461753
27.968884
20.004511
14.582872
12.835860
12.137890
12.679696
13.087988
13.569593
13.880730
14.716983
15.365481
15.276670
16.329885
16.282797
17.340779
17.165542
17.092824
18.021464
17.787814
18.143654
18.247962
18.965602
18.330812
18.327832
18.897653
18.142462
18.521547
18.091798
18.870831
18.140674
18.007755
17.993450
##ZVALUE=305
0.442863
0.478625
0.508428
0.593662
0.691414
0.595450
0.734925
0.567436
0.609756
0.708699
0.516772
0.636578
0.446439
0.593662
0.671744
0.655651
0.671744
0.771880
0.911951
0.705719
0.853539
0.911951
0.960827
0.938773
0.849962
1.000762
0.968575
1.153946
1.232624
1.283884
1.500845
1.359582
1.575947
1.838803
3.453493
24.197698
65.866709
167.697668
283.194780
490.339994
657.057762
858.576894
962.304473
996.749997
936.611891
755.782723
589.506626
367.946625
233.807564
111.696720
54.544806
20.299554
13.056993
15.879869
23.941994
39.595962
55.850744
77.844858
94.246864
111.075640
118.073821
119.070411
111.806989
92.817545
77.403784
56.454539
41.838884
27.135611
20.560622
15.937686
14.801621
14.797449
14.290810
14.869571
15.240908
16.054511
16.343594
16.980767
17.380714
17.498732
17.974973
18.331409
18.551946
18.747449
18.954873
19.185543
19.113421
19.260645
19.013882
19.130707
19.066930
18.537641
18.815994
18.668771
18.295646
18.436909
##ZVALUE=310
0.550747
0.775456
0.579953
0.661612
0.458956
0.588894
0.484586
0.568628
0.630617
0.652671
0.587702
0.663996
0.709891
0.698566
0.668764
0.512600
0.612736
0.727773
0.609756
0.604987
0.673532
0.731945
0.783801
0.896454
0.728965
0.869632
0.970960
0.933409
1.008511
1.033545
0.977516
1.178980
1.117587
1.274943
1.340508
1.444817
1.695752
10.044575
34.636855
105.002522
192.975402
374.325514
545.276999
767.272711
902.032852
992.189646
974.446535
852.494836
703.954697
476.601720
318.283439
161.075592
88.220835
32.506585
14.962554
11.381507
13.991594
22.465587
33.807755
51.845908
67.917705
90.000629
103.121996
113.883615
114.841461
106.214881
95.333457
75.791478
59.551597
41.365623
31.462908
23.048520
19.672513
16.469955
16.769767
16.326904
16.487837
17.234683
17.956495
18.445849
18.310547
18.629432
19.518733
19.086599
19.657612
19.969940
19.864440
20.004511
19.456744
19.631982
19.687414
19.521713
19.351840
18.957853
18.988848
18.365979
##ZVALUE=315
0.662804
0.453591
0.547767
0.383854
0.522733
0.576973
0.570416
0.565648
0.632405
0.582933
0.579953
0.507832
0.558496
0.613928
0.770688
0.668764
0.742674
0.786781
0.595450
0.789762
0.749826
0.705719
0.698566
0.707507
0.783801
0.819564
0.739694
0.911951
0.816584
0.873804
0.916719
1.047850
1.023412
1.019835
1.061559
1.131892
1.455545
1.578927
1.572967
4.289746
17.390847
69.245696
140.881538
292.887688
453.763008
690.241456
836.040974
970.839858
1015.710831
937.421918
813.761950
594.984889
422.895551
229.815841
126.980543
48.032999
20.726919
10.345578
10.654926
14.393926
20.754933
33.291578
46.646595
66.062808
81.849694
100.750923
108.091831
110.905766
104.459524
89.587569
75.618625
56.861639
44.042468
31.498671
24.965405
19.998550
18.198490
17.764568
18.092990
17.911792
18.294454
19.153953
19.854903
19.802451
19.858479
20.041466
20.187497
20.267963
20.392537
20.124912
20.007491
19.746423
19.371510
19.159913
19.241571
19.596815
##ZVALUE=320
0.473857
0.549555
0.553727
0.318885
0.346899
0.502467
0.495911
0.611544
0.542998
0.548959
0.473857
0.581741
0.498891
0.430942
0.622869
0.683665
0.642538
0.636578
0.700951
0.542998
0.721812
0.532866
0.522733
0.675917
0.765920
0.703931
0.824928
0.841618
0.741482
0.848770
1.018643
0.810623
0.876784
0.935793
0.964999
0.906587
1.143813
1.384616
1.375675
1.383424
1.651645
2.008677
7.672906
41.538477
96.013546
224.135518
356.591940
558.967590
719.874501
898.860693
973.529816
957.053900
862.468481
661.732554
486.983657
278.369784
158.456564
66.420436
32.228827
12.891889
9.610653
10.387897
13.446808
20.002723
28.481483
45.347810
60.003996
78.512430
92.483759
103.916526
105.080605
99.987984
89.632869
72.117448
57.737827
42.197704
33.811927
25.774837
22.361875
19.732714
19.553900
19.708872
19.432902
20.071864
19.551516
20.034909
20.003915
19.850731
20.301938
19.833446
20.068884
20.290613
19.719601
20.306706
19.522905
19.554496
##ZVALUE=325
0.410676
0.434518
0.504851
0.538826
0.527501
0.588894
0.439882
0.543594
0.441670
0.504851
0.521541
0.514984
0.633597
0.494719
0.527501
0.549555
0.469685
0.574589
0.605583
0.487566
0.539422
0.523925
0.701547
0.604987
0.693798
0.620484
0.679493
0.593662
0.692606
0.642538
0.769496
0.828505
0.784993
0.827909
0.836849
0.977516
0.910759
0.896454
0.985861
1.219511
1.273751
1.408458
1.385808
1.795888
3.687739
25.612712
63.557625
158.482790
270.481706
470.454693
632.664561
822.984576
918.275714
950.054526
878.327489
703.190565
539.659858
333.395600
204.264522
94.340444
47.378540
17.086864
10.270476
9.307861
10.760427
14.238954
19.739866
30.337572
42.357445
61.351657
74.885488
90.022683
98.512769
100.504756
95.234513
82.702637
70.819855
54.240823
43.181777
31.477809
26.435852
21.770000
20.705462
20.218492
19.927621
20.182729
19.869804
19.775629
20.094514
19.527674
19.905567
20.111799
19.844770
19.753575
19.669533
19.621849
##ZVALUE=330
0.433922
0.571609
0.465512
0.422597
0.479817
0.419617
0.364780
0.396967
0.301600
0.266433
0.531673
0.624657
0.526905
0.504851
0.474453
0.580549
0.567436
0.524521
0.547767
0.454783
0.494719
0.399947
0.591874
0.781417
0.671744
0.793934
0.530481
0.783801
0.551939
0.632405
0.788569
0.656843
0.846982
0.849962
0.844598
0.903606
0.864863
0.877976
0.898838
0.915527
0.900626
1.229644
1.448989
1.341701
1.315475
1.542568
2.193451
10.958910
35.625696
110.776424
202.673674
384.179950
546.767712
752.705932
876.034498
946.529508
911.427736
770.553946
619.683862
408.847928
267.202854
128.050447
67.698956
25.973916
13.003945
9.902716
10.213852
11.503696
14.668703
21.545887
29.135942
43.391585
55.889487
74.617863
86.633563
95.644593
96.458793
90.270638
81.159472
65.934658
54.726601
40.649772
33.079982
26.143789
23.294687
20.698905
19.969940
19.913912
19.483566
19.170642
19.552708
19.324422
19.574761
19.181967
19.416809
19.245744
##ZVALUE=335
0.448823
0.346899
0.432730
0.519753
0.438690
0.524521
0.506639
0.650883
0.448823
0.480413
0.577569
0.375509
0.561476
0.497699
0.606775
0.461936
0.432730
0.449419
0.488758
0.528693
0.384450
0.572801
0.532866
0.501871
0.576973
0.364780
0.445843
0.558496
0.550747
0.513792
0.785589
0.744462
0.546575
0.690818
0.613928
0.647902
0.741482
0.797510
0.722408
0.718832
0.798702
0.911951
1.025796
0.969768
0.949502
1.079440
1.335740
1.519918
1.580715
4.688501
18.428564
71.260929
142.151713
294.754505
452.008843
672.415495
814.386010
921.442509
933.100581
836.264491
701.739788
489.864945
338.235497
179.005861
97.176433
35.688877
16.985536
10.438561
10.009408
10.579824
11.807680
15.108585
19.625425
30.003786
40.776730
57.000518
69.755912
82.778931
89.636445
90.982914
87.239742
76.216459
66.154599
53.245425
43.327808
32.797456
27.710795
22.972822
21.230578
19.543767
19.492507
18.983483
19.115806
18.875599
18.889904
18.993616
##ZVALUE=340
0.421405
0.484586
0.550747
0.462532
0.421405
0.547767
0.493526
0.512600
0.382662
0.513792
0.314713
0.424981
0.463724
0.429749
0.502467
0.524521
0.406504
0.515580
0.520945
0.417829
0.528693
0.543594
0.554919
0.637770
0.620484
0.551939
0.441670
0.728965
0.675917
0.609756
0.564456
0.610948
0.725985
0.739694
0.700951
0.799894
0.810623
0.778437
0.850558
0.673532
0.729561
0.748634
0.799894
0.783801
0.855923
0.996590
1.034737
1.021624
1.110435
1.283884
1.425743
2.358556
8.927584
44.813752
103.952885
237.897635
378.596783
588.681698
737.079978
885.415673
925.423503
869.959593
763.832927
572.356582
406.203866
216.430426
123.281479
51.878691
23.695827
11.046529
10.158420
10.276437
11.077523
12.452602
15.128851
21.703839
28.058887
41.018724
52.672625
68.838596
77.409744
85.780621
86.727738
82.056522
75.074434
61.894655
52.517653
40.073991
33.036470
26.694536
22.896528
19.703507
18.925667
18.516779
18.188953
17.758608
##ZVALUE=345
0.452995
0.402927
0.341535
0.565648
0.497699
0.433922
0.407696
0.401735
0.489950
0.556707
0.491738
0.473857
0.283718
0.501871
0.590682
0.493526
0.507832
0.530481
0.510812
0.484586
0.510812
0.558496
0.517964
0.546575
0.638962
0.573993
0.612736
0.561476
0.604987
0.515580
0.657439
0.542998
0.510812
0.632405
0.517964
0.632405
0.727773
0.656843
0.674725
0.678897
0.623465
0.802875
0.684857
0.790954
0.936985
0.822544
0.743866
0.946522
0.983477
1.012683
1.097918
1.364946
1.364946
1.560450
3.697872
25.282502
67.700744
168.025494
285.299420
482.790470
637.059808
817.915797
891.068578
893.247724
813.999772
623.156428
472.492576
284.988880
164.891481
68.458915
32.790899
14.069676
10.334849
10.282993
10.399818
11.034608
12.283921
15.271902
19.204617
27.829409
37.364960
51.273704
60.959458
71.937442
77.238679
80.716610
78.114867
70.579648
61.865449
49.973726
41.262507
31.467676
26.034713
20.917654
18.834472
17.973781
##ZVALUE=350
0.353456
0.469685
0.473857
0.498891
0.367761
0.440478
0.450611
0.369549
0.429749
0.482798
0.409484
0.501871
0.547767
0.518560
0.563860
0.380874
0.488758
0.613928
0.564456
0.591874
0.595450
0.670552
0.548959
0.509620
0.515580
0.604987
0.575781
0.454783
0.609756
0.687838
0.554919
0.618696
0.547767
0.571609
0.613928
0.699759
0.687838
0.613928
0.702739
0.667572
0.638962
0.779629
0.693798
0.636578
0.617504
0.921488
0.817776
1.176000
1.001954
0.917912
0.960827
0.868440
0.974536
1.151562
1.110435
1.359582
2.145767
12.288690
39.892793
116.769671
209.267735
391.596556
545.202494
731.619596
845.919847
895.963907
847.934484
697.845817
541.103482
328.296423
204.405785
97.075701
47.698617
16.782880
10.514855
9.636879
10.309815
10.459423
11.108518
12.414455
14.497638
19.488931
24.830699
34.934878
43.512583
55.753589
63.584447
71.435571
73.577762
71.978569
66.458583
56.868792
48.237443
38.250685
31.049848
24.593472
##ZVALUE=355
0.507832
0.404716
0.438690
0.528693
0.384450
0.438690
0.395775
0.477433
0.502467
0.358820
0.585914
0.389814
0.509620
0.450611
0.457764
0.449419
0.545979
0.451803
0.509620
0.531673
0.633597
0.580549
0.621676
0.514984
0.548959
0.548959
0.480413
0.522733
0.604987
0.551939
0.512600
0.530481
0.493526
0.541806
0.628829
0.658631
0.518560
0.645518
0.675917
0.689626
0.619888
0.686646
0.500679
0.619888
0.760555
0.680685
0.675917
0.855923
0.864863
0.776649
0.685453
0.905991
0.918508
0.964999
1.046658
1.196861
1.329780
1.341701
1.626611
5.610585
21.576881
80.599785
156.559944
307.684541
461.652875
670.296550
792.352557
879.104733
871.277452
745.746493
605.859756
409.535766
264.047980
120.310783
60.150623
21.204948
11.422634
9.265542
9.232759
9.920597
10.385513
11.227727
11.812449
14.143586
16.870499
22.933483
29.247999
39.730668
47.925711
57.428479
63.801408
67.101717
66.546798
60.452819
53.969622
44.452548
##ZVALUE=360
0.468493
0.446439
0.439882
0.550747
0.399947
0.465512
0.152588
0.469685
0.577569
0.480413
0.504851
0.454783
0.463724
0.621676
0.478625
0.500679
0.508428
0.460744
0.276566
0.404716
0.376701
0.394583
0.482798
0.522733
0.488758
0.566840
0.575781
0.560880
0.531673
0.651479
0.648499
0.677705
0.618696
0.567436
0.452995
0.492930
0.554919
0.678897
0.540614
0.568628
0.564456
0.718832
0.637770
0.561476
0.596642
0.658631
0.812411
0.700951
0.779629
0.762939
0.865459
0.677705
0.954866
0.838637
0.994802
1.172423
1.259446
1.323819
1.353621
1.479983
1.715422
2.500415
9.148717
43.724775
101.125836
234.002471
373.824835
570.438504
721.637607
850.397944
873.720646
804.870725
678.959489
472.049713
318.754911
161.241889
87.181926
34.374595
15.864968
9.036660
8.859634
9.127855
9.392500
9.562969
9.840727
11.082888
11.983514
14.913678
18.672943
24.782419
32.237768
42.586923
49.018860
55.877566
60.661435
60.752630
##ZVALUE=365
0.507832
0.391603
0.427961
0.448823
0.394583
0.277758
0.257492
0.421405
0.472665
0.444651
0.299811
0.278950
0.342727
0.480413
0.414848
0.528693
0.214577
0.441670
0.311732
0.430942
0.446439
0.402927
0.459552
0.402927
0.343919
0.440478
0.526905
0.490546
0.429749
0.389814
0.732541
0.604987
0.490546
0.697970
0.549555
0.460744
0.563860
0.494719
0.359416
0.619888
0.542998
0.740886
0.617504
0.612736
0.701547
0.568628
0.622869
0.709891
0.704527
0.729561
0.711679
0.632405
0.624657
0.739694
0.827909
0.659823
0.766516
1.004934
0.989437
1.057982
1.115799
1.232624
1.337528
1.543760
3.978610
24.901628
65.079927
160.330534
281.801820
487.317443
633.343458
783.203840
848.472714
818.520784
717.999935
530.214906
382.981896
219.535828
123.377442
48.201680
21.254420
9.198785
8.099675
8.291602
8.257627
8.644462
8.782744
8.958578
9.592772
10.303855
12.439489
16.270876
20.740628
28.803945
35.227537
43.981671
##ZVALUE=370
0.392795
0.467896
0.468493
0.383854
0.402927
0.442863
0.308752
0.458956
0.404716
0.396967
0.556707
0.427961
0.498891
0.490546
0.534654
0.476837
0.446439
0.430942
0.462532
0.451803
0.503659
0.499487
0.501871
0.447631
0.415444
0.471473
0.545979
0.453591
0.522733
0.576973
0.584722
0.537634
0.451803
0.580549
0.617504
0.582933
0.564456
0.752807
0.588894
0.538826
0.549555
0.657439
0.529885
0.464916
0.611544
0.629425
0.562668
0.648499
0.658631
0.686646
0.637770
0.720620
0.683665
0.721812
0.655651
0.731945
0.770688
0.895858
0.836849
0.877976
1.085997
0.989437
1.250505
1.300573
1.396537
1.448989
2.231598
12.514591
41.943789
125.832558
228.457451
415.470004
577.330589
758.242011
842.513442
851.342678
776.031017
602.304935
450.043678
260.089636
150.257945
62.519908
30.599833
12.082458
8.351803
7.778406
7.736683
7.862449
8.030534
8.040667
8.422732
8.725524
9.568930
11.871457
14.057755
18.730760
##ZVALUE=375
0.298619
0.270605
0.408888
0.300407
0.345707
0.263453
0.338554
0.212789
0.220537
0.320673
0.392795
0.322461
0.346899
0.251532
0.374913
0.352859
0.461936
0.588894
0.237823
0.273585
0.339746
0.327826
0.283718
0.157952
0.369549
0.406504
0.188947
0.417829
0.381470
0.299811
0.379682
0.406504
0.482798
0.361800
0.394583
0.391603
0.311732
0.264645
0.428557
0.462532
0.416636
0.486970
0.375509
0.523925
0.482798
0.427961
0.538826
0.410676
0.509620
0.458956
0.478625
0.606775
0.540614
0.457764
0.618696
0.653863
0.625849
0.523925
0.594854
0.650883
0.775456
0.696778
0.746846
0.941753
0.863671
0.979900
1.242757
1.179576
1.703501
5.943775
22.973418
79.014897
158.396959
332.326889
492.849946
703.322887
817.061663
880.596638
836.771727
681.425929
528.081656
328.401923
211.438537
107.908845
56.113601
19.270778
9.410977
7.103682
6.881952
6.906986
7.088780
7.171631
7.221699
7.374883
7.902980
8.894801
##ZVALUE=380
0.483990
0.363588
0.474453
0.478625
0.474453
0.479817
0.412464
0.366569
0.558496
0.534654
0.500679
0.424981
0.490546
0.426769
0.489950
0.533462
0.355840
0.363588
0.708699
0.422597
0.605583
0.533462
0.622869
0.391603
0.482798
0.515580
0.530481
0.526905
0.599623
0.588894
0.305772
0.535846
0.596642
0.570416
0.560880
0.448823
0.604987
0.645518
0.566840
0.665784
0.649691
0.741482
0.674725
0.581741
0.586510
0.609756
0.554919
0.736713
0.714660
0.797510
0.729561
0.760555
0.620484
0.565648
0.631809
0.518560
0.765920
0.782609
0.743866
0.781417
0.862479
0.956655
0.881553
0.902414
0.971556
0.964999
1.040697
1.280904
1.358986
1.491904
1.679659
2.898574
11.688471
56.557655
123.634934
269.104838
418.882966
625.813603
770.476460
876.905918
868.736506
746.313930
613.353848
429.932475
293.111801
148.397684
79.042912
29.296875
13.145804
7.303953
6.449819
6.516576
6.679893
6.822944
7.041693
7.409453
##ZVALUE=385
0.281930
0.338554
0.469685
0.465512
0.427961
0.434518
0.458956
0.362992
0.294447
0.333786
0.299811
0.325441
0.489950
0.354648
0.398755
0.424981
0.506639
0.459552
0.356436
0.344515
0.178814
0.388622
0.493526
0.326633
0.420809
0.305772
0.351667
0.397563
0.437498
0.436902
0.368953
0.556707
0.415444
0.383854
0.427961
0.516772
0.484586
0.487566
0.497699
0.397563
0.545979
0.440478
0.409484
0.369549
0.411868
0.523925
0.433922
0.449419
0.518560
0.581741
0.448823
0.698566
0.596642
0.452995
0.522733
0.639558
0.648499
0.682473
0.557899
0.698566
0.671744
0.679493
0.844598
0.672936
0.975728
0.885725
0.868440
0.990629
1.043677
1.130700
1.245737
1.190901
1.150966
1.718998
5.475879
32.707453
81.557631
191.251636
318.654776
535.981655
690.674782
828.141570
861.706734
805.287957
699.713826
514.645576
368.997455
206.256509
119.435787
50.515532
21.778941
7.814765
6.129742
6.050467
6.078482
6.175637
##ZVALUE=390
0.313520
0.319481
0.249743
0.369549
0.310540
0.421405
0.378489
0.295639
0.377893
0.381470
0.374913
0.263453
0.337958
0.267625
0.337958
0.355840
0.400543
0.469685
0.264645
0.403523
0.393987
0.440478
0.409484
0.506639
0.299811
0.268817
0.412464
0.385642
0.350475
0.312924
0.440478
0.560880
0.400543
0.339746
0.446439
0.341535
0.398755
0.439882
0.619888
0.434518
0.397563
0.481606
0.467896
0.410676
0.454783
0.553727
0.389814
0.475645
0.661612
0.668764
0.597835
0.538826
0.639558
0.650883
0.524521
0.576973
0.646710
0.585914
0.694990
0.601411
0.589490
0.735521
0.733733
0.693798
0.718832
0.799894
0.904799
0.838637
0.896454
1.079440
1.079440
1.072884
1.114607
1.243949
1.228452
1.241565
3.320575
14.344454
63.525438
136.417747
289.265513
433.375835
620.593429
743.853450
843.032598
849.013925
756.936669
637.447834
444.161892
307.236910
160.985589
84.069967
29.782653
12.329817
6.218553
5.538464
##ZVALUE=395
0.326633
0.266433
0.396967
0.310540
0.298619
0.463724
0.422597
0.496507
0.300407
0.459552
0.329614
0.331998
0.372529
0.358820
0.469685
0.337958
0.393987
0.371933
0.193715
0.323653
0.154972
0.262856
0.450611
0.429749
0.346899
0.474453
0.441670
0.444651
0.340939
0.518560
0.477433
0.399947
0.556707
0.307560
0.379682
0.493526
0.411868
0.443459
0.330806
0.454783
0.343919
0.462532
0.407696
0.516772
0.440478
0.404716
0.405908
0.473857
0.503659
0.500679
0.486970
0.562668
0.417829
0.582933
0.531673
0.622869
0.603795
0.607967
0.583529
0.625849
0.660419
0.492930
0.708699
0.648499
0.672936
0.754595
0.689626
0.767708
0.863671
1.084805
1.069903
0.913739
1.106858
1.089573
1.018643
1.169443
1.078844
1.406670
1.703501
9.745955
35.856962
115.092993
205.812454
363.214016
514.110923
709.765553
817.306638
872.789025
840.018988
706.032515
556.343794
354.778767
226.506591
102.682710
50.119758
17.140508
##ZVALUE=400
0.278950
0.275970
0.241995
0.450611
0.294447
0.287890
0.326633
0.528693
0.337958
0.360608
0.280738
0.279546
0.238419
0.310540
0.465512
0.389814
0.343919
0.492930
0.282526
0.383854
0.353456
0.475645
0.396967
0.368953
0.426769
0.481606
0.534654
0.243783
0.466704
0.286698
0.377893
0.451803
0.405908
0.420809
0.410676
0.598431
0.411868
0.402927
0.378489
0.421405
0.334978
0.444651
0.646710
0.415444
0.468493
0.462532
0.401735
0.492930
0.418425
0.449419
0.445843
0.397563
0.578761
0.581741
0.467896
0.563860
0.615716
0.580549
0.697970
0.530481
0.625849
0.628829
0.710487
0.757575
0.675917
0.854731
0.736713
0.931621
0.768900
0.792742
0.884533
0.945926
1.042485
1.049638
0.957847
1.119971
1.023412
1.103878
1.164675
1.314878
1.475811
5.167723
19.784570
69.340467
140.983462
290.619731
440.796614
646.112561
771.502852
862.795711
858.358741
748.573542
613.449812
413.286686
276.678801
144.031644
##END
