##TITLE=D2-1
##FORMAT=SPECTACLE-ASCII V-1.2
##DATA TYPE=ULTRAVIOLET SPECTRUM
##SECOND TYPE=ULTRAVIOLET SPECTRUM
##DATE=01/24/18
##TIME=13:52:17
##SPECTROMETER/DATA SYSTEM=SPECTACLE
##XUNITS=NM EM
##YUNITS=ENERGY
##YFACTOR=1
##FIRSTX=220
##LASTX=410
##NPOINTS=96
##3DDATA=Equidistant
##ZUNITS=NM EX
##FIRSTZ=210
##LASTZ=400
##ZPOINTS=39
##XYDATA=(Y..Y)
##ZVALUE=210
30.344725
29.250979
21.794438
14.017820
12.221932
10.995865
11.719465
9.905696
9.060502
7.645488
5.977750
5.146861
5.107522
5.538464
5.146861
5.653501
5.018711
6.362796
6.142855
6.055832
6.323457
7.065535
7.688999
7.919669
7.529855
9.345412
10.252595
10.796785
12.170672
11.764765
14.146566
14.507771
15.190840
18.218756
18.129945
19.620657
22.007823
23.541451
25.150776
24.869442
28.786659
30.111670
31.257868
34.786463
36.008954
38.470626
42.975545
42.226911
46.871901
48.409700
53.761601
51.332712
52.939653
54.636598
56.920648
56.392550
57.691932
57.613850
57.069659
56.206584
57.270527
54.674745
54.045916
52.282810
49.676895
49.178600
48.937798
49.981475
51.345825
49.475431
59.830546
59.431791
66.458583
68.438649
71.384907
71.452856
71.408749
68.317652
64.042807
61.552525
53.724647
47.027469
43.342710
37.480593
32.514930
27.849674
25.090575
23.478866
23.735762
23.801923
26.182532
32.256842
41.263700
45.072436
58.937669
69.362521
##ZVALUE=215
104.728937
99.946856
79.634786
55.194497
42.129755
27.298927
22.232533
17.934442
18.068552
16.879439
14.274716
11.775494
10.835528
8.873940
7.441640
6.726980
5.378723
6.067753
6.394982
6.994605
6.602407
7.626414
8.013844
8.550882
8.423924
10.842681
10.553598
12.176633
12.634993
15.422702
14.278889
16.558766
18.123984
19.344687
20.789504
22.946596
26.428699
30.054450
31.158924
33.729672
35.724640
40.731430
42.195916
48.056841
48.699975
55.046678
62.084794
64.627528
68.775415
72.559714
73.437691
79.474449
81.914663
80.325603
85.584521
87.727904
85.426569
85.908771
87.659955
85.937977
81.798434
80.964565
76.614618
77.728629
74.931979
71.034431
71.858764
71.855783
72.841644
69.774985
74.514747
75.051785
80.507994
76.703429
79.499483
78.596473
78.881979
70.069432
69.114566
61.084628
55.885911
52.437782
44.805408
39.982796
36.510825
32.351613
28.210878
28.413534
26.959777
23.659468
24.097562
22.269487
19.248724
22.483468
26.710629
32.032728
##ZVALUE=220
231.947899
236.488581
235.486627
209.399462
179.588795
126.233697
92.734694
60.033798
39.375424
31.530857
28.752685
27.517676
24.400949
21.509528
17.368793
12.973547
10.426641
8.933544
7.181764
6.880760
7.431507
8.383989
8.764863
9.619594
10.236502
10.526776
12.318492
12.337565
12.457967
14.863610
16.581416
18.348694
21.250844
20.563602
26.080608
29.476881
31.846762
36.724806
40.977001
46.680570
51.050782
59.137940
63.636899
71.384907
77.399611
82.950592
92.931986
96.469522
103.042722
111.337900
118.924975
124.125481
130.678415
132.442713
137.167573
141.193867
141.273737
135.850906
139.342546
142.742991
135.929585
136.278868
130.429864
129.056573
122.869611
117.606521
116.241574
111.776590
107.618570
103.149414
108.255744
106.013417
105.862617
108.491778
105.559826
99.072456
95.189810
90.260506
86.139441
79.758763
69.794655
66.392422
59.041977
54.353476
48.487782
43.714643
38.317442
34.194589
33.583641
31.817555
27.729869
26.414990
26.016831
24.178624
23.251772
21.694899
##ZVALUE=225
292.176604
311.274529
371.427536
444.566011
451.162457
421.205759
367.911458
262.740850
189.557672
129.154921
74.801445
52.181482
41.890740
44.622421
41.036606
37.453771
31.464696
23.753643
18.307567
13.537407
12.516975
9.566545
10.092854
9.478927
10.152459
11.881590
12.856722
13.959408
13.036728
14.858842
15.321970
18.355846
21.883845
25.780797
30.117631
35.212636
38.840771
46.237707
54.126978
62.978864
70.974827
82.165003
87.040663
101.650953
112.599730
122.710466
134.695768
141.663551
155.367851
170.130730
176.926851
182.525516
192.480683
198.447704
205.086470
213.344693
217.956901
220.629573
214.087963
214.886665
206.087828
200.285912
196.062922
192.874670
179.428458
175.565481
167.948008
162.717700
155.296922
153.564811
148.326755
144.633651
141.444802
137.917995
130.727887
125.275850
120.304823
105.363727
103.561878
95.669627
87.856650
77.756643
72.441697
65.065622
60.126781
56.684613
49.227476
48.015714
42.197704
39.835572
37.840605
34.086704
34.659505
29.427409
30.010939
27.566552
##ZVALUE=230
196.126699
216.625929
327.346921
516.736507
644.477010
786.446929
832.155943
797.818899
690.444708
565.733910
358.865857
232.647657
124.973655
88.356733
66.595674
68.136454
70.669651
64.268708
56.119561
46.564937
36.757588
26.179552
19.519925
15.469790
12.038946
11.850595
12.331605
13.064742
12.768507
15.529990
15.060902
17.934442
21.253824
25.927424
31.320453
38.034916
46.010613
56.339502
62.021613
71.954727
82.800984
98.297596
108.262897
118.610859
132.372975
152.161717
160.960555
176.367760
190.546513
202.775598
213.126540
220.680833
230.195522
240.676999
243.239999
253.669620
250.404477
254.811645
251.125693
243.990421
241.132975
243.338943
235.396624
225.241780
223.678946
209.781528
199.179649
195.456743
190.066695
175.834894
177.562833
166.046619
166.611671
154.586434
149.622560
139.328837
132.718682
124.502778
120.135546
105.985999
100.137591
89.826584
85.498691
76.741576
68.404675
62.540770
60.396791
55.682659
51.795840
47.352910
43.693781
39.919615
37.687421
34.888983
30.829906
31.762719
##ZVALUE=235
55.589676
65.250993
134.429932
307.606459
489.699841
765.240788
987.550616
1015.589833
1015.589833
1015.589833
1015.589833
931.329727
603.014827
405.507684
237.641931
151.291490
102.876425
97.320676
97.824931
98.547935
89.238882
76.829791
58.867931
44.318438
33.056736
24.237633
18.280745
16.759634
16.119480
16.656518
17.786622
19.495487
23.936629
27.047992
30.898452
36.417842
41.345954
52.590966
57.346821
69.769621
72.348714
86.724758
96.484423
108.112693
118.344426
132.510662
142.327547
158.644915
165.080428
182.549953
190.472603
199.755430
205.953717
212.675929
212.279558
216.210485
220.092535
221.185684
216.369629
222.941637
217.806697
213.063955
201.716423
199.742913
194.159746
181.225538
184.955001
172.021985
167.765617
158.506632
156.144500
152.564645
146.503448
145.633817
138.680935
128.359795
119.697452
114.954710
107.346773
98.979473
92.945695
86.296797
79.772472
70.154667
64.403415
57.981610
55.638552
49.388409
47.393441
45.321584
43.959618
40.517449
36.926866
36.228895
33.440590
33.197999
##ZVALUE=240
5.080700
6.493926
17.289519
71.511865
158.223510
369.532704
614.688993
1001.212597
1015.589833
1015.589833
1015.589833
1015.589833
1015.589833
1015.589833
974.183679
662.513971
352.989435
222.028494
148.535967
116.937757
126.886964
134.481788
124.925971
113.201737
92.414618
74.112415
55.179596
42.093992
31.751990
26.211739
21.905899
21.592975
21.735430
24.115443
25.757551
29.266477
32.800436
39.553642
44.594407
52.538514
56.000948
63.055754
68.639517
79.441667
82.391500
94.553828
102.497935
106.777549
115.352869
123.127699
130.169988
138.263702
147.241950
143.736601
150.469542
151.003003
149.441957
153.925419
152.165890
153.135657
153.078437
145.115852
145.195723
140.278935
134.478807
131.592751
128.104687
124.759674
123.956800
123.398900
119.507909
116.763711
118.084550
116.535425
110.428929
103.243589
98.988414
91.806650
88.565946
79.301000
73.261857
66.572428
58.716536
55.908561
52.955747
48.913956
46.185851
42.335987
40.055513
38.700700
36.989450
35.294890
33.389926
30.612946
30.406713
28.800964
##ZVALUE=245
3.534555
2.843738
3.804564
3.885627
8.623600
43.840408
117.300749
319.417715
565.591455
977.623463
1015.463471
1015.463471
1015.463471
1015.463471
1015.463471
1015.463471
1015.463471
873.439908
579.603910
291.454792
180.650949
132.569671
130.478740
137.679577
140.021443
139.756799
124.632716
108.523965
81.615448
65.336823
46.606660
34.367442
28.353930
24.819970
23.441911
23.975968
26.981831
28.863549
31.102896
34.320951
37.919879
41.294694
47.938824
51.942468
55.644512
63.492656
68.261623
72.838664
81.703663
84.409714
91.250539
93.861818
95.681548
99.044442
101.081729
101.616979
106.326938
105.639696
106.183887
103.172660
104.925632
104.424953
101.416707
98.359585
95.846653
90.827942
90.539455
91.782808
85.974932
85.667968
86.304545
86.108446
85.412860
86.514950
81.816912
77.166557
73.249936
69.828629
66.029429
59.855580
59.506893
53.366423
49.130917
43.607950
39.905906
37.903786
36.883950
32.457709
32.263994
30.915737
28.545856
27.647614
26.394725
26.285648
25.659800
24.033785
##ZVALUE=250
2.512932
3.044605
2.931952
3.165603
3.659725
3.769398
5.766749
21.564960
97.312927
215.770602
532.135963
873.787999
1015.589833
1015.589833
1015.589833
1015.589833
1015.589833
1015.589833
1015.589833
1015.589833
775.578618
468.849540
226.665735
144.644976
123.025775
135.715604
151.599646
151.073933
148.684978
135.276914
119.615793
91.571808
76.245666
50.983429
38.926601
29.718876
28.015971
27.486682
29.025674
34.343600
36.421418
43.814778
43.958426
50.299764
56.975484
63.662529
67.198873
75.893998
81.021786
85.428953
90.402961
93.046427
99.392533
100.999475
102.852583
106.889606
108.560920
105.547905
104.008913
107.364655
104.576945
102.505684
100.309849
97.633600
95.954537
92.012882
89.751482
86.928606
86.649656
85.138679
84.524751
83.449483
83.456635
81.227422
78.778863
74.293613
69.912672
68.745613
62.395930
56.656599
52.989721
48.530698
45.187473
42.628646
36.614537
35.135746
34.308434
30.607581
31.054616
28.858781
26.146770
28.042793
26.300550
24.135709
23.964643
23.260713
##ZVALUE=255
2.465844
2.330542
2.741814
2.858639
2.968907
3.095865
3.353953
3.789663
4.218817
9.491444
53.532720
145.474672
397.837758
681.350827
1015.589833
1015.589833
1015.589833
1015.589833
1015.589833
1015.589833
1015.589833
1015.589833
1004.530787
583.166480
333.742499
164.885521
121.027827
122.202635
137.613416
152.465701
158.905983
154.335499
143.845677
120.857954
99.535584
73.434711
58.410764
47.218800
40.348768
42.600632
44.288635
51.708817
56.765676
64.524412
70.022941
79.820752
87.941885
94.177723
101.726651
108.307004
113.900900
120.041966
127.517581
132.474899
134.386420
139.544606
139.819980
139.489770
138.957500
139.546990
139.032602
133.806467
131.061673
125.163794
123.767853
119.427443
117.399693
111.394525
110.123754
102.911592
100.898743
100.875497
96.818805
93.734860
89.419484
83.381534
79.777837
74.203610
70.322752
64.770579
58.085918
54.256916
50.790906
45.100451
43.550730
40.043592
37.604570
36.494732
33.882856
30.865669
29.232502
27.861595
26.110411
24.947524
24.513602
23.793578
##ZVALUE=260
2.176762
2.291799
2.315640
2.469420
2.520680
2.756715
2.782941
3.338456
3.171563
3.936887
3.489852
6.153584
20.458698
95.640421
224.151015
558.867455
922.778845
1015.630960
1015.630960
1015.630960
1015.630960
1015.630960
1015.630960
1015.630960
1015.630960
908.873677
498.130918
280.224681
132.416487
103.992820
123.156905
141.674876
159.235597
170.699954
169.914961
155.438781
140.400529
116.985440
96.004605
82.670450
74.748993
74.492693
78.750849
86.706877
95.056891
107.491612
117.394924
128.157735
141.239762
148.191452
159.496665
169.223547
171.806812
181.657672
187.754631
190.356970
195.819736
193.642974
191.794634
190.427899
186.036825
186.474919
181.075931
176.869631
167.074800
163.738728
155.637860
152.875781
148.161650
139.364004
134.944916
129.186511
124.423504
118.748546
112.908483
105.204582
100.824833
90.473890
85.733533
78.926682
73.815584
66.103935
62.258840
55.866838
53.670406
47.467947
46.314001
42.217970
38.706660
36.259890
35.413504
31.283498
29.289722
27.895570
27.542710
25.176406
##ZVALUE=265
2.192855
2.419949
2.104640
2.095699
2.449751
2.290606
2.615452
2.697706
2.886653
2.900958
3.130436
3.831983
4.137754
4.702806
13.393760
51.338673
194.318891
396.177769
701.561570
1015.589833
1015.589833
1015.589833
1015.589833
1015.589833
1015.589833
1015.589833
1015.589833
1015.589833
738.588572
367.299914
200.026631
104.062557
100.693703
131.410956
155.001879
181.309581
188.995004
189.020634
183.401704
167.467594
153.017640
137.422681
130.839944
127.044916
132.179856
144.164562
156.306624
172.726512
183.457732
199.914575
209.516883
220.773816
231.674910
242.083669
246.014595
253.638625
255.643725
255.860686
251.510739
252.997875
246.340632
244.122744
239.039660
234.427452
220.879912
214.480758
207.124949
199.273825
185.813904
177.095532
172.146559
162.869692
157.947540
147.540569
138.861537
127.143860
121.640563
110.660791
104.280710
96.239448
89.681745
79.490542
77.530742
68.156719
66.386461
59.687495
56.043863
51.385760
48.260689
43.406487
39.277673
37.122965
35.602450
33.242702
31.228662
29.005408
##ZVALUE=270
2.034903
1.959801
2.462864
2.115965
2.498627
2.119541
2.696514
2.392530
2.614856
2.907515
3.116727
2.946854
3.137589
3.737807
3.886819
4.123449
7.158518
24.050474
110.236406
264.561772
663.333535
1015.639901
1015.639901
1015.639901
1015.639901
1015.639901
1015.639901
1015.639901
1015.639901
1015.639901
1015.639901
602.342486
324.483514
137.344003
100.068450
118.457675
149.638653
186.478496
212.478638
233.628750
241.265893
234.926939
226.755738
217.831731
213.491917
211.894512
213.038921
220.564604
235.075951
253.410935
265.368819
283.654928
290.855765
302.459598
310.174823
316.444635
322.187543
318.402648
321.307778
314.787626
316.270590
303.805470
298.929811
289.132595
280.402899
270.684958
257.868767
242.624879
234.879851
221.389532
212.544799
200.598836
192.592740
178.696513
167.800784
156.285763
146.205425
136.407614
127.543807
117.197633
107.499957
98.310709
89.929700
84.608793
78.597665
70.302486
67.586899
59.852600
56.941509
53.502917
49.138665
44.068694
40.665865
37.999749
36.234856
33.573508
##ZVALUE=275
1.916885
2.073646
1.737475
2.080798
2.026558
2.393723
2.228618
2.280474
2.352595
2.429485
2.616644
2.760887
2.767444
2.964735
3.215671
3.418922
3.765821
4.267693
4.626513
12.328625
50.028563
153.208971
470.414758
894.923806
1015.589833
1015.589833
1015.589833
1015.589833
1015.589833
1015.589833
1015.589833
1015.589833
1015.589833
829.836726
472.538471
204.369426
125.628710
121.434927
151.131749
197.942853
231.483579
269.254446
291.953683
304.072499
309.925675
308.238864
304.228663
300.297737
298.847556
306.387544
315.257907
325.634480
338.216424
348.867774
356.564522
367.599726
368.427634
368.348956
371.509790
362.266898
359.767675
351.513624
345.210433
330.090523
322.747827
305.424929
294.509530
282.098651
268.045664
254.109502
243.019462
229.018927
216.092467
201.938748
192.354918
175.631642
165.329576
156.398416
143.726468
129.562616
123.658776
110.913515
100.884438
92.259645
87.291598
79.345703
73.881745
68.156719
62.796474
57.476759
52.485466
48.851967
43.754578
41.545630
38.683414
35.103559
##ZVALUE=280
1.743436
1.736879
1.757741
1.934767
2.086759
2.038479
2.218485
2.105832
2.293587
2.509952
2.324581
2.363920
2.508759
2.657771
2.631545
2.768636
3.274679
3.386736
3.869534
3.865957
4.764795
6.215572
33.000708
114.438534
383.071899
713.926554
1015.589833
1015.589833
1015.589833
1015.589833
1015.589833
1015.589833
1015.589833
1015.589833
1015.589833
1015.589833
677.709579
315.966010
181.662440
137.708783
155.623555
202.372670
239.924788
287.819505
322.198868
357.663631
372.138619
375.523567
379.687548
373.960733
367.553830
365.625620
366.233587
372.380614
376.635790
380.102992
386.127830
385.506749
387.581587
380.629897
372.893810
365.554690
354.505777
343.808532
334.497690
319.929719
309.475660
293.543935
279.666781
263.257623
250.832438
237.898827
224.624872
211.493969
197.913647
181.766748
172.027946
158.427954
147.133470
134.274960
124.472976
113.322735
106.126666
97.685456
91.189742
81.093907
76.275468
70.346594
65.979958
59.273839
54.331422
49.094558
45.753717
42.374730
39.612651
36.341548
##ZVALUE=285
1.695752
1.562834
1.792908
1.728535
1.822710
1.889467
1.709461
2.008677
1.886487
1.963973
2.074838
2.279878
2.289414
2.538562
2.479553
2.636909
2.543926
2.776980
2.872944
3.505945
3.375411
3.908873
4.707575
5.389452
15.902519
59.200525
214.490891
457.724929
969.612002
1015.589833
1015.589833
1015.589833
1015.589833
1015.589833
1015.589833
1015.589833
1015.589833
1015.589833
961.573720
479.328632
272.048712
162.459612
154.526830
190.099478
229.386687
285.997987
320.311785
361.765623
389.642715
407.642722
411.318541
405.377746
395.015478
380.540490
369.237661
361.039639
356.599689
351.903439
350.719690
347.328782
344.752669
335.498452
329.540968
316.962004
307.961702
294.819474
285.688639
270.734429
256.731510
242.358446
233.391523
216.799974
207.510591
193.134546
180.785656
169.636607
157.722831
147.087574
135.176778
124.640465
117.630959
106.040835
97.697973
90.105534
83.595514
75.823665
70.332885
63.937902
59.199929
55.144429
50.460696
45.940876
42.435527
39.612651
36.948919
34.093857
##ZVALUE=290
1.599789
1.788735
1.586676
1.766682
1.659989
1.667738
1.811981
1.884699
2.055764
1.857877
2.001524
1.910925
1.996756
2.192855
2.357960
2.356768
2.485514
2.555847
2.629757
2.650619
2.954602
3.248453
3.604889
3.908873
4.456639
5.150437
6.954670
22.917986
119.132400
297.038555
597.559810
1015.589833
1015.589833
1015.589833
1015.589833
1015.589833
1015.589833
1015.589833
1015.589833
1015.589833
1015.589833
681.681037
383.190513
191.637874
146.914721
164.792538
192.371607
233.209729
269.612670
317.965746
344.412923
369.490981
373.382568
371.506810
359.058976
337.339640
320.948958
301.552415
289.524794
276.936889
269.790888
259.691477
255.350471
245.254636
236.124992
229.259729
220.681429
211.963654
202.446580
189.130902
183.079839
171.697736
162.522793
149.915814
144.133568
131.135583
124.386549
114.988685
106.180906
96.424818
90.904832
82.620978
77.899694
70.298910
67.007542
60.432553
57.742596
52.102804
48.951507
44.604540
40.677786
37.326813
34.958720
31.597614
29.847622
27.586818
##ZVALUE=295
1.646876
1.640916
1.555681
1.632571
1.698732
1.593828
1.583695
1.492500
1.551509
1.603961
1.742840
1.844764
1.684427
1.882911
2.163649
2.165437
2.134442
2.369881
2.299547
2.379417
2.426505
2.701879
2.757907
2.860427
3.568530
3.661513
4.231930
4.479885
5.349517
10.543466
40.245652
189.240575
439.679027
983.379483
1015.589833
1015.589833
1015.589833
1015.589833
1015.589833
1015.589833
1015.589833
1015.589833
1015.589833
905.888677
509.603620
219.443440
137.928724
117.001534
130.074620
161.037445
185.032487
221.194625
244.338512
273.183584
286.805630
289.503932
278.337002
260.050893
241.563916
215.435624
197.836757
176.619887
166.196823
156.260729
149.346590
141.352415
138.299465
131.267905
125.992894
118.258595
114.138722
108.167529
102.165937
96.828938
92.100501
84.332824
80.832839
73.845983
68.448782
62.120557
59.664845
53.014755
50.507784
47.141910
44.397712
39.786696
38.240552
34.430623
32.229424
29.261708
27.812719
25.843978
23.982525
21.887422
21.268725
20.276904
##ZVALUE=300
1.399517
1.470447
1.445413
1.343489
1.381636
1.528859
1.438856
1.332760
1.470447
1.757741
1.750588
1.526475
1.888871
1.810789
1.786947
1.766682
1.931787
1.876950
1.969934
2.345443
2.152920
2.609491
2.580881
2.722740
2.871752
2.974868
3.085732
3.389716
3.900528
4.559755
5.125999
6.131530
25.980473
100.198984
350.223780
698.462725
1015.589833
1015.589833
1015.589833
1015.589833
1015.589833
1015.589833
1015.589833
1015.589833
1015.589833
1015.589833
645.882487
352.984667
143.153667
83.256960
75.362921
85.862875
104.927421
122.447610
150.193572
172.472000
195.197463
200.208426
200.209618
192.269683
170.059800
150.416493
125.176907
107.001662
89.914799
78.681707
70.352554
64.963698
60.522556
59.362650
56.557655
53.963661
52.416921
48.617721
46.181679
44.367909
40.668845
39.820671
35.886765
33.681989
31.684637
29.575825
27.838945
26.028752
24.189949
22.737980
21.471977
20.122528
18.930435
17.437935
16.574860
16.086698
14.921427
14.636517
13.492703
13.096929
##ZVALUE=305
1.387596
1.372695
1.346469
1.496673
1.433492
1.426935
1.280904
1.509786
1.419783
1.563430
1.565814
1.477599
1.517534
1.529455
1.630783
1.530647
1.729727
1.784563
1.987815
1.880527
1.816750
2.189875
2.228618
2.282858
2.328753
2.648830
2.908707
2.837777
3.202558
3.293753
3.615618
4.261732
4.519820
5.433559
10.395646
66.269636
195.865035
580.186844
991.460681
1015.585661
1015.585661
1015.585661
1015.585661
1015.585661
1015.585661
1015.585661
1015.585661
1015.585661
940.381885
419.526696
200.992823
71.658492
42.468905
43.357611
51.791668
68.372488
84.498525
108.512640
124.855638
144.026875
152.191520
149.210691
142.110586
120.803714
102.853775
77.464581
61.882734
47.034621
38.735867
32.115579
29.400587
27.369857
26.562810
25.111437
24.059415
23.338795
21.859407
20.619631
19.158721
18.173456
17.422438
15.609860
15.651584
14.737844
14.725924
13.453960
12.543797
12.178421
11.662841
11.323690
10.573864
10.173917
10.303855
9.761453
9.585619
9.225607
##ZVALUE=310
1.190901
1.176000
1.257658
1.289845
1.345873
1.203418
1.203418
1.461506
1.204610
1.365542
1.331568
1.428723
1.397729
1.406670
1.469851
1.457930
1.634955
1.588464
1.534820
1.631975
2.009869
1.678467
1.961589
2.101660
2.141595
2.522469
2.718568
2.652407
2.745986
2.730489
2.987981
3.237724
3.500581
3.868937
4.584789
4.844666
6.777644
21.027923
124.150515
306.218863
774.827600
1015.542746
1015.542746
1015.542746
1015.542746
1015.542746
1015.542746
1015.542746
1015.542746
1015.542746
1015.542746
711.424947
289.570689
124.708414
38.547516
23.589730
26.836991
32.014847
45.063496
58.728456
81.084967
97.673535
114.838481
125.178695
125.160813
119.342804
101.010799
84.295869
60.670972
46.090484
31.919479
25.531650
18.967986
16.695857
14.218688
13.411641
12.573600
11.744499
11.049509
10.866523
10.138750
9.866953
9.787679
8.949637
9.038448
8.980632
8.375645
8.745790
8.214712
8.271933
7.845759
7.624626
7.050633
7.052422
7.050633
7.182956
##ZVALUE=315
1.257658
1.185536
1.241565
1.336932
1.250505
1.225471
1.333952
1.198649
1.350641
1.464486
1.377463
1.288652
1.560450
1.411438
1.432896
1.457930
1.414418
1.633763
1.569986
1.692772
1.802444
1.698732
1.914501
1.743436
1.909733
2.066493
2.061725
2.164841
2.246499
2.364516
2.409816
2.968907
2.897978
3.073812
3.371835
3.938675
4.327893
5.041957
5.753636
12.230873
50.227046
223.912597
495.379567
1015.589833
1015.589833
1015.589833
1015.589833
1015.589833
1015.589833
1015.589833
1015.589833
1015.589833
1015.589833
868.864655
459.431410
156.427622
56.798458
19.874573
16.748905
19.936562
25.392771
37.871003
50.517917
70.988536
87.044835
104.649663
112.778544
112.839937
106.344819
91.533661
75.668693
56.078434
42.915940
27.014613
19.945502
13.985634
11.497736
9.525418
8.714795
8.081794
7.594824
7.426739
6.865859
7.270575
6.913543
6.878972
7.010698
6.774664
6.398559
6.247759
6.595850
6.438494
6.473660
6.527901
6.143451
5.841851
##ZVALUE=320
1.086593
1.137853
1.118779
1.122952
0.983477
0.994802
1.181960
1.120567
1.052618
1.165867
1.240969
1.246929
1.147985
1.369715
1.197457
1.388788
1.457930
1.470447
1.563430
1.506805
1.484752
1.572967
1.649857
1.686811
1.629591
1.784563
1.617670
1.844764
2.099872
2.105832
2.197623
2.269745
2.517700
2.782941
3.043413
3.365874
3.406405
3.695488
3.836751
4.449487
5.063415
6.948709
22.643805
130.611658
329.619050
837.001801
1015.536785
1015.536785
1015.536785
1015.536785
1015.536785
1015.536785
1015.536785
1015.536785
1015.536785
1015.536785
627.674460
238.400698
99.262595
27.385950
15.152693
14.714599
16.451478
22.429824
30.934811
47.087669
62.019825
80.931783
94.290972
104.833841
107.648969
99.279881
89.917779
69.935918
54.390430
36.779642
26.526451
16.377568
11.784434
8.582473
7.807612
6.848574
6.330609
6.285906
6.161928
6.194711
5.981922
6.220937
5.996823
5.757809
5.772710
5.580783
5.486608
5.763769
5.494952
5.325675
##ZVALUE=325
1.133680
1.127720
1.231432
1.180768
1.151562
1.137853
1.295805
1.137853
1.392961
1.158714
1.201630
1.296997
1.279712
1.155734
1.243949
1.300573
1.174808
1.257658
1.376867
1.397729
1.446605
1.446605
1.433492
1.567602
1.808405
1.813769
1.816750
1.834631
1.855493
1.850724
1.951456
2.139807
2.197623
2.313852
2.587438
2.823472
2.835989
3.002882
2.995729
3.553629
3.760457
4.335642
4.705787
5.737543
11.752844
79.912543
217.019916
579.839945
989.546776
1015.589833
1015.589833
1015.589833
1015.589833
1015.589833
1015.589833
1015.589833
1015.589833
1015.589833
839.021802
349.106789
153.649449
39.887428
16.142726
12.261868
12.576580
15.026927
19.675493
30.778646
42.756796
60.869455
76.034665
91.637969
99.733472
99.285841
92.767477
78.118443
64.454675
48.168898
34.436584
21.309853
15.177727
10.002851
7.798672
6.303787
6.060600
5.854964
5.721450
5.482435
5.323887
5.602837
5.420446
5.324483
5.242825
5.164742
5.182624
5.074739
##ZVALUE=330
1.041889
1.044869
1.010895
0.947714
1.053810
1.176000
1.048446
1.018643
1.100898
1.142621
1.257658
1.200438
1.148582
1.257658
1.212955
1.171827
1.202822
1.166463
1.243949
1.430511
1.299977
1.363754
1.440644
1.532435
1.407862
1.472831
1.551509
1.529455
1.757741
1.660585
1.874566
2.004504
2.079606
2.348423
2.254844
2.459884
2.388954
2.857447
2.770424
2.817512
2.979636
3.527999
3.760457
4.193783
4.554987
5.305409
6.779432
34.006834
113.309622
386.567712
755.952001
1015.589833
1015.589833
1015.589833
1015.589833
1015.589833
1015.589833
1015.589833
1015.589833
1015.589833
1015.589833
495.736599
239.930749
74.130893
25.055408
12.092590
11.360645
11.868477
13.955832
20.137429
28.422475
41.784644
55.525899
73.520541
84.240437
92.873573
92.329979
85.285902
75.550675
57.988763
44.229627
29.477477
21.781921
14.031529
10.418892
7.752776
6.501675
5.810857
5.526543
5.419850
5.065799
5.170703
5.192757
4.965663
4.892945
5.094409
##ZVALUE=335
1.009703
1.058578
1.050830
1.078844
1.045465
1.013875
1.016855
1.042485
0.947714
1.161695
1.096725
1.092553
1.117587
1.156926
1.156926
1.235604
1.218915
1.350641
1.322627
1.312494
1.345873
1.299977
1.441836
1.333952
1.423955
1.389980
1.422763
1.513958
1.654625
1.562834
1.536608
1.749992
1.731515
1.960993
1.960993
2.147555
2.080798
2.353787
2.304912
2.560616
2.975464
2.866983
2.919436
3.393888
3.541708
3.861785
4.189610
4.786849
5.409718
14.555454
58.310628
239.579678
515.361428
1015.594006
1015.594006
1015.594006
1015.594006
1015.594006
1015.594006
1015.594006
1015.594006
1015.594006
1015.594006
700.731874
361.080766
118.653774
39.396882
13.018847
11.110902
10.961890
11.513829
14.453530
18.418431
27.844906
38.367510
54.221749
66.471696
78.028440
84.722638
85.420609
80.224872
67.658424
56.710839
41.185617
31.459928
20.790696
14.707446
9.909868
7.653832
6.120801
5.603433
5.459785
5.106926
4.813671
4.879832
4.611611
##ZVALUE=340
0.965595
0.993609
0.934601
0.931621
0.969768
1.040697
0.999570
1.057982
0.988841
0.939965
1.049638
1.131892
1.009703
1.021624
1.078844
1.131892
1.126528
1.243949
1.225471
1.219511
1.327991
1.338720
1.319647
1.370907
1.316667
1.165867
1.349449
1.325607
1.623631
1.455545
1.631975
1.760721
1.637936
1.702905
1.747608
1.898408
1.855493
2.020597
1.987815
2.130866
2.282858
2.401471
2.706647
2.585649
2.866983
3.035665
3.227592
3.772974
3.934503
4.394650
4.813671
7.618666
26.884675
142.374635
355.069041
888.285637
1015.584469
1015.584469
1015.584469
1015.584469
1015.584469
1015.584469
1015.584469
1015.584469
1015.584469
859.767795
461.394787
168.964863
60.920715
15.773773
11.844635
11.158586
10.912418
12.071729
13.739467
18.454790
24.410486
37.225485
48.264861
63.221455
72.645545
79.217553
80.366731
74.678659
67.110658
52.967668
42.779446
29.655695
21.706820
14.433861
10.190606
7.259846
5.961657
5.311966
4.861951
5.108714
##ZVALUE=345
0.731945
0.693798
0.794530
0.606775
0.703931
0.770688
0.789762
0.742674
0.818968
0.725985
0.696778
0.729561
0.754595
0.791550
0.877976
0.999570
1.020432
0.856519
0.891685
0.860691
0.961423
0.858903
0.904799
1.041889
0.976920
1.048446
1.120567
1.107454
1.182556
1.192689
1.335740
1.387596
1.232624
1.439452
1.535416
1.567602
1.431704
1.596808
1.762509
1.701713
1.661777
1.874566
2.002716
2.100468
2.239943
2.392530
2.573729
3.003478
3.030896
3.515482
3.506541
3.991723
4.263520
5.208850
11.448860
78.764558
223.326683
604.509711
1001.694798
1015.337706
1015.337706
1015.337706
1015.337706
1015.337706
1015.337706
1015.337706
1015.337706
1015.337706
633.484721
239.070654
97.369552
26.187897
13.282895
11.213422
10.693669
9.766817
9.776950
11.376739
14.582872
23.192763
31.722784
45.306683
55.131912
65.329671
71.187615
73.596835
70.662498
62.134862
53.226948
40.531754
31.143427
20.562410
14.549494
9.857416
7.193685
5.908608
##ZVALUE=350
0.894666
0.963807
0.948906
0.963807
0.962615
1.068711
1.087785
0.996590
1.145601
1.090765
1.083612
1.109838
1.148582
1.048446
0.987649
1.076460
1.070499
1.068711
1.054406
1.207590
1.308918
1.281500
1.335740
1.348853
1.287460
1.310706
1.258850
1.489520
1.607537
1.381636
1.297593
1.538992
1.493692
1.413822
1.487732
1.614690
1.547933
1.634955
1.814961
1.772642
1.917481
1.914501
2.079606
2.290606
2.229810
2.154708
2.507567
2.643466
2.649426
2.902746
3.005862
3.522635
3.594756
3.969669
4.663467
4.981756
6.730556
37.918687
124.096870
396.359563
782.397985
1015.589833
1015.589833
1015.589833
1015.589833
1015.589833
1015.589833
1015.589833
1015.589833
1015.589833
821.911693
348.667502
153.200626
36.307573
14.753938
10.528564
10.073781
8.883476
8.348823
8.606911
10.165572
14.761686
19.392967
29.411912
37.808418
50.168633
58.973432
64.219832
68.085790
65.204501
57.948828
47.915578
39.537549
28.861761
21.964908
14.376640
##ZVALUE=355
1.115799
1.168847
1.172423
1.222491
1.139641
1.083612
1.221895
1.098514
1.113415
1.141429
1.113415
1.254678
1.269579
1.192689
1.253486
1.282692
1.258850
1.191497
1.147985
1.293421
1.198649
1.244545
1.293421
1.312494
1.474619
1.387596
1.452565
1.480579
1.402497
1.459718
1.420975
1.440644
1.552701
1.492500
1.475811
1.735687
1.864433
1.712441
1.854897
1.815557
1.742840
2.030730
2.022982
2.244711
2.262592
2.200603
2.544522
2.598763
2.572536
2.565980
2.797842
2.978444
3.300905
3.232956
3.606677
3.904700
4.389882
4.828572
5.473495
17.604828
66.830516
270.479918
561.425686
1015.655994
1015.655994
1015.655994
1015.655994
1015.655994
1015.655994
1015.655994
1015.655994
1015.655994
982.378721
443.995595
201.758742
53.433776
18.516779
10.317564
9.334683
8.470416
8.295774
7.802844
8.115768
9.534955
12.225509
17.682910
24.249554
41.591525
42.666793
51.542521
58.231950
61.026812
59.884787
54.513812
47.143698
36.621690
##ZVALUE=360
1.073480
0.884533
1.023412
1.085997
1.134872
1.104474
1.058578
1.088977
1.154542
1.117587
1.129508
1.146793
1.106858
1.092553
1.259446
1.227856
1.291633
1.102686
1.335740
1.328588
1.299977
1.248717
1.285672
1.368523
1.268983
1.428723
1.323819
1.320839
1.381636
1.424551
1.507998
1.446605
1.352429
1.626611
1.496673
1.572967
1.530647
1.784563
1.737475
1.596808
1.768470
2.008677
2.015829
1.926422
2.125502
2.175570
2.188683
2.289414
2.375841
2.558827
2.766848
2.603531
2.811551
3.072619
3.277659
3.382564
3.825426
3.897548
4.394650
4.886985
5.392432
8.540750
29.099584
140.804648
352.150798
875.685811
1015.589833
1015.589833
1015.589833
1015.589833
1015.589833
1015.589833
1015.589833
1015.589833
1015.589833
634.334683
319.675803
97.075701
32.925606
11.223555
9.561777
8.580685
7.934570
7.295609
7.102489
7.132888
8.158684
10.311604
13.558865
20.273924
26.698709
37.364960
44.320822
52.305460
55.204630
55.486560
##ZVALUE=365
1.065731
1.044869
1.143813
1.123548
1.040697
1.117587
1.076460
1.032948
1.191497
1.147985
1.209974
1.003742
1.140833
1.104474
1.240969
1.295805
1.130700
1.226664
1.285672
1.116991
1.157522
1.278520
1.215935
1.343489
1.286864
1.315475
1.358986
1.307726
1.342893
1.401901
1.580715
1.431704
1.441836
1.350641
1.630783
1.589656
1.540780
1.630783
1.610518
1.749992
1.847744
1.875758
1.770854
1.850724
1.977682
1.945496
2.007484
1.994967
2.121925
2.322793
2.297759
2.369881
2.560616
2.809763
2.718568
2.965927
3.076792
3.222823
3.613830
3.845692
4.049540
4.703999
5.205870
6.004572
12.589693
77.753663
215.710998
574.197769
994.553566
1015.589833
1015.589833
1015.589833
1015.589833
1015.589833
1015.589833
1015.589833
1015.589833
861.060023
461.501479
156.208873
54.940581
13.262630
9.321570
8.018613
7.707477
6.950498
6.795526
6.416440
6.415844
6.931424
8.370876
12.331605
16.358495
23.640990
30.435920
39.198995
##ZVALUE=370
1.066923
1.071692
1.195669
0.998974
1.019835
1.023412
1.044869
0.926852
0.994802
1.160502
1.054406
1.094937
1.100898
1.149774
1.064539
1.120567
1.052618
1.242757
1.296997
1.265407
1.168847
1.135468
1.144409
1.251698
1.296997
1.268983
1.233816
1.262426
1.193881
1.201630
1.228452
1.262426
1.383424
1.428723
1.453757
1.444817
1.557469
1.566410
1.537800
1.750588
1.578927
1.646876
1.715422
1.747608
1.834631
1.835823
1.796484
1.986623
1.966953
1.815557
2.037883
2.206564
2.273917
2.165437
2.355576
2.666712
2.703667
2.827644
2.884865
2.943873
3.087521
3.483891
3.829598
4.157424
4.607439
5.147457
7.322431
39.821863
134.794712
421.773791
807.891488
1015.589833
1015.589833
1015.589833
1015.589833
1015.589833
1015.589833
1015.589833
1015.589833
986.837745
588.771701
222.747922
90.410709
21.853447
9.979606
7.779598
7.275939
6.862879
6.543994
5.987883
5.872846
5.794764
6.179810
7.535815
9.880662
14.419556
##ZVALUE=375
0.993609
0.929832
0.972748
0.878572
1.076460
0.949502
0.984669
1.008511
0.938773
1.121759
1.130700
0.985861
0.984669
1.143813
1.041889
1.074672
1.031756
0.986457
1.089573
0.962615
1.077652
1.139641
0.978708
1.162887
1.055598
1.226664
1.234412
1.225471
1.134872
1.243949
1.307726
1.167655
1.257658
1.349449
1.397729
1.265407
1.374483
1.404881
1.497865
1.607537
1.345873
1.560450
1.596808
1.524687
1.574755
1.641512
1.630783
1.684427
1.748800
1.899600
1.854897
1.786947
1.883507
1.970530
1.999736
1.980662
2.217889
2.338886
2.359748
2.317429
2.521873
2.658963
2.856851
3.162622
3.358722
3.668666
3.964901
4.538894
5.419850
18.616915
68.492889
253.206491
549.196005
1015.589833
1015.589833
1015.589833
1015.589833
1015.589833
1015.589833
1015.589833
1015.589833
1015.589833
810.463428
386.933684
184.770823
50.710440
16.612411
7.959604
7.030964
6.664991
6.345510
5.707741
5.559921
5.384684
5.132556
5.286932
##ZVALUE=380
0.960827
0.738502
0.949502
0.954866
0.753999
0.850558
0.812411
0.854731
0.983477
0.960827
0.831485
0.975728
0.888705
0.992417
0.900626
0.887513
0.955462
0.861883
0.824928
1.076460
1.103878
0.937581
1.133680
1.099706
1.011491
0.954866
1.041889
1.233816
1.091957
0.969768
0.948906
1.170635
1.243949
1.342893
1.015663
1.324415
1.354814
1.395941
1.496673
1.532435
1.403689
1.413822
1.647472
1.457930
1.526475
1.637936
1.726747
1.601577
1.797676
1.779795
1.868606
1.865625
1.913905
1.953840
2.034903
2.069473
2.152920
2.188683
2.177954
2.367496
2.355576
2.447963
2.466440
2.600551
2.694726
2.955794
3.306866
3.696680
4.269481
5.023479
5.554557
9.847879
36.479831
183.245540
429.131985
965.956450
1015.589833
1015.589833
1015.589833
1015.589833
1015.589833
1015.589833
1015.589833
1015.589833
1015.589833
535.246730
267.067552
84.918737
29.136539
9.567738
7.344484
6.643534
6.273985
5.824566
5.711913
5.291700
##ZVALUE=385
0.852942
0.882745
0.849962
0.830889
0.789762
0.770688
0.727773
0.819564
0.904799
0.834465
0.936985
0.839829
0.798702
0.946522
0.884533
0.812411
0.859499
0.935793
0.832677
0.825524
0.989437
0.858903
0.937581
0.907779
1.060963
1.161695
1.111627
1.033545
1.200438
1.275539
1.241565
1.123548
1.326799
1.387596
1.171827
1.198649
1.444817
1.383424
1.476407
1.535416
1.683831
1.706481
1.712441
1.422763
1.650453
1.849532
1.806617
1.831651
1.716614
1.833439
2.019405
2.039671
2.118945
2.093911
2.137423
2.146959
2.077818
2.274513
2.275705
2.357960
2.321601
2.417564
2.559423
2.415776
2.578497
2.935529
2.971888
3.338456
3.526807
3.967881
4.369617
4.666448
5.268455
6.246567
16.736388
101.537704
267.637968
681.724548
1015.589833
1015.589833
1015.589833
1015.589833
1015.589833
1015.589833
1015.589833
1015.589833
1015.589833
820.969939
456.612706
177.833438
65.604448
14.158487
7.744431
6.854534
6.055832
5.500913
##ZVALUE=390
0.895858
0.814795
0.843406
0.772476
0.873804
0.754595
0.910759
0.660419
0.851750
0.729561
0.818968
0.760555
0.901818
0.728965
0.995994
0.909567
0.822544
0.855923
0.911951
0.917912
0.991821
0.916719
0.930429
0.938773
1.062751
1.149774
1.069903
1.151562
1.193881
1.201630
1.250505
1.253486
1.448989
1.276731
1.455545
1.455545
1.543760
1.578927
1.634955
1.771450
1.621842
1.962781
1.656413
1.778603
1.921654
2.017617
1.844764
1.940727
2.018809
2.125502
2.233982
2.282858
2.312660
2.297759
2.594590
2.569556
2.492666
2.558827
2.535582
2.642870
2.597570
2.604723
2.882481
2.790689
2.922416
3.164411
3.047585
3.405809
3.486872
4.112720
4.106760
4.443526
4.526973
4.463792
4.828572
5.392432
8.742809
53.235888
173.096061
535.499454
968.138576
1015.583873
1015.583873
1015.583873
1015.583873
1015.583873
1015.583873
1015.583873
1015.583873
1015.583873
697.587729
274.065733
115.606785
25.648475
9.609461
6.898642
##ZVALUE=395
0.883937
0.822544
0.932813
0.855923
0.838637
0.772476
0.823736
0.842810
0.775456
0.608563
0.922680
0.742674
0.870824
0.768900
0.763535
0.833869
0.807643
1.023412
0.872612
0.996590
0.765920
0.926852
1.086593
0.923872
1.082420
0.851750
1.037717
1.122952
1.111627
1.210570
1.298785
1.217723
1.348853
1.400709
1.393557
1.467466
1.419783
1.494884
1.664758
1.775622
1.952648
1.870990
2.146959
2.101660
2.239943
2.182722
2.353787
2.508759
2.319813
2.389550
2.577901
2.587438
2.582669
2.571940
2.917647
2.803802
2.728701
2.598763
2.876520
2.855659
2.830625
2.783537
2.974868
3.055930
2.843738
2.895594
3.212690
3.395677
3.429651
3.917813
4.042983
4.084706
4.143715
4.209876
4.141927
4.482865
4.558563
4.860759
5.845428
27.725697
104.784966
379.777551
751.991868
1015.589833
1015.589833
1015.589833
1015.589833
1015.589833
1015.589833
1015.589833
1015.589833
1015.589833
938.770771
435.503721
201.325417
57.320595
##ZVALUE=400
0.834465
1.017451
0.837445
0.758767
0.641942
0.741482
0.755787
0.778437
0.836849
0.828505
0.746846
0.640750
0.788569
0.913739
0.678897
0.646710
0.885725
0.810623
0.882745
0.723600
0.700951
0.794530
0.866652
1.026988
0.914931
0.819564
0.929832
0.925660
0.979900
1.130700
1.012683
1.037717
1.258850
1.282692
1.289845
1.368523
1.467466
1.657605
1.660585
1.842976
1.846552
1.842976
2.038479
2.134442
2.116561
2.313852
2.391934
2.339482
2.525449
2.663732
2.659559
2.723932
2.667904
2.834797
2.967715
2.912879
2.816916
3.047585
3.031492
3.069639
2.990961
2.974868
3.087521
3.107786
3.132820
3.144741
3.173947
3.456473
3.720522
3.637671
3.805757
4.087687
3.833771
3.733635
3.741980
3.747940
3.742576
3.969669
4.196763
4.777908
5.296469
15.601516
59.014559
221.982002
490.193963
1012.933850
1015.510559
1015.510559
1015.510559
1015.510559
1015.510559
1015.510559
1015.510559
1015.510559
1015.510559
635.416508
##END
