##TITLE=D2-2
##FORMAT=SPECTACLE-ASCII V-1.2
##DATA TYPE=ULTRAVIOLET SPECTRUM
##SECOND TYPE=ULTRAVIOLET SPECTRUM
##DATE=01/24/18
##TIME=13:55:44
##SPECTROMETER/DATA SYSTEM=SPECTACLE
##XUNITS=NM EM
##YUNITS=ENERGY
##YFACTOR=1
##FIRSTX=220
##LASTX=410
##NPOINTS=96
##3DDATA=Equidistant
##ZUNITS=NM EX
##FIRSTZ=210
##LASTZ=400
##ZPOINTS=39
##XYDATA=(Y..Y)
##ZVALUE=210
25.602579
26.356578
18.567443
14.662743
10.912418
10.222793
10.659695
9.972453
7.198453
7.283688
5.162954
4.782677
4.051924
4.655719
4.468560
5.124807
5.274415
4.963875
5.358458
6.460547
5.492568
5.776882
6.495714
7.317662
7.808805
9.609461
9.110570
9.919405
10.856986
12.537837
11.728406
13.627410
14.679432
15.569925
17.095804
17.809868
20.835996
22.330880
23.883581
26.087761
28.773546
29.722452
31.747818
35.215616
36.334991
37.555695
41.698813
44.406652
46.430826
47.226548
48.413873
51.569939
52.491426
53.822994
57.646632
56.968927
54.369569
55.434704
57.946444
56.357980
54.910779
57.212710
50.129890
51.492453
48.558712
48.713684
50.555468
51.269531
53.442717
52.270889
56.382418
59.551001
63.119531
63.236952
62.700510
65.762997
65.594912
59.817433
58.938861
55.014491
50.458908
44.570565
40.703416
35.371780
31.123757
26.920438
23.542643
20.577908
21.324754
23.887753
26.474595
30.635595
38.365722
44.108629
53.933859
59.270859
##ZVALUE=215
89.136958
89.538693
72.179437
55.124760
36.461949
26.683807
19.371510
17.991662
16.955733
15.806556
14.534593
11.340976
8.245707
7.403493
6.821752
5.347729
5.991459
6.174445
5.969405
6.362796
6.313920
7.032752
7.567406
8.945465
8.442998
9.841919
10.316968
10.755658
11.572838
13.979673
14.364719
16.443729
17.146468
18.639565
18.567443
22.446513
24.404526
27.308464
29.358864
33.671856
35.268664
39.912462
41.613579
46.639442
50.015450
54.750443
59.127808
62.066913
67.887902
74.566603
74.663758
78.290701
82.557797
83.135962
85.060596
88.079572
87.589622
86.048841
87.296963
87.514520
85.555911
82.137585
83.365440
78.886747
77.039599
77.644587
74.262619
71.951747
69.123507
71.500540
69.756508
74.863434
74.573755
73.538423
76.338649
73.659420
74.604750
66.354871
65.196753
60.257912
53.136945
50.424933
43.562651
37.541986
35.589933
30.348897
29.735565
25.895834
24.717450
24.267435
21.887422
20.427704
20.338893
21.438599
23.666620
31.131506
##ZVALUE=220
204.797983
210.165977
205.117464
189.894438
157.868862
112.259984
83.934665
53.963661
35.181642
31.644702
27.329922
25.665760
23.914576
22.006631
17.168522
13.071895
9.514689
8.964539
7.882714
8.002520
7.650852
7.839799
8.385777
8.038878
9.846687
11.334419
11.242628
13.178587
14.315844
14.321804
15.760660
17.198920
19.942522
22.276640
23.965836
27.914643
31.548738
37.643909
42.467713
48.981905
54.674745
58.968663
65.512657
72.254539
80.090761
91.281533
92.146993
108.317733
112.643838
117.664933
125.365853
125.307441
135.934949
139.074922
140.261650
146.545768
144.758821
149.020553
146.726966
143.053532
139.048696
137.643814
128.865838
128.386617
126.553774
121.032596
119.171739
114.511847
112.589598
109.627843
107.961893
110.132694
106.393695
104.673505
100.995898
96.803904
94.775558
91.739893
83.382726
76.587796
69.661736
64.096451
57.897568
53.937435
47.316551
44.061542
38.813949
34.788847
32.448769
30.879974
27.087927
27.063489
26.259422
24.210811
22.129416
21.431446
##ZVALUE=225
273.436904
290.419459
340.487957
400.872827
414.050817
376.382470
325.962901
237.146616
161.021948
113.329887
66.880584
47.522783
42.430758
43.122768
44.167638
37.025809
31.983852
25.488734
18.986464
14.047623
10.714531
10.052919
8.744597
8.453727
10.718703
10.491610
11.366606
12.381673
12.363791
12.946725
15.618801
17.529726
20.981431
23.714900
30.484796
35.755634
42.102933
46.573877
54.130554
62.023997
68.403482
82.029700
90.071559
105.238557
112.863779
127.687454
138.600469
146.237612
159.341693
167.123675
188.213587
192.224979
197.244883
209.733844
215.505958
214.336514
215.210915
211.247802
211.724639
213.232636
208.866000
207.223892
197.152495
195.624828
184.419751
179.028511
172.731876
171.004534
157.601833
155.725479
154.812932
148.795843
145.789981
142.046809
129.786730
128.413439
119.494796
108.677745
101.562738
95.037818
87.367892
78.050494
76.356530
66.930652
61.774850
55.961609
51.186681
48.490763
42.039752
41.539669
36.862493
36.561489
32.677650
32.515526
29.795766
28.067827
##ZVALUE=230
186.131001
199.705958
310.761929
471.825600
587.761998
692.853928
740.286708
709.057450
622.040629
504.533648
319.805741
210.285783
116.180778
83.552003
66.369772
68.391562
67.720413
64.986944
53.905845
47.393441
33.974648
23.924708
18.695593
13.032556
11.689663
11.313558
12.764931
12.390614
13.400912
14.952421
15.443563
17.158985
20.489693
24.909973
31.681657
37.009716
44.755936
53.292513
60.295463
75.252652
88.476539
97.273588
110.873580
120.866895
135.627985
161.669850
171.297789
185.426474
194.624662
211.500525
219.402909
229.514837
244.596004
250.073671
249.449611
262.750983
261.974931
267.562866
265.191793
264.813900
256.280899
240.121484
239.746571
236.610770
225.200653
213.191509
210.258961
195.288658
191.923976
182.725787
176.973939
171.226859
162.865520
155.349970
149.134994
141.768456
136.951804
128.754973
119.624734
108.816624
104.609728
89.549422
81.398487
75.236559
70.380569
64.217448
56.755543
52.791834
52.445531
46.210885
43.001771
40.770769
38.277507
36.049485
35.205483
32.296777
##ZVALUE=235
49.610734
57.080984
118.823647
277.552009
447.747707
692.762733
908.491611
1015.589833
1015.589833
1015.589833
1015.589833
860.964656
546.136498
374.950767
217.729807
136.353970
96.736550
93.051791
97.442865
96.303821
89.192986
75.290799
61.864853
46.799779
32.538772
21.996498
19.113421
17.066598
16.657710
14.539957
16.779900
18.600821
21.746755
25.555491
29.912591
38.732886
42.682886
51.133633
59.725642
67.894459
76.220632
90.071559
100.764632
113.937855
122.404695
138.283968
145.442486
163.631439
174.424648
186.708570
198.848844
203.055739
215.982795
219.013691
224.391818
223.969817
221.386552
225.182772
230.897665
227.436423
226.314664
219.932795
222.933888
207.452774
198.152661
191.221833
190.119743
181.114674
175.125003
170.954466
162.405968
160.719752
150.531530
144.581795
138.583779
134.442449
126.079917
117.028952
107.499957
95.395446
91.396570
86.361766
77.439547
72.476864
64.750910
62.591434
56.052804
50.511956
47.597885
45.968890
42.481422
38.935542
36.242604
35.644770
34.293532
31.367540
##ZVALUE=240
4.638433
4.615784
19.851923
56.519508
161.220431
295.957923
594.110489
893.520713
1015.589833
1015.589833
1015.589833
1015.589833
1015.589833
1015.589833
953.083634
576.641560
373.590589
202.657580
142.926574
119.674802
125.283599
133.097768
127.202868
114.803910
93.177557
78.277588
56.924820
43.902993
32.857656
28.541684
23.483634
22.310615
22.971630
26.048422
29.413700
34.332871
36.547780
41.143894
47.547817
52.992702
55.849552
64.934492
69.895983
81.790686
88.865757
96.765757
106.926560
112.883449
120.782852
126.576424
137.189627
141.581893
153.235793
155.273676
159.519911
154.848695
160.253644
159.678459
160.005689
157.412887
153.928995
155.158639
151.274800
144.689679
142.746568
135.245919
130.339861
128.568411
123.096704
120.471716
118.866563
119.352937
109.613538
111.819506
109.930634
102.484822
99.542737
90.529919
85.615516
78.693628
70.404410
62.822700
59.821606
56.844950
53.783655
48.043728
44.721961
41.680932
40.739775
36.679506
35.476685
33.855438
33.234954
30.698776
29.351711
27.077794
##ZVALUE=245
3.156662
3.361702
3.719926
3.814697
11.661649
33.393502
122.927427
259.761810
573.635697
886.788964
1015.589833
1015.589833
1015.589833
1015.589833
1015.589833
1015.589833
1015.589833
826.619864
544.912815
281.964540
176.929832
131.645799
127.271414
142.558813
147.003531
139.820576
126.699805
108.489990
90.317726
67.559481
54.805875
40.454865
32.546520
27.647614
28.294921
28.139949
30.329823
33.150911
34.316778
36.027431
39.967895
47.239661
48.507452
53.223968
58.147907
65.913796
70.122480
77.274442
81.001520
85.525513
89.267492
94.835758
99.680424
103.294849
106.114745
105.370879
109.223723
110.065937
109.292865
105.258822
107.480884
104.892850
102.497935
99.543929
98.034739
93.823671
94.295740
90.573430
86.914897
85.336566
84.772706
83.189607
86.757541
82.854629
80.862641
76.759458
71.519613
67.952871
63.117743
60.030818
53.813457
47.959685
46.577454
43.061972
40.165782
37.373900
36.406517
33.233762
32.287836
27.946830
29.108524
27.206540
26.875734
25.938749
24.831891
23.228526
##ZVALUE=250
2.814531
2.688766
2.800822
3.024936
3.426671
4.018545
6.469488
21.475554
91.573000
210.236907
414.568782
846.515894
1015.589833
1015.589833
1015.589833
1015.589833
1015.589833
1015.589833
1015.589833
1015.589833
717.046857
436.345935
206.397772
138.186812
123.682618
140.901804
154.538751
157.938600
152.680874
140.679479
121.013522
95.556974
76.809525
54.520965
44.113994
34.042001
31.599998
33.348799
33.646822
35.820603
39.010644
45.416951
47.495961
52.748919
58.322549
67.554712
69.961548
77.492595
83.258748
88.526607
93.309879
96.465945
100.138783
105.777979
108.034611
110.987425
110.992789
112.276673
113.108754
109.000802
111.212730
106.749535
104.293823
100.818872
99.545717
93.935728
91.649890
91.505647
86.712837
86.447597
85.608959
83.779693
82.372427
79.547763
76.794624
75.298548
70.658922
65.060854
59.244633
53.978562
51.288605
47.387481
41.207671
40.837526
37.878752
34.545660
32.987595
31.465888
30.056834
28.155446
26.746988
25.267601
25.007725
24.188757
23.060441
22.391677
##ZVALUE=255
2.619624
2.432466
2.590418
2.384782
2.896786
2.995729
2.747774
3.271699
4.500747
10.811687
59.425831
151.382685
311.860442
686.158538
1001.747847
1015.589833
1015.589833
1015.589833
1015.589833
1015.589833
1015.589833
1015.589833
967.035890
612.720847
292.601585
173.748732
121.265650
120.349526
144.473910
159.233809
164.770484
161.574483
149.298906
122.711658
104.321837
76.430440
62.290430
48.811436
46.347976
45.655966
47.068000
52.534938
59.407949
69.536567
73.832870
83.018541
88.240504
96.314549
107.068419
115.842819
117.963552
127.655864
128.799677
135.686994
139.872432
142.779946
145.361423
144.740939
142.049789
143.959522
140.567422
138.616562
133.576989
129.795671
128.789544
122.484565
120.916963
114.466548
111.356974
106.738806
103.000998
100.624561
96.988678
90.245605
89.089870
83.893538
77.903867
70.790648
69.127679
62.555671
57.733655
53.028464
50.160885
45.526624
43.165684
38.872957
38.572550
34.669638
33.274889
30.236840
29.410720
27.178526
25.762916
24.096966
23.233891
22.956729
##ZVALUE=260
2.221465
2.200603
2.669692
2.226830
2.525449
2.462864
2.666712
2.827644
3.416538
3.474951
4.154444
5.742908
20.936728
94.766617
212.971568
510.455370
847.491026
1015.592813
1015.592813
1015.592813
1015.592813
1015.592813
1015.592813
1015.592813
1015.592813
879.910588
484.027863
274.864435
132.620931
108.699799
116.128922
143.695474
159.085989
174.185634
173.968673
158.075690
139.503479
116.561651
100.578666
83.323717
74.885488
76.544881
81.034899
89.529753
97.898841
112.648606
119.139552
132.031441
143.154860
155.974627
164.899826
177.066922
180.335641
187.554955
188.366771
198.432803
198.232532
199.044943
199.504495
198.479891
196.318626
189.528465
188.106894
181.470513
177.237988
166.862607
159.682631
156.763792
147.555470
141.535997
136.824846
130.947828
124.101639
117.396712
112.494826
105.953813
98.199844
93.045831
84.161758
77.793598
73.487759
65.676570
60.922503
56.166649
54.015517
47.878623
46.341419
42.353868
40.344000
35.449862
35.030842
33.182502
31.510592
28.354526
25.812984
25.237799
##ZVALUE=265
2.179742
1.961589
2.142787
2.189875
2.351999
2.322793
2.878904
2.674460
3.011823
2.942681
3.385544
3.384948
4.004836
4.310608
10.928512
64.225793
160.132647
405.617952
725.376010
1015.585661
1015.585661
1015.585661
1015.585661
1015.585661
1015.585661
1015.585661
1015.585661
1015.585661
694.372654
398.141742
211.139917
107.829571
103.054643
131.926537
157.422423
183.176994
193.078518
196.937919
185.603499
168.178678
154.921412
141.087770
134.105682
131.888986
135.458708
151.297450
161.383748
176.795721
189.743638
209.169984
218.537450
233.461857
241.860747
250.047445
256.888866
262.004733
262.417793
264.265537
264.028907
263.017416
254.417658
252.290964
246.496797
237.257481
229.238868
219.810009
213.185549
202.751756
194.424987
184.357762
176.972747
166.163445
159.902573
149.796605
141.083002
131.479502
124.279857
112.857819
107.838511
97.967982
90.986490
83.069801
76.642632
72.183609
64.718723
58.386922
55.898428
51.824450
48.370957
44.299960
41.556954
37.457943
35.054684
32.477975
30.220747
29.357672
##ZVALUE=270
2.049804
2.111793
2.129674
2.181530
2.209544
2.206564
2.405643
2.510548
2.567768
2.523661
3.201962
2.921820
3.254414
3.613830
3.837943
4.161000
6.830692
23.945570
76.530576
262.631774
539.541841
1015.589833
1015.589833
1015.589833
1015.589833
1015.589833
1015.589833
1015.589833
1015.589833
1015.589833
1015.589833
552.608967
300.968885
134.295821
101.531744
121.914744
153.572559
193.566680
218.218565
236.810446
244.133472
241.344571
236.669779
222.600698
219.063759
215.298533
221.243501
232.789516
245.335698
263.808966
276.447535
292.168856
302.874446
315.111876
322.225690
328.672528
332.939625
334.078670
328.933597
327.803493
323.987603
317.925811
307.282805
300.530791
289.437771
277.098417
266.524553
250.577927
243.519545
229.961872
218.832493
205.248594
196.264982
185.052752
172.901750
161.354542
153.123736
141.263604
130.434632
117.188692
108.002424
99.979639
92.953444
84.972978
80.459714
73.067546
67.789555
62.414408
58.149695
52.465796
48.985481
44.326782
42.137504
37.265420
36.060810
34.067631
##ZVALUE=275
1.897812
1.942515
1.853704
2.324581
2.076626
2.081990
2.210736
2.447963
2.400875
2.736449
2.410412
2.581477
2.669692
2.924800
3.004670
3.454685
3.783703
4.396439
4.834533
12.882948
53.693652
157.446861
463.142991
864.017606
1015.599966
1015.599966
1015.599966
1015.599966
1015.599966
1015.599966
1015.599966
1015.599966
1015.599966
836.664438
481.149554
207.491517
130.307674
124.669671
152.989626
199.743509
232.904553
273.219943
294.653773
309.710503
319.886804
314.865708
311.877728
309.097767
307.237506
316.583514
325.724483
338.982940
350.365639
367.965698
373.302698
379.174948
382.518768
383.413434
383.147597
377.277732
373.603702
365.727544
354.976654
346.271992
331.924558
317.418575
307.278633
291.438699
277.979970
266.683698
253.970623
235.592723
225.638747
206.558704
197.194815
181.218982
171.991587
157.897472
145.441890
137.135983
125.115514
113.369823
107.245445
96.733570
92.298985
83.654523
76.576471
69.143772
65.110922
57.910681
53.867698
49.222708
46.204925
41.650534
38.456917
36.469698
##ZVALUE=280
1.825690
1.846552
1.904964
1.897812
1.846552
2.197623
2.248883
2.160668
2.184510
2.303720
2.211928
2.397895
2.631545
2.869964
2.904534
2.726912
3.391504
3.063679
3.823638
3.916621
4.629493
6.776452
39.873719
127.734542
386.875868
739.662647
1015.589833
1015.589833
1015.589833
1015.589833
1015.589833
1015.589833
1015.589833
1015.589833
1015.589833
1015.589833
693.867803
316.761732
183.717608
139.394999
159.598589
208.315849
247.460604
299.070477
331.817865
367.058516
380.669832
388.453603
388.087630
386.181474
380.801558
380.476713
379.676819
385.548472
387.715697
398.835540
398.284793
398.631692
400.509834
394.523740
387.165546
381.577611
372.596979
362.484455
346.504450
331.485868
318.968892
304.049850
288.344622
274.467468
258.978009
245.663524
231.612921
216.434598
203.782916
191.325545
176.101923
163.704753
151.744485
138.165951
129.766464
117.306709
109.278560
100.776553
91.960430
84.620714
78.122616
70.719719
67.415833
62.450767
56.393743
50.054789
46.929717
43.414831
41.007996
37.980676
##ZVALUE=285
1.687407
1.746416
1.710653
1.750588
1.832843
1.835823
1.936555
2.245903
2.255440
2.035499
2.246499
2.039671
2.338886
2.596974
2.394915
2.834797
2.783537
2.795458
3.066659
3.268719
3.574491
3.891587
4.578829
5.270839
16.182661
60.323477
219.829679
464.850664
973.633528
1015.589833
1015.589833
1015.589833
1015.589833
1015.589833
1015.589833
1015.589833
1015.589833
1015.589833
973.206162
498.347878
281.668901
165.918469
156.314969
196.034908
234.318972
291.970968
330.177546
374.501944
396.275520
417.990685
422.272682
417.991877
407.977700
394.493937
387.257934
378.111601
374.198556
371.855497
366.748571
359.623432
357.587934
346.872807
337.960720
329.816937
321.444869
302.660465
295.399427
278.724432
267.607570
254.279971
240.682960
225.575566
214.949846
202.239752
187.880993
172.373652
161.829591
150.198936
139.827728
128.430724
120.701790
109.040737
101.983547
93.050599
86.944699
78.716874
73.567629
66.956878
61.624646
55.923462
51.836967
47.611594
43.384433
39.647818
37.940741
34.953952
##ZVALUE=290
1.671910
1.616478
1.608729
1.716614
1.865625
1.678467
1.804829
1.846552
2.046824
2.005696
2.166629
2.166629
2.272725
2.037883
2.291799
2.237558
2.468824
2.563000
2.786517
2.823472
3.173947
3.359914
3.601909
4.075766
4.594922
4.882812
7.429719
23.658872
120.691657
298.233032
611.179471
1015.583873
1015.583873
1015.583873
1015.583873
1015.583873
1015.583873
1015.583873
1015.583873
1015.583873
1015.583873
717.548728
404.857993
201.503634
153.396726
170.006752
196.449757
239.456892
276.318789
322.406888
350.833535
374.368429
386.715531
384.597778
377.668738
349.320769
333.279967
315.351486
302.726626
287.110806
279.670954
270.474553
264.722705
256.460905
246.735811
240.644813
226.687789
218.446851
210.923553
197.928548
187.725425
177.457929
170.056820
158.501863
148.643851
138.250589
128.806829
118.958950
111.048818
101.611614
94.830990
86.858869
81.906915
73.422790
68.283677
62.212944
59.147477
54.003596
50.038695
45.774579
42.350888
38.665533
36.394000
32.660961
31.685829
28.645992
##ZVALUE=295
1.566410
1.576543
1.534820
1.578927
1.550913
1.730919
1.702905
1.721978
1.742840
1.640916
1.963973
1.930594
1.794696
1.927614
2.097487
1.928806
2.062917
2.325773
2.272725
2.367496
2.455711
3.050566
3.017783
2.951622
3.600717
3.779531
4.310608
4.667640
5.593896
13.216734
50.098896
218.992829
486.508012
1015.589833
1015.589833
1015.589833
1015.589833
1015.589833
1015.589833
1015.589833
1015.589833
1015.589833
1015.589833
932.705998
534.941554
237.152576
145.074725
123.157501
138.938427
166.717768
193.090439
230.166912
256.245732
283.377767
293.276906
296.321511
287.957788
267.482996
246.958733
220.780969
204.248428
182.888508
173.372626
161.952972
154.971480
149.452686
143.449903
137.411952
132.283568
124.628544
119.115710
113.593936
108.305812
100.702643
95.778704
88.676810
82.551837
77.809691
71.232915
66.537857
61.903000
56.343675
53.656697
48.208833
46.333671
42.446852
39.241910
36.517978
33.967495
30.936599
29.051900
26.580691
24.567842
22.511482
22.359490
20.401478
##ZVALUE=300
1.276731
1.455545
1.470447
1.467466
1.581907
1.600981
1.643896
1.650453
1.570582
1.447797
1.743436
1.941919
1.723766
1.767874
1.982450
2.011657
1.897812
1.935959
1.891851
2.196431
2.097487
2.497435
2.447963
2.735853
3.126860
3.340840
3.385544
3.658533
3.886819
4.483461
5.129576
6.207824
24.979711
99.179745
361.320972
727.424622
1015.589833
1015.589833
1015.589833
1015.589833
1015.589833
1015.589833
1015.589833
1015.589833
1015.589833
1015.589833
681.161880
365.582705
143.960714
86.867809
77.809691
88.752508
109.696984
127.732754
155.934691
175.781846
197.663903
208.354592
204.689503
196.099877
175.360441
152.739882
127.096772
111.455917
92.486739
81.683993
73.415637
68.043470
64.065456
60.666800
58.601499
56.960583
54.469705
52.060485
48.477650
46.932697
43.268800
40.427446
37.200451
35.225749
32.354593
30.276775
28.560758
26.493669
25.450587
24.323463
21.753907
20.858645
19.854903
18.592477
16.850829
16.329885
15.242696
14.370680
14.155507
13.765693
##ZVALUE=305
1.303554
1.241565
1.389980
1.241565
1.435876
1.460910
1.456738
1.640916
1.431704
1.413822
1.463890
1.539588
1.763701
1.463890
1.572967
1.868606
1.811981
1.763701
1.905560
2.018809
1.983643
2.190471
2.312660
2.357960
3.004670
2.676845
2.871752
3.202558
3.148913
3.383756
3.745556
4.173517
4.818439
5.761981
10.614991
69.587827
202.835798
600.261688
1010.218859
1015.589833
1015.589833
1015.589833
1015.589833
1015.589833
1015.589833
1015.589833
1015.589833
1015.589833
965.094566
440.178514
212.839842
73.825717
44.572949
45.060515
54.000616
70.402622
87.773800
110.584497
127.371550
147.264600
153.803825
152.896643
141.331553
123.197436
105.241537
79.691410
64.705610
48.149824
39.373636
33.455491
30.135512
28.452873
27.388930
26.255846
25.996566
24.416447
23.134947
22.044778
20.873547
18.659830
17.787814
17.007589
16.126633
15.018582
14.915466
13.806820
12.992620
12.850761
12.166500
11.556745
11.057854
10.699630
10.552406
10.281801
9.553432
9.128451
##ZVALUE=310
1.295805
1.260638
1.355410
1.236796
1.451969
1.474619
1.265407
1.243949
1.437664
1.477599
1.492500
1.514554
1.569986
1.471639
1.499653
1.551509
1.434684
1.640916
1.698732
1.800656
1.904964
1.912713
1.909733
2.122521
2.058744
2.414584
2.489686
2.236962
2.891421
2.724528
3.213882
3.461838
3.638864
4.002452
4.570484
5.387664
6.341934
29.024482
102.862716
362.523794
733.347535
1015.589833
1015.589833
1015.589833
1015.589833
1015.589833
1015.589833
1015.589833
1015.589833
1015.589833
1015.589833
669.971704
345.000625
112.131834
42.264462
24.597645
26.207566
34.617782
44.639707
64.058900
80.632567
102.532506
116.762519
126.229525
126.838684
115.965605
102.882981
82.897544
64.701438
45.224428
34.550428
25.468469
20.147562
17.163754
15.596747
14.223456
13.556480
12.660623
11.916757
10.916591
10.605454
10.391474
10.009408
9.260774
9.323955
9.170771
8.983612
8.960962
8.431673
8.547902
8.650422
7.892847
7.831454
7.624626
7.402897
7.535815
##ZVALUE=315
1.070499
1.220703
1.231432
1.197457
1.132488
1.373887
1.323819
1.297593
1.309514
1.270771
1.346469
1.373887
1.438856
1.444817
1.443624
1.349449
1.606941
1.535416
1.657605
1.584888
1.666546
1.881719
1.845956
1.995564
1.962781
2.152920
2.145767
2.325773
2.525449
2.609491
2.609491
2.755523
3.208518
3.246665
3.675818
3.955960
4.181862
4.642606
6.130934
10.233521
64.698458
193.025470
580.975413
1001.937985
1015.571952
1015.571952
1015.571952
1015.571952
1015.571952
1015.571952
1015.571952
1015.571952
1015.571952
964.549780
439.918637
195.582509
48.962831
21.174550
17.208457
19.653440
27.513504
36.024451
54.219961
67.673922
89.908838
103.086829
114.956498
115.390420
106.141567
92.260838
72.629452
58.627725
40.584803
29.968619
20.295978
14.858842
11.628866
9.824634
8.950830
8.413792
8.054972
7.518530
7.732511
7.313490
7.594824
7.029772
7.048845
6.956458
7.087588
7.035732
6.675720
6.822944
6.447434
6.695986
6.633997
6.608963
##ZVALUE=320
1.170635
1.220703
1.081824
1.249909
1.092553
1.260638
1.229644
1.125932
1.300573
1.084805
1.363754
1.362562
1.426935
1.353621
1.506805
1.473427
1.469851
1.564622
1.496673
1.436472
1.561642
1.730919
1.658797
1.654625
1.833439
1.863837
2.041459
1.990795
2.259612
2.331734
2.535582
2.439618
2.538562
2.783537
2.835989
3.236532
3.648996
3.967881
4.200935
4.967451
5.410910
7.377863
23.451447
132.160783
334.760547
876.801610
1015.591621
1015.591621
1015.591621
1015.591621
1015.591621
1015.591621
1015.591621
1015.591621
1015.591621
1015.591621
660.643578
267.025828
109.470487
28.691888
15.030503
14.779568
16.808510
23.092628
31.274557
46.877861
62.331557
83.550811
96.277595
106.894970
108.047724
101.086497
90.380907
69.284439
54.603815
36.020875
25.812984
16.610622
12.188554
9.075999
7.738471
7.053614
6.968975
6.627440
6.401539
6.059408
6.238818
5.868673
6.004572
5.910993
6.050467
5.978942
5.639791
5.649924
5.813837
5.935431
##ZVALUE=325
1.115799
1.023412
1.279712
1.149774
1.254678
1.176596
1.306534
1.284480
1.302958
1.396537
1.392961
1.414418
1.332760
1.211762
1.281500
1.396537
1.354814
1.511574
1.396537
1.429915
1.595616
1.590848
1.405478
1.683831
1.730919
1.848936
1.838803
1.987815
1.852512
2.090931
2.118945
2.203584
2.279878
2.525449
2.532601
2.856851
2.852678
3.182888
3.595948
3.781915
4.235506
4.354715
4.997849
6.048679
12.064576
82.802773
225.779414
611.676574
1012.916565
1015.619636
1015.619636
1015.619636
1015.619636
1015.619636
1015.619636
1015.619636
1015.619636
1015.619636
883.633494
367.474556
162.860751
41.715503
16.813874
12.757778
13.231635
16.002655
20.652413
30.831695
43.343902
62.692761
77.661872
92.241764
99.128485
100.852847
93.287826
79.191923
65.249801
47.409534
35.216808
22.193789
14.915466
9.905696
8.102655
6.746650
6.553531
6.051660
5.837679
5.834699
5.939603
5.589724
5.509853
5.532503
5.472898
5.252957
5.424619
5.333424
##ZVALUE=330
0.859499
0.773668
0.968575
0.872612
1.099706
0.980496
0.949502
0.971556
1.118779
0.964999
0.949502
1.045465
1.019835
1.055598
1.143813
0.893474
1.010895
1.193881
1.145601
1.299977
1.371503
1.193881
1.397729
1.405478
1.411438
1.626611
1.550913
1.774430
1.571774
1.518726
1.659989
1.930594
1.850724
2.020597
2.107620
2.184510
2.428889
2.607703
2.602935
2.734661
3.095865
3.611445
3.508925
4.060864
4.696846
5.270839
7.241964
34.063458
117.513537
405.304432
795.040727
1015.435457
1015.435457
1015.435457
1015.435457
1015.435457
1015.435457
1015.435457
1015.435457
1015.435457
1015.435457
522.765517
251.837969
77.565908
26.035905
12.239814
11.190772
12.199879
14.238954
21.091700
28.681755
42.117834
55.499673
72.979927
85.497499
92.950463
93.101859
86.037517
76.009631
58.604479
45.913458
30.131936
21.636486
14.028549
9.989738
7.645488
6.427765
5.893707
5.292892
5.466938
5.303621
5.022883
5.155802
5.181432
5.104542
5.069971
##ZVALUE=335
1.171827
1.048446
1.187921
1.035929
0.980496
1.192689
1.171827
1.254678
1.085997
1.120567
1.078844
1.315475
1.191497
1.173615
1.279712
1.410842
1.232624
1.290441
1.400709
1.523495
1.472831
1.443624
1.579523
1.552701
1.557469
1.376867
1.516938
1.627803
1.725554
1.675487
1.830459
2.099872
1.982450
2.078414
2.143979
2.169609
2.187490
2.256632
2.650619
2.784729
3.029704
3.085732
3.377795
3.606677
3.710985
3.987551
4.625916
5.122423
5.694628
15.676618
59.940815
247.330666
530.411601
1015.674472
1015.674472
1015.674472
1015.674472
1015.674472
1015.674472
1015.674472
1015.674472
1015.674472
1015.674472
743.441582
374.422669
113.543868
39.026737
13.981462
11.841655
11.684895
12.260675
15.028715
18.984675
29.112697
38.925409
54.670572
67.682862
79.201460
85.528493
85.763931
80.526471
68.338513
56.775808
43.504834
32.636523
21.431446
15.174747
10.083914
8.269548
6.495714
5.750656
5.428791
5.408525
5.274415
5.310774
5.276799
##ZVALUE=340
1.097918
1.025796
1.122952
1.145601
1.008511
0.963807
1.209974
0.909567
1.105666
1.041889
1.235604
1.118779
1.107454
1.152754
1.169443
1.072884
1.047850
1.125932
1.205802
1.263618
1.318455
1.351833
1.292825
1.237988
1.384616
1.312494
1.515746
1.496673
1.512766
1.533628
1.583695
1.552701
1.811981
1.883507
1.841784
1.982450
2.129674
2.124906
2.287626
2.278686
2.299547
2.548695
2.623796
2.915859
3.053546
3.392696
3.445745
3.944635
4.168749
4.765987
5.290508
8.142591
28.468966
151.619911
375.975966
930.837989
1015.589833
1015.589833
1015.589833
1015.589833
1015.589833
1015.589833
1015.589833
1015.589833
1015.589833
939.938426
496.440530
171.041489
60.402751
17.070770
12.196898
11.544824
11.372566
12.132525
13.469458
18.978715
25.537610
36.653876
48.038960
62.929988
72.891712
79.112649
80.936551
74.937940
67.019463
53.269863
42.151809
29.563904
21.977425
14.570951
10.364652
7.542968
6.475449
5.499721
5.307794
5.369782
##ZVALUE=345
0.937581
1.039505
1.080632
1.021624
1.003742
1.030564
1.118779
0.988841
1.054406
0.925660
1.051426
1.066923
1.012683
1.040697
1.117587
1.148582
1.015663
1.115799
1.103878
1.158714
1.275539
1.317859
1.218915
1.411438
1.402497
1.361966
1.264811
1.569986
1.447797
1.314878
1.566410
1.518726
1.691580
1.568794
1.674891
1.595616
1.771450
1.845956
1.970530
2.129674
2.171993
2.391934
2.308488
2.530813
2.490878
2.847910
2.881885
3.331900
3.255606
3.584623
3.878474
4.345775
4.650950
5.731583
12.316704
80.814958
232.527852
632.866025
1015.596986
1015.596986
1015.596986
1015.596986
1015.596986
1015.596986
1015.596986
1015.596986
1015.596986
1015.596390
679.008961
250.904560
104.328990
26.739836
14.440417
12.064576
11.210442
10.145903
10.662675
12.028813
15.333891
23.425817
32.252669
46.391487
56.069493
66.438913
72.270632
74.265599
70.516467
62.305927
52.903891
40.954947
31.566620
20.793676
15.423894
10.291934
7.920861
6.306767
##ZVALUE=350
0.986457
1.040697
1.105666
1.198649
1.171827
1.099706
1.209974
1.268983
1.105666
1.060963
1.253486
1.196861
1.273751
1.127720
1.170635
1.242757
1.049638
1.288652
1.296997
1.133680
1.253486
1.198649
1.349449
1.211762
1.253486
1.252890
1.377463
1.438856
1.320839
1.406670
1.503825
1.505613
1.639724
1.707673
1.639724
1.688600
1.794696
1.822710
1.867414
1.871586
2.052784
1.975894
1.960993
2.327561
2.567768
2.332926
2.513528
2.861619
2.884865
3.232956
3.526807
3.737807
3.721714
4.209876
4.753470
5.326867
7.171631
39.442778
131.677389
430.955887
822.609663
1015.632749
1015.632749
1015.632749
1015.632749
1015.632749
1015.632749
1015.632749
1015.632749
1015.632749
866.122842
381.853580
164.594650
38.352609
15.586615
11.105537
10.271668
8.942485
8.497834
9.330511
10.660887
15.212893
20.622611
29.184818
37.117600
50.696731
58.491826
66.190958
67.794919
65.193772
60.033798
48.296452
39.875507
27.972460
20.935535
14.318824
##ZVALUE=355
1.005530
1.006722
1.014471
0.925660
1.102686
1.218915
1.094937
1.164675
1.168847
1.183748
1.158714
1.208782
1.123548
1.317859
1.005530
1.077652
1.228452
1.229644
1.205802
1.362562
1.347661
1.368523
1.287460
1.458526
1.349449
1.355410
1.459718
1.424551
1.563430
1.421571
1.590848
1.415610
1.765490
1.719594
1.659989
1.625419
1.605749
1.944900
1.823902
2.102852
1.996756
2.056956
2.027750
1.929998
2.179742
2.213717
2.371669
2.506971
2.543926
2.636909
2.809763
3.157854
3.395677
3.573895
3.930926
4.078746
4.593730
5.386472
6.078482
18.387437
69.128871
276.698470
576.779842
1015.589833
1015.589833
1015.589833
1015.589833
1015.589833
1015.589833
1015.589833
1015.589833
1015.589833
989.971757
452.685952
211.811662
63.014627
20.923615
10.624528
9.643435
8.533597
8.164644
7.751584
8.172989
9.778738
12.026429
18.069744
23.869872
34.508705
42.782426
53.034425
58.209896
62.057972
59.850812
53.884983
47.301650
37.067533
##ZVALUE=360
1.067519
1.049638
1.132488
1.125932
1.103878
1.219511
1.107454
1.215935
1.077652
1.081824
1.170635
1.030564
1.217723
1.203418
1.355410
1.127720
1.172423
1.177788
1.237988
1.311898
1.354814
1.314878
1.196861
1.282692
1.350641
1.363754
1.274943
1.402497
1.443624
1.523495
1.530647
1.558661
1.615882
1.600981
1.541972
1.704693
1.826882
1.641512
1.722574
1.837611
1.970530
2.090931
2.111793
2.103448
2.214909
2.169609
2.244711
2.477765
2.246499
2.624989
2.837777
2.819896
2.920628
3.166795
3.385544
3.497601
3.779531
3.943443
4.454851
5.020499
5.714893
8.964539
29.673576
145.587921
361.365676
908.919573
1015.600562
1015.600562
1015.600562
1015.600562
1015.600562
1015.600562
1015.600562
1015.600562
1015.600562
646.919012
322.939754
107.332468
35.917759
11.789799
9.782910
8.973479
8.035898
7.536411
7.258654
7.520914
8.182526
10.544658
13.885498
20.761490
27.638674
37.483573
44.996738
52.692890
55.961609
56.507587
##ZVALUE=365
1.067519
1.011491
1.076460
1.056790
0.936985
1.135468
1.039505
1.111627
1.104474
1.121759
1.190901
1.163483
1.139641
1.133680
1.214743
1.141429
1.214743
1.152754
1.235604
1.385808
1.358986
1.226664
1.367927
1.360774
1.394749
1.495481
1.340508
1.390576
1.336932
1.322627
1.566410
1.532435
1.516938
1.440644
1.658797
1.482964
1.615882
1.650453
1.682639
1.705885
1.819730
1.956820
2.081990
2.037883
1.897812
1.830459
2.225637
2.041459
2.262592
2.318621
2.352595
2.478957
2.628565
2.948642
2.890825
2.983809
3.043413
3.349781
3.532767
3.934503
4.469752
4.911423
5.518794
6.291866
12.518764
75.289607
218.875408
621.884465
1015.589833
1015.589833
1015.589833
1015.589833
1015.589833
1015.589833
1015.589833
1015.589833
1015.589833
884.682536
471.912622
161.083937
58.178902
13.947487
9.559989
8.432865
7.900000
7.382631
6.700754
6.606579
6.845593
7.114410
8.764863
12.547970
16.601682
23.556948
30.470490
39.943457
##ZVALUE=370
1.163483
1.056790
1.131892
1.046658
1.024604
0.947714
1.045465
1.037717
1.028776
1.048446
1.058578
1.050830
1.010895
0.950694
1.183748
1.203418
1.169443
1.254678
1.309514
1.083612
1.107454
1.292825
1.270771
1.182556
1.167655
1.262426
1.302958
1.338720
1.407862
1.487732
1.398921
1.408458
1.518726
1.436472
1.604557
1.560450
1.580715
1.353621
1.664758
1.542568
1.708865
1.597404
1.625419
1.979470
1.873970
1.714826
2.074838
1.933575
2.019405
1.892447
2.072453
2.196431
2.246499
2.403855
2.381802
2.630949
2.664924
2.804995
2.794862
3.110766
3.303885
3.626943
3.830791
4.447699
4.760623
5.190969
8.343458
30.834675
166.560411
407.433510
948.824883
1015.589833
1015.589833
1015.589833
1015.589833
1015.589833
1015.589833
1015.589833
1015.589833
1015.589833
536.129475
264.216661
88.314414
30.668974
9.898543
8.277893
7.577538
6.889701
6.474853
6.012917
5.733967
5.892515
6.468892
7.442832
10.773540
14.131665
##ZVALUE=375
1.145601
1.008511
0.905991
1.102686
0.958443
0.961423
0.833869
1.068711
1.037717
1.043677
1.065731
1.158714
1.136661
0.934601
1.030564
1.035929
1.086593
1.034737
0.957847
1.071692
1.021624
1.214743
0.913739
1.061559
1.120567
1.084805
1.112819
1.202822
1.160502
1.421571
1.243949
1.311898
1.498461
1.387596
1.368523
1.413822
1.236796
1.482964
1.529455
1.560450
1.458526
1.599789
1.610518
1.614690
1.887679
1.409650
1.808405
1.786947
1.772642
1.909733
1.704693
1.891851
1.951456
2.112985
2.009869
2.158880
2.269745
2.200603
2.404451
2.573729
2.715588
2.836585
3.023744
3.279448
3.553629
3.755689
4.258752
5.167723
5.918741
18.748641
72.632432
277.396441
592.057705
1015.589833
1015.589833
1015.589833
1015.589833
1015.589833
1015.589833
1015.589833
1015.589833
1015.589833
868.079662
385.079980
180.512667
48.999786
16.320944
8.439422
7.742643
6.908774
6.382465
6.017685
5.707741
5.369782
5.367994
6.013513
##ZVALUE=380
1.005530
1.036525
0.816584
1.069903
0.932813
0.828505
1.059771
1.054406
0.856519
0.941753
0.993609
0.921488
1.003742
1.200438
0.948906
1.106858
0.886917
1.044869
0.974536
1.027584
1.013875
0.962615
1.027584
1.284480
1.127720
1.008511
1.166463
1.185536
1.237988
1.157522
1.070499
1.148582
1.218915
1.281500
1.334548
1.408458
1.430511
1.539588
1.470447
1.413822
1.729727
1.435876
1.630783
1.621842
1.611710
1.590848
1.769662
1.750588
1.840591
1.816750
2.045631
1.944900
2.010465
2.098680
2.085567
2.203584
2.133846
2.244711
2.344847
2.302527
2.372861
2.525449
2.710819
2.666712
2.727509
3.150702
3.356934
3.853440
4.409552
5.259514
5.677938
9.879470
37.604570
188.810825
442.957878
983.649492
1015.589833
1015.589833
1015.589833
1015.589833
1015.589833
1015.589833
1015.589833
1015.589833
1015.589833
591.057539
292.530656
91.027617
30.936599
9.985566
7.592440
6.879568
6.365776
5.694628
5.674958
5.367994
##ZVALUE=385
0.812411
0.888705
0.870824
0.954866
0.919700
0.762939
0.971556
0.897646
0.844598
0.870824
0.960827
0.941753
1.002550
0.963807
0.839829
0.865459
0.949502
0.911951
0.953674
1.091957
1.048446
0.798702
0.838637
1.072884
0.993609
0.998974
1.113415
1.102686
1.178980
1.223683
1.221895
1.158714
1.300573
1.212955
1.321435
1.464486
1.452565
1.429915
1.450777
1.677871
1.471639
1.512766
1.657605
1.818538
1.762509
1.896620
1.773834
1.950860
1.918674
1.868606
1.947880
2.083778
2.058744
2.236962
2.172589
2.277493
2.443790
2.357960
2.525449
2.430677
2.359748
2.437830
2.671480
2.737641
2.687573
2.996922
3.082752
3.589988
3.749728
4.211664
4.488826
4.933476
5.306602
6.531477
17.469525
105.293989
280.322433
714.496970
1015.589833
1015.589833
1015.589833
1015.589833
1015.589833
1015.589833
1015.589833
1015.589833
1015.589833
868.786573
477.459431
183.362961
67.704916
14.531612
7.802844
6.996989
6.576777
5.990863
##ZVALUE=390
0.895858
0.760555
0.899434
0.719428
0.852942
0.954866
0.814795
0.701547
0.897646
0.785589
0.775456
0.817776
0.910759
0.905991
1.080632
0.940561
0.828505
0.839829
0.788569
0.949502
0.874996
0.881553
0.947714
0.961423
1.035929
1.144409
1.115799
1.184940
1.132488
1.217723
1.253486
1.264811
1.337528
1.494884
1.411438
1.570582
1.605749
1.526475
1.757741
1.761913
1.733899
1.762509
1.841784
1.983643
2.001524
1.915693
2.108812
2.123713
2.157688
2.249479
2.402663
2.238750
2.413988
2.535582
2.550483
2.537966
2.616644
2.860427
2.758503
2.732873
2.842546
2.758503
2.588630
3.012419
2.741814
3.034472
3.431439
3.219843
3.624558
4.010797
4.268885
4.462600
4.872680
4.968643
5.162954
5.465746
9.062886
55.076480
172.675848
532.058477
964.325666
1015.589833
1015.589833
1015.589833
1015.589833
1015.589833
1015.589833
1015.589833
1015.589833
1015.589833
739.638805
289.962888
128.850937
32.019615
10.747910
7.419586
##ZVALUE=395
0.795722
0.878572
0.948906
0.814795
0.836849
0.730753
0.743866
0.791550
0.835657
0.872612
0.767708
1.002550
0.945926
0.922680
0.936985
0.926852
0.908971
0.791550
0.750422
0.953674
0.968575
0.991821
0.888705
1.041889
0.986457
0.924468
0.884533
1.063943
1.208782
1.262426
1.261830
1.361966
1.337528
1.282692
1.427531
1.421571
1.530647
1.760721
1.784563
1.781583
1.923442
1.986623
2.044439
2.269745
2.269745
2.300739
2.279878
2.447963
2.574921
2.336502
2.614856
2.769828
2.848506
2.762675
2.859831
2.914667
3.068447
2.859831
2.943873
3.075600
3.066659
3.011823
3.080964
3.063679
3.133416
3.242493
3.305674
3.761649
3.877878
3.970861
4.203916
4.290938
4.294515
4.333854
4.122853
4.516840
4.736781
5.112886
6.054640
29.639006
114.991665
404.954553
770.674944
1015.589833
1015.589833
1015.589833
1015.589833
1015.589833
1015.589833
1015.589833
1015.589833
1015.589833
978.896618
467.592478
214.633942
60.784817
##ZVALUE=400
0.833869
0.967979
1.006722
0.844598
0.685453
0.682473
0.902414
0.941753
0.812411
0.813603
0.781417
0.716448
0.887513
0.864863
0.943542
0.884533
0.803471
1.018643
0.897646
1.005530
0.906587
0.882745
0.926852
0.825524
0.966787
0.907779
1.062751
0.945926
1.029968
1.147985
1.523495
1.050830
1.176000
1.360774
1.393557
1.519918
1.639724
1.557469
1.871586
1.928806
2.116561
1.932979
2.205968
2.138615
2.543926
2.648830
2.591610
2.702475
2.841949
2.715588
2.877712
3.008842
3.106594
3.077984
3.188848
3.058910
3.082752
3.239512
3.165603
3.154874
3.296733
3.205538
3.058910
3.158450
3.185868
3.266931
3.483891
3.544688
3.707409
3.910661
4.186630
3.996491
4.181862
3.928542
4.124641
3.976822
4.095435
4.274845
4.570484
5.062819
5.611777
15.982985
60.329437
230.486989
505.051613
1015.589833
1015.589833
1015.589833
1015.589833
1015.589833
1015.589833
1015.589833
1015.589833
1015.589833
1015.589833
625.872016
##END
