##TITLE=D2-3
##FORMAT=SPECTACLE-ASCII V-1.2
##DATA TYPE=ULTRAVIOLET SPECTRUM
##SECOND TYPE=ULTRAVIOLET SPECTRUM
##DATE=01/24/18
##TIME=13:59:02
##SPECTROMETER/DATA SYSTEM=SPECTACLE
##XUNITS=NM EM
##YUNITS=ENERGY
##YFACTOR=1
##FIRSTX=220
##LASTX=410
##NPOINTS=96
##3DDATA=Equidistant
##ZUNITS=NM EX
##FIRSTZ=210
##LASTZ=400
##ZPOINTS=39
##XYDATA=(Y..Y)
##ZVALUE=210
26.840568
27.600527
21.090508
15.682578
13.406873
12.406707
11.184812
8.896589
7.535815
6.732941
6.121993
5.577803
4.803538
5.406737
4.637837
5.164742
6.023645
5.409718
5.000830
6.566644
6.645918
6.725788
7.131696
8.699894
9.498000
9.568930
10.504723
11.828542
11.754632
13.314486
14.325976
15.564561
16.120672
16.618967
17.692447
19.173622
21.281838
23.440719
25.463700
28.526783
29.376745
30.817986
35.443902
36.556721
38.543940
40.673614
43.331981
47.116876
49.867630
50.307512
54.539442
53.413510
56.598783
56.194663
57.269931
59.469938
56.521893
58.215857
57.191849
60.579777
56.630969
58.871508
56.532621
55.673718
54.615736
50.287843
52.573681
52.756667
55.075884
55.885911
59.338808
60.276985
66.320896
68.840981
69.091916
69.868565
68.761706
68.080425
60.373545
58.722496
53.090453
49.015880
41.742921
37.108660
31.240582
29.514432
24.150610
24.047494
24.330616
24.657845
27.568936
31.648874
40.941834
47.425628
58.552623
68.151951
##ZVALUE=215
97.217560
98.180771
76.863766
54.114461
39.295554
28.153658
22.543669
17.479658
18.585920
16.720891
15.057921
11.599660
9.468794
8.234978
6.105900
5.834699
5.781651
6.352663
6.278753
7.120967
6.626844
7.650852
8.421540
8.564591
10.922551
10.307431
11.703968
12.601614
15.107989
14.012456
15.301704
16.461611
18.968582
19.464493
21.811724
24.214983
26.363730
29.017925
32.581687
37.579536
38.979650
41.889548
43.585896
50.812960
54.148436
57.293773
59.220791
68.460703
71.631670
73.821545
78.690648
79.333782
84.021688
87.236762
89.559555
92.983842
91.462731
92.338920
93.528628
89.253783
89.872479
86.560845
86.471438
85.138679
81.767440
78.503489
75.790882
74.153543
75.163841
73.981881
76.092482
77.564716
78.901649
81.840754
77.730417
79.165697
80.259442
72.389841
67.671537
62.471628
60.325861
52.224994
47.244430
40.064454
37.528872
32.509565
31.031966
28.042793
25.613904
24.596453
24.129748
23.371577
22.621751
23.810863
28.838515
34.521818
##ZVALUE=220
233.210921
230.007768
228.500962
204.773545
171.033740
126.952529
91.206431
55.297613
39.786696
32.811761
27.251840
25.317669
23.252964
22.007823
16.738772
13.307929
10.831952
8.894801
8.016825
7.329583
8.035898
8.578897
8.948445
9.921789
10.288954
11.249781
11.797547
13.469458
14.022589
16.888976
17.262697
18.938780
20.551682
22.385716
25.144815
32.934546
35.769939
38.230419
43.119788
48.272610
52.056909
62.551498
67.703724
75.097680
83.122849
90.508461
99.438429
102.413893
113.539696
120.957494
127.566457
136.008859
142.830610
144.985914
149.731636
147.660971
148.578882
151.430964
149.466991
150.085688
145.362616
143.062472
138.220787
131.372809
133.943558
124.851465
119.196773
118.422508
115.474463
115.246773
112.233758
112.021565
110.962987
109.306574
110.811591
106.800795
99.865794
94.978809
90.378523
81.249475
77.401996
66.155791
61.547756
55.030584
49.508810
42.680502
39.931536
37.054420
34.993887
30.984879
31.024814
28.413534
26.675463
25.302768
25.297999
24.623871
##ZVALUE=225
297.522545
314.687490
383.014679
436.413884
440.250635
408.044457
360.029936
261.755586
181.496739
124.223828
68.891644
49.583912
43.899417
44.326782
39.467812
38.822889
29.677749
24.168491
18.163919
14.284849
10.752678
9.450912
9.498000
10.122657
10.099411
10.342598
12.550950
13.220906
14.482737
15.430450
14.333725
19.605756
22.155643
24.253726
31.255484
37.891865
41.486621
51.082969
55.633783
68.376660
78.947544
86.878538
95.907450
107.919574
116.456747
129.035711
140.394568
155.970454
165.108442
181.948543
187.933445
201.351643
204.506516
217.659473
221.532583
230.793953
226.465464
222.841501
227.809548
216.815472
215.557814
210.270882
207.157731
200.335979
193.990469
183.434486
182.434916
172.268748
166.694522
164.799690
157.804489
153.474808
151.579976
145.315528
142.607689
132.585764
125.701427
116.991997
108.579993
97.771883
93.081594
83.128810
72.991848
68.413615
64.003468
57.098866
52.733421
49.934983
44.521689
41.189790
39.972663
35.569668
36.032796
32.406449
30.222535
30.590892
##ZVALUE=230
202.137828
219.246745
338.075757
526.666641
657.684803
784.472823
834.480524
787.395835
689.292550
558.320880
355.690718
229.958892
125.265718
84.073544
66.629648
67.504644
66.409707
63.893795
58.552623
47.313571
37.493706
26.337504
18.848777
16.138554
13.110638
12.047887
12.096763
14.406443
13.111830
14.345646
15.881658
19.741654
21.735430
28.107762
33.800602
42.828918
46.415925
57.137609
68.246722
79.953671
91.598630
104.116797
114.156604
131.330490
144.563913
159.135461
173.165798
187.949538
208.590627
222.377777
233.768821
240.566730
245.010853
256.829858
262.883902
266.057849
272.190571
271.858573
272.156000
267.992616
266.774893
260.460973
253.540874
241.833925
238.863826
222.639441
219.634771
208.977461
196.264982
188.564658
184.018612
173.989534
170.408487
165.115595
159.471631
151.698589
144.372582
134.525895
124.003887
114.933848
108.954906
93.232989
85.770488
81.293583
70.503950
65.125823
60.596466
55.771470
53.771734
49.357414
47.486424
42.971969
38.931966
37.033558
34.646988
33.211708
##ZVALUE=235
55.003762
67.224503
137.132406
320.888758
516.767502
791.692734
997.666717
1015.589833
1015.589833
1015.589833
1015.589833
928.379893
603.379607
413.572788
235.729814
152.228475
101.307631
95.947981
100.170970
97.094774
91.584921
73.202848
61.563849
43.301582
32.338500
22.471547
18.091798
16.110539
14.978647
15.699863
18.075705
19.523501
22.209883
25.059581
30.996799
39.844513
46.987534
52.241683
62.671900
71.610808
78.579783
92.259645
101.907849
118.754506
126.919746
142.699480
160.579681
167.787671
178.704858
188.350677
204.333663
209.326744
225.572586
227.491856
240.876675
238.529444
239.793658
236.883759
239.836574
236.701965
229.456425
220.710635
215.194821
215.759873
203.413963
202.088952
191.183686
188.298821
180.033445
175.348520
171.587467
166.189671
156.359673
155.181885
148.033500
141.413808
129.171610
127.037764
114.337802
103.513002
94.350576
87.266564
77.212453
73.111653
69.561601
63.886642
58.557987
53.810477
49.850941
46.659708
44.227839
41.587949
37.545562
36.649704
35.315752
35.248995
##ZVALUE=240
5.071759
5.857944
16.834736
72.879791
161.225796
372.557640
606.577992
1004.482508
1015.589833
1015.589833
1015.589833
1015.589833
1015.589833
1015.589833
999.068022
705.314875
394.454598
240.414739
141.603947
121.850967
126.955509
132.816434
125.301480
114.912987
91.466904
76.058507
60.448647
40.078759
32.032728
23.314953
21.756887
20.396709
23.504496
24.833679
28.169751
32.163858
36.375523
43.504834
45.941472
51.396489
59.947968
66.826940
77.060461
82.693696
94.254613
103.684664
110.105872
119.021535
126.266479
136.185884
140.582919
145.220757
154.872537
163.450837
158.584714
161.687732
165.196657
162.450671
165.611506
168.449879
159.192681
158.324838
151.958466
150.783658
146.587491
140.525699
140.055418
133.699775
127.704740
123.724937
122.040510
123.122931
123.759508
116.954446
114.495754
109.619498
106.445551
94.464421
92.671514
83.354712
77.339411
67.055821
65.498948
59.270859
54.131746
50.932765
46.893954
45.734644
44.423938
37.227869
38.533807
36.715865
34.330487
34.367442
30.374527
32.581687
##ZVALUE=245
3.388524
3.223419
3.148913
4.263520
13.499856
41.407943
137.183666
285.971761
644.708872
964.458585
1015.589833
1015.589833
1015.589833
1015.589833
1015.589833
1015.589833
1015.589833
946.257710
550.805926
333.028436
171.485543
130.615830
129.306912
137.355924
142.003894
137.490630
122.803450
106.681585
82.545877
65.676570
47.509670
34.535527
26.127696
25.421977
24.979711
26.918650
28.813481
31.108856
32.955408
38.658977
41.228533
44.663548
50.405860
55.136681
63.780546
68.353415
73.184967
79.424977
86.023808
88.999867
96.477866
97.761750
104.754567
104.900599
111.119747
111.042857
111.408830
111.281872
112.903714
109.580755
110.728741
107.646585
106.534958
102.956891
99.643469
98.038912
94.927549
93.618631
90.392828
92.213750
87.274909
87.393522
86.947680
83.174706
84.036589
81.013441
76.038837
71.141720
68.334937
61.825514
58.284998
53.351521
47.266483
44.426918
42.610765
39.045811
35.988688
35.417676
33.357739
32.241940
30.685663
30.638576
28.091669
27.036667
24.782419
25.156736
##ZVALUE=250
3.126860
2.761483
3.037453
3.137589
3.438592
4.017949
6.497502
22.984743
100.668669
219.631791
536.705852
888.893008
1015.572548
1015.572548
1015.572548
1015.572548
1015.572548
1015.572548
1015.572548
1015.572548
805.691481
491.684675
231.283903
144.408941
119.288564
133.822560
149.819851
151.729584
147.764683
137.345791
118.308663
92.219710
70.967674
49.028993
40.619969
32.722950
27.820468
30.055642
33.411980
35.844445
37.432909
44.017434
48.847795
56.286454
60.950518
67.509413
71.479678
79.656839
85.213780
92.483759
95.043778
101.658702
105.199814
109.121799
111.727715
114.945769
115.490556
117.082596
117.368698
115.358829
114.839673
109.928846
109.099746
105.180740
102.964640
99.911690
96.526742
94.976425
92.639923
90.880990
85.887909
85.604787
85.463524
83.915591
79.617500
77.080727
72.729588
68.601966
60.821772
59.686899
55.127740
49.240589
45.155883
41.875839
40.109754
36.714673
35.057664
32.145977
31.340718
30.402541
28.640628
26.804805
25.612712
26.080608
23.746490
22.855997
##ZVALUE=255
2.695918
2.669692
2.672672
2.737641
2.983809
3.596544
3.436804
3.975630
4.352927
9.501576
56.657791
149.078965
399.136543
680.652857
1015.589833
1015.589833
1015.589833
1015.589833
1015.589833
1015.589833
1015.589833
1015.589833
1015.589833
609.404445
343.425870
167.785883
124.089718
119.348764
137.397647
153.226852
159.687996
154.729486
142.503977
118.878484
98.481774
73.861480
59.789419
48.267841
44.587851
44.749975
48.495531
55.330992
60.341954
68.231821
76.302886
84.678531
93.054771
103.735924
109.526515
115.922689
122.225881
129.567981
137.107968
141.110420
144.872665
149.301887
149.648786
150.771737
151.024461
149.083734
143.413544
144.894719
143.259764
137.467980
131.588578
126.434565
125.115514
117.686987
117.415786
112.298727
109.656453
101.033449
99.390745
96.633434
93.103647
84.283948
81.781745
74.230433
70.896745
66.992640
61.571598
54.817796
51.961541
47.524571
45.440793
41.007996
38.287640
35.955906
33.389926
31.282902
30.120611
28.099418
27.333498
25.693774
24.616718
23.252964
##ZVALUE=260
2.198815
2.443790
2.393723
2.694726
2.574921
2.558827
2.948642
3.011823
3.341436
3.699660
3.749728
7.208586
25.410652
109.158754
239.031911
560.312867
936.027765
1015.561819
1015.561819
1015.561819
1015.561819
1015.561819
1015.561819
1015.561819
1015.561819
947.311521
510.764718
283.076763
133.118629
106.417537
121.982694
143.318772
157.480836
170.589685
168.871880
155.929923
142.794847
116.565824
99.468827
83.693862
80.320835
78.740716
82.660913
90.937614
100.497603
117.523670
124.266744
138.503909
148.350596
161.461830
170.368552
183.948874
189.883709
197.852850
202.715993
204.795003
207.853913
206.326842
207.376480
205.094814
203.066468
196.675658
194.255710
190.538764
182.531476
176.304579
169.044733
160.913467
158.312917
148.156881
143.561959
135.063529
129.130483
121.628642
118.189454
109.274983
103.186965
94.573498
88.535547
82.239509
75.155497
69.664717
65.376759
60.161948
56.464672
51.436424
48.336983
43.695569
41.771531
37.725568
34.491420
33.153892
30.873418
28.880835
28.131604
25.685430
##ZVALUE=265
2.008677
2.333522
2.086759
2.459884
2.568960
2.674460
2.853870
2.806783
3.140569
2.988577
3.249645
3.481507
4.083514
4.681945
15.213490
54.719448
199.415684
399.385691
711.964965
1015.589833
1015.589833
1015.589833
1015.589833
1015.589833
1015.589833
1015.589833
1015.589833
1015.589833
757.960677
373.961926
199.250579
106.825829
104.763508
133.350492
156.653523
185.252428
195.657611
196.076632
185.721517
170.466900
158.512592
143.155456
138.711929
137.038827
143.501759
157.278776
168.393850
183.013678
197.143555
214.964747
225.693583
240.626931
250.414610
261.584520
266.636610
273.020864
275.203586
278.518796
275.762677
275.274515
271.008611
263.170600
256.536007
246.391892
241.400003
231.730938
219.753981
209.254622
204.670429
190.162659
183.748007
176.095963
164.662004
157.040954
148.144960
140.412450
129.740834
121.415854
111.786723
101.557970
95.947981
85.594654
80.694556
73.099732
69.613457
61.326623
58.696866
54.971576
51.032901
46.068430
43.010712
38.903952
36.625862
35.082698
33.186674
29.911995
##ZVALUE=270
1.899600
2.016425
2.053976
2.212524
2.427697
2.526641
2.258420
2.572536
2.756715
2.887845
2.725720
3.421903
3.533959
3.752708
4.136562
4.697442
6.077886
30.637980
95.058680
306.781530
614.727736
1007.174850
1015.589833
1015.589833
1015.589833
1015.589833
1015.589833
1015.589833
1015.589833
1015.589833
1015.589833
606.137514
327.142477
140.417814
102.271438
125.089884
155.670643
193.159580
218.847990
243.189931
247.819424
247.125626
239.841938
229.444504
224.627852
224.069953
226.187706
239.434838
254.035592
272.372961
285.059810
305.226445
317.830443
329.139829
335.844755
347.927809
348.608494
345.090628
345.084667
344.623923
338.910818
329.838991
322.783589
312.507749
301.084518
287.578702
277.022719
266.754627
254.969597
239.978433
232.414603
216.483474
206.153989
190.406442
183.329582
168.414712
160.107613
144.417882
136.779547
123.691559
113.642812
105.392933
96.132755
90.494752
83.512664
75.299740
70.960522
63.603520
60.910583
55.730939
50.780773
46.966672
44.088960
39.475560
38.754940
33.833981
##ZVALUE=275
1.980662
2.062917
2.007484
2.215505
2.153516
2.103448
2.162457
2.333522
2.325773
2.478957
2.722740
2.700686
2.879500
2.821684
3.316998
3.525615
3.631711
4.551411
4.990697
11.893511
48.597455
204.798579
447.096825
966.226459
1015.589833
1015.589833
1015.589833
1015.589833
1015.589833
1015.589833
1015.589833
1015.589833
1015.589833
841.380954
482.579470
215.194821
132.711530
127.507448
159.415603
203.397870
240.466595
281.969905
302.796960
321.545601
328.309536
325.654745
323.166847
320.553780
322.809815
332.444906
338.948965
356.412530
367.105007
383.265615
384.870768
397.422910
401.954651
401.562452
398.411751
396.126509
388.519764
378.677845
368.884802
361.761451
346.729755
331.710577
323.163867
304.140449
289.602876
274.293423
263.834596
246.170759
234.977007
217.783451
206.434727
191.165805
179.657936
166.762471
152.953863
139.919519
130.868554
118.303895
110.884905
101.535916
95.544457
84.209442
79.370737
72.967410
67.862868
60.539842
55.798888
50.807595
47.544837
44.303536
40.525794
37.677884
##ZVALUE=280
1.938939
1.826882
1.806617
2.052784
1.788735
1.886487
1.812577
2.484918
2.296567
2.542734
2.538562
2.519488
2.608895
2.976656
3.138781
3.110766
3.225803
3.182888
3.810525
4.335642
4.851818
7.742643
30.149817
146.294236
350.376964
840.408802
1015.589833
1015.589833
1015.589833
1015.589833
1015.589833
1015.589833
1015.589833
1015.589833
1015.589833
1015.589833
698.665380
319.000483
186.198950
145.988464
167.055726
216.470957
253.383517
305.045843
341.426730
375.678539
391.286016
404.948592
401.305556
399.301648
397.589803
396.605730
400.151014
401.094556
409.491658
412.881970
417.151451
417.708755
414.737463
409.976840
406.597853
398.930907
388.778448
370.692611
364.023447
347.933769
332.525969
314.592719
300.765634
285.310745
270.383954
254.696608
241.561532
226.502419
210.576653
196.914673
186.741948
172.441006
160.666704
144.168735
134.980679
123.015642
114.326477
105.566978
97.007751
86.647868
83.338618
74.965954
69.361925
60.934424
57.093501
52.639842
48.887730
44.883490
42.283535
38.243532
##ZVALUE=285
1.789927
1.686811
2.024770
1.917481
1.993775
2.055764
2.160668
2.141595
1.932979
2.115965
2.248883
2.369881
2.199411
2.335906
2.789497
2.781749
2.742410
2.930760
3.124475
3.485680
3.724694
4.409552
4.745722
5.281568
17.942786
62.410831
227.210522
477.331877
989.053845
1015.583873
1015.583873
1015.583873
1015.583873
1015.583873
1015.583873
1015.583873
1015.583873
1015.583873
983.029008
510.010719
289.874673
173.029900
164.512992
204.143524
242.514610
302.065611
341.259837
382.334590
408.245921
428.614616
436.337590
431.006551
421.968699
408.378839
397.202969
392.650962
388.705730
385.382771
383.123755
377.756953
373.493433
360.978842
355.692506
345.708728
331.535935
316.411853
306.991935
294.707417
279.677510
263.091922
250.923634
235.119462
223.267674
206.763744
196.536779
180.265903
169.940591
157.444477
147.031546
133.575797
124.028921
113.064647
106.304884
97.104907
90.112686
81.743002
76.721907
69.478750
64.300895
58.315992
54.129958
48.983693
46.058893
42.623878
39.308667
35.955906
##ZVALUE=290
1.765490
1.646876
1.667738
1.755953
1.703501
1.860857
1.842976
1.955628
2.057552
1.982450
1.962781
2.054572
2.191663
2.195835
2.436638
2.358556
2.321601
2.475977
2.486706
2.845526
3.244877
3.165603
3.695488
4.004836
4.382730
5.096793
6.757975
35.246015
110.554695
353.971720
692.738891
1015.589833
1015.589833
1015.589833
1015.589833
1015.589833
1015.589833
1015.589833
1015.589833
1015.589833
1015.589833
711.885095
401.224494
202.552676
157.840848
173.132420
207.092762
254.340768
288.589597
337.694883
363.809466
387.974977
399.630666
392.310619
380.545855
362.502933
340.907574
324.425697
310.558677
298.117995
292.003751
283.368826
276.739001
265.418887
259.501934
248.042941
239.553452
227.493644
218.495727
205.830932
196.333528
181.970596
175.287724
162.604451
153.777003
142.470002
133.345723
124.025941
115.417838
106.363893
99.577904
90.224743
84.402561
76.540709
71.836710
65.173507
61.083436
55.909753
52.279830
47.349930
43.134689
39.924979
37.168860
34.104586
32.414794
30.341744
##ZVALUE=295
1.455545
1.402497
1.443624
1.545548
1.775622
1.531839
1.601577
1.457930
1.681447
1.715422
1.976490
1.638532
1.998544
1.952648
1.963973
1.789927
1.997948
2.107620
2.258420
2.599955
2.729893
2.819896
3.154874
3.217459
3.615618
3.724694
4.168749
4.681945
5.835891
10.778904
67.442656
201.905966
474.720001
1015.534997
1015.534997
1015.534997
1015.534997
1015.534997
1015.534997
1015.534997
1015.534997
1015.534997
1015.534997
934.841037
541.467667
241.282582
149.496794
127.173662
141.657591
172.006488
199.909806
234.579444
260.895491
289.127827
301.238894
303.938985
292.934775
273.098946
254.663825
227.203965
212.146640
191.183686
179.578662
169.344544
164.606571
155.577660
149.197578
142.948627
136.107802
129.364729
123.452544
116.264820
111.545920
103.566647
97.908974
90.722442
86.955428
79.659820
73.701739
67.728758
64.781904
58.455467
54.321885
50.971508
47.452450
43.613911
40.875673
37.560463
35.436749
32.485723
30.177832
27.277470
26.094913
24.348497
23.465753
22.072792
##ZVALUE=300
1.474619
1.436472
1.490712
1.542568
1.460910
1.513958
1.569986
1.487732
1.660585
1.786947
1.692772
1.610518
1.767874
1.830459
1.872778
1.852512
1.942515
2.170801
2.284646
2.183914
2.390742
2.317429
2.679825
2.954602
3.024936
3.227592
3.411770
3.822446
4.165769
4.548430
5.195737
6.603599
29.282570
109.178424
381.671786
754.742622
1015.589833
1015.589833
1015.589833
1015.589833
1015.589833
1015.589833
1015.589833
1015.589833
1015.589833
1015.589833
694.632530
374.658704
154.299736
89.127421
79.923868
90.850592
109.896660
129.051805
159.404874
180.048943
202.298760
209.350586
209.136605
200.208426
177.328587
157.747865
131.441951
114.448667
94.776750
84.416866
76.224804
71.345568
65.942407
64.151883
60.861707
59.532523
56.374669
54.208636
51.002502
47.929883
44.229627
42.009950
39.309859
36.586523
33.244491
32.110810
29.558539
27.860999
25.391579
25.095940
22.875667
22.278428
20.289421
19.134879
18.625855
17.288923
16.009808
15.382767
14.554858
13.997555
##ZVALUE=305
1.475811
1.466870
1.388788
1.305938
1.423955
1.394749
1.465678
1.414418
1.544952
1.577735
1.547933
1.587868
1.783967
1.445413
1.655817
1.788735
1.935959
1.918674
1.859665
2.042651
2.371669
2.214909
2.298951
2.430677
2.603531
2.762675
3.066659
3.035665
3.041625
3.579855
4.134774
4.538894
4.968643
5.874634
11.231899
74.099898
215.071440
627.970695
1015.589833
1015.589833
1015.589833
1015.589833
1015.589833
1015.589833
1015.589833
1015.589833
1015.589833
1015.589833
965.938568
449.916720
216.643810
76.205730
46.151876
46.109557
54.884553
71.178675
89.043975
113.366842
131.701827
146.691799
154.392719
152.874589
141.617656
122.875571
104.385614
79.311728
64.116716
49.243569
40.693879
33.307672
31.363964
29.980540
28.880835
27.761459
26.226640
24.449825
23.763776
21.801591
20.797849
19.669533
18.698573
17.331839
17.000437
16.132593
15.348792
14.827847
13.991594
12.893677
12.910962
12.084842
12.109876
11.268854
10.293722
10.328889
9.986758
9.633899
##ZVALUE=310
1.313686
1.393557
1.312494
1.374483
1.436472
1.357794
1.220703
1.340508
1.349449
1.367927
1.560450
1.708865
1.458526
1.663566
1.632571
1.539588
1.774430
1.842976
1.872778
2.108812
1.859665
2.032518
1.833439
2.049804
2.134442
2.399683
2.621412
2.604723
2.885461
3.114939
2.949834
3.482699
3.925562
4.220605
4.895926
5.633831
7.078648
31.077862
112.280846
386.325717
776.137710
1015.589833
1015.589833
1015.589833
1015.589833
1015.589833
1015.589833
1015.589833
1015.589833
1015.589833
1015.589833
674.420595
342.969894
112.081766
43.394566
24.961829
26.921630
35.374761
46.137571
64.422488
80.321431
101.701617
115.610957
126.008987
125.963688
116.311908
104.575753
82.977414
64.600706
45.726895
35.279989
25.674701
20.554662
16.751885
16.037822
14.043450
13.659596
12.928843
12.097955
11.695623
11.266470
10.581613
10.266900
10.448694
9.968877
9.828806
8.904934
9.143949
8.885860
8.658767
8.544922
8.138418
7.912517
7.808805
7.713437
7.847548
##ZVALUE=315
1.295805
1.444817
1.186728
1.293421
1.203418
1.233816
1.312494
1.443624
1.438856
1.509786
1.238585
1.551509
1.402497
1.602769
1.468658
1.569986
1.534820
1.619458
1.541972
1.721978
1.854897
1.867414
1.964569
2.057552
2.092719
2.106428
2.182722
2.394915
2.417564
2.586842
2.774596
2.741814
2.906919
3.345609
3.700852
3.956556
4.325509
5.591512
6.037951
14.103651
57.267547
249.990821
546.766520
1015.589833
1015.589833
1015.589833
1015.589833
1015.589833
1015.589833
1015.589833
1015.589833
1015.589833
1015.589833
928.242803
488.222837
164.292455
59.419870
20.637512
17.826557
21.182895
26.761889
39.044619
52.722692
73.066950
88.645816
105.737448
115.141869
114.805698
107.731819
92.653632
76.559782
55.723786
42.454600
27.802587
20.487905
14.468431
11.933446
10.471940
9.351969
8.910894
8.414984
8.177757
7.931590
7.709861
7.622838
7.719994
7.526875
7.226467
7.180572
6.866455
7.023811
6.815791
6.753802
6.746650
6.481409
6.484985
##ZVALUE=320
1.148582
1.215935
1.239777
1.287460
1.177788
1.102686
1.227856
1.350641
1.234412
1.299977
1.428723
1.412630
1.371503
1.458526
1.402497
1.459718
1.541972
1.516938
1.537800
1.720786
1.625419
1.708865
1.839995
1.724958
1.813769
1.982450
1.805425
2.046824
1.982450
2.260804
2.388954
2.643466
2.715588
2.797842
2.943873
3.262758
3.574491
4.075766
4.515648
4.847646
5.572438
7.710457
25.229454
138.877630
360.136628
928.356647
1015.589833
1015.589833
1015.589833
1015.589833
1015.589833
1015.589833
1015.589833
1015.589833
1015.589833
1015.589833
666.967630
268.483758
110.187531
27.150512
15.250444
15.230775
17.256737
23.780465
31.791925
48.651695
63.294768
82.515478
95.167756
107.240677
107.324719
101.628900
89.193583
69.216490
54.040551
36.624670
26.200414
16.912818
12.464523
8.920431
8.048415
7.328987
7.083416
6.831884
6.825924
6.633997
6.619692
6.542802
6.246567
6.334782
6.223917
5.898476
5.886555
5.799532
5.656481
6.138682
##ZVALUE=325
1.054406
0.965595
1.176596
1.152754
1.165867
1.179576
1.078844
1.168847
1.043677
1.245737
1.374483
1.397729
1.269579
1.189709
1.429915
1.398921
1.354814
1.351833
1.477599
1.434684
1.637936
1.683831
1.827478
1.887679
1.592636
1.729727
1.905560
1.915693
1.908541
2.145767
1.980662
2.228618
2.513528
2.637506
2.527833
2.800822
2.839565
3.224611
3.417730
3.780723
4.022717
4.584789
5.212426
6.084442
13.134480
89.424849
237.936974
634.874701
1015.592813
1015.592813
1015.592813
1015.592813
1015.592813
1015.592813
1015.592813
1015.592813
1015.592813
1015.592813
892.863870
367.407799
162.909627
41.179657
17.196536
13.136864
13.465881
16.446710
21.149516
32.353997
43.918490
64.365864
78.009963
92.834830
100.205541
101.157427
93.538761
79.116821
64.121485
46.055913
34.819841
21.969676
15.438795
9.860992
8.130670
7.015467
6.490946
6.631613
6.067753
6.288886
5.851984
5.826950
5.904436
5.814433
5.681515
5.690455
5.255938
5.502701
##ZVALUE=330
1.115799
1.172423
1.131892
1.125932
1.063943
1.058578
1.039505
1.160502
1.197457
1.292825
1.083612
1.059771
1.308918
1.176000
1.199841
1.367927
1.330972
1.291633
1.322627
1.560450
1.477599
1.538992
1.358986
1.665950
1.592636
1.668930
1.703501
1.778603
1.864433
1.862645
1.904964
2.094507
2.107620
2.135634
2.445579
2.468824
2.738833
2.828836
2.876520
3.105998
3.463626
3.633499
3.984571
4.039407
5.130768
5.643964
8.101463
28.145909
153.467655
372.275710
918.117762
1015.589833
1015.589833
1015.589833
1015.589833
1015.589833
1015.589833
1015.589833
1015.589833
1015.589833
1011.558771
601.654649
219.979882
89.663863
22.712946
12.913942
11.746883
12.260675
15.172958
20.850897
31.601787
42.462945
58.172941
71.304440
86.766481
92.615485
93.082786
88.391900
73.455572
60.365796
41.867495
31.814575
21.230578
15.390515
10.596514
8.197427
6.630421
6.102920
5.962849
5.880594
5.591512
5.530715
5.420446
5.020499
5.342960
5.310774
##ZVALUE=335
0.971556
1.143813
1.140833
1.123548
1.047850
1.190901
1.098514
1.114607
1.153946
1.229644
1.122952
1.198649
1.160502
1.233816
1.126528
1.166463
1.151562
1.249909
1.283884
1.360774
1.227856
1.305938
1.482964
1.344681
1.509786
1.409650
1.637936
1.468658
1.712441
1.711845
1.866817
1.871586
1.789927
1.904964
2.132654
2.193451
2.286434
2.466440
2.540946
2.764463
2.866983
3.093481
3.331900
3.410578
3.774762
4.278421
4.766583
5.419850
5.860925
16.772747
64.849854
263.932943
563.582778
1015.584469
1015.584469
1015.584469
1015.584469
1015.584469
1015.584469
1015.584469
1015.584469
1015.584469
1015.585065
753.259063
379.486680
114.974976
38.792491
14.380813
11.580586
11.835694
12.256503
14.962554
19.165874
29.513836
39.270520
55.229664
67.296624
79.523921
85.779428
85.533857
80.936551
68.117976
56.704879
41.830540
31.463504
21.209717
15.089512
10.172725
8.279681
6.354451
6.039739
5.541444
5.564690
5.374551
5.327463
5.218983
##ZVALUE=340
1.032948
1.083612
0.924468
0.951886
0.905991
0.976920
0.964999
1.193881
0.995994
0.999570
1.231432
1.207590
1.195669
1.116991
1.215935
1.196861
1.106858
1.401901
1.183748
1.193881
1.323819
1.321435
1.411438
1.329780
1.349449
1.478791
1.523495
1.494884
1.533628
1.685619
1.618862
1.940727
1.859665
1.812577
1.797676
1.965761
1.849532
2.055764
2.182722
2.429485
2.439618
2.719760
2.879500
2.978444
3.221631
3.235936
3.847480
3.958941
4.254580
5.024672
5.367994
8.610487
30.629635
160.084963
399.470925
950.070620
1015.589833
1015.589833
1015.589833
1015.589833
1015.589833
1015.589833
1015.589833
1015.589833
1015.589833
928.229690
498.309731
188.211799
65.952539
16.261935
12.603998
11.880994
11.589527
12.295842
13.932586
19.397736
25.778413
37.678480
48.487782
64.391494
74.204803
79.881549
79.669952
74.603558
67.343712
53.198934
42.292476
29.648542
22.109747
14.614463
10.908842
7.473826
6.259680
5.633831
5.288720
5.146861
##ZVALUE=345
1.035929
0.919700
1.065731
1.094937
1.092553
1.045465
1.127720
1.098514
1.138449
0.956655
1.196861
1.083612
1.297593
1.146793
1.129508
1.129508
1.216531
1.270771
1.100898
0.984669
1.088977
1.298785
1.229644
1.328588
1.345873
1.424551
1.556873
1.472831
1.505613
1.531839
1.515746
1.579523
1.543760
1.609921
1.760721
1.844764
1.783967
1.732707
1.963973
2.062917
2.132654
2.321601
2.491474
2.431870
2.646446
2.629757
3.136992
3.266931
3.326535
3.832579
4.135966
4.613996
4.906654
6.021857
13.329983
85.011721
242.332816
653.721690
1015.589833
1015.589833
1015.589833
1015.589833
1015.589833
1015.589833
1015.589833
1015.589833
1015.589833
1015.589833
690.625906
255.241990
104.039907
28.510690
14.675856
12.133718
11.472702
10.478497
10.340810
12.241602
15.763640
23.788810
32.743812
47.063828
55.828691
67.010522
72.062612
74.430704
71.249604
62.515736
53.897500
41.357875
31.280518
20.602942
14.783740
10.284781
7.878542
6.190538
##ZVALUE=350
0.993609
1.059771
0.943542
1.186728
1.282692
1.120567
0.989437
1.131892
0.956655
1.092553
1.113415
1.283884
1.191497
1.073480
1.096725
1.171827
1.206994
1.185536
1.257658
1.241565
1.145601
1.237988
1.340508
1.317859
1.262426
1.419783
1.382828
1.261830
1.244545
1.469851
1.352429
1.321435
1.506805
1.726747
1.668930
1.682639
1.738667
1.854897
1.802444
2.033710
1.917481
2.055764
1.730919
2.171993
2.212524
2.423525
2.664924
2.766848
2.829432
3.132820
3.273487
3.451705
3.979802
4.323721
4.622936
5.268455
9.366870
34.529567
163.456798
384.689569
931.669474
1015.592813
1015.592813
1015.592813
1015.592813
1015.592813
1015.592813
1015.592813
1015.592813
1015.592813
746.018887
396.471620
141.555667
48.681498
14.558434
11.547804
10.068417
9.602904
8.435845
9.032488
11.250973
14.254451
20.806789
28.139949
40.152669
48.987865
60.174465
66.041946
68.157911
65.534711
58.639646
50.064921
37.956834
29.814839
20.127892
14.859438
##ZVALUE=355
0.995994
1.180768
1.124740
1.125932
1.199841
1.205802
1.142621
1.102686
1.155734
1.109838
1.037717
1.223683
1.262426
1.319647
1.222491
1.341701
1.376867
1.322627
1.228452
1.255870
1.205802
1.370907
1.293421
1.303554
1.432896
1.342893
1.468658
1.427531
1.538992
1.268983
1.466870
1.574755
1.647472
1.651645
1.499653
1.626611
1.656413
1.773834
1.878738
2.098680
2.136827
2.011657
2.080798
2.113581
2.251863
2.455711
2.443790
2.493858
2.676845
2.825856
2.954602
3.329515
3.257990
3.408790
3.907681
4.360676
4.722476
5.209446
6.093979
20.370483
76.429844
306.805968
632.211566
1015.594006
1015.594006
1015.594006
1015.594006
1015.594006
1015.594006
1015.594006
1015.594006
1015.594006
987.612605
450.568795
208.836794
62.280893
21.240711
10.863543
9.912848
8.921623
8.177757
8.126497
8.365512
9.836555
12.555718
18.302798
24.996996
35.113692
43.384433
53.100586
59.457421
62.523484
60.679913
54.798722
47.035813
37.220716
##ZVALUE=360
1.297593
1.342893
1.184940
1.216531
1.223683
1.165867
1.113415
1.138449
1.429915
1.305938
1.372695
1.304746
1.360774
1.338720
1.487732
1.409650
1.521707
1.423955
1.409650
1.421571
1.390576
1.453757
1.663566
1.620650
1.498461
1.705885
1.528859
1.520514
1.684427
1.868606
1.806617
1.494884
1.703501
1.676679
1.908541
1.896620
1.915693
1.995564
2.097487
2.044439
1.989603
2.088547
2.373457
2.166629
2.194643
2.264977
2.329946
2.538562
2.574921
2.742410
2.697706
3.051758
3.285408
3.288984
3.533959
4.110932
4.045963
4.256964
4.573464
5.320907
5.726814
9.982586
33.468604
163.859725
403.779745
958.631635
1015.722752
1015.722752
1015.722752
1015.722752
1015.722752
1015.722752
1015.722752
1015.722752
1015.722752
664.523840
336.195827
112.124681
37.174821
12.144446
10.160804
9.106994
8.467436
7.986426
7.705688
7.948875
8.879900
11.292696
14.810562
21.168590
28.577447
38.657784
45.197606
52.870512
55.992603
56.292415
##ZVALUE=365
1.056790
0.973940
1.034737
1.095533
1.241565
1.130700
1.071692
1.133680
1.190901
1.241565
1.267791
1.164675
1.194477
1.083612
1.264811
1.257658
1.105666
1.166463
1.330972
1.264811
1.358986
1.238585
1.232624
1.312494
1.304746
1.436472
1.429915
1.417994
1.545548
1.569986
1.542568
1.519918
1.561642
1.735687
1.658797
1.698732
1.775622
1.716614
1.726747
1.841784
1.938939
2.128482
1.975894
2.083778
2.128482
2.047420
2.134442
2.259612
2.386570
2.448559
2.349615
2.663732
2.697706
2.727509
3.002882
3.189445
3.235936
3.478527
3.804564
4.243851
4.500747
5.063415
5.645752
6.908774
13.906956
84.902048
247.607827
696.919560
1015.589833
1015.589833
1015.589833
1015.589833
1015.589833
1015.589833
1015.589833
1015.589833
1015.589833
912.924409
487.387776
167.120695
60.470700
14.283657
9.590983
8.793473
8.226633
7.341504
7.047653
6.983876
6.978512
7.498860
9.050965
13.178587
17.097592
24.158955
31.252503
39.963722
##ZVALUE=370
0.831485
0.992417
0.795722
0.925660
0.940561
0.958443
0.919700
0.805855
0.999570
1.015663
0.984669
1.004934
1.139641
1.057982
0.983477
1.074672
1.135468
1.266599
1.138449
1.111627
1.156926
0.936985
1.097918
1.181960
1.195669
1.083612
1.214743
1.291633
1.232624
1.270771
1.308918
1.264811
1.196861
1.259446
1.378655
1.482964
1.442432
1.479983
1.577735
1.513958
1.571774
1.811981
1.604557
1.663566
1.838803
1.712441
1.965761
1.792908
1.933575
1.892447
2.014637
2.158880
2.247691
2.123713
2.435446
2.575517
2.452731
2.810955
2.862811
2.964735
3.340840
3.681779
4.038811
4.529953
4.793406
5.479455
8.418560
45.537949
154.908895
511.292815
943.389535
1015.461683
1015.461683
1015.461683
1015.461683
1015.461683
1015.461683
1015.461683
1015.461683
1011.044383
603.439808
221.633911
92.809796
25.745630
11.101961
8.220673
7.630587
7.096529
6.581545
6.319880
6.134510
6.108880
6.430745
7.928610
10.437965
15.279651
##ZVALUE=375
1.061559
1.001954
0.973940
0.846982
0.998974
1.234412
1.039505
1.009703
0.958443
1.115799
1.000762
1.211762
1.178980
1.192689
1.220703
1.041889
1.217723
1.067519
1.205802
1.075864
1.176596
1.166463
1.104474
1.204610
1.206994
1.199841
1.261830
1.401901
1.278520
1.201630
1.448989
1.301765
1.299977
1.358986
1.357794
1.396537
1.534820
1.310706
1.490712
1.684427
1.585484
1.666546
1.665950
1.639724
1.689792
1.709461
1.808405
1.861453
1.832843
2.037883
2.074838
2.097487
2.172589
2.393723
2.205968
2.312660
2.454519
2.291799
2.580881
2.778769
2.745986
3.119707
3.074408
3.355742
3.583431
3.819466
4.511476
5.231500
6.408691
22.847652
84.994435
313.133597
664.474964
1015.589833
1015.589833
1015.589833
1015.589833
1015.589833
1015.589833
1015.589833
1015.589833
1015.589833
876.577497
389.574766
183.781981
50.708652
16.757846
8.384585
7.654428
7.217526
6.617904
6.336570
6.094575
5.632639
5.670786
6.097555
##ZVALUE=380
0.839829
0.872612
0.922680
0.901818
0.881553
0.975728
0.815988
0.886917
1.042485
1.062751
0.969768
0.884533
0.996590
0.946522
1.032948
0.987649
1.041889
1.111627
1.021624
1.081824
1.037717
1.191497
1.023412
0.976920
1.030564
0.996590
1.083612
1.145601
1.234412
1.272559
1.259446
1.354814
1.234412
1.436472
1.479983
1.545548
1.534820
1.554489
1.722574
1.613498
1.616478
1.634955
1.658797
1.728535
1.772642
1.766682
1.674891
1.706481
1.828671
1.863837
2.068877
1.967549
2.085567
2.091527
2.088547
2.061725
2.376437
2.440810
2.523661
2.439618
2.615452
2.786517
2.681613
2.917647
2.923608
3.351569
3.781915
4.068613
4.759431
5.363822
6.236434
11.805892
47.491789
223.245025
518.721938
1015.589833
1015.589833
1015.589833
1015.589833
1015.589833
1015.589833
1015.589833
1015.589833
1015.589833
1015.589833
598.051548
295.394659
92.996955
31.507611
10.182858
7.835627
7.044673
6.787777
6.366968
5.917549
5.653501
##ZVALUE=385
0.861883
0.842810
0.921488
0.800490
0.918508
0.795722
0.871420
1.044869
0.730753
1.093745
0.893474
0.721812
0.914931
0.893474
0.857711
0.911951
0.884533
0.954866
1.208782
1.040697
1.046658
1.064539
0.930429
1.047850
1.135468
1.058578
1.154542
1.102686
1.185536
1.219511
1.307726
1.439452
1.346469
1.376867
1.454949
1.518726
1.507998
1.366735
1.463890
1.554489
1.615882
1.609921
1.552701
1.828671
1.807809
1.712441
1.885891
2.007484
2.105832
2.164841
2.175570
1.928806
2.249479
2.051592
2.350807
2.361536
2.313852
2.379417
2.361536
2.455711
2.648830
2.727509
2.640486
2.884865
3.030896
3.134608
3.401637
3.675818
4.113913
4.688501
4.838705
5.515814
5.745888
7.289648
23.445487
134.485364
338.974595
848.612785
1015.589833
1015.589833
1015.589833
1015.589833
1015.589833
1015.589833
1015.589833
1015.589833
1015.589833
936.890841
270.195603
191.351771
53.792596
16.494989
8.069873
7.191896
6.825924
6.443858
##ZVALUE=390
0.917912
0.851750
0.787973
0.850558
0.641942
0.785589
0.825524
0.995994
0.909567
0.980496
1.048446
1.074672
0.926852
0.948906
0.965595
0.765920
0.871420
0.877976
0.751615
1.011491
1.013875
0.923872
1.018643
1.128912
0.938773
1.017451
0.999570
1.192689
1.215935
1.375675
1.300573
1.401901
1.308918
1.459718
1.393557
1.607537
1.573563
1.476407
1.763701
1.756549
1.914501
1.839995
2.084970
1.987815
2.021790
2.129674
2.240539
2.297759
2.382994
2.372861
2.733469
2.499819
2.565980
2.751946
2.698898
2.645850
2.700686
2.803802
2.950430
2.693534
3.053546
3.010631
2.987981
3.171563
3.138781
3.390908
3.406405
3.765821
4.140735
4.248619
4.732609
4.842877
4.743934
5.040765
5.731583
5.939603
20.695925
62.495470
254.857540
888.697505
1015.589833
1015.589833
1015.589833
1015.589833
1015.589833
1015.589833
1015.589833
1015.589833
1015.589833
1015.589833
520.340800
297.339559
105.275512
34.656525
7.856488
7.516742
##ZVALUE=395
0.873804
0.914931
0.842810
0.825524
0.938773
0.934601
0.861883
0.834465
0.895858
0.860691
0.847578
1.021624
0.881553
0.925660
0.820756
0.863671
0.953674
0.946522
1.047850
1.007915
0.999570
1.064539
0.936985
0.909567
0.948906
1.008511
0.991821
1.137853
1.179576
1.351833
1.221895
1.106858
1.223683
1.358986
1.425743
1.510978
1.714826
1.805425
1.735687
2.052784
2.027750
1.966953
2.225637
2.235770
2.166629
2.264977
2.474785
2.614856
2.707839
2.941489
2.901554
2.875924
2.891421
2.965927
2.952814
2.845526
2.784729
3.181696
2.890825
3.043413
3.200769
3.206730
3.148913
3.116727
3.191829
3.446937
3.619790
3.785491
4.116893
4.263520
4.247427
4.490614
4.714727
4.620552
4.704595
4.896522
5.015731
5.369782
7.132888
40.116906
145.238638
486.845970
912.315845
1015.589833
1015.589833
1015.589833
1015.589833
1015.589833
1015.589833
1015.589833
1015.589833
1015.589833
966.159701
429.567695
196.190476
55.212975
##ZVALUE=400
0.960827
0.952482
0.933409
0.974536
0.926852
0.891685
0.945926
0.828505
0.967979
0.736713
0.932813
0.890493
0.837445
0.915527
0.846982
0.857711
0.949502
0.966787
0.882745
0.957847
1.082420
0.974536
0.971556
0.803471
0.926852
1.031756
0.989437
1.059771
1.173615
1.165867
1.349449
1.390576
1.291633
1.315475
1.423955
1.535416
1.630783
1.811981
1.852512
1.828671
2.155900
2.240539
2.123713
2.383590
2.406836
2.682805
2.691746
2.741814
2.978444
2.830625
2.966523
3.003478
3.154874
3.272891
3.298521
3.179908
3.366470
3.268719
3.203750
3.414750
3.243685
3.339648
3.230572
3.333688
3.532767
3.661513
3.577471
3.876686
4.111528
4.255772
4.414916
4.481673
4.307628
4.227757
4.245639
4.150867
4.360676
4.274845
4.821420
5.315542
6.181598
19.309521
78.693628
298.341513
627.020001
1015.589833
1015.589833
1015.589833
1015.589833
1015.589833
1015.589833
1015.589833
1015.589833
1015.589833
1015.589833
674.892664
##END
