##TITLE=D2-4
##FORMAT=SPECTACLE-ASCII V-1.2
##DATA TYPE=ULTRAVIOLET SPECTRUM
##SECOND TYPE=ULTRAVIOLET SPECTRUM
##DATE=01/24/18
##TIME=14:02:20
##SPECTROMETER/DATA SYSTEM=SPECTACLE
##XUNITS=NM EM
##YUNITS=ENERGY
##YFACTOR=1
##FIRSTX=220
##LASTX=410
##NPOINTS=96
##3DDATA=Equidistant
##ZUNITS=NM EX
##FIRSTZ=210
##LASTZ=400
##ZPOINTS=39
##XYDATA=(Y..Y)
##ZVALUE=210
24.660826
25.795698
20.878911
15.595555
13.617873
11.103749
11.429787
9.403825
7.633567
7.352829
5.860925
4.258752
4.295707
4.117489
4.383922
4.027486
5.765557
5.542636
4.927516
5.467534
5.581975
6.279945
6.918907
6.759763
7.650852
9.860992
10.163784
10.429621
10.828972
11.065602
12.137890
13.680458
14.818907
16.361475
17.511845
19.367933
19.771457
21.566749
23.989677
26.247501
29.032826
29.526949
31.567812
35.184622
37.350655
37.504435
41.572452
44.096708
48.922896
51.479936
50.262809
54.959655
54.619908
54.502487
56.001544
56.481957
58.998466
56.405663
58.994889
56.854486
56.830645
55.668950
54.417849
53.342581
52.289963
51.340461
49.784780
50.377846
48.461556
53.346753
57.079792
58.703423
58.684945
59.728622
63.411593
64.937472
61.047673
61.905980
55.356622
50.907731
46.910644
43.364763
38.795471
33.441782
29.299855
25.124550
21.803975
24.484992
21.454692
21.501780
23.893714
27.975440
35.728812
42.388439
51.413774
59.174895
##ZVALUE=215
89.565516
86.498857
68.642497
50.298572
38.178563
25.733709
20.509958
17.803907
17.670989
15.358925
12.082458
11.811852
9.654760
8.502603
7.080436
5.997419
5.631447
5.064607
5.840659
5.622506
6.231666
5.869865
6.778836
7.321835
8.478761
9.435415
11.316538
12.514591
11.612773
13.035536
14.605522
16.718507
16.269684
18.326640
20.891428
24.561882
25.691986
27.806759
31.472445
35.047531
36.928654
39.629936
43.399930
49.453974
51.325560
56.708455
59.540868
62.887669
67.121983
72.796941
76.476932
79.950690
85.203648
86.896420
92.225671
87.298751
89.074969
88.480711
87.033510
87.257624
87.611675
84.496737
83.907843
81.247687
76.929927
76.985955
72.550774
72.684884
70.542693
72.622895
72.668791
72.817802
74.169636
77.891946
76.154470
76.773763
72.474480
66.166520
62.812567
60.156584
54.061413
49.023628
42.602420
38.062930
34.458637
31.682849
26.642680
25.261641
23.141503
23.481846
21.480918
20.843744
19.734502
22.663474
26.072860
30.358434
##ZVALUE=220
207.023621
204.674602
207.191706
181.303620
152.928829
112.889409
82.007647
52.358508
36.742687
31.433702
27.978420
25.968552
24.126768
19.848943
17.913580
13.512969
9.148717
8.685589
7.219911
6.865859
7.299781
7.178783
7.538795
7.994771
9.943843
10.335445
12.198687
12.965798
12.356639
16.142726
16.619563
19.258857
20.895600
22.540689
24.249554
28.307438
33.718944
37.757754
43.012500
48.949718
52.477717
62.046647
64.553618
74.704885
81.322789
90.572834
92.150569
105.694532
108.179450
119.049549
126.071572
132.477880
135.655999
143.153667
144.168735
152.466893
150.225759
144.756436
146.345496
146.118999
146.728754
142.907500
137.271881
128.835440
128.445625
122.294426
119.575858
114.327669
116.323829
112.134814
113.031864
111.632943
106.338859
107.429624
102.579594
100.795627
92.246532
85.712671
80.638528
72.017908
70.742965
65.178871
58.387518
51.649809
49.631596
41.915774
38.115978
34.300685
34.257770
30.436516
29.051900
27.113557
23.316741
26.144981
24.018884
23.060441
##ZVALUE=225
262.297988
275.548697
349.629521
383.352637
387.254953
364.447832
303.819776
245.302916
152.111650
106.363893
63.858628
48.903823
44.989586
42.939782
41.119456
33.698678
29.557943
23.420453
17.553568
14.100671
11.269450
9.329915
8.876920
8.951426
9.777546
9.861588
10.616779
12.991428
13.427734
14.337897
15.100837
19.112825
21.154881
24.933815
28.313994
35.588741
39.857626
51.843524
59.702992
68.379641
76.921582
86.037517
90.094805
106.028914
115.981698
131.832957
140.113831
150.759816
165.569782
178.162456
190.276504
199.349523
205.322504
213.025808
218.132734
221.562982
225.860476
225.981474
223.668814
222.682953
216.665864
212.382674
207.163692
197.896957
193.174481
181.075931
180.515647
173.283815
167.631507
160.085559
154.295564
151.632428
149.022937
144.876838
136.081576
125.709772
119.228959
114.538670
104.821920
93.028545
85.639954
80.058575
72.356462
67.763925
62.638521
55.237412
53.527951
47.166944
45.531988
40.861964
39.223433
37.555695
33.129454
32.527447
29.568672
27.685761
##ZVALUE=230
177.202821
191.946626
297.484994
469.678640
593.921542
700.306892
749.802589
698.917508
614.613891
499.556661
331.755877
212.310553
118.745565
82.619786
67.323446
65.612793
66.887736
62.735677
55.848956
43.378472
36.411881
23.224950
18.353462
14.067888
12.459755
12.703538
12.062788
12.597442
13.673902
14.026761
15.832782
18.521547
21.583438
26.215911
31.654835
40.555596
48.227906
58.373809
67.285895
79.658628
88.765621
104.641914
113.321543
133.778453
142.016411
160.070658
174.345970
192.228556
207.226872
220.960975
230.240822
243.802667
246.352553
255.633593
262.143612
268.628597
272.988677
270.907879
273.194909
275.272727
261.371732
257.062912
249.539614
239.554644
234.770775
223.525763
213.092566
210.479498
200.719833
189.715624
186.464787
178.206563
170.940757
164.027810
155.599713
147.730708
140.201449
129.605532
123.974681
109.102726
101.695657
94.727874
85.403919
78.782439
72.026849
65.162778
62.177777
56.431890
51.636696
48.954487
46.216846
41.505694
39.583445
36.752820
36.122799
34.503937
##ZVALUE=235
51.195621
58.035851
123.802423
281.615853
450.505018
707.457662
920.424461
1015.589833
1015.589833
1015.589833
1015.589833
860.690475
568.870902
400.000811
228.423476
145.516992
98.702908
93.635917
94.079971
95.714927
87.994933
74.556470
62.087774
41.462779
32.214522
22.531748
17.902851
15.283823
15.537739
15.913844
16.700625
20.710826
23.292899
26.804805
32.099485
39.827824
42.324662
52.749515
59.808493
69.987774
80.414414
95.813870
102.226734
120.482445
125.709772
147.149563
154.059529
168.926716
181.146860
197.002888
202.701688
222.730637
225.363970
234.844685
234.958529
238.274932
241.254568
240.737796
238.195658
235.286951
231.825709
223.675966
223.549008
213.841796
209.079981
202.958584
190.002918
187.713504
186.835527
176.754594
170.239806
165.428519
163.431764
154.223442
148.466825
137.339830
133.278966
122.327805
110.904574
104.649663
93.751550
89.882612
84.114671
73.105693
68.703890
64.624548
61.611533
55.039525
51.700473
50.060749
46.035647
44.458508
40.183663
39.096475
37.150979
37.157536
##ZVALUE=240
4.529953
4.205704
18.287897
53.609610
154.648423
294.269919
581.067801
886.641741
1015.589833
1015.589833
1015.589833
1015.589833
1015.589833
1015.589833
985.160470
598.328710
389.778614
217.718482
146.248937
118.661523
126.069784
127.383471
124.569535
115.016699
98.312497
74.583888
55.655837
42.770505
27.214885
23.048520
20.137429
19.676685
21.096468
23.993850
27.148724
33.210516
34.265518
40.052533
42.472482
52.631497
57.509542
67.771673
72.408915
84.934831
89.889765
103.788972
108.449459
115.621686
122.715831
133.651495
139.952898
149.593949
154.628754
164.272785
165.450573
167.020559
171.573758
170.668960
168.222785
165.017843
164.315701
159.606934
156.638622
148.585439
145.725608
137.805939
134.733915
136.294961
129.626989
125.705004
124.819875
122.216940
127.494931
120.274425
116.448998
111.241937
107.390881
97.659826
96.001625
88.348985
79.577565
70.505738
65.571666
61.133504
54.789782
51.141977
48.576593
47.433972
44.348836
42.600632
40.617585
36.673546
36.259890
34.120679
33.034682
34.886599
##ZVALUE=245
2.890825
3.314614
3.254414
4.122853
9.346604
41.466951
105.973482
285.387635
514.773726
824.504495
1015.589833
1015.589833
1015.589833
1015.589833
1015.589833
1015.589833
1015.589833
928.463936
612.730980
331.555605
193.866491
127.041936
126.232505
139.899850
142.538548
135.291815
122.215748
102.320910
84.767938
64.189434
45.957565
34.781694
26.591420
24.238825
23.813844
25.457740
27.305484
30.423999
31.823516
37.822723
41.522980
46.612620
52.023530
56.861639
60.289502
67.512989
74.647665
77.994466
85.471869
90.560913
92.191696
100.701451
102.727413
108.491778
109.068751
112.340450
112.435818
115.771890
115.815997
111.878514
111.133456
111.190677
111.237764
107.686520
104.304552
104.220510
98.623633
93.521476
92.147589
90.516806
92.479587
92.844963
91.769695
89.878440
89.376569
88.369846
79.671741
74.235797
70.707798
64.893961
59.195757
53.660870
51.754713
47.023892
44.398904
40.296912
38.705468
36.727786
35.151839
35.376549
32.962561
31.488538
31.072497
31.491518
30.994415
28.534532
##ZVALUE=250
2.929568
2.761483
3.403425
2.927780
3.500581
4.052520
5.552769
25.710464
75.554848
216.782689
418.113470
838.264823
1015.768647
1015.768647
1015.768647
1015.768647
1015.768647
1015.768647
1015.768647
1015.768647
816.248655
524.109006
242.469907
146.786571
122.487545
129.578710
149.388909
150.584579
150.342584
136.832595
114.972591
92.984438
70.771575
49.599409
41.204691
30.303597
29.804707
30.834675
32.419562
35.691857
39.199591
46.368837
53.038597
55.115819
59.986711
65.996647
72.596669
80.745816
84.500909
91.452599
96.730590
102.031827
107.747912
112.182498
116.898417
113.776922
115.389824
116.787553
118.320584
111.706853
113.088489
112.011433
112.428665
106.343627
107.105970
100.176930
97.751617
99.076629
94.122887
88.785887
93.028545
88.100433
87.241530
86.547732
84.673762
80.577731
76.259971
71.438551
68.224669
59.912801
57.480931
51.869750
48.566461
44.004917
42.892694
38.332939
36.143661
35.774708
33.818483
32.026768
31.217933
31.041503
29.694438
28.690696
28.363466
27.964711
##ZVALUE=255
2.108812
2.336502
2.621412
2.561808
3.023744
3.067851
3.191829
3.943443
4.331470
8.782744
48.978925
132.496953
355.213881
624.595881
1015.589833
1015.589833
1015.589833
1015.589833
1015.589833
1015.589833
1015.589833
1015.589833
1015.589833
637.598634
357.568860
162.775517
116.934776
119.812489
133.747458
154.639482
162.432790
154.153705
144.494772
121.885538
102.224946
73.004961
60.908794
49.280524
45.461655
44.268966
47.285557
54.945946
60.863495
68.909526
74.771643
85.616708
91.453791
104.691982
110.233426
117.280483
124.992728
130.559802
138.868690
144.651532
146.017671
152.007937
152.387619
151.567459
149.653554
149.059892
148.345828
144.915581
142.621994
136.068463
132.625699
130.417943
124.510527
118.728876
117.326975
110.475421
108.372569
107.833743
104.133487
100.556612
93.373656
90.170503
85.678697
76.616406
74.970722
68.155527
64.335465
56.695938
53.095818
48.530698
46.682954
42.321682
40.593743
38.494468
34.987926
33.376813
32.681823
32.065511
30.588508
29.106736
29.203892
28.399825
##ZVALUE=260
2.245903
2.581477
2.076626
2.589822
2.695918
2.566576
3.265738
3.169775
3.469586
3.829598
3.727674
5.847812
21.243691
90.919733
212.077498
511.317849
857.282877
1015.589833
1015.589833
1015.589833
1015.589833
1015.589833
1015.589833
1015.589833
1015.589833
977.861881
555.092692
304.142833
140.949488
106.074810
114.178658
142.751932
161.343813
173.601508
172.816515
154.025555
141.029954
118.694901
100.204945
86.263418
80.363750
79.790950
85.076690
95.502734
105.060935
117.648840
129.141808
140.754580
150.059462
163.547993
173.107982
182.480812
189.897418
197.191834
201.792717
205.114484
208.727717
208.360553
210.560560
207.258463
206.190944
203.203559
192.076564
187.619925
186.373591
177.896619
169.002414
163.066983
155.575871
147.485733
144.394636
137.932897
133.012533
125.527978
119.542480
111.860633
107.371807
99.570751
93.632936
85.274577
78.191757
71.901679
67.763925
60.817599
57.974458
51.474571
48.310757
46.196580
41.944981
40.256977
39.512515
36.368966
36.049485
34.958720
32.476783
33.349991
##ZVALUE=265
2.156496
2.262592
2.060533
2.285838
2.482533
2.624989
3.065467
3.059506
2.468824
3.018975
3.274679
3.716946
3.634691
4.587770
10.680556
59.593916
150.451660
387.611389
697.765946
1015.589833
1015.589833
1015.589833
1015.589833
1015.589833
1015.589833
1015.589833
1015.589833
1015.589833
793.969631
449.115634
237.039924
111.861825
101.065636
134.723783
158.783793
184.316635
196.406841
194.715858
190.247893
172.751546
159.606934
145.834684
140.399933
138.005614
143.416524
155.718923
172.082782
185.793638
200.826526
218.608975
230.973959
242.868662
246.833563
258.304477
265.679955
271.564722
274.858475
273.113847
273.583531
272.094607
269.057751
264.717937
257.079005
248.233676
240.088701
231.200457
224.273801
212.356448
202.092528
192.101598
186.996460
175.058842
167.034864
157.800913
149.547458
138.445497
130.320787
123.640895
112.485886
103.145838
94.654560
87.058544
83.234906
77.582002
68.576932
65.280795
60.147643
55.129528
52.189827
48.347712
46.414733
41.282773
41.668415
39.855838
37.934780
37.033558
##ZVALUE=270
2.157688
2.056956
2.360940
2.226830
2.260804
2.338886
2.453923
2.475977
2.782941
2.385974
2.978444
3.048778
3.132820
3.827810
4.006624
4.464984
5.855560
27.651787
85.271597
278.402567
563.268661
965.778828
1015.575528
1015.575528
1015.575528
1015.575528
1015.575528
1015.575528
1015.575528
1015.575528
1015.575528
690.493584
362.792015
144.513845
103.545785
122.638941
153.818727
194.170475
218.216777
237.880945
248.397589
249.561667
241.444707
231.561661
226.981640
224.139690
229.823589
241.324902
255.037546
271.906853
284.780860
303.512812
313.527584
329.039693
334.915519
340.519547
347.653627
347.232819
343.777537
343.538523
337.920785
330.107808
324.482918
313.863754
302.738547
290.335417
279.754996
266.355872
253.041983
241.456628
228.911638
216.530561
206.486583
194.479823
184.612870
169.814825
159.815550
147.789717
137.831569
123.382807
116.281509
106.879473
99.204779
89.645982
85.653663
77.215433
72.049499
67.356825
62.419772
56.229830
52.877665
48.586726
47.156811
43.703914
43.052435
41.485429
##ZVALUE=275
1.958609
2.010465
2.010465
2.132654
2.189875
2.408624
2.386570
2.142787
2.545714
2.392530
2.353787
2.810955
2.978444
2.750754
3.025532
3.335476
3.542900
4.291534
4.740953
9.459853
55.281520
162.423849
487.143993
887.538791
1015.589833
1015.589833
1015.589833
1015.589833
1015.589833
1015.589833
1015.589833
1015.589833
1015.589833
934.628844
531.439781
230.337977
136.606693
126.920938
154.456496
203.859806
241.019726
279.482007
304.984450
326.297879
327.816606
328.280926
322.819948
320.504904
321.207643
332.344770
342.635512
354.014635
362.780690
381.781459
384.735465
393.604636
396.116972
399.501920
399.001837
395.962000
387.152433
378.978848
376.029015
363.219976
351.422429
335.599780
322.579741
303.585529
290.797949
277.142525
264.784694
246.122479
237.429738
221.006870
208.364725
190.505981
181.321502
166.943669
154.795647
140.719414
132.897496
121.710896
111.490488
101.704001
94.672441
86.917877
80.913901
74.808002
69.443583
63.474774
58.519840
53.016543
52.223802
47.671795
45.955777
43.151975
##ZVALUE=280
1.831651
2.089739
1.962781
2.052784
2.151728
2.076626
2.292991
2.211928
2.320409
2.291799
2.490878
2.402663
2.507567
2.714992
3.083944
3.229976
3.272891
3.353953
3.599524
4.045963
4.734993
6.149411
33.071637
111.696720
358.324647
677.023530
1015.589833
1015.589833
1015.589833
1015.589833
1015.589833
1015.589833
1015.589833
1015.589833
1015.589833
1015.589833
779.805779
351.409912
197.557807
145.007968
164.774656
214.594603
253.823996
305.932760
343.628526
373.928547
392.593741
402.321815
400.659442
398.554802
393.459797
390.315652
395.009518
402.658582
405.628681
410.175920
415.820479
418.548584
413.308740
414.216518
408.399701
399.580002
389.147997
374.681950
362.672806
346.739888
332.581997
314.684510
300.414562
282.652974
271.954536
254.643559
245.829821
227.627754
213.458538
199.682713
187.453628
173.774958
160.493851
146.441460
135.229826
123.517513
116.267800
105.964541
98.724961
88.431835
83.838701
76.461434
72.133541
64.867735
60.872436
56.007504
51.657557
47.767758
46.357512
43.756962
##ZVALUE=285
1.764894
1.929998
1.951456
2.070665
1.915693
2.067685
2.154708
2.135634
2.169609
2.269745
2.209544
2.335906
2.577901
2.394915
2.468824
2.814531
2.772808
2.798438
3.209710
3.580451
3.851652
4.292727
5.128980
5.728602
15.623569
55.871010
205.134749
449.838638
968.496799
1015.641689
1015.641689
1015.641689
1015.641689
1015.641689
1015.641689
1015.641689
1015.641689
1015.641689
1015.641689
576.152802
316.026807
176.614523
166.706443
205.595493
243.586898
300.190449
339.946747
380.722880
408.102870
427.026749
433.542728
434.417725
422.880650
410.188437
399.183631
391.502976
386.076570
385.731459
379.475951
374.781489
372.550488
364.115834
355.717540
341.692567
335.083604
318.524837
308.854580
294.943452
279.809833
264.416933
251.343846
236.626863
225.572586
208.358765
197.877884
183.978677
172.075629
158.009529
149.055719
134.353638
126.464963
114.380717
107.375979
98.236799
91.789961
82.639456
76.700449
71.170926
66.417456
60.830712
57.228804
52.047968
49.420595
45.161843
43.267608
41.399598
##ZVALUE=290
1.424551
1.793504
1.701713
1.863837
1.750588
1.926422
1.933575
1.867414
2.021790
2.085567
1.940727
2.057552
2.251863
2.154708
2.224445
2.424717
2.646446
2.575517
2.685785
2.641678
2.884865
3.157854
3.694892
4.067421
4.398823
4.792809
7.053614
22.825599
116.167665
287.801623
586.163402
1015.589833
1015.589833
1015.589833
1015.589833
1015.589833
1015.589833
1015.589833
1015.589833
1015.589833
1015.589833
833.680630
456.673503
216.783881
159.622431
175.753832
204.436779
246.668458
284.708738
331.546664
362.308621
387.907624
398.304462
394.168496
381.399989
361.891985
346.656442
326.040983
316.976905
302.520990
293.916464
282.493830
274.716616
268.667936
260.269642
246.431828
240.011811
227.946639
218.924880
208.014846
198.427439
185.302496
177.876949
164.836645
155.875683
143.783689
135.540962
124.921799
116.467476
106.929541
98.525882
90.526938
85.995793
77.540874
72.458982
66.621900
63.270926
57.130456
53.509474
49.812794
46.174526
42.564869
40.399432
37.877560
36.157966
34.726858
##ZVALUE=295
1.612902
1.505613
1.657605
1.562834
1.498461
1.847744
1.749992
1.840591
1.881719
1.612902
1.899600
1.664758
2.061725
1.863837
2.088547
2.081990
2.385974
2.478957
2.485514
2.403855
2.517700
2.715588
3.000498
3.362894
3.418922
3.802776
4.491806
5.086660
5.620718
12.436509
47.970414
210.120082
463.664532
995.966792
1015.589833
1015.589833
1015.589833
1015.589833
1015.589833
1015.589833
1015.589833
1015.589833
1015.589833
1015.589833
629.204512
256.365538
153.347850
127.664804
142.119527
173.704624
199.509859
236.488581
261.130929
289.763808
302.370787
304.149985
295.116901
277.122855
256.531835
229.198933
210.398436
191.017985
181.378722
168.673992
162.730813
156.268477
151.088834
142.133832
136.836767
130.480528
124.330521
118.621588
112.270713
105.735660
98.395944
91.707706
87.277889
80.785751
75.773597
69.461465
65.367818
60.792565
56.346655
50.882697
48.289895
45.242906
41.784644
38.650632
37.414432
33.967495
32.776594
30.210614
28.688908
27.361512
26.110411
25.093555
##ZVALUE=300
1.480579
1.499653
1.344681
1.413822
1.451969
1.702905
1.621842
1.679659
1.613498
1.622438
1.854897
1.774430
2.008677
1.690984
1.872778
1.991987
1.958609
2.204776
2.357960
2.023578
2.442598
2.570748
2.707839
2.909899
3.111959
3.297925
3.365874
4.090667
4.389882
4.433990
5.505681
6.792545
26.493669
100.122690
355.078578
711.297989
1015.589833
1015.589833
1015.589833
1015.589833
1015.589833
1015.589833
1015.589833
1015.589833
1015.589833
1015.589833
851.906538
450.224876
171.302557
93.498826
81.364512
91.646910
112.276673
129.676461
158.430934
177.930593
201.743841
208.996534
208.848715
200.009942
178.363919
158.743858
132.169724
114.953518
95.723867
86.634755
77.282786
71.618557
67.573786
64.736605
61.962605
59.542656
57.803988
55.215955
52.366853
49.457550
45.908689
43.754578
39.624572
37.556887
34.022927
33.066869
30.696988
29.033422
27.147532
25.659800
24.365783
22.896528
21.710992
21.017790
19.732714
19.128919
18.597841
18.115640
17.614961
17.970800
##ZVALUE=305
1.484752
1.343489
1.533628
1.409650
1.648664
1.613498
1.486540
1.636744
1.571774
1.689792
1.616478
1.482964
1.852512
1.700521
1.734495
2.047420
2.129674
1.800656
2.005696
2.027750
2.203584
2.429485
2.259612
2.567768
2.586842
2.719760
3.041625
3.196597
3.310442
3.491640
4.051924
4.502535
5.000830
5.804896
10.790825
68.467855
199.534893
592.854619
1001.044512
1015.595794
1015.595794
1015.595794
1015.595794
1015.595794
1015.595794
1015.595794
1015.595794
1015.595794
1015.595794
557.456613
257.540941
82.189441
47.301650
47.336817
55.301785
73.083639
88.705420
112.546682
129.180551
148.171782
155.454874
153.037906
145.689845
124.758482
105.609894
81.299543
65.303445
50.444603
41.279793
35.182834
33.136606
30.884743
30.180812
28.353930
27.684569
26.234984
24.970770
22.237897
21.772981
20.368695
19.166470
18.829703
17.410517
17.164946
16.376972
15.731454
14.954805
14.247894
14.319420
13.408661
13.358593
13.371706
13.316870
13.581514
13.370514
13.679862
##ZVALUE=310
1.189709
1.389980
1.219511
1.426935
1.193881
1.234412
1.244545
1.437664
1.355410
1.322627
1.467466
1.614690
1.620650
1.550913
1.619458
1.605749
1.755953
1.615882
1.778603
1.751781
1.805425
1.714826
1.947880
2.005696
2.358556
2.146959
2.645850
2.638698
2.948642
2.976656
3.044605
3.458858
3.703833
4.028678
4.798770
5.429983
6.251931
28.032660
99.266768
350.427032
709.462762
1015.461683
1015.461683
1015.461683
1015.461683
1015.461683
1015.461683
1015.461683
1015.461683
1015.461683
1015.461683
928.533673
472.848415
143.171549
49.468875
25.366545
27.651787
36.451817
46.368837
63.843727
80.356002
103.296638
116.799474
128.020644
127.281547
119.627714
106.822848
85.899830
67.569613
46.953559
36.529899
26.519895
21.733642
18.106699
16.747713
15.239716
14.286637
13.646483
12.739897
12.437701
11.906624
11.132956
10.974407
10.843873
10.802746
10.229945
10.236502
10.431409
10.149479
10.349751
10.062456
10.546446
10.953546
10.937452
11.665821
11.491776
##ZVALUE=315
1.025796
0.975728
0.936985
1.088977
1.064539
1.053810
0.899434
0.960827
1.180768
1.002550
1.170635
1.163483
1.317859
1.085997
1.226664
1.166463
1.294613
1.467466
1.395941
1.571774
1.330972
1.376867
1.648664
1.850724
1.761913
1.855493
1.943707
1.944900
2.320409
2.312660
2.367496
2.726912
2.949834
3.365874
3.430843
4.133582
4.366636
5.048513
5.553961
13.032556
51.609874
229.381323
507.898927
1015.269756
1015.269756
1015.269756
1015.269756
1015.269756
1015.269756
1015.269756
1015.269756
1015.269756
1015.269756
1015.269756
677.065849
218.196511
72.790980
21.919608
17.836690
21.406412
26.252866
39.187670
51.466823
71.809888
88.313818
106.363893
114.026666
114.790797
109.610558
91.884732
76.879859
57.724714
43.593645
29.022694
21.759868
15.061498
12.413859
10.624528
9.808540
9.260774
8.872747
8.576512
8.376837
8.503795
8.328557
8.357763
7.924438
8.354783
8.281469
8.637905
9.022951
9.046793
9.672642
10.408759
10.374784
11.080503
##ZVALUE=320
1.164675
1.088977
1.051426
1.222491
1.266599
1.301765
1.368523
1.200438
1.271963
1.357794
1.333952
1.294613
1.492500
1.407862
1.441836
1.489520
1.594424
1.727939
1.650453
1.650453
1.554489
1.610518
1.775622
1.964569
1.894832
2.122521
2.148747
2.389550
2.302527
2.279878
2.394915
2.693534
2.909899
3.023744
3.075600
3.475547
3.488660
4.267693
4.323721
5.288720
5.869865
7.502437
23.204684
129.175782
327.126384
858.789682
1015.589833
1015.589833
1015.589833
1015.589833
1015.589833
1015.589833
1015.589833
1015.589833
1015.589833
1015.589833
940.122008
375.805497
148.013830
32.495856
16.606450
15.837550
18.167496
24.301410
31.569600
47.750473
62.905550
84.165931
96.827745
106.605887
108.614564
102.044940
91.118813
71.689487
56.017637
37.593842
26.832819
18.339753
13.461709
10.009408
8.813739
8.169413
7.567406
7.402897
7.675886
7.555485
7.621646
8.213520
7.741451
8.122921
8.431673
8.735657
9.748936
10.437965
10.739565
11.465549
##ZVALUE=325
1.171827
1.102686
1.241565
1.258850
1.268983
1.179576
1.120567
1.315475
1.109838
1.102686
1.342893
1.373887
1.347661
1.353621
1.333952
1.492500
1.502633
1.494884
1.411438
1.441836
1.531839
1.662970
1.735687
1.767874
1.654625
1.878738
1.637936
1.927614
1.944900
2.099872
2.348423
2.353787
2.593994
2.603531
2.847910
3.007650
3.231764
3.211498
3.692508
4.042983
4.395843
4.730821
5.234480
6.032586
14.761686
60.274005
246.639848
525.845885
1015.589833
1015.589833
1015.589833
1015.589833
1015.589833
1015.589833
1015.589833
1015.589833
1015.589833
1015.589833
1015.589833
596.707463
192.994475
62.944889
17.859936
13.671517
14.157891
15.605688
22.152662
30.480623
47.332644
61.169863
80.360770
92.472434
100.724697
101.990700
94.171762
83.603859
64.990520
49.924850
33.005476
23.995638
15.242696
11.779666
8.649826
7.684827
7.443428
7.531643
7.243752
7.202625
7.179976
7.436872
7.808805
7.947683
8.708835
8.942485
9.701848
10.232925
##ZVALUE=330
1.235604
1.089573
1.196861
1.131892
1.040697
1.176596
1.070499
1.081824
1.354814
1.179576
1.181960
1.065731
1.406670
1.451969
1.035929
1.211762
1.346469
1.433492
1.503825
1.490712
1.454949
1.299977
1.392961
1.556873
1.577735
1.702905
1.673698
1.610518
1.731515
1.976490
2.003908
2.132654
2.198815
2.134442
2.382994
2.602935
2.609491
2.850890
2.896786
3.383756
3.304482
3.740788
4.000664
4.545450
4.976988
5.813837
7.377863
34.208894
115.963817
399.159789
775.497556
1015.586853
1015.586853
1015.586853
1015.586853
1015.586853
1015.586853
1015.586853
1015.586853
1015.586853
1015.586853
652.436614
310.346484
92.584491
28.314590
13.128519
12.462735
13.069510
14.958978
21.602511
29.170513
42.607784
56.000948
74.401498
85.901618
93.754530
95.083714
86.851716
76.223612
58.736801
45.809746
30.971766
22.319555
14.656782
11.251569
8.529425
7.498860
7.065535
6.900430
6.665587
6.777644
7.039905
7.385612
7.347465
7.786751
8.088946
##ZVALUE=335
0.999570
0.958443
1.058578
1.089573
1.119971
0.900626
1.236796
1.176596
1.087785
1.174808
1.117587
1.103878
1.220703
1.233816
1.257658
1.029968
1.105666
1.208782
1.261830
1.263618
1.382828
1.355410
1.318455
1.421571
1.556873
1.523495
1.523495
1.555681
1.590848
1.698732
1.661777
1.939535
1.824498
2.103448
2.035499
2.204776
2.228618
2.348423
2.369881
2.760887
2.820492
3.138781
3.349781
3.526807
3.642440
4.238486
4.472733
5.331635
6.026626
15.450716
59.274435
243.803859
522.419810
1015.589833
1015.589833
1015.589833
1015.589833
1015.589833
1015.589833
1015.589833
1015.589833
1015.589833
1015.589833
838.580728
432.859659
131.625533
44.387579
14.875531
12.095571
11.742711
12.733936
15.162826
19.459724
29.071569
39.497614
54.896474
67.128539
80.576539
85.349679
86.450577
80.575943
68.072677
57.694912
43.432713
33.840537
21.752715
16.132593
10.380745
8.617640
7.529855
6.773472
6.327629
6.390810
6.724596
6.524920
6.603599
##ZVALUE=340
0.949502
0.871420
0.909567
0.896454
1.075864
0.932813
0.876784
1.071692
1.012683
0.989437
0.901818
0.928640
0.980496
0.999570
1.051426
1.065731
1.170635
1.139641
1.248717
1.249909
1.127720
1.058578
1.316667
1.339912
1.305938
1.288652
1.429915
1.427531
1.589656
1.451969
1.653433
1.782775
1.716614
1.650453
1.781583
1.933575
1.880527
2.029538
2.246499
2.239943
2.380610
2.447963
2.661943
2.903938
3.015995
3.169775
3.718734
3.760457
4.189610
4.761815
5.497932
6.915927
37.000775
122.494698
405.109525
816.037655
1015.529633
1015.529633
1015.529633
1015.529633
1015.529633
1015.529633
1015.529633
1015.529633
1015.529633
1015.529633
505.145788
232.526660
56.181550
19.290447
12.643933
12.171865
12.154579
12.378693
14.837980
17.702579
26.426911
36.037564
50.618649
61.968565
74.817538
79.916716
79.542994
76.696873
66.196918
56.094527
41.908622
31.715631
21.467805
15.538931
10.548830
8.221865
6.678700
6.574988
6.034970
6.227493
##ZVALUE=345
0.965595
0.978708
1.018643
0.892878
0.965595
0.953674
1.123548
1.035929
0.996590
1.088977
0.922680
1.105666
1.260638
1.153946
1.205802
1.249909
1.033545
1.199841
1.241565
1.197457
1.205802
1.285672
1.334548
1.216531
1.370907
1.331568
1.395941
1.444817
1.560450
1.563430
1.716614
1.661777
1.726747
1.561642
1.949668
1.877546
1.902580
1.855493
2.007484
2.132654
2.276897
2.265573
2.464652
2.554655
2.486706
2.826452
3.067851
3.031492
3.256798
3.905892
4.196763
4.591942
4.746914
6.106496
12.558699
81.152916
230.373144
626.183748
1015.589833
1015.589833
1015.589833
1015.589833
1015.589833
1015.589833
1015.589833
1015.589833
1015.589833
1015.589833
741.802454
279.406905
116.006732
30.716658
15.139580
12.836456
11.833906
10.854602
10.715723
12.488961
15.416741
23.521781
32.390952
46.556592
55.706501
65.563917
71.772933
74.406862
71.898699
63.098669
54.480433
41.653514
31.811595
20.938516
15.857816
10.444522
8.240938
6.878972
##ZVALUE=350
1.027584
0.992417
1.049638
0.989437
1.129508
1.085997
1.073480
1.060963
1.030564
1.154542
1.123548
1.052618
0.984669
0.988841
1.074672
1.114607
1.147985
1.252890
1.161695
1.260638
1.238585
1.271963
1.438856
1.269579
1.025796
1.214743
1.412630
1.308918
1.482964
1.441836
1.451969
1.593828
1.680851
1.726747
1.646876
1.523495
1.722574
1.771450
1.784563
1.950860
2.019405
2.165437
2.166629
2.320409
2.537966
2.361536
2.655983
2.635717
3.006458
2.881885
3.378987
3.676414
3.847480
4.293919
4.657507
5.242825
8.512735
30.381680
148.369670
356.289744
888.918638
1015.589833
1015.589833
1015.589833
1015.589833
1015.589833
1015.589833
1015.589833
1015.589833
1015.589833
788.810849
420.274734
150.010586
52.138567
15.361905
11.826754
10.238886
9.520650
8.809566
9.073615
11.211634
14.089942
20.689964
28.031468
38.845539
48.452616
59.591532
65.741539
69.222450
66.557527
59.657693
51.578879
38.874745
30.447841
21.025538
15.675426
##ZVALUE=355
1.268983
1.037717
1.127720
0.983477
1.108646
1.117587
1.126528
1.174808
1.144409
1.212955
1.123548
1.272559
1.115799
1.207590
1.139641
1.190901
1.209974
1.278520
1.229644
1.069903
1.144409
1.347661
1.186728
1.343489
1.275539
1.304746
1.557469
1.598597
1.490712
1.523495
1.447797
1.530647
1.524687
1.604557
1.561642
1.573563
1.835823
1.781583
1.669526
1.853704
1.939535
2.218485
2.007484
2.140999
2.336502
2.327561
2.402663
2.612472
2.724528
2.972484
2.885461
3.209710
3.450513
3.584623
3.675818
4.440546
4.572868
4.999638
5.729795
16.519427
67.469478
276.178718
575.354695
1015.589833
1015.589833
1015.589833
1015.589833
1015.589833
1015.589833
1015.589833
1015.589833
1015.589833
1015.589833
513.285398
233.814716
61.543584
20.594001
11.326671
9.889603
8.859634
8.598566
8.064508
8.602738
10.175705
12.694597
18.540621
24.507642
33.563972
42.419434
53.211451
58.825612
62.501431
60.280561
55.326819
48.741698
38.310885
##ZVALUE=360
1.080632
1.169443
1.054406
0.944734
0.989437
1.019835
1.220703
1.094937
1.309514
1.133680
1.070499
1.110435
1.268983
1.331568
1.299977
1.186728
1.319647
1.241565
1.359582
1.280904
1.424551
1.390576
1.495481
1.362562
1.477599
1.476407
1.384616
1.383424
1.480579
1.574755
1.419783
1.451969
1.630783
1.650453
1.816750
1.702905
1.776814
1.820922
1.914501
1.911521
1.944900
1.945496
1.972914
2.153516
2.328753
2.292991
2.545714
2.501607
2.553463
2.781749
2.742410
2.867579
2.991557
3.206730
3.299713
3.753901
3.835559
4.015565
4.364848
5.155802
5.500913
9.009838
28.997660
141.567588
353.975892
891.354680
1015.589833
1015.589833
1015.589833
1015.589833
1015.589833
1015.589833
1015.589833
1015.589833
1015.589833
702.290535
352.750421
120.804906
39.547682
12.023449
10.008812
8.972883
8.102655
7.789731
7.663965
7.592440
8.627772
10.980964
14.400482
20.722747
28.017759
37.870407
45.466423
53.529739
55.952668
56.278706
##ZVALUE=365
1.216531
1.309514
1.114607
1.031756
1.130700
1.135468
1.073480
1.164675
1.138449
1.063943
1.164675
1.291633
1.268983
1.149774
1.291633
1.088977
1.118779
1.285672
1.223683
1.306534
1.434684
1.324415
1.198649
1.354814
1.327991
1.262426
1.366735
1.374483
1.407862
1.559854
1.460910
1.497865
1.624823
1.574755
1.710653
1.704693
1.664758
1.790524
1.938939
1.975894
1.897812
1.920462
2.089739
1.908541
2.024770
2.082586
2.120733
2.237558
2.263784
2.438426
2.563000
2.618432
2.711415
2.731681
2.883673
3.274679
3.101826
3.291965
3.660917
3.990531
4.187822
5.035996
5.552769
6.555915
13.127923
79.862475
221.336484
595.584512
1014.860868
1015.589833
1015.589833
1015.589833
1015.589833
1015.589833
1015.589833
1015.589833
1015.589833
941.813588
505.096912
168.498755
58.607459
14.412999
9.784698
8.752942
7.984638
7.598996
7.001758
6.702542
6.675720
7.543564
8.880496
12.601614
16.856790
23.921728
31.558871
39.741993
##ZVALUE=370
1.145601
0.991821
1.087785
1.197457
1.023412
1.116991
1.075864
1.095533
1.207590
1.107454
1.086593
1.187921
1.162887
1.112819
1.147985
1.056790
1.177788
1.136661
1.137853
1.223683
1.169443
1.259446
1.317859
1.252890
1.318455
1.389980
1.124740
1.226664
1.293421
1.454949
1.330972
1.346469
1.386404
1.392961
1.519918
1.552701
1.487732
1.679659
1.716614
1.671910
1.798868
1.758933
1.810789
1.806617
1.847744
1.826882
1.991987
2.133846
2.076626
1.992583
2.095699
2.384782
2.170801
2.410412
2.449751
2.597570
2.831817
3.093481
3.077984
3.166795
3.432631
3.663898
4.055500
4.322529
4.906654
5.493760
7.759929
37.618876
130.292773
437.410474
852.028728
1015.589833
1015.589833
1015.589833
1015.589833
1015.589833
1015.589833
1015.589833
1015.589833
1015.589833
632.126927
237.520933
101.265907
27.546883
11.670589
8.305907
7.907748
7.199645
6.566644
6.231666
6.095767
6.006956
6.360412
8.338690
10.715723
15.338659
##ZVALUE=375
0.968575
1.069903
1.017451
0.977516
1.205802
1.051426
1.016855
0.929832
0.970960
1.102686
1.042485
1.022816
0.893474
1.156926
1.136661
0.979900
1.225471
1.103878
1.221895
1.043677
1.182556
0.953674
1.092553
1.040697
1.062751
1.093745
1.106858
1.123548
1.205802
1.367927
1.414418
1.474619
1.364946
1.392961
1.514554
1.412630
1.474619
1.517534
1.673698
1.516938
1.422763
1.496673
1.622438
1.707673
1.767874
1.870990
1.880527
1.730919
1.798868
2.058744
1.814961
2.105832
2.038479
1.917481
2.088547
2.205968
2.411604
2.333522
2.422929
2.695918
2.725720
2.927780
3.129840
3.243685
3.475547
3.770590
4.368424
5.127788
6.026626
19.105673
69.151521
261.538625
572.255850
1015.602946
1015.602946
1015.602946
1015.602946
1015.602946
1015.602946
1015.602946
1015.602946
1015.602946
918.241739
440.616608
210.838914
58.709979
18.710494
8.679628
7.827878
7.135868
6.601810
6.377697
6.081462
5.458593
5.744696
6.145835
##ZVALUE=380
0.906587
1.009703
0.902414
0.938773
0.946522
0.837445
0.996590
0.948906
0.973940
1.012683
0.912547
0.850558
0.920892
0.992417
0.969768
1.012683
0.994802
1.025796
0.939965
1.154542
0.919700
1.020432
1.030564
1.030564
1.067519
1.233816
1.030564
1.103878
1.119971
1.146793
1.285672
1.404881
1.340508
1.398921
1.176000
1.424551
1.497865
1.445413
1.351833
1.494884
1.473427
1.477599
1.508594
1.642704
1.715422
1.802444
1.688600
1.989603
1.731515
1.738667
1.727939
2.107620
1.934767
1.988411
2.053976
2.051592
2.215505
2.244711
2.251863
2.466440
2.519488
2.512932
2.741814
2.974868
2.953410
3.277659
3.599524
4.197955
4.537702
5.384684
5.698800
10.586977
38.762689
190.646648
445.609689
984.418988
1015.589833
1015.589833
1015.589833
1015.589833
1015.589833
1015.589833
1015.589833
1015.589833
1015.589833
590.983629
301.259756
107.343793
36.433935
9.562969
7.701516
7.012486
6.720424
6.523728
5.846620
5.782843
##ZVALUE=385
0.834465
0.717640
0.788569
0.814795
0.877976
0.818968
0.710487
0.839829
0.732541
0.796914
0.894666
0.870824
0.915527
0.864863
0.816584
0.874996
1.047850
0.834465
0.747442
0.940561
0.902414
0.868440
0.931621
0.978708
0.827909
0.982881
0.929832
1.177788
1.068711
1.023412
1.201630
1.185536
1.176596
1.176596
1.266599
1.352429
1.424551
1.366735
1.396537
1.549721
1.390576
1.743436
1.640916
1.581907
1.659989
1.691580
1.792908
1.968741
1.924634
1.898408
2.018809
2.027750
2.144575
2.209544
1.994967
2.173781
2.298951
2.250671
2.335906
2.450943
2.414584
2.554655
2.537966
2.664924
2.872944
2.836585
3.164411
3.594756
3.794432
4.513860
4.726648
5.112886
5.607605
6.620884
17.766953
106.008649
278.224945
717.715621
1015.504599
1015.504599
1015.504599
1015.504599
1015.504599
1015.504599
1015.504599
1015.504599
1015.504599
916.201472
509.039760
198.614597
73.128939
15.036464
8.047819
7.041693
6.589890
6.075501
##ZVALUE=390
0.916719
0.973940
0.877976
0.924468
0.956655
0.824928
0.901818
0.908971
0.945926
0.680685
0.695586
0.782609
0.879765
1.009703
0.906587
0.882745
0.803471
0.977516
0.887513
0.945926
1.001954
0.846982
1.129508
0.975728
0.938773
0.967979
0.924468
1.054406
1.263618
1.197457
1.273751
1.305938
1.343489
1.488924
1.482964
1.512766
1.664758
1.511574
1.685619
1.842976
1.757741
1.988411
1.958609
2.116561
2.076626
1.893640
2.208948
2.284646
2.253652
2.343655
2.322793
2.558827
2.430677
2.476573
2.540946
2.563000
2.555847
2.880692
2.692938
2.606511
2.804995
2.872944
2.858639
2.701879
2.977848
3.109574
3.291965
3.670454
3.652573
4.376769
4.695654
4.702806
4.865527
4.827976
5.038977
5.608797
9.452701
54.382682
172.467828
532.823801
968.426466
1015.589833
1015.589833
1015.589833
1015.589833
1015.589833
1015.589833
1015.589833
1015.589833
1015.589833
773.530006
303.325653
132.353902
33.813715
11.085868
7.355809
##ZVALUE=395
1.042485
1.086593
0.976920
1.015663
0.968575
1.113415
1.162887
1.057982
1.149774
1.094937
1.177788
1.168847
1.134872
1.074672
1.105666
1.100898
1.092553
1.254678
1.163483
1.060963
1.019835
1.138449
1.165867
1.267791
1.281500
1.311898
1.242757
1.350641
1.441836
1.388788
1.443624
1.297593
1.671910
1.544952
1.757741
1.909733
1.854897
1.988411
2.076626
2.114773
2.151728
2.111793
2.293587
2.475977
2.453923
2.569556
2.677441
2.868772
2.967715
2.824664
2.924800
3.117919
3.093481
3.084540
3.054738
3.347993
3.317595
3.180504
3.091693
3.371835
3.277659
3.180504
3.417730
3.535748
3.585815
3.695488
3.692508
3.946424
4.151464
4.325509
4.574656
4.820824
4.685521
4.783869
4.701614
4.662871
5.024672
5.554557
6.660819
30.035973
114.671588
403.848886
777.034760
1015.833616
1015.833616
1015.833616
1015.833616
1015.833616
1015.833616
1015.833616
1015.833616
1015.833616
986.786485
457.210541
209.330916
60.102940
##ZVALUE=400
0.913739
0.859499
0.867844
0.812411
0.902414
0.739694
0.886917
0.830889
0.926852
0.739694
0.951886
0.835657
0.894666
0.853539
0.817776
0.811815
0.923872
0.905991
0.827909
0.849962
0.883937
0.938773
0.838637
0.971556
0.970960
1.060963
1.060963
1.059771
1.147985
1.180768
1.176000
1.270771
1.294613
1.442432
1.439452
1.556873
1.617670
1.650453
1.663566
1.811981
2.091527
2.040863
2.012849
2.314448
2.572536
2.592802
2.518892
2.677441
2.686977
2.810955
2.878904
3.059506
3.030896
3.002882
3.155470
3.168583
3.144741
3.245473
3.128648
3.121495
3.308654
3.134608
3.161430
3.501773
3.251433
3.290772
3.647804
3.785491
4.060864
3.912449
4.094839
4.525781
4.384518
3.926754
4.216433
4.029870
4.151464
4.378557
4.628897
5.355477
5.886555
15.773773
59.194565
227.216482
500.518680
1015.589833
1015.589833
1015.589833
1015.589833
1015.589833
1015.589833
1015.589833
1015.589833
1015.589833
1015.589833
712.334514
##END
