##TITLE=D2-5
##FORMAT=SPECTACLE-ASCII V-1.2
##DATA TYPE=ULTRAVIOLET SPECTRUM
##SECOND TYPE=ULTRAVIOLET SPECTRUM
##DATE=01/24/18
##TIME=14:05:43
##SPECTROMETER/DATA SYSTEM=SPECTACLE
##XUNITS=NM EM
##YUNITS=ENERGY
##YFACTOR=1
##FIRSTX=220
##LASTX=410
##NPOINTS=96
##3DDATA=Equidistant
##ZUNITS=NM EX
##FIRSTZ=210
##LASTZ=400
##ZPOINTS=39
##XYDATA=(Y..Y)
##ZVALUE=210
28.296709
25.379658
18.183589
13.601780
13.145804
10.889769
10.848641
9.530783
8.016825
6.891489
5.755424
5.049706
4.351735
4.059672
3.976822
5.612969
5.250573
5.040765
5.157590
6.239414
6.093979
6.178617
6.289482
7.324815
8.631945
9.669662
10.109544
10.544658
12.766719
11.297464
12.467504
13.158917
15.695691
15.438795
16.837716
18.589497
21.488667
22.427440
23.730993
24.470687
28.300881
28.856993
32.762885
34.376979
37.291646
39.393902
42.411685
43.240786
48.510432
50.389767
53.210855
55.862665
55.134892
57.251453
58.511496
56.188703
57.516694
60.075521
58.693886
58.047771
58.071613
56.236982
53.728819
56.772828
53.616762
51.471591
49.579740
53.568482
52.073002
54.731965
57.041645
55.918694
60.411692
62.912703
65.080523
62.509775
64.754486
61.221719
58.517456
51.740408
48.040748
44.550896
38.870573
34.539700
29.115677
28.485656
23.826957
21.243691
20.603538
20.422935
24.669766
27.850866
35.365820
44.327974
52.975416
59.409738
##ZVALUE=215
89.964867
91.442466
71.894526
47.199726
38.591623
26.112795
19.261837
18.118620
17.773509
16.651750
14.417768
11.129975
8.587837
7.894635
5.147457
5.900860
5.886555
5.822778
5.514622
6.119609
6.826520
6.518960
7.798672
8.294582
9.294748
9.694695
11.570454
10.825992
11.917949
12.407899
15.220642
16.156435
16.960502
19.343495
21.821856
22.585988
24.832487
30.360818
31.227469
33.398867
35.280585
40.797591
43.051839
49.309731
51.184893
59.224963
61.722994
63.968897
71.313977
75.687766
78.809857
83.227754
85.275769
86.071491
89.643002
89.526772
91.157556
92.097521
91.333985
89.312792
86.249709
86.198449
87.218881
80.559850
77.409744
76.777935
77.879429
69.490671
72.963834
69.350600
71.502924
76.639652
78.337789
75.286627
78.156590
71.207881
73.369741
67.763925
62.802434
59.896708
55.535436
51.071644
43.209791
39.739609
37.027597
30.779839
28.674603
25.516748
23.342967
20.778775
21.225810
19.262433
19.627810
21.723509
24.078488
30.963421
##ZVALUE=220
208.369493
207.597613
206.943750
191.564560
161.273479
113.047957
83.441734
54.717660
39.633512
31.830668
28.600693
27.930737
24.650693
21.360517
16.350746
13.444424
9.520650
8.931756
7.897615
7.625818
7.250905
7.388592
7.748604
7.802844
9.790659
10.538697
11.963844
12.796521
12.363791
15.417933
16.484857
17.127991
19.532442
20.970702
25.912523
29.476881
31.452775
38.687587
44.323802
47.456622
54.880977
62.807798
70.325732
74.056983
77.759624
91.700554
96.121430
104.671717
114.365816
122.691989
123.056769
134.215951
138.670802
149.998665
146.361589
147.618651
147.679448
149.936676
148.125887
150.991678
146.592855
142.198801
140.603781
135.862827
130.659938
124.555826
120.677948
118.655562
114.238858
110.051632
109.745860
109.257698
107.593536
105.476975
102.519989
99.770427
94.518661
87.792873
86.708665
75.856447
70.133805
66.928864
58.674812
52.064657
46.294928
44.126511
39.798617
37.088990
34.517646
31.522512
29.410720
26.394725
27.015805
25.529861
22.683740
21.815896
##ZVALUE=225
268.166661
273.173451
342.659950
399.652719
401.616693
372.371674
330.688953
235.160589
169.940591
115.161538
66.881776
47.995448
44.173598
42.325854
41.435957
35.405755
30.741692
26.241541
19.822717
13.849735
11.007786
9.534955
8.859634
9.650588
9.711981
9.708405
12.215972
12.143850
13.150573
13.508797
15.779734
17.809868
20.204782
24.838448
31.900406
33.652782
40.265918
49.361587
58.722496
61.191916
71.857572
83.142519
93.199611
110.319853
119.931698
129.584670
140.647888
153.522491
167.085528
176.919699
190.250874
202.512741
208.237767
214.710832
224.816799
228.802562
228.624940
228.172541
226.337910
224.533677
217.571855
217.212439
208.239555
205.131769
196.016431
181.017518
181.476474
170.274973
168.410540
159.550905
156.869888
152.619481
145.221949
143.870711
134.842992
131.747723
122.263432
115.885735
106.397867
95.077753
85.718632
78.064799
73.904991
67.614913
59.372783
60.257912
51.981807
47.771931
43.413639
41.612983
36.914945
36.472678
33.747554
32.205582
29.124618
27.509928
##ZVALUE=230
182.144642
199.628472
308.752656
478.711724
592.419505
694.943666
733.668804
690.748692
618.994832
495.012999
319.077969
210.535526
117.205977
81.482530
66.792965
68.071485
66.247582
62.206984
52.455664
43.714643
34.847856
23.008585
17.886758
13.728738
11.369586
10.322928
12.316704
11.524558
13.450980
14.810562
16.151667
18.123984
22.341609
26.720762
31.999946
38.828850
47.147870
54.749846
64.934492
76.443553
83.474517
98.206997
110.356808
123.164654
137.795806
155.409575
170.267820
186.550617
198.804736
208.608508
227.131844
244.397521
249.578953
261.804461
267.932415
271.368623
271.453857
273.950696
265.968442
268.222690
265.315771
252.152681
250.943899
240.737796
230.174661
224.366784
215.424895
204.442739
194.645524
188.046694
185.950994
181.303620
173.441768
163.748860
159.007907
148.818493
141.560435
129.655600
123.718977
110.329986
101.893544
93.563795
85.080862
75.131655
71.142912
62.148571
61.688423
55.940747
54.169893
48.520565
45.200586
41.158795
39.451718
38.240552
35.576820
32.980442
##ZVALUE=235
48.969984
57.643652
122.150779
280.471444
452.255011
711.838007
906.339884
1015.589833
1015.589833
1015.589833
1015.589833
839.205980
549.330711
373.538733
219.111443
140.746832
97.700953
95.471740
92.308521
96.484423
91.281533
74.960589
62.229633
45.484900
34.595728
22.645593
17.985702
15.178919
16.065836
14.766455
17.003417
18.133521
21.631718
26.481748
30.179620
37.899613
44.153929
53.010583
61.972737
68.668723
80.206990
96.225739
103.690624
113.793612
124.832988
142.147541
153.861642
163.702965
177.252889
186.942816
201.857686
210.676789
219.493508
228.422880
235.778689
242.019892
239.558816
240.051746
235.691667
229.507685
226.141810
223.098993
213.060975
209.733844
205.944777
198.222995
190.412998
186.836720
179.417729
175.357461
169.767737
162.495971
154.635906
151.850581
142.819881
133.942962
123.382807
117.867589
112.310648
99.998713
94.209909
83.510876
78.594685
70.688725
66.651702
61.571598
55.909753
53.909421
51.687956
45.560598
43.768883
42.968988
39.177537
35.910606
35.400987
31.440854
##ZVALUE=240
4.214644
5.192757
20.106435
55.415630
158.751607
295.510888
595.901012
909.595490
1015.601754
1015.601754
1015.601754
1015.601754
1015.601754
1015.601754
951.578021
576.120615
370.159745
208.150744
140.121579
123.032928
125.392675
134.864450
124.867558
114.863515
92.319846
77.303648
57.894588
45.158863
31.097531
24.429560
20.770431
21.144748
21.148920
22.496581
25.870800
31.757951
34.792423
40.361881
45.988560
51.871538
58.932900
64.822435
72.261691
82.361698
89.869499
100.127459
109.724998
116.470456
124.849677
133.041739
145.875812
148.531795
152.081847
162.576437
163.133740
167.205930
160.376430
164.290667
163.903832
161.332488
162.290931
154.757500
150.730610
147.198439
147.346854
136.923790
134.313703
133.964419
125.519633
126.818419
120.685697
116.074681
120.963454
113.209486
109.408498
105.076432
100.783706
91.964602
86.463690
81.657767
74.143410
68.841577
62.459707
57.540536
51.188469
50.613880
46.758652
44.880509
43.653846
38.986802
36.093593
36.051869
34.296513
33.183694
30.968785
30.277967
##ZVALUE=245
3.124475
3.299713
3.161430
3.699660
10.873675
35.333633
120.980740
263.970494
576.575994
901.753902
1015.589833
1015.589833
1015.589833
1015.589833
1015.589833
1015.589833
1015.589833
844.171047
552.228689
288.274884
177.516937
129.670501
129.284859
135.709643
140.198469
138.228536
127.162933
106.299520
83.090663
63.019991
48.877001
33.966899
28.426647
23.473501
22.867918
24.228692
24.129748
30.120611
29.881001
37.087798
40.582418
46.619773
48.108697
56.654811
57.720542
67.697763
73.191524
78.258514
82.461834
89.433789
92.875957
99.020600
100.268722
108.441710
108.582973
109.263659
113.134980
112.334490
113.535523
113.120675
111.377835
107.275844
102.956891
101.341605
99.522471
97.020864
94.820857
96.031427
92.866421
89.232922
87.242723
88.617802
87.980628
83.613992
80.180764
76.465607
74.882507
69.580674
65.923929
61.910748
56.315660
49.282908
46.312809
43.242574
42.077899
38.712621
35.886765
32.968521
32.110810
32.113791
29.745698
28.606653
27.695894
26.180744
24.818778
25.072694
##ZVALUE=250
2.853870
2.579689
3.486872
3.065467
3.540516
3.606677
5.928874
20.528436
91.359615
203.644633
485.915542
808.886886
1015.589833
1015.589833
1015.589833
1015.589833
1015.589833
1015.589833
1015.589833
1015.589833
741.995573
455.166698
220.947862
142.537951
119.919777
131.270885
149.600506
156.008601
146.550536
137.571692
118.785501
89.659691
71.028471
47.857761
36.820769
29.869676
29.180646
29.153824
30.042529
35.127997
37.447810
42.246580
46.021938
55.573583
58.007836
65.859556
72.656870
78.246593
84.103942
88.034868
94.018579
101.076961
106.426477
105.769634
108.583570
115.524530
117.704868
115.485787
112.559795
112.241507
114.768744
111.272931
108.987689
101.953745
99.424720
98.976493
96.111894
95.460415
92.202425
88.806748
86.061954
86.706877
83.905458
80.549717
79.786777
75.435638
70.195794
66.565871
60.654879
57.021976
54.048896
47.795773
44.928789
43.068528
39.755702
34.849644
34.728646
31.964779
30.709505
30.292869
27.036667
25.083423
25.311708
24.246573
23.853779
23.013949
##ZVALUE=255
2.530813
2.422929
2.594590
2.647638
2.795458
2.971888
3.454685
3.662705
4.341006
11.140704
57.056546
149.065852
312.463641
677.091479
999.540687
1015.569568
1015.569568
1015.569568
1015.569568
1015.569568
1015.569568
1015.569568
976.503491
615.792871
297.095776
177.633762
116.337538
117.484927
140.737891
153.074861
162.056684
157.369971
145.259500
119.254589
100.082755
74.467659
60.236454
48.979521
44.323802
42.759776
45.578480
53.614974
58.396459
66.574812
73.467493
85.341930
91.649890
99.251866
107.164979
116.667747
123.533607
129.932761
135.263801
139.493942
142.244697
144.305825
148.280859
149.460435
151.227713
148.126483
145.239830
144.226551
142.026544
137.682557
134.583712
127.267838
123.441815
120.413899
114.512444
107.477903
107.150674
101.583004
97.939968
93.671679
90.222955
86.100698
82.986951
76.054931
70.380569
66.767931
59.895515
53.931475
51.269531
46.655536
44.602752
41.121840
38.277507
34.846663
34.096837
32.342672
30.745864
27.492642
27.685761
25.112629
24.346709
23.656487
##ZVALUE=260
2.450943
2.499819
2.206564
2.419949
2.573729
2.847910
2.612472
2.650619
3.059506
3.672838
4.139543
6.240606
20.278692
92.124939
214.857459
523.263812
870.659947
1015.594006
1015.594006
1015.594006
1015.594006
1015.594006
1015.594006
1015.594006
1015.593410
889.417529
493.251681
277.284980
136.133432
105.156898
114.722848
141.872764
160.562992
173.445940
169.930458
154.651999
138.893723
115.559697
98.309517
85.926652
80.066919
79.529881
83.587766
92.898607
101.982951
117.104650
126.369596
137.347579
149.323940
161.516666
170.542598
182.994008
189.376473
195.329785
199.992657
201.116800
207.490921
203.527808
204.076767
201.709867
200.855732
197.552443
192.792416
185.745955
179.829001
173.921585
169.899464
162.784457
156.184435
146.428943
140.922666
136.494637
132.372975
122.064948
117.082000
107.608438
101.797581
92.996955
88.651776
80.253482
74.419975
70.135593
65.555573
61.562657
55.438876
51.698685
48.254728
43.314695
41.561723
37.430525
36.163926
32.419562
30.622482
29.116869
28.855801
26.705861
##ZVALUE=265
1.920462
2.257824
2.039671
2.423525
2.312660
2.376437
2.254844
2.686977
2.861619
3.211498
3.095865
3.529787
3.779531
4.565716
11.426806
62.314868
157.910585
405.812860
726.229548
1015.595794
1015.595794
1015.595794
1015.595794
1015.595794
1015.595794
1015.595794
1015.595794
1015.595794
678.451657
395.706892
245.590806
110.212564
100.148916
132.266879
155.016780
184.836984
194.429755
193.733573
187.727809
172.945857
159.843564
143.379569
137.000680
137.662888
139.885545
157.006979
168.622732
182.822943
199.018717
217.351913
223.939419
240.350962
250.332952
260.199904
268.659592
271.690488
272.353888
277.401805
272.574425
273.306966
268.209577
266.873837
259.445906
249.855518
242.021680
233.231783
220.043659
211.541653
203.776956
193.981528
185.422897
175.364614
167.904496
158.614516
148.571730
138.610601
130.873919
120.987892
111.910701
100.917816
94.334483
86.927414
80.182552
72.366595
69.212914
63.849688
60.249567
53.061843
49.907565
46.033859
42.153001
39.182901
36.615729
33.853650
32.461882
30.280948
##ZVALUE=270
2.046824
2.009869
2.014637
2.032518
2.095699
2.228618
2.345443
2.660751
2.567768
2.920628
3.105998
3.035665
3.255606
3.351569
4.053712
4.114509
7.583499
24.358630
79.305768
273.925662
562.500954
1015.589833
1015.589833
1015.589833
1015.589833
1015.589833
1015.589833
1015.589833
1015.589833
1015.589833
1015.589833
566.701889
312.384963
136.562586
103.230476
122.997761
154.888630
191.260576
219.423771
241.169930
248.819590
247.635841
239.686966
230.960846
222.301483
224.952698
229.048729
242.284536
253.231525
271.779895
284.753442
304.430723
314.778686
329.954624
340.194702
343.078971
344.699621
344.201922
342.034698
344.097614
340.188742
326.329470
322.371721
310.402513
302.273631
286.815763
278.083682
266.026855
254.725814
238.646865
232.647657
216.874480
207.456946
191.961527
182.479620
169.243813
158.205628
145.357847
136.196613
123.023987
115.858912
103.375912
98.399520
89.032650
84.911585
74.963570
70.908666
64.701438
60.155988
55.207610
49.840808
46.414733
43.614507
39.345622
37.937760
34.777522
##ZVALUE=275
1.800656
1.891851
2.275705
2.154708
2.112985
2.329946
2.573729
2.579689
2.230406
2.387762
2.823472
2.729893
2.799630
3.098845
3.247857
3.351569
3.826618
4.299879
4.442930
12.997985
52.996874
161.367655
484.536886
915.856957
1015.618443
1015.618443
1015.618443
1015.618443
1015.618443
1015.618443
1015.618443
1015.618443
1015.618443
864.644647
500.094891
219.706893
135.607719
128.581524
156.701803
203.513503
238.404870
278.052688
303.943753
322.376490
326.986909
326.856971
321.674943
320.890546
321.793556
335.150957
342.687964
352.176428
365.304947
380.202532
389.157534
400.781631
398.811698
401.777625
402.053595
395.658612
388.832688
382.448435
370.512009
357.026458
348.972678
332.818627
317.990780
304.744840
293.493867
274.274945
263.734460
249.327421
234.446526
219.799876
207.194686
192.000866
181.662440
167.367458
154.893994
141.129494
130.997896
120.017529
112.369657
102.950931
94.518661
86.061954
79.883933
71.423650
68.217516
62.082410
56.540966
52.538514
48.637986
43.914914
41.382909
38.758516
##ZVALUE=280
1.776814
2.022982
2.219677
1.973510
1.977682
1.922846
2.033710
2.265573
2.350807
2.314448
2.258420
2.570748
2.549887
2.840757
2.875924
3.082752
3.033876
3.451705
3.709793
4.261732
4.544854
7.727742
29.050708
141.271949
345.016718
823.966861
1015.589833
1015.589833
1015.589833
1015.589833
1015.589833
1015.589833
1015.589833
1015.589833
1015.589833
1015.589833
711.029768
328.196883
194.083452
145.950913
164.499879
214.012861
253.410935
303.750634
338.366628
377.776623
392.008424
401.118994
403.090715
400.002003
396.514535
396.665931
393.350720
400.536656
405.486822
411.453843
416.159630
420.103669
416.671634
413.293839
409.672856
396.152735
389.345884
372.940898
360.003710
348.511934
332.453847
315.168500
302.668810
287.004709
275.868773
258.677602
242.521763
226.854682
213.011503
197.260976
185.057521
171.440840
159.366727
143.847466
136.614442
122.035742
112.762451
102.762580
97.155571
89.041591
81.095695
75.206757
70.730448
63.188672
60.004592
53.166747
49.685836
45.866966
41.548610
39.667487
##ZVALUE=285
1.878738
1.884699
2.043843
1.829863
2.069473
2.009869
2.355576
2.253652
2.226830
2.229810
2.092719
2.261996
2.582669
2.551675
2.873540
2.798438
3.173947
3.416538
3.087521
3.437996
3.765821
4.577637
5.035996
5.765557
16.931891
60.346723
222.052932
480.161905
998.945832
1015.732884
1015.732884
1015.732884
1015.732884
1015.732884
1015.732884
1015.732884
1015.732884
1015.732884
991.629362
524.083972
297.788978
174.266696
167.844892
206.422806
244.749784
296.730995
336.811543
381.256938
408.936739
429.746509
437.609553
428.681970
425.610542
413.011909
403.071642
396.463871
390.369892
386.413932
385.102630
379.887819
373.339653
363.899469
358.294845
345.293880
336.778760
322.727561
310.895443
293.680429
279.084444
264.914632
253.664851
237.718821
223.813653
209.333897
199.074745
183.169842
171.081424
159.050822
146.478415
135.199428
127.326846
114.505887
106.821656
97.634792
90.886950
83.462596
76.091886
70.533752
66.153407
59.547424
55.794716
50.194860
46.653748
42.520761
40.676594
36.780834
##ZVALUE=290
1.752973
1.743436
1.774430
1.796484
1.885891
1.736879
1.968741
1.974702
2.058744
2.102852
1.903772
2.120733
2.161860
2.309680
2.333522
2.482533
2.549887
2.654791
2.695918
2.999902
2.843738
3.223419
3.620982
4.083514
4.658699
4.777908
7.223487
25.575757
131.808519
316.813588
626.628995
1015.589833
1015.589833
1015.589833
1015.589833
1015.589833
1015.589833
1015.589833
1015.589833
1015.589833
1015.589833
735.001564
415.529013
209.416747
159.857869
177.281499
207.698941
249.807835
284.963846
335.601568
362.001657
392.014980
399.566889
398.392677
387.354493
365.223885
351.545811
329.051018
315.919518
305.132866
297.290683
285.999775
278.843641
271.653533
263.653994
251.326561
245.071650
229.139924
221.790671
207.068920
199.438930
186.154842
179.091692
165.960789
156.086683
144.348741
135.173798
126.546621
118.143559
107.777715
99.225640
89.998841
85.294843
79.216957
73.244572
66.875815
62.829852
57.248473
52.755475
48.499703
44.910908
41.097999
37.662983
34.355521
32.976866
30.834675
##ZVALUE=295
1.512766
1.541972
1.714826
1.712441
1.662970
1.706481
1.695752
1.953840
2.018809
1.996756
2.057552
2.010465
1.813769
2.002716
1.925826
2.137423
2.333522
2.408624
2.524853
2.404451
2.556443
2.955794
2.878904
3.266931
3.644824
3.983974
4.512668
4.972816
5.792975
11.015534
62.417388
193.920732
464.249849
1015.586853
1015.586853
1015.586853
1015.586853
1015.586853
1015.586853
1015.586853
1015.586853
1015.586853
1015.586853
953.354836
555.678010
246.443748
151.404738
129.133463
143.091679
171.832442
200.345516
235.552788
263.675451
292.678475
305.311680
306.652784
298.047662
278.829932
259.960890
232.416987
215.429664
196.425915
183.519721
173.342824
166.956782
157.538652
150.920749
145.594478
139.207840
132.157803
125.951767
119.721889
114.336610
106.365681
100.746751
93.613863
87.793469
82.053542
76.231956
69.325566
64.618587
59.323907
56.218505
51.893592
49.118996
44.512749
41.287541
37.739873
35.927892
32.769442
30.840635
27.917624
27.065873
24.449825
23.639798
22.041798
##ZVALUE=300
1.669526
1.662970
1.434684
1.533628
1.697540
1.795888
1.306534
1.527667
1.682639
1.651645
1.725554
1.859665
1.703501
1.915693
1.988411
1.889467
2.073646
2.247691
2.056956
2.363920
2.405643
2.403855
2.554655
2.925992
2.968907
3.169775
3.268719
3.681779
4.297495
4.418492
5.087852
6.656647
27.823448
105.378032
380.962491
767.963529
1015.589833
1015.589833
1015.589833
1015.589833
1015.589833
1015.589833
1015.589833
1015.589833
1015.589833
1015.589833
725.166798
390.056968
159.294605
91.174841
80.962777
92.229843
111.895800
130.100846
159.574747
181.428790
204.164982
211.018920
208.142996
199.643970
179.819465
159.932971
133.534670
115.413666
96.455812
86.414814
76.739788
72.553754
67.927837
64.750910
62.811971
61.492920
57.737827
54.631829
51.838756
48.584938
45.792460
42.550564
39.570928
37.415624
34.830570
33.071637
30.443668
28.662682
26.185513
25.059581
23.327470
22.298694
20.532608
19.492507
18.685460
17.596483
16.573668
16.174912
14.806986
14.521480
##ZVALUE=305
1.350641
1.409650
1.377463
1.448989
1.518726
1.560450
1.620650
1.399517
1.391768
1.651645
1.594424
1.619458
1.678467
1.810789
1.678467
1.731515
1.825690
1.724958
1.875758
2.096891
2.207756
2.277493
2.345443
2.405643
2.911687
2.744794
3.056526
3.081560
3.530979
3.451705
4.152656
4.225969
5.130768
5.715489
14.133453
58.040619
250.430703
565.626621
1015.589833
1015.589833
1015.589833
1015.589833
1015.589833
1015.589833
1015.589833
1015.589833
1015.589833
1015.589833
932.906866
514.423847
199.352503
88.141561
45.467615
45.743585
56.202412
68.468451
90.499520
108.893514
131.231546
143.909454
153.785944
154.457688
141.935945
128.369927
104.177594
87.259412
64.505935
53.033829
40.717721
36.070943
32.345653
30.124784
29.024482
28.547645
26.774406
25.566816
24.107695
22.907853
21.088719
20.271540
18.579960
18.006563
16.805530
16.195774
15.588999
15.035868
14.069676
13.857484
13.072491
12.339950
11.510849
11.711717
11.118650
10.626912
10.210872
10.251999
##ZVALUE=310
1.262426
1.281500
1.266599
1.341701
1.315475
1.275539
1.421571
1.445413
1.366735
1.723766
1.592636
1.587868
1.481771
1.449585
1.641512
1.684427
1.679659
1.512766
1.807809
1.624823
1.749992
2.001524
2.116561
2.096891
2.266765
2.285838
2.769828
2.908707
2.961755
2.994537
3.296733
3.358722
4.104972
4.218817
4.962683
5.493760
7.264614
23.481846
135.696530
335.884690
855.524540
1015.589833
1015.589833
1015.589833
1015.589833
1015.589833
1015.589833
1015.589833
1015.589833
1015.589833
1015.589833
787.613988
320.776701
137.287974
42.490959
26.044846
28.348565
34.538507
46.405792
61.064959
82.729459
98.813772
117.941499
126.044750
127.387643
120.567679
103.805661
86.266994
63.670874
49.423575
34.063458
26.958585
21.123886
18.470883
16.591549
15.459657
14.336705
13.154745
12.095571
12.086630
11.254549
10.760427
10.343790
10.252595
10.421872
9.973645
9.539723
9.353757
9.401441
9.313822
9.241700
8.972883
7.962584
8.012652
7.651448
7.845759
##ZVALUE=315
1.408458
1.362562
1.362562
1.194477
1.207590
1.404881
1.305938
1.384616
1.385808
1.620650
1.590848
1.412630
1.479983
1.502633
1.434684
1.807809
1.621842
1.699924
1.716614
1.620650
1.847744
1.798868
2.215505
1.972914
2.071857
2.234578
2.238750
2.542734
2.430677
2.751946
2.663732
3.032684
3.104806
3.441572
3.823638
4.143715
4.638433
5.365610
6.095767
14.246702
56.870580
246.344805
546.118617
1015.589833
1015.589833
1015.589833
1015.589833
1015.589833
1015.589833
1015.589833
1015.589833
1015.589833
1015.589833
954.253674
522.350669
176.674724
64.728856
21.901727
17.807484
20.962954
27.200580
39.247870
51.914454
72.293878
88.630915
107.876658
113.559961
115.856528
108.923912
92.210770
77.368617
58.976412
44.479966
29.104948
21.257997
15.081763
12.070537
10.234714
9.666681
8.796453
8.808970
8.104444
8.131862
7.934570
8.020997
7.786751
7.212758
7.651448
7.394552
7.277727
7.251501
7.023811
7.196665
6.838441
6.930828
6.927848
##ZVALUE=320
1.065731
1.119971
1.160502
1.145601
1.198649
1.192689
1.318455
1.483560
1.372695
1.388788
1.333952
1.392961
1.397729
1.396537
1.464486
1.582503
1.378655
1.521707
1.517534
1.688600
1.744628
1.673698
1.844764
1.707673
1.773834
2.021790
2.103448
2.389550
2.207756
2.370477
2.310872
2.602935
2.656579
2.912879
3.112555
3.450513
3.422499
4.231930
4.660487
4.915595
5.583763
7.117987
34.861565
119.025707
408.408642
819.493532
1015.589833
1015.589833
1015.589833
1015.589833
1015.589833
1015.589833
1015.589833
1015.589833
1015.589833
1015.589833
645.994544
322.036743
104.638934
36.955476
15.713573
15.386939
17.907619
22.216439
33.214688
44.708848
63.957572
80.389977
98.720789
106.544495
109.739900
102.570653
87.699890
73.729753
54.195523
41.548610
26.342869
18.546581
12.606978
9.549856
7.850528
7.575750
7.492900
7.058978
7.270575
6.930828
6.932616
6.774664
6.765723
6.437898
6.241798
6.427765
6.278753
5.985498
5.997419
6.193519
##ZVALUE=325
1.055598
1.101494
1.135468
1.074672
1.321435
1.274943
1.269579
1.244545
1.337528
1.209974
1.277924
1.156926
1.503825
1.334548
1.285672
1.378655
1.338720
1.415610
1.393557
1.626611
1.567602
1.648664
1.655817
1.858473
1.696944
1.773834
1.998544
1.962781
2.022982
2.188683
2.287626
2.389550
2.247691
2.446771
2.543926
2.925992
2.984405
3.379583
3.650784
3.923774
4.194975
4.731417
5.333424
6.245971
13.879538
99.556446
258.703828
670.962930
1015.589833
1015.589833
1015.589833
1015.589833
1015.589833
1015.589833
1015.589833
1015.589833
1015.589833
1015.589833
942.606926
400.050879
177.320838
45.694709
17.925501
13.376474
13.811588
16.222000
20.434856
31.737685
43.476820
62.595606
77.302456
93.531609
100.417733
100.773573
94.989538
80.094934
65.823793
48.430562
35.878420
22.313595
15.381575
10.497570
8.355975
7.393956
6.531477
6.517768
6.322861
6.277561
6.128550
6.373525
5.942583
5.852580
5.705953
5.659461
5.656481
5.940795
##ZVALUE=330
1.077652
1.068711
1.165867
0.929832
1.085997
1.205802
1.092553
1.248717
1.287460
1.325607
1.257658
1.330972
1.366735
1.324415
1.247525
1.386404
1.427531
1.402497
1.506805
1.556873
1.464486
1.533628
1.565814
1.614690
1.609921
1.689792
1.752973
1.592636
1.914501
1.988411
1.965761
2.109408
2.105832
2.432466
2.297759
2.361536
2.630949
2.835989
2.890825
3.310442
3.355742
3.675818
3.933907
4.507899
4.778504
5.930662
8.127689
41.658878
142.085552
470.620990
893.380642
1015.594006
1015.594006
1015.594006
1015.594006
1015.594006
1015.594006
1015.594006
1015.594006
1015.594006
1015.594006
564.284921
269.360542
82.073808
27.112961
12.679696
12.270808
12.514591
14.759898
21.110773
28.766990
43.268800
56.267977
75.094700
85.060596
94.951987
93.993545
86.787939
75.884461
59.004426
45.631528
29.852986
22.429824
15.166998
11.066794
7.966757
7.025599
6.634593
6.167889
5.739927
5.964637
5.679727
5.492568
5.684495
5.735755
5.607605
##ZVALUE=335
1.085997
1.193881
1.214743
1.037717
1.285672
1.250505
1.340508
1.134872
1.272559
1.069903
1.276731
1.391768
1.187921
1.267791
1.436472
1.510978
1.380444
1.473427
1.489520
1.499653
1.640916
1.536608
1.596808
1.535416
1.684427
1.735687
1.531839
1.812577
1.752973
1.946688
1.840591
2.137423
2.183914
2.292991
2.177954
2.309680
2.584457
2.539754
2.657771
2.941489
2.957582
3.149509
3.492832
3.814697
3.989935
4.277825
4.557967
5.270839
6.084442
16.571879
66.768527
280.983448
596.659780
1015.717983
1015.717983
1015.717983
1015.717983
1015.717983
1015.717983
1015.717983
1015.717983
1015.717983
1015.717983
798.164606
403.589606
123.531818
42.590499
14.643669
12.405515
12.127757
12.813807
15.759468
19.763708
29.254556
39.307475
55.606961
66.972971
79.035759
85.300803
85.935593
80.887675
67.894459
56.898594
43.266416
32.860637
21.486878
15.721917
10.632873
8.423924
6.960630
6.087422
6.017685
5.886555
5.594492
5.985498
5.643964
##ZVALUE=340
0.974536
1.091957
0.957847
1.027584
1.056790
1.089573
1.003742
1.098514
1.117587
1.084805
1.163483
1.063943
1.038909
1.093745
1.051426
1.117587
1.301765
1.239777
1.265407
1.283884
1.245737
1.197457
1.316667
1.509786
1.507998
1.487732
1.539588
1.494884
1.697540
1.547933
1.630783
1.769662
1.706481
1.975894
1.748800
2.129674
2.119541
2.383590
2.255440
2.454519
2.557635
2.532601
2.858639
2.997518
3.204942
3.327727
3.783703
3.921986
4.301667
5.067587
5.591512
8.789897
31.011701
170.700550
423.910618
978.971720
1015.589833
1015.589833
1015.589833
1015.589833
1015.589833
1015.589833
1015.589833
1015.589833
1015.589833
969.564915
536.405444
184.685588
65.962672
17.805696
12.934804
12.132525
11.828542
12.483597
14.264584
19.054413
25.568604
37.310719
48.517585
63.773990
73.212981
79.760551
81.421733
74.987411
66.791773
53.824782
43.346882
29.525757
22.589564
14.931560
10.537505
7.675886
6.689429
6.083846
5.838871
5.791783
##ZVALUE=345
0.973940
0.985861
1.180768
1.103878
0.990629
0.920892
1.191497
1.036525
1.152754
1.119971
1.231432
1.100898
1.082420
1.290441
1.217723
1.160502
1.123548
0.937581
1.168847
1.353621
1.238585
1.213551
1.323819
1.351833
1.335740
1.459718
1.281500
1.381636
1.546741
1.493692
1.636744
1.638532
1.612902
1.692772
1.892447
1.875758
1.887679
2.091527
2.033710
2.154708
2.248883
2.424717
2.625585
2.664924
2.987981
3.149509
2.979636
3.587604
3.633499
4.047751
4.056692
4.702806
4.973412
6.036758
12.755990
88.045597
257.745385
701.183677
1015.589833
1015.589833
1015.589833
1015.589833
1015.589833
1015.589833
1015.589833
1015.589833
1015.589833
1015.589833
738.869905
274.976492
112.921596
29.991865
14.955997
12.251735
11.594892
10.708570
10.562539
12.169480
15.672445
23.633838
32.507777
46.029687
56.155920
67.130923
72.110891
74.773431
71.938634
62.463880
53.868890
41.363835
31.581521
20.856857
15.645623
10.474920
8.363724
6.751418
##ZVALUE=350
1.085997
1.055598
1.098514
1.045465
1.183748
1.076460
1.128912
1.068711
1.158714
1.024604
1.188517
1.157522
1.494884
1.145601
1.365542
1.172423
1.281500
1.199841
1.234412
1.156926
1.316667
1.354814
1.200438
1.199841
1.304746
1.372695
1.363754
1.650453
1.482964
1.495481
1.566410
1.455545
1.809597
1.527667
1.784563
1.811981
1.959801
2.011657
2.097487
1.976490
2.002716
2.111793
2.260804
2.403855
2.433658
2.632737
2.909899
2.903938
3.139973
3.313422
3.407598
3.615618
4.024506
4.564524
4.604459
5.516410
8.439422
45.406818
148.881674
484.498739
928.204656
1015.589833
1015.589833
1015.589833
1015.589833
1015.589833
1015.589833
1015.589833
1015.589833
1015.589833
927.715898
413.133502
179.115534
42.610765
16.584992
11.686683
10.493994
9.311438
8.797646
9.415746
10.671616
15.338659
20.408630
29.378533
38.240552
50.768852
59.170723
66.757798
69.370866
65.979958
60.953498
49.302578
40.310621
28.581619
21.495819
14.556646
##ZVALUE=355
1.094937
1.228452
1.100898
1.246929
1.161695
1.262426
1.195669
1.137853
1.288652
1.045465
1.105666
1.334548
1.325607
1.111627
1.309514
1.201630
1.249909
1.224875
1.198649
1.406670
1.481771
1.300573
1.366735
1.531839
1.422763
1.385808
1.585484
1.630783
1.371503
1.461506
1.560450
1.680851
1.550913
1.548529
1.728535
1.753569
2.032518
1.822710
1.791716
1.875758
1.961589
2.045631
2.349615
2.242923
2.259612
2.489686
2.459884
2.706647
2.977848
2.782941
3.070831
3.238916
3.398657
3.590584
4.008412
4.196763
4.701614
5.306602
6.379485
23.809671
90.369582
340.626836
690.795779
1015.591621
1015.591621
1015.591621
1015.591621
1015.591621
1015.591621
1015.591621
1015.591621
1015.591621
1015.591621
505.999923
231.992602
61.344504
20.780563
11.508465
10.065436
9.047985
8.461475
8.450747
8.877516
10.165572
12.791753
18.779635
24.826527
35.203695
43.187737
52.344799
59.174895
61.832666
60.693622
54.789782
48.661828
38.767457
##ZVALUE=360
1.018643
1.224875
1.192689
1.105666
1.064539
1.162887
1.047850
1.179576
1.236796
1.145601
1.251698
1.276731
1.358986
1.279712
1.238585
1.263618
1.219511
1.330972
1.162887
1.259446
1.368523
1.191497
1.318455
1.400709
1.412630
1.468658
1.494884
1.475811
1.691580
1.535416
1.593828
1.570582
1.591444
1.612902
1.763701
1.783967
1.813769
1.787543
2.047420
2.092719
1.911521
2.184510
2.185702
2.203584
2.487898
2.393723
2.542734
2.591610
2.689958
2.726912
2.974868
2.899766
3.043413
3.341436
3.758669
3.679991
3.878474
4.401803
4.885793
5.464554
5.968809
10.960698
39.745569
187.447667
440.694690
992.594957
1015.589833
1015.589833
1015.589833
1015.589833
1015.589833
1015.589833
1015.589833
1015.589833
1015.589833
683.264732
344.551802
114.643574
38.361549
12.518764
10.403991
9.003878
8.479953
7.967949
7.809997
7.758737
8.493662
11.027455
14.479756
21.230578
27.843714
37.976503
44.721961
52.940845
55.817962
56.919456
##ZVALUE=365
1.124740
1.255870
1.228452
1.322627
1.152754
1.172423
1.273751
1.218915
1.100898
1.199841
1.142621
1.243949
1.294613
1.256466
1.254678
1.271963
1.212955
1.224875
1.292825
1.317859
1.434684
1.543760
1.373887
1.462698
1.475811
1.466870
1.404881
1.421571
1.457930
1.486540
1.515746
1.623631
1.604557
1.733899
1.728535
1.762509
1.873970
1.905560
1.894832
1.823902
1.974702
1.891851
2.009869
2.025962
2.094507
2.271533
2.166629
2.337694
2.292991
2.627969
2.589822
2.781749
2.671480
3.144741
3.113747
3.379583
3.551841
3.738999
3.913641
4.191995
4.796982
5.334616
6.026626
7.063746
16.259551
105.008483
285.999775
736.382008
1015.599966
1015.599966
1015.599966
1015.599966
1015.599966
1015.599966
1015.599966
1015.599966
1015.599966
939.505696
505.751967
169.381499
59.756637
13.955832
9.828806
8.851886
8.540750
7.432699
7.182956
6.882548
7.135868
7.469654
8.989573
12.803674
17.096996
24.893880
31.734705
40.280819
##ZVALUE=370
1.147985
1.146793
1.066923
1.046658
1.304746
1.133680
1.169443
1.117587
1.207590
1.071692
1.204610
1.300573
1.257658
1.073480
1.127720
1.269579
1.216531
1.164675
1.176000
1.049638
1.195669
1.265407
1.308918
1.256466
1.294613
1.465678
1.256466
1.413822
1.506805
1.281500
1.420975
1.446605
1.459718
1.721978
1.451969
1.609921
1.588464
1.881719
1.743436
1.746416
1.754761
1.602769
1.808405
1.897812
1.897812
1.993775
1.979470
2.077818
2.165437
2.283454
2.322793
2.534986
2.456903
2.465844
2.744794
2.759695
3.018975
2.997518
3.134608
3.584623
3.707409
3.875494
4.436970
4.854798
5.286932
6.081462
8.322001
49.656034
177.030563
569.340587
988.040566
1015.589833
1015.589833
1015.589833
1015.589833
1015.589833
1015.589833
1015.589833
1015.589833
1015.589833
633.712411
233.302712
97.752810
27.596951
11.337996
8.609891
8.078814
7.329583
6.640553
6.669760
6.309748
6.310940
6.511807
8.145571
10.566711
15.301704
##ZVALUE=375
1.204610
1.041889
1.104474
1.016855
0.926852
1.153946
1.152754
0.995994
1.003742
1.123548
1.007915
1.113415
1.120567
1.051426
1.189709
1.146793
1.189709
1.063943
0.973940
1.158714
1.266599
1.107454
1.130700
1.259446
1.132488
1.293421
1.273751
1.457930
1.274943
1.309514
1.325607
1.389980
1.456738
1.381636
1.499653
1.491904
1.359582
1.625419
1.549721
1.545548
1.558661
1.647472
1.705885
1.731515
1.652837
1.746416
1.759529
1.964569
1.896620
2.002716
2.029538
2.178550
2.180934
2.303720
2.343655
2.285838
2.477765
2.507567
2.669692
2.818704
2.733469
2.918839
3.305674
3.473759
3.768802
4.202724
4.589558
5.266666
6.526709
21.492839
87.196827
341.315866
728.879571
1015.583873
1015.583873
1015.583873
1015.583873
1015.583873
1015.583873
1015.583873
1015.583873
1015.583873
911.558867
432.776809
204.569697
56.707859
18.287897
8.666515
7.877946
7.474422
6.842613
6.185770
6.135702
5.587935
5.838871
6.009936
##ZVALUE=380
1.014471
1.205802
0.989437
0.880957
0.918508
0.927448
1.107454
0.916719
1.101494
1.091957
0.952482
1.153946
1.049638
1.100898
1.181960
0.997782
0.976920
1.036525
1.137853
0.995994
1.073480
1.036525
1.243949
1.076460
1.200438
1.222491
1.100898
1.132488
1.104474
1.208782
1.320839
1.440644
1.280904
1.519918
1.493692
1.601577
1.478791
1.461506
1.578927
1.591444
1.593828
1.619458
1.677871
1.657605
1.812577
1.974702
1.781583
1.810789
2.075434
2.011657
2.092719
2.056956
2.071857
2.228618
2.392530
2.306700
2.314448
2.376437
2.405643
2.518892
2.591610
2.732873
2.994537
2.948642
3.149509
3.628731
3.823638
4.229546
4.867911
5.870461
6.524920
10.948777
43.188930
233.379602
557.994843
1015.589833
1015.589833
1015.589833
1015.589833
1015.589833
1015.589833
1015.589833
1015.589833
1015.589833
1015.589833
622.490644
308.908820
96.835494
33.247471
10.570884
7.889867
7.234812
6.737709
6.184578
5.881786
5.575418
##ZVALUE=385
0.937581
0.916719
0.957847
0.909567
0.917912
0.981688
0.671744
0.809431
0.908971
1.005530
0.894666
0.868440
1.149774
0.905991
0.901818
0.936985
0.972748
1.123548
1.047850
0.932813
1.191497
0.994802
0.945926
1.063943
1.067519
1.144409
1.297593
1.201630
1.065731
1.290441
1.250505
1.237988
1.397729
1.284480
1.457930
1.468658
1.518726
1.588464
1.642704
1.657605
1.969934
1.802444
1.698732
1.801848
1.774430
1.938939
1.975894
2.020597
2.178550
2.033710
2.175570
2.359748
2.309680
2.396703
2.259612
2.492666
2.436638
2.488494
2.657771
2.659559
2.653599
2.719760
2.783537
2.958775
2.853870
3.170967
3.412962
3.887415
4.252791
4.867911
5.267859
5.493760
5.961657
7.337928
18.719435
123.049617
339.991450
891.968012
1015.589833
1015.589833
1015.589833
1015.589833
1015.589833
1015.589833
1015.589833
1015.589833
1015.589833
918.842554
506.208539
196.409822
71.940422
15.142560
8.423924
7.391572
6.757975
6.532669
##ZVALUE=390
0.727773
0.934601
0.849962
0.876784
1.043677
0.879765
0.917912
0.949502
0.933409
0.664592
0.759959
0.918508
0.861883
1.089573
0.896454
1.005530
0.915527
1.024604
0.939965
1.027584
0.929832
0.896454
1.107454
0.958443
0.982881
1.090765
1.067519
1.216531
1.211762
1.299977
1.448989
1.350641
1.554489
1.370907
1.589656
1.531839
1.708865
1.738667
1.767874
1.828671
1.830459
1.996756
2.093911
2.155900
2.200603
2.222657
2.259612
2.534986
2.276897
2.605915
2.530813
2.512932
2.635717
2.757907
2.723932
2.768636
2.715588
2.879500
2.751946
2.781749
2.993941
2.978444
2.941489
3.046989
3.256798
3.441572
3.630519
3.894567
4.110932
4.465580
4.843473
5.235672
5.228519
5.354881
5.700588
6.114841
9.781718
59.999824
200.669765
654.245019
1015.589833
1015.589833
1015.589833
1015.589833
1015.589833
1015.589833
1015.589833
1015.589833
1015.589833
1015.589833
774.934888
303.144455
133.531690
33.983588
11.299849
7.580519
##ZVALUE=395
0.924468
0.949502
0.853539
0.833869
0.897646
1.040697
0.798702
0.953674
1.007915
0.814795
1.047850
0.947714
0.932813
1.003742
0.870824
0.909567
0.961423
0.994802
0.955462
1.100898
1.154542
1.033545
1.099706
0.924468
1.083612
1.075864
1.046658
1.193881
1.144409
1.294613
1.236796
1.405478
1.569986
1.448989
1.585484
1.492500
1.692772
1.854897
1.775622
1.817942
1.999736
2.257824
2.215505
2.365708
2.365708
2.468824
2.625585
2.684593
2.706647
2.713799
2.802610
2.787709
2.925992
3.079772
3.101826
3.040433
3.110766
3.057718
3.229976
3.008842
3.305674
3.221631
3.122687
3.297925
3.385544
3.512502
3.571510
3.885627
4.032850
4.481673
4.669428
4.532933
4.797578
4.882812
4.880428
5.042553
5.095601
5.728602
6.961823
31.151772
122.877955
469.094515
923.220515
1015.589833
1015.589833
1015.589833
1015.589833
1015.589833
1015.589833
1015.589833
1015.589833
1015.589833
983.870029
442.726016
201.273561
57.162642
##ZVALUE=400
1.036525
1.158714
1.130700
0.917912
0.827909
0.876784
0.931621
1.021624
0.805855
1.000762
0.926852
0.913739
0.975728
0.927448
1.047850
0.703931
0.922680
0.898838
1.023412
0.947714
0.844598
1.004934
0.981688
1.017451
0.944734
1.076460
1.193881
1.001954
1.044869
1.247525
1.239777
1.217723
1.423955
1.462698
1.543760
1.548529
1.706481
1.949668
1.965761
2.102852
2.058744
2.262592
2.135634
2.261996
2.592802
2.578497
2.663732
2.497435
3.007650
2.956986
2.897978
3.112555
3.372431
3.269911
3.435612
3.493428
3.379583
3.375411
3.302693
3.482699
3.320575
3.488660
3.578663
3.113747
3.448725
3.693700
3.652573
4.025698
4.093647
4.232526
4.481673
4.563928
4.530549
4.609823
4.312992
4.236698
4.261732
4.679561
4.922748
5.520582
6.005764
15.499592
62.070489
263.305902
591.040850
1015.582681
1015.582681
1015.582681
1015.582681
1015.582681
1015.582681
1015.582681
1015.582681
1015.582681
1015.582681
701.354742
##END
