##TITLE=D2-6
##FORMAT=SPECTACLE-ASCII V-1.2
##DATA TYPE=ULTRAVIOLET SPECTRUM
##SECOND TYPE=ULTRAVIOLET SPECTRUM
##DATE=01/24/18
##TIME=14:08:58
##SPECTROMETER/DATA SYSTEM=SPECTACLE
##XUNITS=NM EM
##YUNITS=ENERGY
##YFACTOR=1
##FIRSTX=220
##LASTX=410
##NPOINTS=96
##3DDATA=Equidistant
##ZUNITS=NM EX
##FIRSTZ=210
##LASTZ=400
##ZPOINTS=39
##XYDATA=(Y..Y)
##ZVALUE=210
26.886463
26.790500
18.697977
15.218854
13.168454
11.787415
10.447502
8.843541
8.883476
7.786751
6.040931
4.876852
5.136728
4.687905
4.208684
4.137754
5.185604
5.371571
5.421638
5.683899
5.402565
6.862879
6.654859
7.442832
8.072853
8.556843
9.695888
10.018945
12.189746
11.046529
13.021827
13.117790
14.342666
15.877485
17.343760
18.582940
21.268725
22.740960
22.763610
26.613474
27.399659
32.517910
32.524467
33.264756
37.652850
41.687489
41.942596
44.457912
49.172640
49.724579
53.074956
56.168437
56.635737
56.664944
57.197809
58.430433
60.009956
58.148503
57.800412
58.780909
57.656765
54.791570
54.100752
54.972768
52.941442
52.187443
50.140619
51.792860
50.300956
52.795410
57.044625
58.556795
64.255595
61.376691
65.580606
65.605640
63.423514
63.382983
57.959557
56.684613
51.356554
47.394633
42.321682
34.783483
31.001568
26.175976
24.178624
21.887422
22.836924
22.889972
24.783611
30.109882
36.942959
43.084621
51.103830
66.602826
##ZVALUE=215
93.066692
89.247823
74.439645
51.210523
36.175847
26.472807
19.868612
16.560555
16.515851
14.580488
14.087558
12.474656
9.746552
8.858442
6.678700
5.850792
5.896688
5.935431
6.144643
6.403923
6.980896
6.519556
7.137656
8.458495
9.231567
10.502934
10.134578
11.644959
12.386441
12.901425
14.495850
15.978813
16.922951
19.819736
21.655560
24.211407
25.709867
28.114915
30.613542
35.542846
37.041903
40.561557
44.949651
49.853921
52.372813
58.454871
61.287880
68.218708
69.133639
76.371431
77.986717
81.240535
82.376003
86.869597
89.551806
90.634823
91.461539
89.433789
92.589855
88.434815
89.951754
86.714625
85.958838
83.978772
78.294873
79.733729
77.343583
74.683428
72.624683
71.828961
72.062612
74.658990
76.580644
76.248646
77.921748
79.050660
74.067712
69.639683
70.012808
63.359737
58.722496
50.857663
46.960711
39.764643
37.261844
31.622648
29.263496
26.786923
25.410652
24.371743
22.868514
22.124648
20.226836
22.269487
24.177432
28.534532
##ZVALUE=220
208.905935
214.313865
206.661820
189.552903
154.817700
114.333630
84.641576
53.375959
38.858652
29.085875
29.208660
25.778413
23.170710
21.508932
17.406940
14.128685
10.514855
7.968545
6.699562
7.198453
6.334782
7.637739
7.706881
9.101629
9.212494
11.627674
12.881756
11.957884
13.477802
14.322996
15.666485
17.194748
19.899607
21.242499
24.942756
31.798482
32.979846
38.720965
43.407679
50.565600
55.282712
60.778856
70.138574
74.960589
79.943538
92.052817
96.407533
107.765794
113.046765
120.831728
126.120448
134.153962
140.909553
142.129660
148.794651
149.348974
152.569413
154.863596
146.139860
149.980783
145.811439
143.235922
143.222809
138.889551
130.287409
120.454431
121.823549
115.618706
116.625428
114.069581
111.232996
108.796954
108.001828
106.186867
106.185675
103.503466
96.499920
90.772510
87.910891
80.277920
72.474480
67.355633
63.138604
54.031610
48.827529
44.539571
41.330457
37.654638
33.296943
33.230782
28.314590
28.848648
25.856495
25.676489
24.042726
21.885633
##ZVALUE=225
266.981721
281.436443
343.527794
401.216745
405.284762
385.157466
330.034494
237.286687
170.728564
120.702982
66.762567
51.215887
43.854713
41.779876
42.604804
38.547516
29.507875
25.032759
19.901991
13.531446
10.858774
9.932518
8.607507
9.640455
11.366606
11.162758
11.877418
13.536811
13.892651
14.912486
15.696883
19.033551
21.353960
24.314523
31.678677
36.633611
42.448640
49.464703
59.146881
68.736672
72.899461
86.820722
96.665621
108.542442
123.677850
133.691430
142.398477
161.822438
166.071653
181.904435
193.431973
200.187564
209.495425
221.386552
218.239427
223.544836
226.159692
229.444504
230.930448
223.719478
220.616460
217.186809
212.480426
206.021667
194.623470
186.804533
186.947584
177.330971
170.435905
161.493421
159.116983
151.317716
151.512623
139.893889
138.194561
132.224560
120.830536
111.676455
103.225708
95.692873
87.787509
80.447793
77.535510
68.448782
64.323545
57.727695
51.320791
49.783587
48.348904
42.509437
40.690899
37.074685
34.102798
32.111406
30.507445
28.476715
##ZVALUE=230
184.509754
197.474957
306.543708
478.225946
598.029494
712.707639
749.348998
715.798736
632.904768
512.333512
334.789753
216.107965
117.953420
85.534453
70.266724
67.131519
63.662529
65.684915
51.927567
46.169758
34.663677
25.519729
17.466545
14.770627
11.642575
12.148619
11.405945
12.588501
14.337897
14.724731
16.003847
19.712448
22.559762
26.809573
32.505989
39.383769
48.612952
59.674978
67.302585
78.545809
87.826848
105.400681
111.247897
129.194856
143.045783
160.091519
172.860622
189.208984
200.869441
221.972466
226.743817
241.194963
245.331526
254.466534
264.465809
269.435644
265.325904
269.961953
273.039937
273.573995
261.897445
260.128975
259.545445
248.335004
241.026878
232.415795
217.955709
208.490491
201.437473
193.240643
181.775689
177.649856
173.128843
165.843964
156.944990
146.792531
143.013597
128.817558
122.192502
111.835599
105.715990
93.434453
88.455677
79.770684
74.674487
66.266656
62.876940
55.990815
52.284002
48.134923
45.705438
43.535829
39.125681
35.968423
36.242604
34.195781
##ZVALUE=235
50.985813
59.062839
124.675632
289.361477
460.363626
731.042624
939.304829
1015.589833
1015.589833
1015.589833
1015.589833
875.753760
555.507541
381.760597
221.597552
139.553547
97.185969
95.067620
96.071959
97.052455
89.862943
75.570941
61.553717
44.502616
34.412742
22.776723
18.535852
16.140938
17.678738
16.578436
19.308925
21.491647
22.605658
27.829409
32.251477
38.143992
45.774579
53.871870
59.564710
73.685646
83.243847
93.297958
100.706816
117.365718
126.827955
143.267512
157.098770
172.644854
185.624957
198.710561
202.802420
216.150880
227.592587
232.010484
238.220692
243.858695
238.301754
236.064792
240.759850
239.398479
236.315727
227.513909
225.253701
213.324428
207.917690
201.183558
195.834637
188.493729
181.095600
174.458623
169.120431
157.049894
159.798861
147.891641
142.367482
136.427879
126.151443
120.643973
114.028454
102.812648
95.433593
84.830523
82.445741
74.520707
69.712996
59.515834
59.591532
55.157542
52.234530
47.013760
44.472814
40.446520
38.215518
38.992763
34.682751
33.607483
##ZVALUE=240
4.183650
4.657507
20.831823
55.741668
165.371895
307.864547
608.825684
920.902491
1015.485525
1015.485525
1015.485525
1015.485525
1015.485525
1015.485525
967.095494
575.954914
374.801755
205.319524
144.809484
120.849609
127.193928
132.370591
128.071904
119.479895
94.223619
80.673695
59.405565
47.254562
34.461617
27.880669
25.080442
24.342537
24.457574
26.969910
28.912425
33.170581
38.646460
44.442415
47.721863
54.656863
58.548450
68.496466
74.883699
78.759789
88.949800
99.597573
102.514625
118.348598
126.426816
136.255622
142.208934
145.828724
154.637694
161.422491
163.055658
161.243677
167.810917
158.545971
163.874626
163.341761
161.903501
156.548619
151.904821
152.072906
147.261620
141.105652
137.753487
133.327842
128.710866
127.925873
123.120546
122.739673
117.835999
119.809508
111.704469
108.012557
101.307631
95.682740
89.869499
79.609752
76.738596
70.232749
65.527558
59.222579
58.720708
50.393939
46.364665
45.801997
41.763783
40.653944
38.293600
35.624504
35.273433
32.482743
28.516650
32.115579
##ZVALUE=245
3.692508
3.154874
3.569722
4.496574
10.465980
45.431852
112.498999
299.920440
546.373725
853.906870
1015.589833
1015.589833
1015.589833
1015.589833
1015.589833
1015.589833
1015.589833
884.119868
647.144914
308.254957
187.380910
129.952431
132.980943
145.185590
149.333477
140.502453
134.229660
111.224651
93.999505
68.125725
54.491758
41.936636
32.527447
29.613972
29.531717
29.518604
30.609965
34.849644
36.547780
38.007498
41.842461
46.552420
50.124526
58.953762
59.976578
66.482425
72.742701
78.196526
84.159970
90.690851
95.596910
99.921823
102.687478
109.276772
110.504627
111.900568
111.078620
112.757683
113.394856
114.131570
111.368895
109.835863
108.867884
103.251934
102.502704
100.497603
96.300840
94.814897
92.917681
89.787841
89.481473
90.802908
90.713501
85.122585
82.193613
77.827573
77.290535
71.894526
67.443848
60.887933
59.240460
52.970648
48.388839
45.434833
43.423772
38.695931
34.578443
34.139752
34.209490
32.631755
31.155944
28.871894
28.498769
26.580691
25.931597
25.869608
##ZVALUE=250
3.024936
3.234744
3.103614
3.527999
3.527999
3.981590
6.748438
21.165609
94.149709
209.286809
515.261889
836.953521
1015.722752
1015.722752
1015.722752
1015.722752
1015.722752
1015.722752
1015.722752
1015.722752
761.758685
465.905666
225.447416
146.871805
125.466585
141.166449
153.355598
158.458948
153.146982
146.900415
125.784874
102.592707
80.116987
55.752993
44.531822
35.474896
31.655431
32.843947
36.318898
38.913488
43.126941
45.329928
50.367713
57.323575
60.702562
69.445968
73.230863
77.513456
85.229874
94.747543
97.124577
101.829767
106.800795
113.760829
113.378763
114.089847
116.663575
117.216706
115.322471
112.307668
114.643574
110.742450
110.337734
106.920004
103.696585
101.789832
97.633004
93.853474
95.323920
88.420510
88.885427
85.679889
85.907578
84.735751
80.632567
76.225996
71.187615
66.264868
66.599846
60.449839
54.401755
50.008893
46.721697
42.495728
41.316748
39.079785
36.177635
32.803416
33.552647
29.848814
29.823780
26.595592
25.704503
24.795532
23.513436
24.261475
##ZVALUE=255
2.337694
2.715588
2.814531
2.781749
2.810955
3.015995
3.379583
3.791451
4.333854
11.806488
62.902570
155.136585
323.922038
709.711909
1015.589833
1015.589833
1015.589833
1015.589833
1015.589833
1015.589833
1015.589833
1015.589833
978.285670
623.627901
302.305818
180.677772
119.490623
122.547746
144.775510
157.150626
166.559815
166.231990
151.315928
128.927827
106.021762
78.650713
64.180493
51.400661
45.865774
46.797991
49.013495
58.590770
61.153769
70.863962
76.012611
87.593794
92.728734
102.234483
107.572675
119.905472
125.253797
133.519769
135.876536
143.177509
148.686767
148.079991
150.703788
155.885816
146.914721
150.830746
145.755410
145.424604
141.422749
134.782791
133.831501
128.802657
124.968886
121.901631
115.912557
112.023950
107.601881
105.194449
104.314685
97.126961
93.436837
89.787841
83.171725
75.814724
72.931647
66.286922
63.070655
55.167675
53.740740
48.028827
46.992898
41.265488
40.907860
35.999417
34.261942
33.112764
32.013655
28.533936
27.865767
26.613474
25.151968
24.682879
##ZVALUE=260
2.347827
2.185702
2.637506
2.646446
2.506971
2.665520
2.993941
3.040433
3.228784
4.227757
4.346967
6.504655
21.202564
99.638700
227.796435
554.130673
915.348530
1015.589833
1015.589833
1015.589833
1015.589833
1015.589833
1015.589833
1015.589833
1015.589833
922.709703
501.962900
285.316706
140.375495
108.539462
116.748810
143.572688
161.807537
173.279643
171.502829
159.259439
142.771602
117.108822
103.232861
86.514950
80.735683
81.825852
84.866881
93.507767
103.912950
118.519664
123.872757
140.463710
151.586533
163.957477
169.999599
181.855559
191.349983
197.638869
204.094648
209.371448
208.460689
207.814574
209.072828
207.821727
204.834938
202.556849
198.664665
189.065933
183.913708
175.811648
173.986554
162.883997
157.180429
150.707960
142.638683
137.887001
132.808685
124.391913
119.432807
106.938481
104.779601
95.668435
91.482997
81.811547
76.577663
71.352720
67.135692
62.224865
57.366490
50.792694
46.961904
43.926835
41.908622
38.369894
37.213564
34.168959
30.788779
30.093789
28.717518
27.732849
##ZVALUE=265
2.307892
2.426505
2.279878
2.306700
2.200603
2.539754
2.679825
2.818704
3.253818
3.414750
3.665686
3.771782
3.714561
4.565716
11.167526
65.881610
165.623426
425.739884
757.611990
1015.597582
1015.597582
1015.597582
1015.597582
1015.597582
1015.597582
1015.597582
1015.597582
1015.597582
723.162889
411.072969
223.109722
112.634897
103.532672
132.640600
156.502724
184.015632
194.310546
198.266506
188.268423
172.581673
162.145495
144.018531
139.260888
139.277577
141.419768
157.340765
167.496800
185.879469
197.775960
215.221643
226.970911
244.607925
255.459547
262.510777
268.765688
275.576711
277.282000
277.325511
275.049806
272.629857
269.771814
264.953971
258.728862
250.345469
241.985917
232.939720
221.473575
214.256644
205.374956
192.055702
189.503431
178.670883
170.176625
160.080791
150.589943
139.379501
130.316615
121.715665
113.623738
102.985501
96.247792
86.413622
81.972480
75.401664
70.747733
64.466000
59.960485
55.817962
52.570701
47.377944
44.572949
40.629506
39.295554
35.367608
33.202767
31.776428
##ZVALUE=270
2.283454
2.005696
2.138615
2.449751
2.152920
2.417564
2.566576
2.438426
2.772808
2.789497
3.353953
3.327727
3.499985
3.670454
3.840923
4.583001
7.328987
25.581717
80.941916
282.762647
585.902929
1015.589833
1015.589833
1015.589833
1015.589833
1015.589833
1015.589833
1015.589833
1015.589833
1015.589833
1015.589833
584.284663
317.255855
143.036842
106.100440
125.088692
153.702497
195.028782
221.468806
241.102576
245.251656
248.750448
237.856507
229.196548
225.613713
224.577785
229.520798
241.949558
257.348418
273.452997
287.790895
305.344462
316.740870
333.446860
339.687467
344.768763
346.114635
353.723764
349.861979
344.282985
340.600610
328.812003
324.224830
314.630866
307.836533
291.937590
283.949971
266.540647
256.574750
245.366693
232.757926
220.142603
208.063722
195.053816
183.633566
169.480443
159.605742
147.248507
137.904882
127.009749
118.155479
105.601549
99.436641
91.180801
84.431767
76.308846
71.281791
65.730810
60.568452
55.335760
52.890778
47.791600
44.419765
40.523410
39.055943
36.516786
##ZVALUE=275
2.205968
2.082586
1.923442
2.180934
2.333522
2.313852
2.551675
2.479553
2.769828
2.617836
2.825856
2.702475
2.944469
3.252625
3.341436
3.534555
4.023910
4.186630
5.331635
13.774633
54.302812
165.547729
496.476889
931.364894
1015.648842
1015.648842
1015.648842
1015.648842
1015.648842
1015.648842
1015.648842
1015.648842
1015.648842
901.235938
518.479943
222.387910
135.647655
128.441453
158.321857
203.527808
240.728855
279.984474
306.363702
324.367881
330.801606
327.323675
323.290825
323.534012
324.401855
332.056880
343.770981
355.807543
364.796519
381.577015
391.565561
399.449468
402.128696
396.753550
402.157903
395.548940
389.778018
382.245779
375.731587
360.810757
352.702737
332.414508
321.348906
305.511951
292.118788
276.844501
260.831714
248.214006
235.543847
220.793486
206.591487
192.507505
180.613995
165.810585
155.376792
141.487718
132.154822
119.971633
112.506747
104.204416
95.298886
86.291432
81.105828
73.478818
69.441795
63.651800
58.017969
53.415895
49.696565
45.291781
41.580796
39.765835
##ZVALUE=280
1.841784
1.853704
2.077818
2.126694
2.121925
2.084970
1.963973
2.150536
2.203584
2.248883
2.553463
2.575517
2.568960
2.809763
2.781749
3.317595
3.245473
3.669858
4.127622
4.482865
4.710555
7.216930
30.756593
149.701834
360.383391
850.228667
1015.589833
1015.589833
1015.589833
1015.589833
1015.589833
1015.589833
1015.589833
1015.589833
1015.589833
1015.589833
767.245889
346.639752
198.710561
146.789551
164.774656
213.442445
252.148509
307.362676
343.149900
376.532674
390.237570
403.851867
399.376750
398.123860
397.269726
397.080779
398.556590
400.941968
409.369469
412.876010
418.120623
413.591862
416.034460
409.523845
406.073928
399.198532
389.397740
376.810431
365.634561
345.615745
335.401893
317.270756
308.459997
287.582874
275.079608
258.796811
243.996978
227.021575
218.585730
200.755596
186.783671
170.719624
162.768960
145.051479
137.149692
123.065710
115.365982
107.211471
98.780990
90.272427
83.888769
76.282620
70.709586
64.526796
59.759617
54.264665
51.623583
46.424866
43.209791
39.730668
##ZVALUE=285
1.988411
1.825690
1.698732
1.450777
1.815557
1.882911
1.813769
2.093911
2.063513
1.979470
2.070665
2.315640
2.268553
2.397895
2.397895
2.907515
2.964735
2.968907
2.884865
3.599524
4.013777
4.175901
4.529953
5.180836
17.277598
62.897801
228.901505
483.698845
996.450782
1015.505791
1015.505791
1015.505791
1015.505791
1015.505791
1015.505791
1015.505791
1015.505791
1015.505791
1015.505791
584.809780
326.128602
182.685852
165.216923
203.854442
244.711637
302.227736
341.122746
382.974744
406.367779
429.544449
430.403948
431.290865
424.874425
413.216949
404.592752
396.387577
389.992595
385.677814
381.909013
376.653671
373.951793
362.211466
355.009437
345.073938
336.494446
320.439935
311.403871
295.745730
282.581449
263.949633
251.171589
237.555504
224.425793
211.701989
195.817947
183.493495
171.318650
158.775449
148.647428
136.397481
125.722885
114.768744
107.399821
99.092722
92.102885
83.128810
77.192783
71.003437
65.342784
60.106516
55.251718
50.344467
47.258735
43.051839
39.863586
37.035942
##ZVALUE=290
1.566410
1.552701
1.636744
1.850724
1.806617
1.835823
1.817942
2.029538
1.986623
2.063513
2.334714
2.146959
2.384782
2.412796
2.383590
2.345443
2.515912
2.669692
2.783537
3.013611
3.225803
3.541708
3.814697
4.050732
4.930496
5.445480
6.608963
33.144951
109.382868
356.068611
709.058642
1015.589833
1015.589833
1015.589833
1015.589833
1015.589833
1015.589833
1015.589833
1015.589833
1015.589833
1015.589833
834.492445
468.450785
224.143863
163.365602
178.949833
205.033422
249.059796
284.777880
333.851576
364.054441
387.920737
399.721861
398.176908
381.134748
364.371538
345.137715
328.499675
312.739611
299.649835
290.825963
286.638737
277.831554
269.231796
262.066722
249.522924
241.518617
227.785707
219.445825
208.287835
196.665525
187.113881
175.758600
165.280700
156.410933
142.907500
136.606693
125.400424
115.425587
105.923414
101.502538
91.128945
85.056424
79.497695
72.300434
66.562891
62.456727
56.429505
53.365827
48.743486
44.744611
41.061640
38.957000
35.759807
33.661723
30.258894
##ZVALUE=295
1.611710
1.762509
1.695752
1.667738
1.642704
1.863837
1.760721
1.927614
2.071857
1.759529
1.895428
2.036691
1.972914
2.213717
2.120733
2.060533
2.166629
2.442598
2.443790
2.618432
2.625585
2.815723
3.097653
3.313422
3.862977
3.988743
4.432797
4.984736
5.994439
11.505485
45.443773
207.240582
487.143993
1015.589833
1015.589833
1015.589833
1015.589833
1015.589833
1015.589833
1015.589833
1015.589833
1015.589833
1015.589833
1010.921001
628.690720
266.526937
159.215927
127.049685
141.444802
196.844935
201.154947
235.536695
262.907743
292.347670
301.786661
306.305885
296.502709
276.196599
257.061720
230.947733
212.405920
191.912651
181.663632
170.214772
165.647864
154.850483
150.837898
144.445896
137.647986
131.958723
127.243996
118.295550
113.911629
105.898976
101.019740
92.213750
87.395906
79.544783
76.226592
69.103837
63.630939
58.952570
56.012869
51.031709
48.215985
44.720769
42.224526
38.063526
35.077929
33.833981
30.963421
28.164983
26.608706
24.871826
23.178458
22.235513
##ZVALUE=300
1.531839
1.522899
1.489520
1.395941
1.577735
1.567602
1.673698
1.690984
1.695752
1.660585
1.478791
1.813769
1.757741
1.934767
2.041459
1.924634
1.818538
2.332926
2.090931
2.481937
2.459884
2.329946
2.679825
3.037453
3.091693
3.311634
3.699660
3.897548
4.142523
4.635453
5.461574
6.904602
29.412508
111.744404
399.253964
800.778866
1015.589833
1015.589833
1015.589833
1015.589833
1015.589833
1015.589833
1015.589833
1015.589833
1015.589833
1015.589833
790.098906
429.511666
172.180533
93.799829
79.772472
91.715455
110.190511
131.126642
158.614516
178.144574
200.852752
208.825469
207.601786
199.724436
176.886916
158.401728
132.802725
114.492774
95.026493
86.695552
77.116489
71.999431
67.489743
65.040588
62.219501
60.832500
57.258606
55.068731
52.829981
49.413443
45.821667
43.360591
39.727688
37.484765
35.009980
33.211708
30.210614
29.541850
26.576519
25.575757
24.064779
22.277832
20.800829
19.583702
18.713474
17.880797
17.017722
16.443729
14.932752
14.897585
##ZVALUE=305
1.290441
1.451969
1.650453
1.546741
1.437664
1.613498
1.437664
1.512766
1.464486
1.567602
1.419783
1.625419
1.784563
1.578927
1.875758
1.858473
1.747608
1.862645
2.152920
2.141595
2.303720
2.048612
2.326965
2.550483
2.716780
2.791882
2.983809
3.399849
3.540516
3.938675
3.934503
4.680753
5.236864
6.100535
11.664629
77.391863
224.882960
664.251447
1015.589833
1015.589833
1015.589833
1015.589833
1015.589833
1015.589833
1015.589833
1015.589833
1015.589833
1015.589833
1015.589833
509.152412
245.079994
83.116889
46.617985
47.031641
56.013465
71.763992
88.811517
112.549663
129.897594
147.766471
155.680776
153.635740
144.886971
125.213861
107.216835
83.595514
66.229701
50.182939
41.857958
35.184622
32.675862
31.094551
29.601455
28.393865
27.056932
25.723577
24.276972
22.754669
22.006631
20.196438
19.609928
18.394589
17.633438
16.686916
16.020536
15.440583
14.624596
13.959408
12.984872
12.587905
12.153983
11.987686
11.632442
11.135936
10.920763
10.738969
##ZVALUE=310
1.368523
1.335740
1.344681
1.420975
1.377463
1.465678
1.513958
1.506805
1.480579
1.530647
1.629591
1.413822
1.483560
1.447797
1.466870
1.653433
1.716614
1.831651
1.745820
1.917481
1.911521
2.065897
2.095699
2.147555
2.259612
2.442598
2.583861
2.706647
2.858639
2.912879
3.286600
3.616810
4.049540
4.749894
4.797578
5.857944
6.879568
31.312704
112.769604
400.879979
806.334615
1015.584469
1015.584469
1015.584469
1015.584469
1015.584469
1015.584469
1015.584469
1015.584469
1015.584469
1015.584469
789.493918
410.719514
136.063695
48.976541
25.505424
27.938485
35.168529
45.808554
64.368844
80.265999
102.776885
115.845799
126.788616
128.750801
119.528770
104.131699
84.071755
67.361593
48.264861
36.293864
26.253462
21.577477
18.248558
16.070604
15.185475
14.462471
13.781786
12.897849
12.449622
11.615753
10.865927
11.234879
10.938644
10.508895
10.518432
10.248423
9.472966
9.486675
8.995533
8.957982
8.657575
8.628964
8.719563
8.198619
8.185506
##ZVALUE=315
1.233816
1.301765
1.272559
1.177788
1.429915
1.331568
1.289845
1.445413
1.466870
1.500845
1.438856
1.471639
1.550913
1.582503
1.439452
1.435876
1.644492
1.484752
1.587868
1.759529
1.941919
1.995564
2.047420
1.931787
2.212524
2.254844
2.462864
2.461672
2.677441
2.716780
2.743602
3.028512
3.282428
3.653765
3.959537
4.226565
4.808903
5.352497
6.476641
13.998747
56.989789
254.520774
568.271875
1015.585661
1015.585661
1015.585661
1015.585661
1015.585661
1015.585661
1015.585661
1015.585661
1015.585661
1015.585661
992.948413
569.992661
197.703838
70.354939
22.400618
18.512607
21.715760
27.496815
39.208531
52.632689
72.543621
87.690949
107.131004
116.048455
117.062926
109.753609
93.392730
77.851415
57.406425
44.393539
29.117465
21.801591
15.442967
12.817979
10.529757
9.893775
9.164810
8.983612
8.397698
8.679628
8.471608
8.315444
8.632541
7.944703
7.896423
7.898808
7.622838
7.435679
7.323623
7.593632
7.129908
7.203817
6.936789
##ZVALUE=320
1.293421
1.195669
1.220703
1.263618
1.170635
1.306534
1.436472
1.320839
1.416802
1.547933
1.411438
1.109838
1.318455
1.394749
1.442432
1.193881
1.550913
1.526475
1.638532
1.537800
1.477599
1.814961
1.708865
1.900792
1.967549
2.019405
2.047420
2.106428
2.298951
2.428889
2.440810
2.736449
2.856851
3.075600
2.935529
3.462434
3.936887
4.038811
4.555583
5.187988
6.002784
7.812977
26.389956
150.060058
374.377966
939.432979
1015.567780
1015.567780
1015.567780
1015.567780
1015.567780
1015.567780
1015.567780
1015.567780
1015.567780
1015.567780
753.513575
293.174982
122.412443
32.143593
16.770959
15.919805
17.964840
24.073720
32.429695
48.751831
63.626766
82.894564
96.444488
106.073618
109.267831
101.877451
91.043711
71.273446
55.986643
38.029552
27.542710
17.872453
13.283491
9.825826
8.413792
7.594824
7.397532
7.162690
7.003546
7.342696
7.177591
7.250905
6.982684
6.605983
7.042885
6.855726
6.674528
6.584525
6.875992
6.416440
##ZVALUE=325
1.017451
1.344681
1.136661
1.005530
1.344681
1.159906
1.293421
1.264811
1.273751
1.349449
1.537800
1.321435
1.187921
1.375675
1.369715
1.340508
1.479983
1.454949
1.218915
1.438856
1.597404
1.618862
1.639724
1.740456
1.642704
1.819730
1.949668
1.861453
2.274513
2.132654
2.283454
2.221465
2.319813
2.728701
2.624989
2.996922
3.303885
3.525615
3.816485
3.980994
4.390478
4.871488
5.554557
6.431937
13.380647
89.999437
246.866941
665.932894
1015.589833
1015.589833
1015.589833
1015.589833
1015.589833
1015.589833
1015.589833
1015.589833
1015.589833
1015.589833
964.133739
421.505570
188.921690
48.492551
18.700957
13.785958
13.999939
16.782880
21.362901
31.251907
43.522716
63.178539
78.082681
92.909932
100.028515
102.149844
95.436573
79.965591
66.239834
47.663450
35.643578
22.748709
15.883446
10.634661
8.912683
7.333755
7.347465
6.850958
6.665587
6.390810
6.348491
6.379485
6.409883
6.174445
6.015897
5.924702
6.113648
6.168485
##ZVALUE=330
1.209974
1.031756
1.123548
1.000762
1.163483
1.025796
1.126528
1.200438
1.240969
1.223683
1.286864
1.312494
1.351833
1.362562
1.208782
1.281500
1.378655
1.415610
1.277924
1.313686
1.259446
1.496673
1.542568
1.331568
1.669526
1.759529
1.935959
1.823902
1.794696
1.909733
2.045631
2.125502
2.410412
2.346635
2.371669
2.401471
2.917647
2.879500
3.090501
3.344417
3.350973
3.733635
4.386902
4.654527
5.310774
5.841851
8.456707
29.599667
160.667896
394.680500
944.315791
1015.589833
1015.589833
1015.589833
1015.589833
1015.589833
1015.589833
1015.589833
1015.589833
1015.589833
1015.589833
681.910515
263.098478
104.896426
24.421811
13.797879
12.630820
12.504458
15.965700
21.027923
31.563640
42.429566
59.348941
72.567463
86.862445
93.050003
93.563795
88.463426
74.571967
61.316490
43.050647
32.901764
21.688938
16.141534
10.679960
8.520484
7.360578
6.650686
6.298423
6.133914
6.311536
5.756617
5.812645
5.985498
5.752444
5.884767
##ZVALUE=335
1.129508
0.989437
0.961423
1.018643
0.991821
0.902414
1.114607
1.017451
1.275539
1.126528
1.336932
1.099706
1.249909
1.190901
1.107454
1.248717
1.312494
1.150966
1.212955
1.409650
1.384616
1.514554
1.410842
1.345873
1.549721
1.632571
1.697540
1.512766
1.606941
1.883507
1.879930
2.041459
2.124906
2.173781
2.040863
2.190471
2.413988
2.378821
2.566576
2.842546
3.048778
3.159642
3.467798
3.533959
4.056692
4.502535
4.879832
5.168915
6.326437
12.866855
82.157850
233.711600
664.464831
1015.564799
1015.564799
1015.564799
1015.564799
1015.564799
1015.564799
1015.564799
1015.564799
1015.564799
1015.564799
930.628777
382.110476
164.032578
41.289926
16.549826
12.372732
11.970997
13.132691
15.021563
20.478964
28.082728
40.996671
52.182674
68.067908
78.970790
86.687803
86.459517
80.419779
70.016980
57.698488
45.232773
31.487942
23.761988
15.277863
11.386871
8.204579
6.812811
6.336570
6.245971
5.925894
5.724430
5.655885
5.710721
##ZVALUE=340
0.964999
1.000762
1.075864
0.978708
1.088977
1.271963
1.022816
0.959635
0.968575
1.128912
1.034737
1.129508
1.275539
1.081824
1.093745
1.055598
1.176000
1.208782
1.524687
1.193881
1.261830
1.359582
1.351833
1.506805
1.490712
1.460910
1.440644
1.471639
1.520514
1.825690
1.735687
1.883507
1.854897
1.924634
2.055764
2.102852
2.062917
2.315640
2.412796
2.395511
2.606511
2.541542
2.623796
3.118515
3.278852
3.588796
3.645420
4.094839
4.476905
5.086660
5.755424
8.697510
30.338764
160.717368
408.538580
972.673893
1015.589833
1015.589833
1015.589833
1015.589833
1015.589833
1015.589833
1015.589833
1015.589833
1015.589833
978.732705
550.094843
189.779401
67.257881
18.837452
13.033748
12.355447
12.237430
12.786984
14.602542
19.704700
25.749803
37.632585
48.058629
63.746572
73.850751
80.431700
80.692768
75.141788
66.735744
53.485632
43.274760
31.616688
23.183823
14.775991
11.070967
7.786751
7.094741
6.166697
5.942583
5.686879
##ZVALUE=345
0.985861
0.914931
0.868440
1.105666
1.105666
1.084805
1.108646
1.061559
0.910759
1.089573
1.114607
1.174808
1.025796
1.110435
1.195669
1.153946
1.112819
1.180768
1.219511
1.282692
1.124740
1.297593
1.233816
1.468658
1.378655
1.374483
1.531839
1.469851
1.515746
1.504421
1.571774
1.574755
1.612902
1.701713
1.836419
1.924634
1.996756
1.941919
2.077818
2.146959
2.106428
2.382994
2.423525
2.534986
2.741814
3.106594
3.200769
3.310442
3.390908
3.871918
4.160404
4.584789
5.180836
6.168485
12.960434
88.323951
251.320601
686.892867
1015.589833
1015.589833
1015.589833
1015.589833
1015.589833
1015.589833
1015.589833
1015.589833
1015.589833
1015.589833
767.658949
290.088654
118.783712
30.815601
15.341640
12.709498
11.781454
10.832548
10.715723
12.631416
15.732646
23.537874
32.279491
45.964718
56.118965
66.234469
72.137713
74.547529
71.172714
63.222647
54.339767
41.659474
32.168627
21.236539
15.433431
10.426641
8.422732
6.860495
##ZVALUE=350
1.178980
1.026988
1.116991
1.099706
1.078844
1.061559
1.165867
1.207590
1.241565
1.208782
1.163483
1.179576
1.291633
1.076460
1.161695
1.120567
1.166463
1.140833
1.269579
1.130700
1.121759
1.205802
1.432896
1.507998
1.286864
1.340508
1.316667
1.409650
1.433492
1.479983
1.749992
1.591444
1.785755
1.779795
1.804829
1.658797
1.904964
1.901984
1.958609
1.958609
2.067685
2.232790
2.309680
2.414584
2.725720
2.560616
2.763867
2.846718
3.087521
3.225803
3.585815
3.621578
3.998876
4.644990
4.723668
5.527735
7.590652
43.056607
142.929554
465.504527
897.983909
1015.589833
1015.589833
1015.589833
1015.589833
1015.589833
1015.589833
1015.589833
1015.589833
1015.589833
958.947539
441.260934
191.420913
44.521689
16.994476
11.941791
10.726452
9.800792
9.182692
9.653568
11.052489
15.554428
20.756721
29.513836
38.141608
50.276518
58.767796
66.337585
68.991780
66.308975
60.752630
49.778819
40.962696
28.689504
21.644831
14.857650
##ZVALUE=355
1.127720
0.978708
1.205802
1.179576
1.146793
1.018643
1.152754
1.046658
1.333952
1.261830
1.163483
1.197457
1.297593
1.285672
1.289845
1.415610
1.395941
1.413822
1.387596
1.209974
1.497865
1.289845
1.434684
1.485944
1.402497
1.439452
1.454949
1.490712
1.492500
1.501441
1.615882
1.604557
1.719594
1.696944
1.772642
1.780987
1.858473
1.823902
2.037883
1.998544
2.064705
1.988411
2.245903
2.257824
2.339482
2.333522
2.674460
2.646446
2.686977
2.968907
3.044605
3.403425
3.528595
3.849864
4.040599
4.381537
4.603863
5.417466
6.151795
19.605756
75.865388
308.752656
645.563602
1015.589833
1015.589833
1015.589833
1015.589833
1015.589833
1015.589833
1015.589833
1015.589833
1015.589833
1015.589833
550.977588
250.375867
64.390898
21.798611
11.767745
10.672808
9.498000
8.923411
8.440614
8.823872
10.137558
12.734532
18.178821
24.356842
35.011768
43.387413
53.018928
59.350729
62.424541
61.636567
55.713654
48.213601
37.831664
##ZVALUE=360
1.105666
1.211762
1.087785
1.045465
1.222491
1.058578
1.250505
1.262426
1.227856
1.166463
1.184940
1.288652
1.238585
1.388788
1.363754
1.419783
1.464486
1.303554
1.346469
1.329780
1.339912
1.432896
1.360774
1.411438
1.451969
1.476407
1.473427
1.629591
1.583695
1.661777
1.624823
1.849532
1.825690
1.613498
1.908541
1.842976
1.857877
1.879930
1.985431
2.105832
2.221465
2.117753
2.366900
2.154708
2.306700
2.535582
2.634525
2.724528
2.666712
2.860427
2.908707
3.067851
3.299713
3.306866
3.568530
3.892779
4.075766
4.336834
4.616976
5.658865
6.164908
9.549856
31.903386
157.819390
392.960906
956.503749
1015.589833
1015.589833
1015.589833
1015.589833
1015.589833
1015.589833
1015.589833
1015.589833
1015.589833
737.480521
367.900729
123.556852
40.771961
12.450814
10.307431
9.292960
8.912683
7.930994
7.789731
7.963777
8.806586
11.284947
14.465451
20.883679
27.806759
38.708448
45.772791
52.331686
55.796504
56.417584
##ZVALUE=365
1.129508
1.213551
1.206994
1.194477
1.237988
1.268983
1.161695
1.304746
1.283884
1.458526
1.342893
1.156926
1.234412
1.331568
1.234412
1.143813
1.321435
1.378655
1.193881
1.269579
1.508594
1.525879
1.370907
1.278520
1.630783
1.414418
1.588464
1.451969
1.482964
1.430511
1.737475
1.627803
1.621842
1.785755
1.824498
1.863837
1.779795
1.797676
1.892447
1.992583
1.900792
1.991987
1.907945
2.146959
2.272725
2.231598
2.201796
2.368689
2.284646
2.368689
2.703667
2.749562
2.912879
2.949834
3.175735
3.230572
3.545880
3.804564
4.126430
4.239678
4.661679
5.189776
6.214976
6.790757
16.814470
64.813495
271.807909
600.285530
1015.589833
1015.589833
1015.589833
1015.589833
1015.589833
1015.589833
1015.589833
1015.589833
1015.589833
1015.589833
481.680632
212.775469
51.688552
17.429590
9.969473
9.159446
8.354783
8.038878
7.356405
6.886721
7.215738
7.754564
9.551644
11.932850
18.208623
23.682714
32.908916
39.124489
##ZVALUE=370
1.023412
1.114607
1.161695
1.204610
1.031756
1.085997
1.168847
1.004934
1.105666
1.157522
1.058578
1.295805
1.269579
1.129508
1.092553
1.163483
1.186728
1.191497
1.359582
1.251698
1.203418
1.302958
1.318455
1.335740
1.251698
1.204610
1.311898
1.419783
1.338720
1.500845
1.541972
1.411438
1.525879
1.563430
1.636744
1.630783
1.713634
1.763701
1.561642
1.699924
1.679659
1.805425
1.818538
1.916885
1.969934
2.165437
2.095699
2.052784
2.239943
2.165437
2.148747
2.304912
2.480745
2.584457
2.496839
2.851486
2.770424
3.024936
3.263950
3.287792
3.615618
4.017949
4.320741
4.603863
5.235672
5.754828
9.011626
33.020973
182.963610
450.536609
997.240543
1015.589833
1015.589833
1015.589833
1015.589833
1015.589833
1015.589833
1015.589833
1015.589833
1015.589833
608.791709
302.713513
101.782680
34.335852
10.524988
8.927584
7.812977
7.399917
6.820560
6.479621
6.313920
6.263852
6.649494
7.906556
10.989904
14.556646
##ZVALUE=375
1.063943
1.152754
0.933409
1.093745
0.972748
1.149774
1.099706
0.980496
1.146793
1.125932
0.953674
1.010895
1.122952
1.110435
1.106858
1.169443
1.079440
0.922680
1.089573
1.040697
1.017451
1.196861
1.195669
1.241565
1.042485
1.171827
1.298785
1.276731
1.158714
1.352429
1.390576
1.497865
1.344681
1.430511
1.371503
1.443624
1.457930
1.555681
1.472831
1.591444
1.593828
1.674891
1.713634
1.764894
1.704693
1.861453
2.043843
1.945496
1.881719
2.026558
2.015829
1.982450
2.164841
2.171993
2.303720
2.298951
2.430677
2.537966
2.511740
2.722740
2.919436
3.043413
3.156662
3.613830
3.717542
4.050732
4.583597
5.370975
6.332994
20.065904
76.841712
292.084813
630.889535
1015.589833
1015.589833
1015.589833
1015.589833
1015.589833
1015.589833
1015.589833
1015.589833
1015.589833
950.030684
432.982445
203.749537
55.570602
17.767549
8.811951
8.010864
7.299781
6.656647
6.503463
6.159544
5.879998
5.708933
5.954504
##ZVALUE=380
0.717640
0.671744
0.790954
0.846982
0.874996
0.852942
0.745654
0.970960
0.710487
0.720620
0.764728
0.858903
0.682473
0.872612
0.701547
0.943542
0.846982
0.751615
0.856519
0.943542
0.856519
0.747442
0.802875
0.836849
0.794530
0.779629
0.999570
0.853539
1.093745
1.074672
1.101494
1.172423
1.098514
1.229644
1.063943
1.259446
1.148582
1.262426
1.353621
1.440644
1.516938
1.361966
1.488924
1.547933
1.484752
1.709461
1.616478
1.844764
1.614690
1.721978
1.854897
1.784563
1.892447
1.954436
1.896620
1.914501
2.179742
2.168417
2.216697
2.384782
2.383590
2.702475
2.598763
2.733469
2.845526
3.183484
3.614426
4.016757
4.398823
5.366802
6.025434
10.527968
40.487647
203.833580
482.481718
1015.381813
1015.381813
1015.381813
1015.381813
1015.381813
1015.381813
1015.381813
1015.381813
1015.381813
1015.381813
640.097857
318.817496
99.218488
33.996701
10.152459
8.162856
7.108450
6.672740
6.034970
5.904436
5.432963
##ZVALUE=385
0.877976
0.912547
0.876784
0.881553
0.995994
0.786781
0.918508
0.951886
0.890493
0.840425
0.942945
0.873804
1.007915
0.923872
0.849962
1.004934
0.969768
1.178980
1.013875
0.940561
0.928640
0.964999
1.141429
1.080632
1.070499
1.027584
1.214743
1.261830
1.347661
1.219511
1.284480
1.350641
1.330972
1.559854
1.376867
1.382828
1.426935
1.542568
1.576543
1.690984
1.510978
1.754761
1.839995
1.817942
2.000928
1.950860
1.614690
2.091527
2.148747
2.001524
2.106428
2.436638
2.177954
2.173781
2.280474
2.268553
2.437830
2.345443
2.567768
2.590418
2.674460
2.804995
2.683997
2.897978
3.031492
3.244877
3.486872
3.575683
4.005432
4.793406
4.935861
5.526543
5.791783
7.067919
18.576980
113.669634
301.705599
780.654550
1015.589833
1015.589833
1015.589833
1015.589833
1015.589833
1015.589833
1015.589833
1015.589833
1015.589833
940.521955
524.707437
203.726888
74.770451
15.420914
8.314848
7.284880
6.921887
6.204844
##ZVALUE=390
0.925660
0.921488
1.098514
0.981688
0.855923
0.877976
0.819564
1.032948
0.696778
0.870824
0.796914
0.769496
1.029968
0.988841
0.905991
0.796914
1.002550
1.023412
0.907779
0.985861
0.852942
0.989437
1.055598
1.113415
0.890493
1.017451
0.989437
1.093745
1.099706
1.254678
1.376867
1.174808
1.343489
1.603961
1.456738
1.502633
1.524687
1.722574
1.755953
1.683831
1.802444
2.039671
2.060533
2.124906
2.328753
2.298951
2.209544
2.258420
2.436638
2.332926
2.377629
2.539754
2.572536
2.729893
2.604723
2.542734
2.851486
2.650619
2.838969
2.819896
2.810955
2.976656
3.012419
3.046989
2.994537
3.313422
3.349781
3.734827
4.112720
4.341602
4.658699
4.750490
4.943609
5.302429
5.437732
5.760789
9.699464
57.865381
188.079476
593.626499
1015.589833
1015.589833
1015.589833
1015.589833
1015.589833
1015.589833
1015.589833
1015.589833
1015.589833
1015.589833
801.982880
312.420726
130.930543
28.459430
10.406971
7.396936
##ZVALUE=395
0.892878
0.918508
0.760555
0.763535
0.888705
0.957847
0.834465
0.895858
1.013875
0.970960
0.857711
0.793934
0.744462
1.087785
1.010895
0.949502
0.845790
0.835657
0.984669
0.972748
0.970960
0.897646
0.985861
0.885725
1.058578
0.958443
1.096725
1.141429
1.155734
1.176596
1.357794
1.334548
1.367927
1.551509
1.544952
1.576543
1.671910
1.740456
1.885891
1.759529
2.159476
2.033710
2.296567
2.382994
2.349615
2.592802
2.582669
2.531409
2.619624
2.647638
2.642870
2.824664
3.070831
2.853870
3.007650
2.953410
3.241897
3.031492
2.984405
3.092885
3.173947
3.113747
3.148913
3.208518
3.088713
3.445745
3.504753
3.847480
4.068613
4.215837
4.510880
4.550815
4.594922
4.882812
4.907846
4.771948
5.005598
5.693436
6.815791
32.672882
127.066970
446.868539
857.174993
1015.589833
1015.589833
1015.589833
1015.589833
1015.589833
1015.589833
1015.589833
1015.589833
1015.589833
1003.168821
463.086963
212.054849
59.129596
##ZVALUE=400
1.041889
0.960827
0.790954
1.056790
0.855923
0.749826
0.848770
0.992417
0.882745
1.034737
0.908971
0.878572
0.805855
0.777841
0.870824
0.918508
0.905991
0.825524
1.000762
0.922680
0.999570
1.019835
0.768900
1.065731
1.030564
1.007915
1.249909
1.156926
1.321435
1.230836
1.167655
1.054406
1.273751
1.509786
1.393557
1.576543
1.589656
1.840591
1.782775
2.038479
2.101660
2.262592
2.235770
2.433658
2.524853
2.527833
2.690554
2.676845
3.003478
2.984405
2.918839
3.151894
3.150702
3.119707
3.339648
3.311634
3.195405
3.197789
3.124475
3.474951
3.339648
3.379583
3.360510
3.562570
3.650784
3.572702
3.598928
3.991723
4.007816
4.233718
4.409552
4.485846
4.546642
4.342794
4.288554
4.202724
4.453659
4.423857
5.061626
5.431771
5.916953
15.944839
65.034628
267.890692
578.011870
1015.589833
1015.589833
1015.589833
1015.589833
1015.589833
1015.589833
1015.589833
1015.589833
1015.589833
1015.589833
724.765658
##END
