##TITLE=D3-1
##FORMAT=SPECTACLE-ASCII V-1.2
##DATA TYPE=ULTRAVIOLET SPECTRUM
##SECOND TYPE=ULTRAVIOLET SPECTRUM
##DATE=01/24/18
##TIME=13:30:45
##SPECTROMETER/DATA SYSTEM=SPECTACLE
##XUNITS=NM EM
##YUNITS=ENERGY
##YFACTOR=1
##FIRSTX=220
##LASTX=410
##NPOINTS=96
##3DDATA=Equidistant
##ZUNITS=NM EX
##FIRSTZ=210
##LASTZ=400
##ZPOINTS=39
##XYDATA=(Y..Y)
##ZVALUE=210
18.302798
18.791556
15.118718
13.820529
12.116432
10.186434
10.126829
8.161664
6.882548
5.834699
5.059838
3.816485
3.498793
3.032684
2.654791
2.406836
2.651811
3.085732
3.214478
3.189445
4.035830
4.075766
3.635883
4.658699
4.654527
4.977584
5.646944
5.888939
7.163882
7.777810
7.926822
8.465648
8.589625
9.330511
9.832978
9.074807
9.444952
9.820461
9.019971
11.241436
10.255575
9.311438
10.529757
9.644628
9.917617
10.894537
10.340810
10.335445
11.681914
12.332797
11.532903
10.674596
12.594461
12.214780
12.012720
12.634993
13.992786
12.948513
14.164448
12.607574
11.339784
11.216998
11.754632
11.338592
11.218786
11.694431
11.005998
11.653900
12.837648
12.836456
14.740825
15.177727
16.407967
17.285943
17.649531
18.084645
17.702579
17.814636
15.782714
15.729666
12.643933
12.333989
10.466576
11.425614
9.157658
8.834600
7.167459
6.577969
7.802844
8.960962
10.117888
13.001561
17.621517
21.455884
27.757883
33.197999
##ZVALUE=215
47.396421
44.496655
38.510561
29.168725
23.455620
19.928813
20.005703
17.316937
16.208887
14.727712
12.444854
9.982586
7.601976
5.844831
4.787445
3.469586
2.813935
3.291965
3.113747
3.912449
4.007816
3.792644
4.384518
3.676414
5.325675
5.395412
6.090999
6.856918
7.576942
8.639693
8.430481
10.409951
9.953976
10.382533
10.713935
10.594726
11.064410
11.235476
12.341738
11.767745
11.292696
11.796951
11.692643
11.570454
12.986660
12.403727
12.731552
14.323592
14.296770
14.037490
14.027953
14.097691
17.109513
16.806722
16.051531
16.132593
17.248988
16.131997
15.843511
14.960766
16.098619
14.590621
14.973879
13.725758
13.710856
13.075471
11.244416
14.315844
14.383793
13.924837
14.259815
14.350414
17.400980
16.127825
17.614961
15.719533
16.874671
15.030503
14.541745
13.118982
12.080669
12.019873
10.600686
9.116530
9.148717
8.520484
8.172989
6.195903
6.657839
6.279945
6.529689
5.474687
5.981922
6.953478
7.777810
11.587739
##ZVALUE=220
93.667507
95.872879
95.402002
86.163878
71.363449
55.958629
45.841932
34.364462
27.801991
26.879907
25.252700
24.254918
23.604631
20.470619
15.031695
10.666847
7.870793
6.148815
4.491806
3.856421
3.775954
4.520416
4.475713
4.611611
4.858971
5.030632
6.444454
7.503629
7.670522
8.550882
9.701848
9.496808
11.280775
11.737943
12.102723
11.514425
11.919737
11.658669
13.504624
14.609694
13.604760
14.490485
14.020801
15.106797
15.258789
17.101765
15.924573
18.898845
20.122528
18.163919
22.864938
23.683906
23.614764
22.687912
24.158955
22.991896
24.772882
25.366545
23.420453
24.397969
23.602843
23.563504
21.517873
21.416545
19.836426
21.066666
19.602776
18.100739
18.861890
20.427704
19.476414
20.384789
18.993616
18.818974
19.819736
20.030737
17.973781
17.863512
16.209483
15.854836
14.912486
13.074875
12.629628
11.659861
9.876490
8.784533
7.436872
7.828474
7.862449
8.080602
7.186532
6.623864
6.616712
6.698966
6.009936
5.601645
##ZVALUE=225
115.225911
121.489763
143.946409
163.543820
171.256661
156.022906
134.272575
106.089711
82.302690
61.694980
44.858456
39.061904
42.183995
41.988492
39.881468
33.800602
29.719472
22.744536
14.769435
10.977983
7.222891
5.520582
4.204512
4.953742
4.659891
6.150603
6.101727
6.874800
7.038713
7.936954
8.599758
9.033680
10.684729
11.438727
9.959936
12.241602
12.140870
13.967752
12.786984
15.576482
15.702844
17.808676
17.414689
18.865466
19.270778
21.249652
20.862818
22.886992
24.065971
26.225448
28.968453
29.784441
30.436516
31.859875
32.780766
33.339858
31.931996
33.918619
32.554865
32.550693
32.594800
31.663775
32.688975
29.622912
28.589964
28.423667
24.698973
26.214719
24.691820
25.867820
22.604465
23.899674
23.581982
22.915602
22.900701
23.175478
21.378994
19.412637
18.374920
17.920732
15.880466
15.229583
13.406873
13.151765
11.210442
11.616945
10.534525
9.732842
8.711815
8.800626
9.057522
7.234812
7.879734
8.049607
7.466674
6.733537
##ZVALUE=230
68.955421
73.655844
110.627413
176.044703
220.438838
268.678665
285.169482
273.322463
248.831511
204.218626
139.136910
103.295445
69.978833
65.048933
63.349605
65.152645
65.647960
60.327649
50.377846
44.084787
31.741858
21.557808
13.761520
8.960962
5.992651
6.248951
5.975962
5.568862
7.405877
7.014871
7.528663
7.722974
9.073615
8.941889
9.896755
11.094809
11.268854
14.481544
13.858676
15.657544
16.710758
16.751885
18.733740
20.540953
22.583604
23.301840
25.053620
26.908517
27.871728
31.190515
32.288432
31.800866
34.031868
35.992861
35.224557
37.562847
36.749840
37.484765
39.054751
38.251877
36.113858
34.447908
34.385920
33.302903
32.350421
32.067895
30.418634
28.999448
29.261708
27.066469
27.045608
29.611588
26.330948
26.513934
25.791526
25.269985
24.965405
22.311807
22.150874
19.934773
20.465851
17.378926
15.879869
14.582872
13.840795
14.270544
12.839437
10.316968
10.552406
9.569526
9.531975
9.200573
8.920431
8.400679
8.050799
8.773804
##ZVALUE=235
18.799901
20.297766
51.375628
92.210770
169.605613
243.046880
339.682698
410.313010
455.439687
453.856587
392.335653
322.479606
245.920420
163.772702
120.419860
90.373755
84.202886
93.810558
98.072886
95.402598
87.372661
76.935887
56.363940
43.063760
26.784539
19.605756
12.406707
9.767413
8.121729
7.391572
9.090900
10.618567
8.941889
10.019541
8.974671
11.381507
12.097955
12.378693
13.775826
13.733506
15.658736
17.635822
18.134713
18.318892
20.524859
20.916462
24.168491
25.404692
27.426481
27.985573
28.459430
28.955936
30.408502
32.282472
31.462908
32.922626
35.194755
31.445622
34.634471
31.513572
31.830668
33.413768
30.715466
30.337572
30.307770
28.483868
28.449893
27.583838
27.375817
27.416945
26.347637
26.592612
27.079582
27.542710
25.318861
24.772882
23.334622
22.660494
22.603869
20.654798
19.222498
19.415617
17.081499
14.770627
13.908744
13.613701
13.147593
11.266470
11.348724
11.954904
11.485815
9.270906
10.399818
9.272695
9.493828
8.921623
##ZVALUE=240
2.564788
2.866983
6.797910
19.090772
53.164959
101.153851
209.206939
308.688879
454.531908
566.055775
636.828542
637.580752
600.530505
480.215549
379.550457
243.950486
174.486637
120.893717
105.499625
110.108852
120.181441
128.813982
124.310851
113.516450
87.959766
74.458718
52.736998
39.841533
25.433898
19.194484
16.560555
12.877584
13.336539
12.423992
13.045669
13.516545
12.983680
12.570620
14.574528
13.931990
14.044642
15.458465
15.810728
16.440749
16.729832
18.853545
19.591451
21.068454
21.423697
23.912787
22.735000
23.210645
24.652481
23.785830
25.634766
25.662780
24.554729
25.401711
25.910735
22.812486
26.123524
24.646521
24.387836
24.089813
24.160743
22.495985
23.421645
22.557974
24.051666
24.000406
23.078918
24.184585
24.217963
25.005937
23.174882
21.515489
21.327734
19.129515
21.200776
19.849539
17.711520
15.928745
15.729666
14.034510
13.937950
12.508631
12.339950
12.743473
11.452436
11.964440
9.870529
10.959506
9.137988
10.101795
9.854436
9.525418
##ZVALUE=245
2.093911
1.927614
2.418756
1.715422
4.210472
12.277961
39.832592
82.580447
189.563632
303.794742
436.648726
608.213544
699.344873
749.301910
717.878938
636.035800
490.399599
364.238024
230.284929
158.407688
116.202831
107.707977
122.098923
137.273669
140.594840
135.074854
124.995708
106.139779
87.445974
63.999891
47.287941
29.945970
22.918582
16.611814
15.989542
14.429688
13.347864
13.725758
13.550520
13.803840
14.128685
12.338758
13.915896
14.932752
14.687777
15.880466
15.934706
16.270876
17.020702
20.640492
18.577576
19.534826
19.882917
17.542839
21.632910
19.403696
19.783974
19.089580
20.282865
19.986629
19.034743
18.975735
18.701553
18.522739
19.762516
18.247962
19.119978
17.301440
16.870499
18.534660
18.239617
19.056797
18.613935
18.258691
18.750429
18.369555
17.983913
16.857982
15.516877
15.239716
14.233589
14.012456
13.453960
11.806488
11.179447
9.789467
10.197759
9.981990
8.954406
8.102655
8.226633
8.473992
9.589791
8.627772
7.208586
7.680655
##ZVALUE=250
1.660585
1.749992
1.769662
1.666546
1.916885
2.363920
3.090501
7.081628
30.081868
66.320896
161.210895
273.303986
411.543846
605.998635
721.559525
820.769668
825.836658
743.611455
649.345517
451.716781
314.304829
204.424858
126.064420
105.933547
112.647414
129.306912
145.488977
151.887536
148.929954
138.565898
121.869445
92.810988
69.307685
44.270754
33.278465
22.479892
17.282963
14.430881
14.197826
14.657974
14.232993
14.579892
13.984442
14.494658
16.253591
15.927553
16.682744
17.379522
16.676784
17.605424
18.958449
19.224882
18.988848
18.423796
20.638704
19.807816
20.337701
19.617677
18.814802
19.865632
19.293427
18.297434
18.606782
18.532872
17.660856
16.650558
17.011762
17.100573
16.330481
16.478896
17.831922
16.878843
16.363859
17.705560
16.395450
16.215444
15.884638
15.418530
13.505816
12.844801
12.197495
11.562705
10.254979
9.314418
9.331703
9.427667
8.308887
8.145571
7.891655
7.694960
7.444620
7.140636
6.590486
6.804466
6.715655
6.145835
##ZVALUE=255
1.581907
1.522899
1.546741
1.512766
1.548529
1.760721
2.045631
1.908541
2.108812
3.613830
16.667843
45.093894
122.338533
213.660002
380.070806
539.488792
759.377480
865.488648
930.855870
897.947550
797.237754
596.586466
427.204967
247.614980
156.373978
102.473497
94.662905
115.277767
130.413771
155.056715
161.347985
153.954625
141.767859
117.763877
92.679858
66.701770
48.431754
30.558705
22.474527
16.623735
15.109777
15.217662
15.270710
16.819835
15.728474
18.236637
18.351674
19.425750
19.741654
20.697713
21.502972
21.456480
21.658540
23.269653
21.043420
22.194982
22.184849
22.569895
22.801757
21.860600
21.308661
22.095442
21.292567
20.396709
20.517707
20.323992
18.849969
18.481612
17.060637
17.584562
17.357469
18.160939
17.312765
16.619563
16.372800
15.002489
14.806986
13.205409
12.607574
12.167692
10.789633
9.935498
10.136962
8.304715
9.404421
8.329749
7.244945
8.066893
7.466674
6.917715
7.046461
6.161928
6.565452
6.490946
5.896688
6.669760
##ZVALUE=260
1.456738
1.404881
1.579523
1.376867
1.453757
1.464486
1.433492
1.350641
1.879930
1.838803
2.234578
2.588630
7.077456
31.676888
72.220564
176.744461
293.897986
500.264764
675.603747
902.178884
1005.334854
1015.606523
924.561620
759.423971
518.733859
362.123847
208.185911
135.672688
88.458657
88.698864
103.656650
134.572983
152.740479
162.654519
161.058903
144.548416
122.925639
92.239976
71.071982
48.059821
35.631657
25.404692
20.686984
19.215941
19.156933
20.737648
21.051764
22.755861
23.668408
25.388598
26.675463
27.742982
26.736856
29.561520
28.997660
28.838515
28.363466
29.027462
28.224587
27.646422
27.663708
26.507974
25.242567
24.457574
25.634766
22.779703
23.083687
21.242499
20.884871
20.456910
19.696951
19.246936
18.812418
18.338561
16.898513
16.570687
16.173720
15.094876
14.603734
11.934638
12.086630
11.098981
10.418892
9.390712
9.412766
8.438826
7.913709
8.213520
7.888675
6.894469
7.075667
6.518960
6.351471
6.357431
5.738735
5.611777
##ZVALUE=265
1.422763
1.292825
1.448989
1.260638
1.255870
1.358986
1.210570
1.475811
1.444817
1.768470
1.519918
1.528859
1.979470
2.066493
4.300475
20.546913
52.031875
133.895874
240.686536
462.189913
667.647719
875.738859
1015.589833
1015.589833
1015.589833
907.629728
674.445033
480.839610
272.215605
167.232752
104.017854
76.118708
83.978772
115.828514
137.089491
160.826445
167.737007
161.217451
149.037838
122.017860
98.343492
72.279572
54.577589
39.573908
33.123493
28.012991
27.209520
27.885437
29.618740
31.338930
31.816959
32.768846
34.073591
35.787821
34.677982
35.580993
35.564899
36.732554
36.040545
34.583807
34.334660
33.456683
31.381845
31.588674
30.213594
28.948784
27.708411
26.777983
25.539994
24.945736
24.377704
22.814870
22.546649
21.187663
20.688772
18.769503
17.717481
16.468763
15.287995
14.344454
13.503432
12.181997
11.769533
10.979772
10.861754
9.938478
9.090900
8.406639
8.056760
7.356405
6.863475
6.846786
6.887913
6.357431
6.423593
6.039739
##ZVALUE=270
1.193881
1.286864
1.110435
1.171827
1.134872
1.328588
1.354814
1.503825
1.418591
1.576543
1.633763
1.522899
1.555681
1.448989
1.842976
1.894832
2.335906
8.372664
27.284622
90.713501
184.749961
333.620906
606.588721
829.166770
1015.589833
1015.589833
1015.589833
1015.589833
829.466581
633.636713
385.347605
235.390663
134.797692
72.388649
66.743493
90.362430
113.947988
145.406723
163.462758
172.640681
168.985724
153.169632
132.771730
102.415681
85.016489
61.022639
50.053596
42.185783
40.036440
37.613511
38.979650
41.828752
41.660666
41.046739
42.513609
44.179559
44.514537
44.206977
43.477416
42.596459
41.356683
40.766001
39.566755
37.655830
37.230849
35.732985
33.789873
32.341480
30.662417
29.704571
28.181672
27.100444
26.642680
25.588870
23.473501
21.879673
20.819902
19.010901
17.603636
16.969442
15.809536
13.862848
13.652444
12.234449
12.112856
10.621548
10.971427
9.668469
9.354949
8.539557
8.086562
7.453561
7.445812
6.943941
6.425977
6.110668
##ZVALUE=275
1.145601
1.129508
1.260638
0.993609
1.264811
1.061559
1.115799
1.215935
1.424551
1.238585
1.427531
1.361966
1.520514
1.390576
1.616478
1.444817
1.715422
1.947880
2.159476
4.038811
15.993714
48.345923
148.943663
280.647874
540.765524
753.060579
995.481014
1015.589833
1015.589833
1015.589833
1015.577912
817.390680
586.419702
318.602920
187.723637
87.678432
62.180758
70.023537
91.586709
121.711493
143.859982
169.579983
177.412629
174.956918
163.455606
137.989521
118.440986
91.923475
76.904893
60.441494
54.398775
48.685670
48.588514
47.824979
48.310757
48.994422
51.173568
50.445795
49.224496
48.927665
48.502684
47.471523
45.192838
43.273568
41.653514
39.613843
37.981868
36.518574
35.514832
33.504963
31.561852
31.479001
28.645992
28.131604
26.601553
24.752617
23.400784
21.670461
20.616651
18.916726
17.220974
15.860796
14.557838
14.480948
13.039708
12.094975
11.353493
10.032654
9.757876
9.234548
8.772612
8.004904
7.448792
7.116795
7.069707
6.437898
##ZVALUE=280
1.054406
1.031756
1.069903
0.953674
1.046658
0.958443
1.290441
1.267791
1.246929
1.147985
1.381636
1.370907
1.073480
1.268983
1.468658
1.293421
1.508594
1.504421
1.708865
1.960993
2.012849
2.657771
10.021925
34.076571
115.523934
216.705799
421.077609
633.742809
931.352973
1015.589833
1015.589833
1015.589833
1015.589833
925.956964
693.532825
403.272510
244.295001
115.677714
67.011714
55.229664
67.315698
97.460747
122.740865
153.689981
168.682933
179.621577
176.702738
163.847804
147.380829
120.650530
102.115870
77.695847
66.055655
56.440830
52.865744
50.475597
50.456524
50.290823
49.563646
48.614740
48.508644
46.726465
46.253800
44.354796
42.775869
41.363835
39.698482
37.588477
36.554933
34.126639
33.740997
31.742454
29.938817
28.418899
26.660562
25.088787
23.959875
22.540689
20.509958
19.545555
18.248558
15.921593
15.774965
14.001727
13.517737
12.325644
11.805892
10.960698
10.018945
9.737611
8.587837
8.268952
7.983446
7.405877
7.243752
7.123947
##ZVALUE=285
1.060963
0.913739
1.050830
0.951886
0.933409
1.036525
1.086593
1.211762
1.148582
0.896454
1.134872
1.142621
1.335740
1.242757
1.258850
1.383424
1.251698
1.452565
1.339912
1.597404
1.531839
1.836419
1.825690
2.212524
4.718900
16.937852
61.681867
134.190917
300.092697
497.005582
718.811750
1002.451777
1015.635729
1015.635729
1015.635729
1015.635729
840.692520
530.029535
336.384773
164.958835
89.346766
50.211549
48.743486
68.521500
89.874864
123.184919
147.615671
165.854692
176.928639
176.535845
166.130662
145.846605
124.439001
99.149942
81.157684
62.774420
54.742694
49.735904
46.693683
45.769811
44.717789
43.287873
42.352676
40.433407
39.467812
37.602782
37.281513
35.252571
33.662915
32.109618
30.524731
29.205680
28.439760
26.055574
25.664568
23.414493
22.265911
21.225810
20.507574
18.133521
16.970634
15.202761
14.659762
13.883710
13.179779
12.280941
11.478662
10.856986
10.445714
9.494424
8.893609
8.396506
7.942915
7.013679
6.839633
7.145405
##ZVALUE=290
0.881553
0.912547
0.900626
0.914931
1.113415
1.071692
0.916719
1.002550
0.760555
1.223683
1.035929
1.154542
0.967979
1.176596
1.109838
1.140833
1.294613
1.321435
1.261830
1.237988
1.515746
1.545548
1.605749
1.618862
1.883507
2.204776
2.680421
7.127523
33.354759
85.907578
176.982880
385.232568
612.737536
945.282578
1015.589833
1015.589833
1015.589833
1015.589833
964.402556
654.007792
433.073640
220.187902
119.242668
53.265691
38.097501
48.156977
62.395930
87.986588
108.851790
138.586760
155.911446
169.001818
168.186426
156.752467
139.377713
110.696554
91.213584
68.101883
56.375861
44.374466
38.737655
34.419894
33.235550
31.574965
31.934977
30.265450
29.249787
27.887821
26.986599
25.901794
25.228858
23.722649
23.489594
21.814704
21.069646
19.391775
18.868446
17.328858
16.444921
15.422702
14.243722
13.486743
12.995601
12.170672
11.268854
10.268688
9.917617
9.770989
8.604527
8.244514
7.809997
7.383823
7.102489
7.137656
6.298423
5.922914
##ZVALUE=295
0.828505
0.787973
1.010895
0.932813
0.901818
0.813603
0.957847
1.003742
0.931621
0.923872
0.890493
1.016855
1.031756
1.089573
1.047850
1.105666
1.099706
0.969768
1.195669
1.113415
1.279712
1.354814
1.418591
1.474619
1.542568
1.705885
1.899600
1.805425
2.131462
3.373623
11.584759
51.866770
124.398470
305.609703
507.336855
835.806727
1015.613675
1015.613675
1015.613675
1015.613675
1015.613675
784.273744
547.362566
292.055607
163.518786
64.304471
37.003756
30.674934
38.382411
57.336688
74.194670
103.436708
122.843981
144.903660
154.187679
150.876641
141.445994
121.081471
100.628734
74.877739
59.580803
41.020513
32.899976
25.587678
22.495985
20.642877
20.274520
19.488931
19.124746
18.448830
17.327666
17.585754
17.431974
16.059875
15.696883
14.438629
14.041662
13.196468
12.668967
11.427999
11.005998
10.396838
9.597540
9.635687
8.960962
8.655787
7.954836
7.384419
7.425547
7.025599
6.642938
6.457567
6.245971
5.857944
5.997419
5.818605
##ZVALUE=300
0.825524
0.772476
0.914931
0.857711
0.889897
0.974536
0.845790
0.864863
0.718832
0.902414
0.813603
1.058578
0.978708
0.954866
0.936985
1.018643
0.986457
0.996590
1.203418
1.049638
1.071692
1.213551
1.269579
1.299977
1.315475
1.364946
1.549721
1.414418
1.559854
1.770854
2.091527
2.502799
5.101562
30.951500
82.499981
220.589638
386.940837
685.948730
925.803781
1015.589833
1015.589833
1015.589833
1015.589833
893.497467
653.446913
365.945697
220.595002
98.403692
48.562884
23.419857
22.214651
31.868815
43.729544
65.549612
84.893703
111.510754
126.429796
137.885809
137.130618
125.465989
109.202862
85.754991
67.846775
46.856999
34.314990
22.388697
17.038584
14.160872
12.070537
11.488795
11.235476
11.357665
10.970831
10.523796
10.639429
9.989738
9.695888
9.110570
9.065866
8.478761
7.850528
7.428527
7.443428
7.381439
6.748438
6.280541
6.035566
6.166697
5.962849
5.650520
5.421638
5.339980
5.177855
4.746914
4.548430
4.678965
##ZVALUE=305
0.906587
0.769496
0.787973
0.756979
0.742674
0.867844
0.844598
0.886917
0.812411
1.100898
0.903606
0.874996
1.004934
0.888705
1.060963
0.829697
1.015663
1.142621
1.049638
1.088977
0.995994
0.987649
1.170635
1.172423
1.078844
1.279712
1.246929
1.370907
1.378655
1.288652
1.482964
1.817942
1.842976
2.136827
3.196597
18.143654
53.435564
161.080956
297.776461
566.703677
806.824565
1015.589833
1015.589833
1015.589833
1015.589833
979.901552
768.200755
488.434434
304.697752
138.781667
68.811774
25.299788
15.839934
19.011497
26.031733
42.047501
57.832599
79.832673
99.021792
117.531419
125.362873
125.209689
117.020607
98.510981
80.907941
56.451559
41.046739
27.031898
18.214583
12.104511
9.582639
8.428693
8.319616
7.627606
7.461905
7.358789
7.015467
6.606579
6.329417
6.367564
6.095767
5.913973
5.670786
5.754828
5.494952
5.101562
4.907846
4.925728
4.837513
4.539490
4.803538
4.451871
4.241467
4.374981
4.089475
4.101992
##ZVALUE=310
0.823736
0.618696
0.674725
0.768900
0.688434
0.590682
0.700951
0.675917
0.803471
0.804663
0.852942
0.914931
0.937581
1.041889
0.827909
0.940561
0.795722
0.902414
1.002550
1.078844
0.873804
0.891685
1.073480
1.124740
1.212955
1.069903
1.099706
1.119971
1.217723
1.096725
1.453757
1.576543
1.564622
1.847744
1.856685
2.190471
2.372861
7.992983
26.846528
95.284581
195.777416
415.334702
643.110871
968.080759
1015.589833
1015.589833
1015.589833
1015.589833
935.509801
627.524853
419.449806
212.222934
112.655759
40.012598
17.862916
11.698604
14.330745
22.806525
32.818913
50.986409
67.644715
90.427995
103.201866
114.949942
116.545558
109.391809
96.345544
75.333714
58.089495
37.250519
26.197433
16.171932
11.373758
7.857680
6.581545
5.921721
5.400777
5.256534
5.073547
4.821420
4.882812
4.632473
4.474521
4.177690
4.509687
4.484653
4.442930
4.160404
4.106760
3.952980
3.827810
3.787875
3.925562
3.750920
3.620982
3.796816
##ZVALUE=315
0.752807
0.756979
0.779629
0.629425
0.704527
0.731945
0.737906
0.749826
0.700951
0.653863
0.763535
0.775456
0.812411
0.766516
0.754595
0.871420
0.765920
0.752807
0.900626
0.964999
0.924468
1.067519
1.026988
1.010895
1.026988
0.946522
1.062751
0.950694
0.962615
1.198649
1.416802
1.312494
1.340508
1.300573
1.507998
1.636744
1.815557
2.029538
1.997948
4.043579
13.464689
59.369802
135.779977
316.655040
520.322919
845.846534
1015.595794
1015.595794
1015.595794
1015.595794
1013.340950
750.899911
531.407595
285.268426
153.762698
57.580471
24.193525
10.579824
9.910464
13.510585
18.719435
31.155944
43.635964
63.669682
79.828501
98.399520
107.221603
109.433532
102.044940
87.947845
72.076917
52.659512
38.017631
23.005605
15.232563
8.937716
6.447434
4.978776
4.622936
4.019737
3.860593
3.825426
3.739595
3.561974
3.577471
3.513694
3.204942
3.316998
3.508925
3.346801
3.448725
3.401637
3.318787
3.250837
3.106594
2.923608
##ZVALUE=320
0.630617
0.696778
0.800490
0.822544
0.616908
0.672936
0.672936
0.785589
0.767708
0.652671
0.704527
0.883937
0.791550
0.849962
0.864863
0.746846
0.849962
0.740886
0.980496
0.764728
1.064539
0.857711
0.919700
1.033545
1.025796
0.975728
1.176596
1.100898
0.867844
1.152754
1.075864
1.235604
1.213551
1.317859
1.339912
1.448989
1.341701
1.611710
1.585484
1.809597
1.965761
2.250671
5.974770
31.867623
84.561706
229.922533
388.322473
659.053922
881.908536
1015.589833
1015.589833
1015.589833
1015.589833
868.170857
638.483763
360.119939
209.190845
90.201497
40.420890
13.013482
8.474588
9.047985
11.258721
17.264485
25.708675
41.321516
55.569410
75.568557
89.694858
100.765824
102.640986
95.402002
85.492730
66.061616
51.333904
32.650828
22.362471
13.179779
8.303523
5.421638
4.123449
3.284812
3.090501
2.980828
2.982616
3.018975
2.907515
2.684593
2.684593
2.831817
2.577901
2.881885
2.716780
2.832413
2.786517
2.882481
##ZVALUE=325
0.678897
0.886917
0.892878
0.874996
0.914931
0.701547
0.872612
0.787973
0.776649
0.853539
1.064539
1.061559
0.935793
0.938773
0.953674
0.930429
0.913739
0.875592
1.008511
1.041889
1.057982
0.859499
1.035929
1.050830
0.967979
1.061559
1.004934
1.087785
1.130700
0.944734
1.156926
1.263618
1.114607
1.056790
1.370907
1.406670
1.433492
1.425743
1.593828
1.578927
1.655817
1.813769
1.980662
2.210736
3.452897
20.108819
54.638982
151.504874
279.641747
535.794497
755.192637
1009.310484
1015.747786
1015.747786
1015.747786
934.294462
711.804032
441.221595
269.912481
117.577910
56.388974
17.634630
9.155869
7.401705
8.029938
11.533499
15.457869
25.685430
36.509633
56.322813
69.904923
85.039735
93.611479
94.846487
90.236664
76.027513
61.770678
44.806600
31.799674
18.481612
12.066960
6.737709
4.961491
3.864765
3.416538
2.972484
2.796650
2.630949
2.818704
2.581477
2.402663
2.628565
2.517700
2.519488
2.388954
2.531409
##ZVALUE=330
0.753999
0.723600
0.611544
0.746846
0.827909
0.677705
0.845790
0.705719
0.740886
0.771880
0.791550
0.675917
0.570416
0.805855
0.722408
0.891685
0.646710
0.677705
0.837445
0.751615
0.886917
0.946522
0.834465
0.789762
0.809431
0.692606
0.764728
0.785589
0.901818
0.925660
0.923872
0.845790
0.942945
0.912547
0.964999
1.055598
1.118779
1.000762
1.274943
1.208782
1.268983
1.351833
1.406670
1.591444
1.685619
1.739860
2.352595
8.425713
27.970672
98.516941
196.049809
403.823853
605.045557
893.026590
1015.589833
1015.589833
1015.589833
993.079543
804.483891
533.498526
345.723629
160.182714
81.639886
28.422475
11.760592
6.505847
6.527901
7.207990
9.023547
15.590787
22.273660
35.552979
48.852563
66.862702
77.072978
87.311864
89.129806
82.063675
71.522593
56.073666
42.487979
27.820468
18.880963
11.689663
7.782578
4.785657
3.362894
2.730489
2.541542
2.573729
2.355576
2.361536
2.268553
2.286434
2.161860
2.128482
##ZVALUE=335
0.614524
0.597835
0.621676
0.646710
0.707507
0.640750
0.750422
0.674725
0.566840
0.651479
0.763535
0.785589
0.737906
0.626445
0.726581
0.658631
0.647902
0.702739
0.739694
0.707507
0.642538
0.851750
0.596642
0.664592
0.847578
0.661612
0.947714
0.776649
0.818968
0.902414
0.854731
0.878572
0.736713
1.136661
0.995994
0.863671
0.853539
1.080632
0.980496
1.125932
1.250505
1.314878
1.150966
1.376867
1.355410
1.461506
1.512766
1.489520
1.926422
4.005432
14.009476
60.475469
132.540464
303.538442
493.233800
790.866017
988.937616
1015.589833
1015.589833
1015.589833
899.384618
620.607734
421.401858
222.743750
116.646886
39.574504
15.838742
7.265806
6.201863
6.076694
6.735921
9.200573
13.577938
21.957755
32.585859
48.355460
60.831904
74.678659
80.871582
82.238913
78.028440
65.916777
54.526925
40.249825
29.638410
18.428564
12.184978
7.288456
4.921556
3.196597
2.887845
2.422929
2.289414
2.325773
2.135634
2.040863
##ZVALUE=340
0.609756
0.644922
0.698566
0.743866
0.522733
0.725985
0.525713
0.591874
0.744462
0.713468
0.521541
0.655651
0.662804
0.543594
0.730753
0.716448
0.706911
0.605583
0.667572
0.585914
0.686646
0.574589
0.817776
0.702739
0.661612
0.598431
0.845790
0.781417
0.813603
0.827909
0.800490
0.881553
0.765920
1.016855
0.877976
1.054406
0.862479
0.867844
0.948906
0.982881
1.015663
1.179576
1.110435
1.040697
1.208782
1.128912
1.437664
1.486540
1.526475
1.559854
1.749992
2.384782
6.854534
35.649538
90.654492
231.708884
396.930575
653.245449
857.389569
1015.588641
1015.588641
1015.588641
957.663655
713.329911
509.994626
276.946425
150.303841
56.519508
23.049712
8.069873
6.319880
5.825758
5.752444
6.407499
8.557439
13.351440
19.847751
31.883717
42.591691
57.736635
67.270994
75.907707
77.151656
71.569681
64.204931
51.153898
40.231943
27.421713
19.524693
12.136698
8.000731
4.226565
3.168583
2.802610
2.318621
2.058744
##ZVALUE=345
0.768900
0.598431
0.537634
0.539422
0.455976
0.515580
0.722408
0.607967
0.693798
0.531673
0.620484
0.762939
0.681877
0.670552
0.624657
0.615716
0.663996
0.735521
0.582933
0.744462
0.742674
0.610948
0.616908
0.738502
0.668764
0.706911
0.682473
0.650883
0.863671
0.852942
0.793934
0.873804
0.842810
0.850558
0.768900
0.977516
0.889897
0.903606
0.945926
0.855923
0.972748
1.050830
0.998974
0.914931
1.040697
1.145601
1.163483
1.373887
1.213551
1.306534
1.258850
1.412630
1.474619
1.904964
3.086925
18.336773
54.711699
151.295662
279.266834
519.620776
716.856718
962.997675
1015.589833
1015.589833
1007.772684
795.095563
596.141815
354.712605
203.962922
80.897808
35.464764
11.616945
6.953478
5.741715
5.295873
5.241632
5.734563
7.869601
10.993481
19.155741
27.779937
41.292906
50.861835
61.279535
67.395568
70.462823
67.981482
59.693456
50.779581
39.071441
29.021502
18.253922
12.645721
7.461905
5.112886
3.382564
##ZVALUE=350
0.759959
0.642538
0.635982
0.922680
0.793934
0.657439
0.704527
0.749826
0.791550
0.729561
0.621676
0.630617
0.619888
0.672936
0.617504
0.716448
0.628829
0.610948
0.811815
0.736713
0.690818
0.701547
0.817776
0.603795
0.933409
0.784993
0.773668
0.868440
0.736713
0.798702
0.526905
0.744462
0.644922
0.768900
0.900626
0.895858
0.946522
0.892878
0.903606
0.895858
1.141429
1.018643
0.916719
1.060963
1.210570
1.057982
0.986457
1.184940
1.242757
1.136661
1.295805
1.263618
1.666546
1.432896
1.694560
1.866817
2.400875
9.029508
30.313730
102.136731
197.981596
403.941870
596.496463
838.128924
992.918015
1015.653610
1015.653610
871.257782
676.686764
408.978462
252.686739
116.056800
53.455830
15.526414
7.596612
5.592704
5.178452
4.765987
4.659891
5.079508
6.923676
10.897517
15.936494
24.977922
33.151507
45.225620
54.372549
61.801672
63.987970
61.894655
57.043433
47.109723
38.013458
26.153922
18.627644
11.754632
##ZVALUE=355
0.597835
0.604987
0.711679
0.740886
0.664592
0.560880
0.628829
0.479817
0.541806
0.607967
0.556707
0.609756
0.669956
0.704527
0.680685
0.623465
0.694990
0.712872
0.789762
0.748634
0.666976
0.699759
0.686646
0.707507
0.596642
0.838637
0.775456
0.677705
0.575781
0.767708
0.693798
0.752807
0.644922
0.788569
0.769496
0.761747
0.822544
0.883937
0.912547
0.935793
0.907779
0.846982
0.873804
0.873804
0.926852
0.863671
1.002550
0.957847
0.979900
1.195669
1.080632
1.201630
1.353621
1.285672
1.261830
1.493692
1.490712
1.690984
1.774430
4.117489
15.892982
65.274835
140.015483
303.511620
482.552648
755.469799
923.687816
1015.589833
1015.589833
916.020870
749.934912
503.699780
322.142839
146.057010
70.209503
21.273494
8.695722
5.282760
4.861951
4.705787
4.153848
4.093647
4.585981
6.035566
8.330941
14.017820
19.760728
30.240417
38.395524
47.859550
54.431558
58.455467
57.055950
51.652789
44.193864
34.752488
##ZVALUE=360
0.582933
0.607967
0.535846
0.577569
0.552535
0.599623
0.477433
0.577569
0.552535
0.655651
0.672936
0.780821
0.619888
0.629425
0.754595
0.724792
0.569820
0.779629
0.580549
0.689626
0.678897
0.517964
0.536442
0.528693
0.674725
0.745654
0.812411
0.607967
0.828505
0.724792
0.826716
0.663996
0.795722
0.643730
0.768900
0.888705
0.824928
0.855923
0.850558
0.735521
0.924468
0.767708
0.734925
1.025796
0.893474
0.930429
1.041889
0.971556
0.957847
0.962615
1.138449
0.994802
1.205802
1.037717
1.139641
1.266599
1.410842
1.323819
1.618862
1.579523
1.706481
2.214909
8.210540
26.970506
94.862580
188.213587
380.961895
570.625663
834.935904
978.463888
1015.575528
984.643698
801.045895
614.640713
370.052457
224.881768
97.216964
41.871667
11.898875
5.964637
4.882812
4.450679
4.250407
3.989935
3.864765
4.010797
5.371571
6.797910
11.240840
16.351938
24.067760
31.892657
41.698813
47.596693
52.137971
53.251982
##ZVALUE=365
0.715852
0.721812
0.694990
0.768900
0.543594
0.543594
0.511408
0.623465
0.743866
0.550747
0.633597
0.628829
0.556707
0.616908
0.637770
0.793934
0.601411
0.621676
0.604987
0.656843
0.630617
0.643730
0.491738
0.778437
0.655651
0.688434
0.718832
0.811815
0.657439
0.736713
0.653863
0.740886
0.707507
0.753999
0.615716
0.923872
0.735521
0.795722
0.872612
0.771880
0.802875
0.901818
0.932813
0.892878
0.740886
0.931621
0.811815
0.888705
0.888705
0.993609
0.935793
0.941753
0.856519
1.221895
1.085997
1.099706
1.107454
1.331568
1.312494
1.390576
1.435876
1.762509
1.580715
1.982450
3.331900
17.763972
50.750971
142.393708
269.276500
508.016944
692.507029
893.725753
993.263721
991.252661
882.558823
651.901960
470.334888
263.624787
144.571662
52.321553
20.504594
6.646514
4.913807
4.462600
4.145503
3.771782
3.798604
3.399849
3.645420
4.352927
5.506873
9.113550
13.275743
21.262765
27.712584
36.562681
##ZVALUE=370
0.495911
0.550747
0.632405
0.673532
0.661612
0.525713
0.556707
0.578761
0.703931
0.722408
0.705719
0.833869
0.611544
0.633597
0.587702
0.664592
0.645518
0.530481
0.587702
0.548959
0.633597
0.659823
0.714660
0.676513
0.765920
0.766516
0.650883
0.422597
0.560880
0.589490
0.768900
0.572801
0.693798
0.692606
0.679493
0.753999
0.828505
0.763535
0.774860
0.796914
0.752807
0.748634
0.632405
0.878572
0.806451
0.805855
0.737906
1.021624
0.948906
0.826716
0.991821
0.945926
0.891685
0.877976
0.822544
0.897646
1.060963
1.127720
1.114607
1.216531
1.229644
1.258850
1.253486
1.437664
1.436472
1.758933
2.291799
8.655787
30.172467
105.100870
202.801824
390.359759
571.995974
817.886591
941.033959
981.087685
913.192630
729.388595
548.126698
311.450958
177.214742
70.197582
31.949878
10.785460
5.301833
4.128814
3.948808
3.559589
3.375411
3.182888
2.926588
3.237724
3.782511
5.144477
7.655621
12.415648
##ZVALUE=375
0.626445
0.636578
0.527501
0.533462
0.637770
0.497699
0.476837
0.615716
0.577569
0.540614
0.651479
0.637770
0.599623
0.664592
0.457764
0.453591
0.677705
0.569820
0.630617
0.772476
0.561476
0.488758
0.632405
0.673532
0.794530
0.756979
0.741482
0.580549
0.677705
0.715852
0.763535
0.525713
0.646710
0.724792
0.855923
0.828505
0.714660
0.750422
0.754595
0.780821
0.862479
0.915527
0.830889
0.829697
0.828505
0.830889
0.808835
0.729561
0.817776
0.857711
0.878572
0.908971
0.885725
0.857711
0.881553
0.905991
0.822544
1.036525
1.019835
1.011491
1.037717
1.043677
1.163483
1.116991
1.213551
1.352429
1.330972
1.563430
1.862645
4.649758
15.902519
60.743690
134.533644
306.778550
480.325818
726.135969
871.836543
970.028639
953.024626
805.584788
631.843805
389.468670
250.718594
124.371648
61.925650
19.631982
7.669926
4.369617
3.766418
3.739595
3.315806
3.288984
3.025532
2.973676
2.935529
3.206730
##ZVALUE=380
0.559688
0.422597
0.536442
0.598431
0.605583
0.516772
0.622869
0.608563
0.618696
0.507832
0.511408
0.665784
0.728965
0.575781
0.486970
0.560880
0.485778
0.636578
0.722408
0.644922
0.535846
0.582933
0.489950
0.737906
0.644922
0.730753
0.600815
0.622869
0.797510
0.720620
0.643730
0.718832
0.574589
0.777841
0.700951
0.794530
0.731945
0.810623
0.880957
0.768900
0.797510
0.781417
0.669956
0.816584
0.846982
0.751615
0.723600
0.759959
0.743866
0.762939
0.739694
0.858903
0.795722
0.712872
0.909567
0.889897
1.022816
0.977516
0.878572
0.824928
0.978708
0.997782
0.983477
0.893474
1.040697
1.242757
1.195669
1.287460
1.452565
1.480579
1.588464
2.701879
8.385777
42.069554
103.396773
248.493552
401.813984
635.585785
800.246596
954.402685
967.336893
849.886537
707.683563
501.438975
342.582464
172.175765
89.141726
30.821562
12.291670
4.929900
3.889799
3.440976
3.458858
3.164411
2.849698
3.129840
##ZVALUE=385
0.563860
0.534654
0.407696
0.458956
0.490546
0.472665
0.497699
0.551939
0.494719
0.626445
0.729561
0.604987
0.520945
0.628829
0.520945
0.512600
0.646710
0.685453
0.552535
0.414848
0.515580
0.511408
0.577569
0.643730
0.629425
0.644922
0.615716
0.745654
0.763535
0.624657
0.884533
0.892878
0.797510
0.836849
0.762939
0.787973
0.891685
0.708699
0.866652
0.739694
0.779629
0.837445
0.801682
0.716448
0.823736
0.926852
0.929832
0.821948
0.715852
0.882745
0.737906
0.863671
0.855923
0.793934
0.943542
0.733733
0.832677
0.884533
0.993609
0.886917
0.928640
0.818968
0.974536
0.910759
0.969768
1.091957
0.982881
1.253486
1.184940
1.437664
1.427531
1.532435
1.645684
1.933575
3.860593
21.200776
58.818460
167.557001
298.821926
536.058545
717.162490
896.626711
954.678655
920.912623
819.726586
613.652468
440.192819
244.387984
139.145851
56.974888
23.065805
6.222725
3.886819
3.654957
3.281832
3.236532
##ZVALUE=390
0.570416
0.558496
0.622869
0.427961
0.473857
0.644922
0.664592
0.702739
0.651479
0.627637
0.486970
0.481606
0.508428
0.660419
0.512600
0.654459
0.504851
0.534654
0.466704
0.553727
0.555515
0.623465
0.582933
0.638962
0.669956
0.760555
0.803471
0.658631
0.759959
0.802875
0.903606
0.925660
0.817776
0.795722
0.988841
0.829697
0.968575
1.039505
0.802875
0.923872
0.703931
0.706911
0.906587
0.906587
0.925660
0.879765
0.936985
0.934601
0.816584
0.927448
1.112819
1.003742
1.005530
0.914931
0.918508
0.925660
0.961423
0.953674
0.949502
0.920892
0.924468
1.041889
0.897646
1.010895
0.925660
1.099706
0.938773
1.112819
1.301765
1.373887
1.479983
1.532435
1.474619
1.737475
1.700521
1.682639
2.284646
11.522770
38.079619
123.205781
237.164497
452.088714
620.034933
816.714764
931.673646
974.586606
913.776755
734.172463
569.249988
352.677703
206.638575
85.895658
37.761927
10.280609
4.767776
3.545880
##ZVALUE=395
0.613928
0.615716
0.813603
0.598431
0.575781
0.572801
0.535846
0.605583
0.485778
0.643730
0.619888
0.585914
0.470877
0.366569
0.605583
0.618696
0.602603
0.655651
0.606775
0.578761
0.629425
0.477433
0.624657
0.560880
0.628829
0.680685
0.684857
0.654459
0.861883
0.901818
0.744462
0.820756
0.731945
0.865459
0.880957
0.889897
0.874996
1.000762
0.995994
0.982881
0.975728
1.010895
1.037717
1.006722
0.945926
0.800490
0.923872
1.021624
0.976920
0.929832
1.071692
1.089573
1.076460
0.986457
0.876784
0.977516
1.079440
1.047850
0.866652
1.185536
1.055598
0.977516
1.064539
1.040697
1.115799
1.206994
1.146793
1.179576
1.351833
1.411438
1.411438
1.416802
1.339912
1.471639
1.409650
1.539588
1.405478
1.541972
1.835823
6.207824
22.742748
85.248947
174.267888
357.449651
528.246760
764.818788
910.824537
1011.946797
990.370512
855.093002
682.500005
429.507494
274.002552
129.483938
61.512589
19.862652
##ZVALUE=400
0.652671
0.717640
0.736713
0.447631
0.499487
0.563860
0.586510
0.639558
0.503659
0.522733
0.509620
0.589490
0.539422
0.566840
0.547767
0.657439
0.544786
0.647902
0.602603
0.448823
0.638962
0.531673
0.521541
0.642538
0.551939
0.630617
0.745654
0.648499
0.745654
0.750422
0.793934
0.761747
0.848770
0.820756
0.844598
0.882745
0.953674
0.903606
0.922680
0.876784
1.107454
0.931621
0.976920
0.917912
0.949502
1.082420
1.019835
0.866652
0.905991
1.050830
0.901818
0.971556
0.861883
0.899434
1.060963
0.915527
1.033545
0.993609
0.880957
0.969768
1.126528
1.130700
1.145601
1.039505
1.027584
1.046658
1.047850
1.178980
1.269579
1.319647
1.316667
1.289845
1.480579
1.249909
1.367927
1.291633
1.446605
1.355410
1.425743
1.673698
1.686811
3.610849
12.844801
53.453445
118.222833
267.362595
422.091484
640.550852
813.019872
967.401862
989.832878
882.285833
745.820999
527.496934
356.089473
182.771683
##END
