##TITLE=D3-2
##FORMAT=SPECTACLE-ASCII V-1.2
##DATA TYPE=ULTRAVIOLET SPECTRUM
##SECOND TYPE=ULTRAVIOLET SPECTRUM
##DATE=01/24/18
##TIME=13:35:07
##SPECTROMETER/DATA SYSTEM=SPECTACLE
##XUNITS=NM EM
##YUNITS=ENERGY
##YFACTOR=1
##FIRSTX=220
##LASTX=410
##NPOINTS=96
##3DDATA=Equidistant
##ZUNITS=NM EX
##FIRSTZ=210
##LASTZ=400
##ZPOINTS=39
##XYDATA=(Y..Y)
##ZVALUE=210
20.160675
17.456412
13.986826
13.275743
11.533499
9.861588
10.013580
9.156466
7.518530
6.724000
4.855990
4.146695
3.084540
2.925992
2.593994
2.694726
2.731681
3.709793
4.365444
3.972650
3.898740
3.678799
4.214644
4.221797
4.433990
5.375743
5.803704
6.816983
7.057786
6.454587
7.968545
8.790493
8.798838
10.034442
9.108782
9.222627
9.081960
8.338690
9.483695
9.633899
9.759665
10.337830
10.423660
10.169744
11.074543
11.618733
10.616779
10.786653
10.595918
10.954738
13.103485
12.015700
12.031794
12.762547
13.401508
11.814833
13.266802
15.522838
13.527870
13.423562
13.576746
12.885928
12.641549
12.251735
12.308955
12.679696
13.154745
12.230873
13.332963
14.713407
16.102791
16.953945
21.920800
22.686720
24.982691
26.860833
28.461814
28.372407
26.633739
25.339723
22.093654
22.081733
17.586946
15.323758
13.451576
12.230873
10.038614
9.260774
8.731484
11.029840
12.969971
15.640855
20.708442
24.610758
32.121539
34.467578
##ZVALUE=215
50.334930
46.410561
38.052797
27.785897
25.053620
19.247532
17.202497
17.286539
15.418530
15.198588
11.923909
9.275675
7.717609
6.057620
4.829764
3.734827
4.021525
3.295541
3.075600
4.125834
2.674460
4.200935
3.666878
5.768538
4.603863
5.303621
6.524920
7.383823
7.447600
9.607673
8.772612
10.314584
10.170937
11.560917
11.694431
11.905432
12.128949
11.310577
11.802912
11.179447
12.682676
12.817979
11.986494
12.238622
13.446808
14.548898
14.154911
13.343692
15.354753
15.843511
16.277432
19.121766
17.303824
16.717911
17.078519
18.250942
17.780662
16.182661
17.778873
17.577410
16.829967
17.860532
16.428828
16.500950
16.916990
15.607476
17.914772
16.050935
15.574694
17.531514
19.179583
17.566681
20.417571
21.694899
21.788478
21.788478
19.480586
20.440817
19.808412
18.265843
16.595721
13.541579
13.675690
12.013912
10.581613
8.919835
8.975863
8.124709
7.729530
7.858872
7.444620
7.156730
7.721782
9.055734
10.816455
13.391972
##ZVALUE=220
98.905563
102.689862
98.502636
92.117786
80.892444
56.287646
46.862960
34.745932
31.216741
27.528405
26.299953
26.057959
24.355650
19.874573
14.783740
12.008548
6.920695
6.094575
5.023479
4.023910
4.238486
5.250573
5.154610
5.071759
5.456805
7.356405
7.317662
7.593632
8.417964
9.918809
11.066794
11.514425
11.624694
12.417436
12.789965
13.080835
14.278889
14.615655
15.369654
15.999675
16.705990
15.825629
17.803907
20.024776
20.011663
20.982623
20.881891
23.414493
22.307634
24.536848
24.417639
28.331876
26.847720
30.300617
27.628541
27.922988
29.029846
27.419925
28.743744
28.187633
28.876662
27.497411
26.954412
28.128624
24.684668
24.041533
25.172830
24.099946
27.782917
25.638938
29.033422
31.321645
30.572414
34.353733
33.174753
33.340454
31.724572
28.696656
30.213594
26.452541
26.422739
23.728609
19.653440
18.825531
16.209483
14.461875
13.480783
11.624694
11.449456
10.245442
9.742975
9.782910
9.013414
8.971691
9.243488
8.976460
##ZVALUE=225
125.163794
135.853887
156.501532
183.731914
186.850429
170.539618
151.977539
113.655925
88.067651
63.745975
46.715736
42.291880
42.452812
42.393804
40.849447
36.327839
28.899908
22.997856
16.424656
11.533499
7.789731
6.250739
5.235672
5.755424
6.748438
6.618500
7.746816
8.410811
7.744431
9.423494
10.549426
11.260509
11.196733
11.628866
12.301803
12.707710
14.053583
14.973879
16.625524
18.669963
19.765496
18.533468
22.244453
22.862554
23.321509
25.596619
25.004745
28.732419
30.826926
32.048821
33.751726
34.930706
36.592484
38.063526
38.295984
39.591789
38.538575
40.773749
37.684441
39.348602
38.026571
36.142468
36.063790
34.380555
34.144521
31.386614
33.561587
33.139586
32.097697
35.088658
35.880804
37.686825
36.266446
39.389729
35.969615
35.540462
35.497546
30.290484
30.139685
27.258992
25.908947
22.725463
21.078587
18.188953
18.309951
16.110539
14.910698
13.625622
12.877584
11.290908
12.433529
10.512471
10.719895
11.013746
10.612607
10.075569
##ZVALUE=230
83.597898
87.570548
135.602951
213.266611
266.202688
322.334766
342.114568
328.065753
289.988518
246.774554
165.804625
116.414428
77.491999
63.457489
63.505769
65.880418
64.363480
59.762597
55.595636
41.254759
32.824874
19.334555
15.123487
9.097457
7.620454
8.090734
7.705688
6.884933
7.115602
8.468628
8.593798
9.046793
10.275841
10.202527
11.281967
12.620687
12.488961
15.152693
16.426444
18.581748
18.397570
21.120906
22.872686
23.224950
25.308728
28.614998
28.816462
32.235980
34.729838
34.645796
35.827756
37.992001
40.829778
39.888620
41.234493
40.851831
44.709444
42.426586
43.976903
43.229461
40.289760
42.639971
41.061640
40.446520
37.173629
39.612651
35.418868
36.304593
39.032698
39.901733
36.816001
40.206909
39.869547
39.577484
38.248897
38.877726
34.177899
33.610463
30.745864
28.818846
26.923418
25.686622
24.329424
22.389889
18.241405
17.859936
17.074943
15.820861
15.125871
15.392900
12.694597
12.230873
11.866689
12.146831
11.363626
11.601448
##ZVALUE=235
22.390485
26.136637
54.124594
121.850967
193.073750
307.790637
394.154787
503.765941
564.107895
568.514466
501.997471
403.844714
266.625881
185.954571
118.478537
92.111826
89.760423
91.854930
95.731616
92.308521
89.264512
72.001815
58.382750
40.533543
27.745962
18.134713
13.052821
10.225773
9.153485
8.344650
9.171963
8.278489
9.483695
9.919405
11.143684
12.637973
12.805462
14.728904
14.814734
17.745495
18.182993
19.623637
21.559596
24.219751
24.979711
23.786426
27.562976
30.837655
30.396581
33.370852
34.296513
34.639835
33.734441
35.933852
39.674640
39.043427
39.277673
37.647486
38.746595
37.967563
39.026737
36.921501
36.653876
35.011768
36.339760
33.148527
34.703612
33.998489
35.013556
36.952496
36.904812
35.682917
34.007430
35.812855
36.531687
33.184886
31.456947
28.969646
27.473569
27.452707
23.853779
23.588538
21.695495
19.660592
18.302798
18.683672
15.512705
16.335845
14.832616
13.012886
13.935566
13.500452
11.632442
13.027787
12.186766
11.370778
##ZVALUE=240
2.336502
2.391934
9.086728
23.731589
53.218603
125.085711
219.055414
374.233723
500.459671
633.986592
695.788860
692.342520
639.063716
490.978956
379.511714
244.787931
166.086555
120.046735
106.090903
111.680627
120.332837
127.173662
119.150877
110.984445
87.643862
71.128607
49.364567
35.446882
21.944642
15.141964
11.380911
11.132956
10.051727
10.824800
10.841489
12.416840
11.613965
13.107657
13.166666
14.057755
13.953447
17.227530
17.262697
19.714832
18.247962
20.368695
19.566417
22.090673
24.353862
23.630857
24.547577
24.591684
25.478601
26.321411
25.158525
27.063489
26.110411
28.498769
27.023554
25.478601
26.674867
25.329590
24.942756
26.848912
26.107430
23.947954
23.868680
24.131536
24.367571
23.988485
25.883913
27.452707
26.482940
25.933981
27.104616
24.333000
24.710894
21.650791
21.213889
19.134879
17.443895
15.322566
16.334653
14.905930
15.424490
13.495684
12.419820
12.041926
9.741783
10.777712
11.085868
11.954904
10.707974
10.588765
9.080768
10.422468
##ZVALUE=245
1.698732
2.015829
2.212524
2.363920
5.562901
13.721585
45.584440
95.208883
215.825438
332.442522
517.629981
643.644929
733.847022
779.205561
739.920735
611.758828
488.709807
332.019925
234.833956
146.264434
114.935637
105.933547
120.854974
130.956769
137.563944
131.632686
115.109682
99.340677
73.430538
55.026412
40.402412
24.642944
19.342899
12.359619
10.904670
10.944605
11.114478
11.132956
10.982752
11.383891
12.654662
13.299584
14.780760
15.491843
15.663505
15.858412
15.450716
17.022491
16.129613
16.985536
19.016862
18.570423
18.173456
18.747449
20.502806
20.232797
19.326806
20.459890
19.857883
18.244982
19.466877
18.396974
18.631816
18.860698
19.580722
17.140508
16.518831
17.901659
17.254949
16.854405
20.253658
19.337535
20.904541
19.460917
19.502640
18.081665
17.510653
16.978979
15.880466
15.160441
13.912916
13.062954
13.394952
11.624694
10.925531
10.760427
10.511875
9.754896
9.684563
8.861423
9.572506
8.391738
9.390712
8.294582
8.349419
7.542968
##ZVALUE=250
1.897812
1.531839
1.872778
1.821518
2.157688
2.108812
2.314448
8.798838
27.336478
81.940889
158.607960
322.619677
468.817949
659.009814
770.441890
857.985020
861.234665
784.733891
634.467006
472.190976
297.108889
190.237761
117.855668
101.632476
111.070871
129.386783
139.870644
145.274997
142.662525
128.844976
108.403563
80.956817
62.342882
40.030479
28.068423
17.770529
13.373494
11.884570
11.416674
12.926459
12.975931
13.087988
14.299750
14.453530
15.137792
16.079545
15.708804
15.813708
16.660690
18.320680
18.190742
18.576980
19.679666
19.044876
19.712448
18.923879
20.437837
20.092726
19.725561
18.716455
19.696951
19.148588
17.833710
17.753839
17.150640
17.485619
16.710758
16.735792
16.590953
16.043782
17.109513
17.119646
16.036630
15.623569
17.299652
16.330481
14.868975
14.144778
13.920665
12.905598
12.664795
10.146499
10.386705
10.946989
9.519458
9.427667
8.539557
8.635521
8.351803
8.057952
7.663965
7.664561
7.856488
7.004738
6.873608
6.774664
##ZVALUE=255
1.420975
1.769662
1.787543
1.554489
1.485944
1.874566
2.012849
2.076626
2.108812
4.267693
21.203756
53.834915
113.773942
245.435834
396.137834
608.885884
773.716569
923.230648
971.945524
923.681855
800.969601
640.836954
402.072668
261.450410
143.177509
105.958581
98.554492
111.382604
131.559968
146.802664
154.893994
152.814984
136.255622
110.127926
88.364482
59.618950
42.511821
28.070807
19.458532
15.567541
14.118552
13.752580
15.757680
14.968514
16.109943
17.378926
16.918778
18.337965
18.929839
21.278858
21.275878
21.530986
21.570921
22.732615
22.522807
22.682548
21.571517
23.354888
22.219419
22.357702
22.928715
21.464825
21.090508
19.738674
19.588470
18.502474
17.434955
18.325448
18.778443
17.785430
18.097758
17.358661
17.211437
16.827583
16.511679
15.425682
14.342666
14.574528
12.163520
11.909604
10.930896
10.117888
9.386539
8.954406
8.270741
7.917881
7.752776
7.789731
7.260442
6.786585
6.460547
5.827546
6.080866
5.968809
6.497502
5.809665
##ZVALUE=260
1.306534
1.379848
1.365542
1.564622
1.860857
1.574755
1.788735
1.579523
1.817942
1.966953
2.098680
2.685785
8.115768
32.457709
76.731443
191.553831
320.734978
540.675521
727.068782
946.622491
1015.582681
1015.582681
941.255689
772.369504
518.224835
357.834697
206.251740
128.648877
87.664723
87.664723
104.823709
132.740736
148.142576
157.436728
157.264471
139.751434
119.045973
89.643598
67.163706
44.228435
32.717586
23.564696
19.930601
18.463731
18.933415
21.142960
21.335483
23.113489
23.223758
24.330616
26.892424
26.508570
27.574897
28.784871
29.319525
29.763579
29.129982
28.255582
28.426647
27.845502
27.205944
26.513934
26.006699
24.523735
23.560524
22.246838
23.053885
21.410584
21.399856
20.758510
20.658970
19.852519
18.737912
17.984509
17.723441
16.833544
16.112924
15.311837
14.515519
12.518764
11.498928
11.412501
10.286570
9.944439
8.668900
8.685589
8.012652
8.032918
7.776618
7.159710
7.230639
6.461740
6.050467
5.906820
5.862713
5.908608
##ZVALUE=265
1.187921
1.194477
1.269579
1.284480
1.331568
1.582503
1.429915
1.343489
1.734495
1.694560
1.870990
1.773834
2.115965
2.384782
5.122423
24.387836
58.496594
146.225691
268.004537
511.727929
714.305639
904.885530
1015.591621
1015.591621
1015.591621
927.616954
682.062507
481.022000
269.281864
165.599585
92.512965
77.874660
86.203814
115.661621
138.823986
159.989595
167.026520
161.364675
144.771934
118.789673
98.424554
69.498420
52.408576
37.137866
30.746460
27.518868
27.073622
27.310848
29.856563
30.397773
33.078790
33.503771
34.507513
35.424829
35.057664
36.248565
36.721826
36.623478
35.708547
34.441948
35.211444
33.599734
33.427477
31.911731
29.248595
30.200481
28.267503
27.223825
24.866462
24.253726
23.824573
23.695827
22.326708
21.727681
20.863414
19.210577
18.446445
17.456412
15.989542
14.078617
14.117956
12.357831
12.260675
10.539889
10.545850
9.671450
9.498596
8.130670
8.098483
7.560849
7.251501
6.836653
6.882548
6.587505
6.236434
6.459951
##ZVALUE=270
1.253486
1.203418
1.482964
1.109838
1.319647
1.319647
1.351833
1.283884
1.529455
1.583695
1.512766
1.725554
1.821518
1.868606
2.169609
2.101660
2.651811
9.940863
30.606985
100.474954
207.067728
366.851687
658.041835
894.175768
1015.589833
1015.589833
1015.589833
1015.589833
867.613554
652.760863
459.190607
240.730643
136.612654
74.467659
68.979859
92.900991
117.177963
147.020817
162.300467
170.405507
168.128610
151.699781
130.272508
102.519989
83.975792
61.283708
48.835874
41.021705
39.935708
39.168000
40.159822
41.107535
42.376518
43.432713
42.617917
45.145750
45.632720
43.985844
43.918490
42.681694
41.539669
40.204525
39.209723
38.564801
37.522912
35.715699
34.233928
32.455921
31.054616
29.908419
30.162930
28.255582
26.750565
25.633574
24.733543
22.617579
21.131635
19.766688
19.055605
17.246604
15.451908
13.857484
13.456941
12.700558
12.327433
10.936856
10.088682
9.237528
9.692907
8.835793
8.466840
7.798672
7.211566
6.688833
6.887913
6.473660
##ZVALUE=275
1.072884
1.111627
1.204610
1.080632
1.098514
1.242757
1.160502
1.298785
1.134872
1.426935
1.278520
1.346469
1.519918
1.732707
1.678467
1.954436
1.947880
1.923442
2.183914
4.445910
16.415715
68.363547
149.963498
339.590907
552.344918
854.473710
1015.589833
1015.589833
1015.589833
1015.589833
1015.589833
791.940093
557.223558
309.765935
178.536773
87.209940
62.356591
71.953535
91.671944
124.192834
146.954656
168.779492
178.226829
173.017979
158.395767
134.864450
114.989877
89.430809
73.120594
59.378743
54.010749
48.422813
46.485662
49.437881
48.705935
48.995614
50.185919
50.036907
49.376488
48.030615
47.637820
45.498610
45.381784
43.574572
41.628480
39.954782
38.308501
36.412477
35.436749
33.017993
31.977892
31.223893
29.422641
27.698874
26.384592
24.417639
22.987723
22.125840
20.222664
18.379688
17.840862
16.036630
15.601516
14.103651
13.703704
12.526512
11.869669
10.916591
10.198951
9.696484
8.940697
8.887649
8.726716
7.624626
7.046461
7.771850
##ZVALUE=280
1.210570
1.014471
1.218915
1.218915
1.102686
1.164675
1.219511
1.308918
1.272559
1.208782
1.235604
1.136661
1.253486
1.470447
1.455545
1.510978
1.839995
1.548529
1.610518
1.873970
1.969934
2.693534
12.179613
40.771961
130.621791
241.590738
460.537672
691.564679
991.173983
1015.589833
1015.589833
1015.589833
1015.589833
936.537981
696.781874
402.532816
246.992707
112.538934
66.023469
55.700541
70.636868
98.035932
123.580694
154.793859
170.381665
179.550648
175.738931
161.614418
145.084858
118.441582
99.168420
79.116821
67.849755
57.487488
54.018497
50.915480
51.249862
51.192641
50.512552
49.513578
48.311949
47.265887
46.229959
44.442415
42.734742
40.874481
39.804578
38.776994
35.932660
35.178661
32.895803
32.323599
31.510592
29.829741
28.004646
25.435686
23.707747
21.670461
20.590425
18.667579
17.850995
16.305447
15.756488
14.827847
13.834834
12.534857
12.220740
11.081696
10.790825
10.114908
9.603500
8.948445
8.368492
8.267760
7.619858
7.641912
##ZVALUE=285
0.949502
1.072884
1.003742
1.011491
1.060963
0.957847
1.098514
1.171827
1.087785
1.043677
1.233816
0.947714
1.104474
1.275539
1.296997
1.404881
1.480579
1.543760
1.478791
1.608729
1.671910
1.851916
2.066493
2.311468
6.012917
20.179749
74.613690
156.467557
345.630646
551.342964
790.454745
1015.589833
1015.589833
1015.589833
1015.589833
1015.589833
863.329768
543.775558
342.913866
166.406631
90.889931
50.396919
49.901605
70.530772
93.267560
126.221776
147.352815
167.133808
175.547004
175.187588
164.785981
142.677426
122.721791
96.890926
78.979731
62.642694
54.836869
48.283935
47.162771
45.004487
44.029951
42.789578
42.407513
41.260719
40.509701
38.377643
36.972761
35.271645
33.872724
32.799840
31.600595
29.758811
28.575659
26.331544
25.099516
23.733974
22.595525
21.533966
20.250678
17.896891
17.697811
15.960932
15.288591
13.460517
13.066530
12.465715
11.983514
10.769963
10.727644
9.795427
8.878708
8.861423
8.665919
7.881522
7.570982
7.141829
##ZVALUE=290
1.253486
1.059771
1.023412
1.081824
1.093745
0.801682
1.006722
1.020432
1.123548
1.292825
1.059771
1.126528
1.374483
1.250505
1.296997
1.499653
1.353621
1.506805
1.462698
1.522899
1.311898
1.653433
1.913905
1.848936
2.112985
2.245903
2.967715
8.452535
39.543509
96.634626
198.358893
425.418615
664.953589
995.817780
1015.712023
1015.712023
1015.712023
1015.712023
998.411775
696.040988
462.091565
233.903527
125.287771
55.506825
40.003657
49.344897
63.010454
88.855624
112.631917
142.316818
156.696439
169.897676
168.475509
155.693889
136.672854
109.903812
88.641644
68.560839
55.808425
43.846965
38.621426
34.904480
33.942461
32.726526
31.611919
30.462742
29.066801
27.708411
27.286410
26.266575
25.816560
25.214553
24.075508
22.847652
21.142960
20.030737
18.857718
17.950535
17.089844
15.512705
14.761686
13.508797
12.685657
12.534857
11.456609
10.953546
10.274649
9.529591
9.052753
8.863807
8.542538
7.516742
7.465482
7.890463
7.245541
6.855726
##ZVALUE=295
1.179576
1.101494
1.187921
1.117587
1.078844
1.011491
1.135468
1.014471
1.257658
1.085997
1.283884
1.306534
1.496673
1.262426
1.383424
1.390576
1.246929
1.321435
1.392961
1.409650
1.562834
1.657605
1.522899
1.804829
1.886487
1.959801
2.183914
2.467632
2.617836
4.207492
13.691783
60.297847
141.397715
339.836478
562.286973
920.403004
1015.788913
1015.788913
1015.788913
1015.788913
1015.788913
820.201635
568.929911
303.345919
166.748762
66.502690
37.307739
32.495856
40.097833
59.400797
78.589916
106.389523
125.921965
145.394802
153.619647
151.451826
141.553879
117.538571
98.847747
73.560476
57.381988
40.619969
32.825470
25.296807
23.362637
21.554828
20.864606
20.520687
19.380450
18.892884
18.148422
17.668605
17.106533
16.394854
15.676618
15.721917
14.077425
13.352633
13.118982
11.877418
11.101961
10.762811
10.481477
10.118484
9.626746
8.965731
8.325577
7.809997
7.795691
7.602572
7.328987
6.859899
6.788969
6.059408
6.607771
6.387830
##ZVALUE=300
0.792742
0.802875
0.907779
0.783801
0.940561
0.927448
0.909567
0.959635
1.074672
0.900626
1.102686
1.135468
1.027584
0.987649
1.135468
0.933409
1.048446
1.136661
1.096725
1.304746
1.263618
1.317859
1.358986
1.251698
1.456738
1.643896
1.676679
1.652837
1.727939
1.984835
2.178550
2.633929
6.101727
34.783483
89.804530
239.262581
421.531796
750.519633
996.371508
1015.589833
1015.589833
1015.589833
1015.589833
986.495614
724.323988
391.872525
231.376886
105.752945
50.992966
23.382902
23.153424
33.189654
45.526624
67.654848
87.103844
111.867785
127.381682
137.165785
136.778951
123.811960
109.294653
83.341002
65.875649
45.327544
32.809973
21.650791
17.026663
13.575554
12.755990
11.824965
11.941791
11.663437
11.529922
11.150837
10.713935
10.419488
10.450482
9.266734
8.997917
8.818507
8.456707
7.633567
7.348657
7.240772
7.042885
7.189512
6.270409
6.549954
5.764961
5.765557
5.337596
5.401969
5.424619
5.168915
5.134940
5.079508
##ZVALUE=305
0.902414
0.776649
0.894666
0.905991
0.841618
0.622869
0.971556
0.983477
0.776649
0.979900
0.946522
1.023412
1.073480
0.969768
0.994802
1.068711
1.018643
1.123548
1.089573
1.099706
1.083612
1.257658
1.120567
1.212955
1.251698
1.480579
1.477599
1.406670
1.715422
1.604557
1.596808
1.733899
2.005696
2.232790
3.619790
20.504594
58.547854
172.630548
322.488546
611.440539
873.291492
1015.602946
1015.602946
1015.602946
1015.602946
1015.602946
843.470693
527.474880
324.248672
145.302415
71.515441
26.554465
16.730428
19.932985
27.242899
43.298602
59.638619
82.755685
100.149512
117.990971
126.028657
122.519732
113.974810
96.611977
78.508854
55.207610
40.113926
25.958419
17.849803
12.063980
9.651780
8.691549
8.135438
7.936954
7.835627
7.569790
7.343888
6.699562
6.990433
6.531477
6.047487
6.001592
6.030798
5.771518
5.527735
5.490780
5.427599
5.246997
4.953742
5.032420
5.086660
4.629493
4.767776
4.328489
4.144907
4.344583
##ZVALUE=310
0.861883
0.811815
0.825524
0.775456
0.706911
0.835657
0.850558
0.932813
0.861883
0.856519
0.803471
0.851750
0.892878
0.794530
0.965595
0.868440
0.900626
0.967979
1.005530
1.070499
1.074672
1.141429
1.064539
1.155734
1.059771
1.242757
1.282692
1.191497
1.290441
1.311898
1.408458
1.485944
1.635551
1.874566
1.941919
2.072453
2.475977
9.301901
30.466914
105.116963
211.437941
451.481938
699.970722
1015.589833
1015.589833
1015.589833
1015.589833
1015.589833
1010.366678
686.675906
453.751683
222.737789
114.562511
39.654970
17.786622
12.292862
15.256405
23.968816
33.471584
52.549839
68.998933
91.671944
104.704499
114.829540
115.256906
106.678605
94.985962
72.483420
55.855513
37.123561
25.906563
15.946627
11.366606
7.724762
6.979704
6.078482
5.486608
5.236864
5.322695
5.183816
4.886985
4.978776
4.827976
4.622936
4.642606
4.480481
4.396439
4.504919
4.292727
4.034638
3.958941
3.768802
3.878474
3.653765
3.743768
3.583431
##ZVALUE=315
0.709891
0.791550
0.906587
0.772476
0.775456
0.865459
0.706911
0.746846
0.809431
0.720620
0.861883
0.946522
0.793934
0.948906
0.908971
0.866652
0.936985
0.899434
0.952482
0.846982
0.997782
0.925660
1.142621
1.243949
0.975728
1.157522
1.191497
1.139641
1.231432
1.126528
1.207590
1.356602
1.426935
1.544952
1.562834
1.600981
1.877546
2.005696
2.527833
4.339814
15.308857
63.553452
145.295858
345.170498
569.821000
935.971737
1015.589833
1015.589833
1015.589833
1015.589833
1015.589833
838.748813
576.199889
295.123458
156.655908
56.955814
23.295879
10.498762
10.298491
14.153719
19.601583
31.831861
45.175552
64.852834
81.991553
100.068450
108.612776
108.094811
100.876689
84.907413
68.806410
50.127506
36.369562
21.655560
14.603734
9.018779
6.719828
5.192757
4.566908
4.076958
4.098415
3.872514
3.835559
3.576875
3.740788
3.577471
3.746748
3.422499
3.480911
3.584623
3.488660
3.455877
3.442764
3.176928
3.419518
3.406405
##ZVALUE=320
0.881553
0.788569
0.793934
0.697970
0.841618
0.619888
0.728965
0.946522
0.783801
0.888705
0.793934
0.616908
0.833869
0.776649
0.728965
0.875592
0.951886
0.849962
0.712872
1.066923
1.045465
1.082420
0.891685
0.769496
0.953674
1.114607
1.070499
1.156926
1.117587
1.079440
1.182556
1.266599
1.290441
1.247525
1.341701
1.569986
1.643896
1.639724
1.887679
1.988411
2.136827
2.782941
6.653666
35.910606
93.285441
248.462558
426.214933
743.525028
993.539691
1015.589833
1015.589833
1015.589833
1015.589833
992.486477
721.629858
391.256809
217.278004
90.282559
39.128661
12.833476
9.031892
9.340644
11.895895
18.156767
26.762486
43.074489
57.896972
77.127814
90.245605
101.816654
102.501512
94.998479
83.757639
63.614845
49.269795
31.612515
21.285415
12.975931
8.547902
5.405545
4.074574
3.719926
3.612638
3.364682
3.339648
3.080964
3.116727
2.998710
3.045797
2.905726
2.875924
3.210902
3.090501
2.867579
2.864599
2.930760
##ZVALUE=325
0.734925
0.872612
0.735521
0.798702
0.633597
0.833869
0.720620
0.747442
0.787973
0.767708
0.895858
0.740886
0.767708
0.741482
0.883937
0.765920
0.566840
0.908971
0.901818
0.885725
0.798702
1.084805
0.963807
0.924468
0.921488
0.973940
0.948906
1.014471
1.168847
0.993609
1.099706
1.087785
1.237988
1.115799
1.265407
1.290441
1.351833
1.478791
1.554489
1.576543
1.738667
1.842976
1.877546
2.316833
4.138947
25.083423
65.890551
176.021457
318.983793
615.891814
886.848569
1015.589833
1015.589833
1015.589833
1015.589833
1015.589833
833.529830
478.585958
286.257863
125.883818
58.414936
17.272830
9.301901
7.606745
8.319616
11.607409
16.632676
26.268959
38.596988
58.535933
72.312951
87.736845
94.833970
94.867945
89.696646
75.180531
61.940551
43.029785
30.596852
18.094778
11.662841
6.551743
4.775524
3.738999
3.095865
2.892613
2.729893
2.599955
2.879500
2.615452
2.597570
2.551675
2.522469
2.559423
2.400875
2.566576
##ZVALUE=330
0.732541
0.748634
0.808835
0.652671
0.668764
0.646710
0.635982
0.607967
0.678897
0.654459
0.753999
0.602603
0.610948
0.800490
0.812411
0.788569
0.843406
0.673532
0.727773
0.793934
0.770688
0.905991
0.755787
0.799894
0.863671
0.798702
0.981688
0.965595
1.002550
0.997782
0.992417
0.970960
1.056790
1.164675
1.181960
1.095533
1.160502
1.268983
1.350641
1.416802
1.377463
1.529455
1.555681
1.704693
1.913905
2.027750
2.641678
10.125637
33.335686
113.400817
219.908357
462.298393
710.870028
1015.589833
1015.589833
1015.589833
1015.589833
1015.589833
979.576707
624.488592
389.725566
170.921683
83.646774
28.291941
11.710525
7.376671
6.766915
7.565618
9.923577
16.276836
23.854971
37.129521
50.868988
68.508983
79.201460
88.814497
88.383555
80.900788
71.371794
54.214597
41.453838
26.480556
18.391609
11.320710
7.586479
4.915595
3.581643
2.975464
2.776980
2.501607
2.452731
2.365708
2.431870
2.209544
2.340674
2.295971
##ZVALUE=335
0.691414
0.784993
0.681877
0.758767
0.697970
0.664592
0.775456
0.712872
0.696778
0.652671
0.763535
0.710487
0.720620
0.892878
0.847578
0.781417
0.892878
0.993609
0.845790
0.828505
0.774860
0.753999
0.884533
0.809431
0.983477
0.825524
0.921488
1.011491
0.935793
1.078844
0.955462
1.045465
1.119971
1.170635
1.213551
1.180768
1.104474
1.314878
1.299977
1.348853
1.320839
1.302958
1.372695
1.506805
1.597404
1.666546
1.757741
2.222657
2.233982
5.065799
16.837716
67.731738
145.502687
339.434743
570.577979
947.960615
1015.631557
1015.631557
1015.631557
1015.631557
1015.631557
758.580565
500.018597
250.185728
125.154853
43.069720
17.110705
7.992983
6.872416
6.667972
7.344484
10.391474
14.552474
24.104714
34.936666
49.430728
61.318874
75.748563
81.359744
81.954598
76.669455
63.060522
53.153634
40.217638
29.066801
18.287897
12.428761
7.241964
5.158782
3.535748
3.037453
2.631545
2.673864
2.468824
2.215505
2.307892
##ZVALUE=340
0.629425
0.685453
0.944734
0.762939
0.651479
0.754595
0.586510
0.631809
0.500679
0.601411
0.647902
0.691414
0.766516
0.706911
0.699759
0.754595
0.675917
0.615716
0.781417
0.885725
0.888705
0.732541
0.657439
0.797510
0.801682
0.956655
0.769496
0.939965
0.882745
0.892878
0.791550
0.855923
0.935793
1.026988
0.895858
1.009703
1.096725
0.950694
1.067519
1.117587
1.226664
1.086593
1.200438
1.321435
1.335740
1.613498
1.461506
1.672506
1.852512
2.021790
1.928806
2.949834
8.128881
40.600896
99.520683
255.641937
459.025502
805.034637
1015.589833
1015.589833
1015.589833
1015.589833
1015.589833
932.254791
636.100769
312.004685
163.785815
61.840415
23.620725
8.499622
6.584525
6.451607
6.400943
7.241964
8.965731
14.489889
20.600557
32.861829
43.985844
59.371591
69.083571
76.049566
76.892972
72.026849
64.247847
50.337911
39.168000
26.892424
19.036531
11.962652
7.395744
4.577637
3.426671
2.870560
2.520680
2.324581
##ZVALUE=345
0.688434
0.638962
0.633597
0.623465
0.640750
0.696778
0.735521
0.681877
0.729561
0.510812
0.766516
0.754595
0.708699
0.684857
0.634789
0.732541
0.655651
0.769496
0.878572
0.742674
0.771880
0.941753
0.719428
0.718832
0.921488
0.718832
0.867844
0.749826
0.759959
0.724792
0.929832
0.876784
0.951886
1.001954
1.008511
0.970960
1.095533
0.857711
0.862479
1.089573
0.926852
1.002550
1.011491
1.196861
1.218915
1.091957
1.246929
1.340508
1.497865
1.814961
1.792908
2.044439
1.992583
2.150536
4.027486
22.042990
61.823726
169.973969
318.222642
620.523691
891.175866
1015.589833
1015.589833
1015.589833
1015.589833
1011.558771
769.482851
433.096886
231.924653
83.963871
37.022829
12.447834
7.409453
6.689429
6.009936
5.624890
6.360412
8.080602
11.718869
20.153522
29.180646
42.788982
52.440763
62.782764
68.330765
70.344806
67.721605
58.813691
50.486922
38.523674
28.701425
17.676950
12.189746
7.018447
4.880428
3.384948
##ZVALUE=350
0.695586
0.664592
0.678897
0.739694
0.720620
0.714660
0.627637
0.691414
0.729561
0.726581
0.591874
0.662804
0.676513
0.540614
0.785589
0.623465
0.838637
0.766516
0.787973
0.773668
0.714660
0.816584
0.769496
0.817776
0.619888
0.728965
0.683665
0.713468
0.759959
0.951886
0.847578
0.925660
0.824928
0.824928
0.945926
0.886917
0.887513
0.810623
1.030564
0.987649
1.066923
0.958443
1.023412
1.131892
1.026988
1.159906
1.104474
1.139641
1.294613
1.323819
1.309514
1.385808
1.533628
1.788735
1.807809
2.083778
2.764463
11.411905
35.244823
110.379457
217.658877
471.144915
721.983910
1015.589833
1015.589833
1015.589833
1015.589833
1015.589833
923.779011
527.474880
302.152634
118.797421
49.798489
14.369488
7.973909
6.192923
5.541444
5.099773
4.968643
5.682707
7.525682
11.951923
16.689897
25.870800
34.003854
46.552420
55.089593
62.516928
64.758658
61.689615
56.403875
45.938492
36.328435
25.539994
18.457770
11.663437
##ZVALUE=355
0.681877
0.744462
0.687838
0.684857
0.698566
0.625849
0.660419
0.592470
0.692606
0.567436
0.747442
0.790954
0.756979
0.621676
0.789762
0.784993
0.955462
0.819564
0.773668
0.699759
0.818968
0.866652
0.809431
0.676513
0.697970
0.796914
0.821948
1.053810
0.918508
0.847578
0.841618
0.775456
0.801682
1.052618
0.942945
0.923872
0.951886
0.955462
0.965595
0.978708
1.043677
0.975728
0.909567
1.125932
1.093745
1.092553
1.142621
1.355410
1.315475
1.238585
1.242757
1.307726
1.582503
1.493692
1.673698
1.586676
1.807809
2.037883
2.310872
5.403757
18.124580
72.834492
152.120590
341.823697
575.952530
961.080790
1015.589833
1015.589833
1015.589833
1015.589833
1015.589833
702.361465
426.265597
172.511935
74.166656
21.430850
9.444952
6.331801
5.605817
5.022883
5.010962
4.869699
5.149841
6.741881
9.312630
15.130639
21.042824
31.307936
39.209723
49.274564
55.232644
59.035420
57.788491
51.030517
44.370890
33.836961
##ZVALUE=360
0.640750
0.748634
0.609756
0.734925
0.665784
0.614524
0.754595
0.693798
0.671744
0.706911
0.487566
0.717640
0.797510
0.840425
0.817776
0.827909
0.733733
0.833869
0.697970
0.686646
0.758767
0.793934
0.805855
0.756979
0.829697
0.758767
0.769496
0.839829
0.901818
0.770688
0.573993
0.903606
0.970960
0.909567
0.893474
1.089573
0.985861
0.918508
0.980496
1.070499
0.981688
0.926852
1.071692
1.011491
1.120567
1.141429
0.942945
1.176596
1.226664
1.344681
1.374483
1.363754
1.340508
1.473427
1.513958
1.575947
1.823902
1.791716
1.840591
1.962781
2.297759
3.214478
8.310676
38.106441
94.865561
244.361758
428.039432
759.661794
1015.585661
1015.585661
1015.585661
1015.585661
1015.585661
852.090716
547.356009
245.922804
114.659667
37.450790
14.290810
6.463528
5.700588
5.219579
4.887581
4.466772
4.295707
4.589558
5.346537
7.931590
11.362433
17.515421
24.393797
35.008788
42.232871
49.789548
52.724481
52.762628
##ZVALUE=365
0.661612
0.572801
0.783801
0.690818
0.755787
0.705719
0.563860
0.561476
0.699759
0.767708
0.597835
0.686646
0.686646
0.655651
0.715852
0.630617
0.651479
0.726581
0.865459
0.835657
0.829697
0.785589
0.744462
0.814795
0.784993
0.879765
0.784993
0.783801
0.806451
0.816584
0.796914
0.859499
0.847578
0.936985
0.826716
1.001954
0.880957
0.874996
0.995994
0.763535
0.972748
0.964999
0.981688
1.136661
1.087785
1.028776
0.970960
1.110435
1.170635
1.135468
1.007915
1.380444
1.207590
1.339912
1.355410
1.403689
1.394749
1.507998
1.759529
1.763701
1.842976
2.108812
2.070665
2.687573
4.286766
21.926761
59.113503
162.380934
314.925909
638.735890
924.965739
1015.586853
1015.586853
1015.586853
1015.586853
993.173718
705.189705
366.518497
182.227492
55.815578
20.828843
7.168651
5.734563
5.048513
4.720688
4.383922
4.006624
3.940463
3.995895
4.789829
6.136894
9.984970
14.278889
21.446943
28.165579
36.328435
##ZVALUE=370
0.728965
0.734925
0.599623
0.606775
0.760555
0.683665
0.827909
0.591874
0.799894
0.738502
0.840425
0.743866
0.709891
0.692606
0.673532
0.794530
0.907779
0.750422
0.779629
0.838637
0.727773
0.736713
0.873804
0.803471
0.687838
0.863671
0.968575
0.790954
0.776649
0.789762
1.010895
0.828505
0.950694
0.843406
0.795722
0.778437
0.847578
0.887513
0.920892
1.003742
0.994802
1.210570
1.102686
1.033545
0.831485
0.947714
1.033545
0.945926
0.866652
0.970960
1.162887
1.184940
1.113415
1.191497
1.242757
1.467466
1.349449
1.404881
1.356602
1.568794
1.474619
1.598597
1.749992
1.875758
2.085567
2.165437
3.000498
11.705756
38.000941
124.942660
239.982605
490.451455
765.940547
1015.611887
1015.611887
1015.611887
1015.611887
1015.611887
867.207646
460.129976
241.850019
80.413818
33.233762
10.737777
6.137490
4.963875
4.452467
3.990531
3.678799
3.628731
3.484488
3.787875
4.197955
5.375743
8.008480
13.122559
##ZVALUE=375
0.667572
0.746846
0.667572
0.762939
0.632405
0.558496
0.607967
0.650883
0.743866
0.685453
0.605583
0.616908
0.695586
0.643730
0.723600
0.887513
0.638962
0.734925
0.834465
0.809431
0.801682
0.517964
0.736713
0.755787
0.810623
0.625849
0.685453
0.626445
0.800490
0.721812
0.776649
0.713468
0.829697
0.756979
0.875592
0.787973
0.839829
0.934601
0.843406
0.864863
0.755787
0.886917
0.860691
0.933409
1.017451
0.888705
0.943542
0.966787
0.962615
1.085997
1.035929
1.072884
0.923872
0.985861
1.190901
1.208782
1.206994
1.116991
1.183748
1.230836
1.261830
1.386404
1.603961
1.560450
1.548529
1.700521
1.681447
2.304912
2.467632
6.217957
20.441413
76.457858
164.069533
386.516452
641.434789
1003.823876
1015.589833
1015.589833
1015.589833
1015.589833
1003.284454
605.430603
355.269909
145.259500
63.117743
17.715693
7.867813
4.854798
4.740953
3.971457
3.708601
3.584623
3.288984
3.262758
3.047585
3.721714
##ZVALUE=380
0.551939
0.597835
0.724792
0.563860
0.507832
0.657439
0.577569
0.612736
0.613928
0.663996
0.623465
0.615716
0.622869
0.618696
0.639558
0.683665
0.773668
0.668764
0.802875
0.714660
0.705719
0.734925
0.626445
0.670552
0.686646
0.775456
0.835657
0.707507
0.782609
0.891685
0.692606
0.787973
0.748634
0.876784
0.919700
0.830889
0.714660
0.720620
0.975728
0.866652
0.891685
0.880957
0.839829
0.900626
1.004934
0.865459
0.829697
0.974536
0.999570
0.922680
0.919700
1.007915
0.944734
0.912547
0.809431
0.984669
1.026988
1.153946
1.152754
1.156926
1.302958
1.140833
1.197457
1.318455
1.406670
1.259446
1.566410
1.797676
1.877546
2.169609
2.524853
3.468990
14.124513
43.513775
135.237575
258.639455
541.922450
846.605897
1015.563607
1015.563607
1015.563607
1015.563607
1015.563607
843.181610
468.848944
259.683728
94.017982
37.601590
10.196567
5.463958
4.239678
4.006624
3.753901
3.551841
3.265738
3.200769
##ZVALUE=385
0.863671
0.802875
0.958443
0.752807
0.800490
0.735521
0.836849
0.731945
0.727773
0.866652
0.901818
0.800490
0.873804
0.885725
0.982881
0.948906
0.842810
0.845790
0.744462
0.783801
0.791550
0.832677
0.855923
0.869632
0.919700
0.919700
0.957847
0.845790
0.897646
0.973940
0.989437
0.996590
1.091957
1.163483
1.073480
1.037717
1.081824
1.085997
1.151562
1.152754
1.256466
0.957847
1.166463
1.010895
1.231432
1.025796
1.035929
1.328588
1.241565
1.127720
1.082420
1.178980
1.076460
1.148582
1.162887
1.255870
1.174808
1.157522
1.191497
1.225471
1.416802
1.274943
1.325607
1.331568
1.287460
1.538992
1.520514
1.684427
1.724958
2.136827
2.289414
2.565980
2.673864
3.011823
5.597472
29.640794
77.456832
200.812817
377.069712
731.698871
1005.985737
1015.769839
1015.769839
1015.769839
1015.769839
980.633497
683.258772
352.279544
187.577009
67.092776
24.401546
7.156730
4.852414
4.405975
4.058480
3.805757
##ZVALUE=390
0.631809
0.504851
0.542998
0.518560
0.673532
0.489950
0.664592
0.540614
0.546575
0.538826
0.677705
0.602603
0.643730
0.672936
0.590682
0.710487
0.580549
0.558496
0.501871
0.615716
0.683665
0.522733
0.669956
0.676513
0.680685
0.846982
0.832677
0.929832
0.859499
0.814795
0.804663
0.928640
0.929832
1.070499
1.010895
0.884533
0.970960
0.981688
0.924468
1.116991
1.038909
0.841618
1.034737
0.949502
0.996590
0.977516
1.098514
0.941753
1.083612
1.032948
1.157522
1.047850
1.143813
1.033545
0.982881
0.960827
1.110435
1.123548
1.217723
1.062751
1.148582
1.096725
1.264811
1.126528
1.181960
1.309514
1.451969
1.428723
1.664758
1.744628
2.061725
1.927614
1.985431
2.172589
2.303720
2.449751
3.270507
15.016794
48.521757
150.563717
295.521617
607.351661
879.890919
1015.589833
1015.589833
1015.589833
1015.589833
1015.589833
910.512805
529.235601
292.841792
106.909871
43.592453
11.854768
5.472898
4.139543
##ZVALUE=395
0.634789
0.589490
0.549555
0.663996
0.670552
0.735521
0.628829
0.821948
0.598431
0.592470
0.715852
0.659823
0.648499
0.514984
0.673532
0.694990
0.646710
0.567436
0.551939
0.761747
0.811815
0.707507
0.732541
0.588894
0.742674
0.772476
0.684857
0.863671
0.761747
0.794530
0.589490
0.757575
0.898838
1.015663
0.966787
1.047850
0.982881
1.210570
1.197457
0.944734
1.157522
1.132488
1.017451
0.980496
1.102686
1.104474
1.006722
1.056790
1.003742
1.187921
1.139641
1.092553
1.104474
1.189709
1.214743
1.000762
1.225471
1.210570
1.130700
1.013875
1.052618
1.180768
1.162887
1.256466
1.145601
1.339912
1.463890
1.620650
1.486540
1.728535
1.741648
1.957417
1.858473
1.925826
1.736879
2.039671
1.986623
2.341866
2.590418
8.435845
30.465722
107.366443
208.411813
429.780483
679.536462
1015.620828
1015.620828
1015.620828
1015.620828
1015.620828
1015.620828
659.084916
396.337509
158.882737
67.607760
18.582940
##ZVALUE=400
0.629425
0.720620
0.622869
0.624657
0.642538
0.645518
0.585914
0.533462
0.497699
0.734925
0.671744
0.486970
0.496507
0.513792
0.558496
0.496507
0.508428
0.603795
0.513792
0.551939
0.639558
0.670552
0.728965
0.660419
0.777841
0.663996
0.801682
0.861883
0.783801
0.651479
0.839829
0.951886
0.812411
0.788569
0.759959
0.993609
1.112819
0.915527
1.032948
0.963807
1.065731
0.992417
1.044869
0.901818
1.090765
0.963807
0.975728
0.934601
1.062751
1.042485
1.022816
1.148582
0.949502
1.074672
0.944734
1.074672
1.181960
1.190901
1.055598
1.121759
1.124740
1.109838
1.115799
1.390576
1.042485
1.361966
1.363754
1.506805
1.523495
1.590848
1.735687
1.659989
1.648664
1.512766
1.668930
1.830459
1.655817
1.708865
1.786947
2.031922
2.413988
4.984736
15.506744
58.141947
129.055977
301.494598
516.411662
872.482657
1015.589833
1015.589833
1015.589833
1015.589833
1015.589833
764.344931
488.784909
234.807730
##END
