##TITLE=D3-3
##FORMAT=SPECTACLE-ASCII V-1.2
##DATA TYPE=ULTRAVIOLET SPECTRUM
##SECOND TYPE=ULTRAVIOLET SPECTRUM
##DATE=01/24/18
##TIME=13:38:29
##SPECTROMETER/DATA SYSTEM=SPECTACLE
##XUNITS=NM EM
##YUNITS=ENERGY
##YFACTOR=1
##FIRSTX=220
##LASTX=410
##NPOINTS=96
##3DDATA=Equidistant
##ZUNITS=NM EX
##FIRSTZ=210
##LASTZ=400
##ZPOINTS=39
##XYDATA=(Y..Y)
##ZVALUE=210
15.610456
17.022491
14.390945
10.729432
11.701584
9.605885
10.194778
8.697510
7.033944
5.887747
5.141497
3.288984
3.162622
3.342628
2.737641
2.897978
3.027916
2.751946
2.766848
3.648996
3.498793
3.895760
3.272891
4.159808
4.540682
5.227923
5.296469
6.486773
6.912947
6.532669
7.417798
7.788539
7.738471
8.381605
8.917451
9.208918
8.621812
8.390546
7.997751
9.019971
9.476542
8.928776
10.028481
8.947849
10.516644
10.322928
10.049939
9.799600
11.263490
10.911822
11.424422
11.485815
11.642575
12.168884
11.509657
11.471510
11.792779
11.588931
12.303591
10.732412
11.383891
11.227727
10.944605
11.209846
10.798573
11.039972
10.408759
10.848641
10.161996
11.907816
13.731718
13.543963
15.304685
16.211867
16.265512
17.120838
16.007423
15.698671
14.635921
13.887882
13.057590
12.202859
10.132790
9.382963
8.550882
7.254481
7.189512
7.667542
6.749630
8.109808
10.637641
13.208985
17.457604
20.995736
28.180480
35.008788
##ZVALUE=215
44.326782
44.017434
36.337972
28.569698
21.493435
18.744469
17.102957
17.105937
14.818907
15.954971
11.700988
10.025501
7.609725
5.164742
3.774762
3.526807
3.061891
3.990531
4.068613
2.998710
3.823638
4.312992
3.365874
3.834963
5.127788
5.944967
6.806850
6.455779
7.886887
7.965565
8.134842
9.840727
10.690689
9.328723
10.194778
10.444522
11.111498
11.379719
10.505915
10.627508
11.216998
11.077523
12.067556
12.073517
13.271570
12.008548
13.056993
12.783408
14.700890
15.936494
14.409423
15.524626
15.792847
16.269684
16.718507
17.425418
16.370416
17.082691
15.869737
16.495585
16.175508
15.234947
15.494823
13.796687
13.705492
15.112758
15.083551
13.728738
14.565587
13.885498
15.704632
15.402436
16.546845
17.384887
17.285943
16.964674
17.003417
15.088916
15.337467
13.421774
12.428761
12.105703
11.709929
9.132624
8.879900
8.600950
7.227659
7.175803
6.092787
6.014705
6.120801
6.100535
6.185770
7.114410
9.693503
11.900663
##ZVALUE=220
95.271468
99.768639
95.335841
83.919764
71.120858
56.436658
45.298934
32.582879
27.996898
26.637912
25.966763
24.827719
23.571849
18.687844
15.217662
11.720657
7.667542
5.508661
4.941821
3.843904
4.022717
4.953742
5.107522
4.624724
5.289912
6.307960
5.944967
7.367730
8.456707
9.362698
9.947419
10.033846
10.956526
12.094975
12.863874
12.741685
13.563633
12.943745
12.071729
13.981462
13.283491
14.733672
15.538931
15.519857
16.165972
16.770959
18.008947
17.635822
19.122958
22.147894
20.805597
23.364425
24.388433
24.423599
26.134849
25.322437
26.761889
26.249886
24.277568
25.208592
25.244951
24.045706
23.361444
22.787452
21.635890
19.395947
21.640658
18.673539
19.669533
18.407702
20.357966
19.268990
19.774437
20.459890
20.050406
19.930601
20.335913
19.607544
17.330647
17.256737
15.766621
14.718771
13.606548
13.011694
10.683537
8.638501
8.152723
6.810427
7.958412
7.903576
6.505847
7.055998
6.923676
6.859899
6.408691
6.008744
##ZVALUE=225
118.442774
118.680000
148.469806
167.731643
173.476934
157.250762
142.400861
101.548433
78.281760
61.998963
43.223500
45.458674
41.776896
39.196610
35.735965
37.480593
28.183460
22.425652
16.431808
10.263920
7.428527
5.526543
5.393624
4.686713
4.807711
6.560683
6.892681
6.965995
6.816983
8.027554
9.006858
9.492636
9.248853
10.357499
11.020899
11.808872
13.281703
13.119578
15.486479
16.352534
16.454458
17.066598
18.136501
18.788576
20.502806
22.843480
22.262931
24.206638
24.468899
28.603673
28.590560
30.349493
30.961633
32.835603
32.835603
33.542514
33.684969
33.570528
33.725500
35.461783
34.003854
32.825470
31.347871
31.536818
30.439496
27.687550
25.752783
26.166439
25.716424
24.515986
24.493933
24.123788
23.052692
23.583770
24.056435
22.196770
21.483898
22.025704
19.392967
18.674731
16.713738
17.381907
15.070438
12.579560
13.062954
11.142492
10.134578
10.328889
10.155439
9.424686
7.654428
7.913709
7.522702
7.304549
7.333755
7.359982
##ZVALUE=230
74.468851
79.672933
123.296976
195.355415
236.356854
282.884836
298.433900
278.040767
241.463780
201.646686
135.932565
97.501874
67.423582
61.004758
57.868958
61.429739
63.163638
58.173537
52.635670
40.226579
31.811595
21.313429
13.693571
9.408593
6.602407
6.017685
6.072521
6.359816
6.534457
6.783605
7.623434
8.240938
8.004904
9.161830
10.352731
11.071563
11.858940
13.877749
14.585853
14.732480
17.341971
19.073486
19.320846
20.321608
22.374988
23.729801
25.383830
27.856827
30.257702
30.331612
31.655431
34.368634
36.672950
37.235618
36.479831
39.264560
39.090514
39.663911
39.517879
38.762689
37.971735
36.030412
37.670732
35.804510
32.747984
31.563640
31.438470
29.562712
28.887987
28.752685
28.179884
27.497411
27.476549
28.417706
27.554631
25.693774
24.939775
23.962855
22.312999
21.170974
18.551946
17.279983
17.456412
15.596747
13.072491
12.695789
11.898875
10.826588
11.854768
10.581613
10.028481
9.515882
9.189844
8.795857
7.848740
7.989407
##ZVALUE=235
20.417571
21.567941
52.837729
99.893808
185.090899
264.757872
365.005732
429.210663
476.480722
464.649796
397.253633
317.211747
245.440602
155.496001
114.162564
85.508823
81.562996
86.861849
94.744563
90.735555
81.763864
74.501634
54.094791
38.799644
24.993420
18.366575
11.241436
7.991791
6.847978
8.443594
7.613897
8.021593
8.682609
8.728504
9.247661
11.000633
12.218952
12.446642
13.118982
14.208555
16.353726
18.065572
18.443465
19.513965
22.310615
23.803711
25.682449
25.202632
27.421713
28.756857
29.482841
31.304955
32.400489
33.158660
31.978488
34.528971
35.060644
34.377575
34.221411
33.633709
33.408999
32.144785
32.964945
31.635761
32.709837
28.824806
29.202700
29.592514
28.809905
28.850436
28.176904
28.179884
28.378963
27.708411
25.123954
26.104450
25.112629
22.779703
21.281838
20.497441
18.381476
17.042756
17.564893
15.674829
16.428828
14.395714
13.281703
12.675524
10.930896
12.428761
11.005998
9.936690
10.198951
9.450912
9.851456
9.136796
##ZVALUE=240
2.514720
2.382994
6.778836
23.017526
48.017502
120.358467
200.322866
344.491601
468.869805
575.181842
667.683482
666.081905
585.370660
497.235656
356.676579
253.208876
159.405470
122.051835
106.534958
111.605525
119.524002
128.641725
121.560693
107.950568
91.730952
65.658689
47.797561
31.207800
23.435950
15.049577
11.017919
10.014772
9.880662
9.779930
9.926558
10.043979
11.393428
11.579990
12.876987
12.180805
14.894605
14.373660
15.449524
16.827583
17.852783
17.316937
20.466447
20.562410
22.346973
21.559596
23.458600
23.351908
24.410486
23.919940
25.319457
24.548769
25.552511
27.141571
25.028586
27.310848
25.797486
25.610924
24.933815
25.309920
25.128722
24.137497
22.662878
23.333430
22.920966
23.766756
22.304654
24.218559
24.878979
24.688840
24.313927
21.921992
22.098422
21.127462
19.577742
19.748807
19.193888
16.253591
15.692711
14.802814
13.333559
13.590455
12.594461
11.412501
10.619760
10.903478
10.095835
10.111928
10.809898
9.938478
9.535551
9.727478
##ZVALUE=245
1.670718
1.997948
1.718998
2.445579
4.662871
11.995435
42.969584
90.753436
202.642679
310.939550
497.049689
621.652603
724.062920
768.366456
734.075904
616.574883
494.920611
338.862538
231.977701
140.276551
113.922954
110.358596
119.255781
133.973956
139.071941
132.415891
121.149421
99.792480
76.320767
57.319999
41.143894
26.690960
17.564893
12.179613
11.959672
11.210442
10.677576
10.175705
10.391474
11.790991
12.880564
12.441874
13.441443
14.293790
14.521480
15.035868
15.735626
17.866492
16.925931
18.274784
18.556714
18.721819
20.111799
19.774437
20.327568
18.969774
20.792484
19.464493
18.783808
20.455718
18.376708
18.674731
20.183921
17.894506
17.578602
17.165542
18.823743
18.338561
17.866492
16.831756
17.603636
18.586516
18.896461
19.217730
18.131733
18.308759
17.713904
16.412735
16.975999
13.862848
14.371872
13.391972
11.683702
12.295842
10.330677
10.805726
10.857582
9.463429
9.175539
9.611845
8.822680
8.920431
8.563995
7.631779
8.629560
7.570982
##ZVALUE=250
1.812577
1.975894
1.759529
2.070665
2.045631
2.154708
3.060699
7.110834
32.145977
71.163774
174.626708
291.913748
430.991650
626.146793
763.707757
864.405632
861.330628
769.040585
655.884743
452.100635
306.204557
197.181702
122.165680
103.130937
115.288496
130.102634
144.714713
146.233439
140.699744
131.200552
111.735463
83.481669
62.886477
39.991736
27.427673
16.640425
13.995767
11.705756
11.823773
12.190938
11.996627
13.862848
13.828874
13.374686
14.360547
15.497804
16.767979
16.620755
16.765594
17.662644
19.002557
18.249750
19.244552
18.992424
19.563437
19.189715
20.188689
19.284487
19.177794
19.391775
17.822981
19.106865
17.200708
17.368793
17.967820
17.813444
16.619563
18.595457
16.633868
15.889406
16.229749
17.539859
17.174482
16.887784
16.676784
15.338659
15.362501
15.124679
14.284849
12.754798
11.978745
10.509491
10.759830
9.689927
10.234714
8.946657
8.321404
8.115768
8.932948
7.925630
7.990599
6.486773
6.375909
7.804632
6.770492
6.668568
##ZVALUE=255
1.696944
1.921654
1.778603
1.544952
1.551509
1.817942
1.828671
2.021790
2.342463
4.369617
21.311641
53.848624
107.879639
239.723921
382.138491
603.470802
765.818954
917.415023
962.770581
905.047655
790.666938
629.968643
398.720503
253.395438
137.273669
102.036595
97.882748
109.445453
132.442713
148.302913
154.373646
150.841475
136.123896
110.448599
88.542700
61.331987
41.605830
28.168559
19.121766
15.180707
13.826489
14.139414
14.292598
15.534759
15.482903
16.231537
18.267632
18.870831
18.989444
20.478964
21.669865
22.274852
22.613406
23.093820
22.563934
22.689700
21.641850
22.000670
22.775531
22.662878
21.102428
20.562410
20.038486
20.370483
19.622445
18.629432
19.305944
16.718507
19.206405
17.591715
16.644597
17.803907
17.555952
16.693473
16.517639
15.794635
14.772415
13.395548
12.326837
12.468696
11.316538
11.068583
10.084510
8.842945
9.234548
8.112788
8.222461
7.288456
7.154942
6.546974
6.788969
5.815625
6.912947
6.326437
5.936623
6.435513
##ZVALUE=260
1.694560
1.541972
1.634955
1.670718
1.747608
1.762509
2.036691
1.866817
2.100468
2.074838
2.321601
3.462434
8.173585
34.003854
75.784922
189.453959
317.275524
536.395907
718.352795
939.083695
1015.859842
1015.859842
938.951969
773.758888
515.214801
348.361731
199.443698
126.491785
89.205503
88.383555
106.702447
134.925842
150.452852
158.777833
157.373548
139.851570
122.231841
90.841651
68.765879
46.111941
32.899976
24.861693
20.566583
20.095706
19.649863
21.338463
21.746755
24.073720
25.255680
24.839640
26.953816
27.009845
28.023720
28.415918
29.626489
27.481914
29.531717
28.711557
28.435588
29.734969
27.436614
27.045608
25.897622
25.970936
25.529861
23.270845
23.417473
22.949576
21.892786
20.151734
20.060539
20.170808
19.737482
18.414855
18.818974
17.698407
16.575456
15.444756
14.417768
13.646483
12.373924
11.537671
10.704994
10.011792
9.462833
9.475946
8.183718
7.819533
7.685423
7.630587
7.234812
7.020831
6.439686
6.298423
6.075501
6.305575
##ZVALUE=265
1.401901
1.269579
1.429915
1.453757
1.530647
1.432896
1.382828
1.734495
1.583695
1.817942
1.802444
1.842976
1.744628
2.531409
4.668832
21.598935
54.387450
142.649412
256.033540
484.845638
698.577762
896.849036
1015.589833
1015.589833
1015.589833
906.968713
670.830607
473.008752
261.398554
161.890984
105.346441
75.460672
87.635517
117.831826
139.780641
162.033439
165.928006
160.318613
145.027637
120.206475
96.686482
70.820451
52.694678
37.056804
30.714869
27.857423
27.745962
28.108954
28.046966
31.310916
31.282902
33.564568
34.917593
35.280585
35.725832
36.015511
36.042929
36.596656
35.923719
36.657453
34.895539
33.666492
32.873750
31.858683
30.009747
28.501749
28.938651
27.075410
26.183724
25.867820
23.639798
23.683906
22.669435
21.359921
20.366907
19.602776
17.927885
16.712546
15.722513
14.277697
13.928413
12.069941
12.002587
10.708570
10.073781
10.058880
8.569956
9.199977
7.957816
7.790923
7.299781
6.907582
6.673932
6.437898
5.995631
6.137490
##ZVALUE=270
1.227856
1.323819
1.111627
1.285672
1.265407
1.231432
1.365542
1.342893
1.377463
1.612902
1.529455
1.495481
1.979470
1.627803
1.705885
1.951456
2.469420
10.019541
30.281544
101.945996
200.613737
344.483852
633.165836
857.290626
1015.589833
1015.589833
1015.589833
1015.589833
829.094648
625.360608
382.197499
231.334567
132.241845
72.200894
70.324540
92.632771
116.334558
145.780444
162.824988
172.999501
169.214606
151.096582
132.488608
103.441477
82.716942
60.932636
50.015450
42.593479
39.946437
37.982464
40.025711
42.365789
42.612553
42.556524
43.461919
43.385625
43.651462
43.763518
43.743849
42.664409
41.653514
41.135550
38.938522
38.705468
37.322640
35.275817
34.853816
33.017993
31.567812
28.934479
28.016567
27.011633
26.865602
24.375916
24.050474
22.643805
21.016598
20.018816
18.198490
15.953779
15.602708
13.993979
13.887882
12.232661
11.579990
10.664463
10.604858
10.002851
8.732677
8.702874
8.149743
7.524490
7.358789
6.597638
6.820560
6.130934
##ZVALUE=275
1.288652
1.177788
1.047850
1.202822
1.137853
1.164675
1.258850
1.227856
1.289845
1.371503
1.473427
1.457930
1.646876
1.564622
1.590848
2.068877
2.012849
2.098680
2.250671
4.675984
17.450452
51.414967
156.840682
296.988487
571.773648
782.584548
1010.724902
1015.589833
1015.589833
1015.589833
984.219909
765.416026
540.550947
290.841460
169.297457
81.819892
60.838461
69.961548
92.181563
125.508904
146.367550
168.437958
176.639557
172.627568
160.027742
134.718418
115.630627
90.904832
75.905919
60.824752
52.690506
49.839616
47.001839
48.389435
50.394535
49.098730
49.915910
49.905777
49.311519
49.158931
47.385693
46.091676
45.358539
43.597817
41.169524
39.704442
38.251877
37.916899
36.028624
33.399463
31.809807
30.201674
29.450655
27.771592
26.875734
24.727583
23.045540
21.001697
20.914674
18.619895
16.961694
16.434789
14.693737
13.947487
13.259649
11.438727
11.485815
10.532737
9.546876
9.015799
8.588433
8.216500
7.684827
7.374883
6.877780
6.760955
##ZVALUE=280
1.067519
1.032948
1.042485
1.108646
1.229644
1.282692
1.304746
1.288652
1.091957
1.297593
1.149774
1.148582
1.340508
1.405478
1.665950
1.653433
1.647472
1.700521
1.718998
1.887679
2.062917
2.506971
11.279583
37.860870
124.963522
232.739449
444.482565
654.425621
950.386524
1015.583873
1015.583873
1015.583873
1015.583873
880.087018
643.419623
372.819901
222.554803
102.784634
63.250661
54.865479
69.504976
99.840760
124.376416
153.780580
170.273781
180.438757
175.089836
159.796476
144.419670
117.795467
99.388957
77.036619
66.235662
57.463646
53.889751
50.692558
50.225854
50.126910
49.520731
49.735904
48.672557
47.057867
45.876503
44.280887
42.901635
41.793585
39.981604
37.540793
37.005544
34.740567
32.819510
30.915737
30.483603
27.488470
27.475953
25.433898
23.657680
22.085905
20.929575
18.790960
17.517805
16.594529
15.374422
14.470816
13.451576
12.442470
11.412501
11.353493
10.235906
10.173917
9.113550
8.165836
8.139610
7.303953
7.499456
7.549524
##ZVALUE=285
0.957847
1.031756
0.943542
1.048446
1.129508
1.137853
0.917912
1.075864
1.279712
1.264811
1.080632
1.280904
1.363754
1.500845
1.275539
1.359582
1.442432
1.519918
1.626611
1.686811
1.665950
1.763701
1.988411
2.118945
5.888939
19.520521
67.872405
143.781900
320.895910
518.582463
744.792819
1015.589833
1015.589833
1015.589833
1015.589833
1004.717946
807.674527
499.019623
315.496922
153.895617
85.171461
49.185753
50.014853
70.837736
93.184710
126.041770
148.475766
169.423819
176.225901
175.434947
166.917443
142.827630
124.468803
96.735954
79.987645
63.461661
54.388642
50.066710
47.423840
45.653582
44.179559
43.740869
42.164922
42.167902
40.456653
38.141608
36.791563
35.114884
33.864975
32.609701
31.383634
29.376745
28.437972
27.137995
25.985837
23.904443
22.985935
21.036863
20.029545
18.164515
16.644597
15.619993
15.252829
14.011860
12.937784
11.807680
11.556745
10.707974
10.484457
9.513497
8.686781
8.701682
7.987618
7.455945
7.252693
7.156730
##ZVALUE=290
1.147985
1.038909
0.877976
1.021624
1.003742
0.971556
1.070499
1.113415
1.113415
1.105666
1.062751
0.999570
1.092553
1.127720
0.851750
1.302958
1.281500
1.218915
1.312494
1.383424
1.530647
1.516938
1.738667
2.066493
1.965761
2.163649
2.797842
8.060932
36.489964
92.152953
185.054541
401.581526
632.045865
974.038839
1015.589833
1015.589833
1015.589833
1015.589833
954.873562
637.015700
419.265628
210.700631
114.469528
51.780939
38.977861
48.327446
64.726472
89.226961
111.992955
143.371820
157.274008
169.362426
169.106722
155.575871
137.553811
109.787583
89.460611
68.384409
55.755973
44.066906
40.033460
36.460757
34.102798
32.702684
31.534433
31.390786
29.860735
28.960705
28.102994
26.652813
25.843978
24.869442
23.874640
22.152662
20.857453
19.843578
18.976927
17.465949
16.472936
15.095472
15.046000
13.896823
13.170838
11.984706
11.445880
10.757446
10.493994
9.690523
9.076595
8.918643
8.128881
7.592440
6.962419
6.970763
6.817579
6.318688
##ZVALUE=295
0.992417
0.932813
1.006722
1.086593
1.008511
1.084805
0.999570
0.962615
1.002550
0.917912
1.039505
0.903606
0.888705
1.136661
1.055598
1.053810
1.208782
1.336932
1.151562
1.128912
1.252890
1.236796
1.425743
1.427531
1.684427
1.700521
2.013445
2.145767
2.415776
3.856421
19.341707
56.998730
131.786466
321.621895
531.700850
867.649913
1015.589833
1015.589833
1015.589833
1015.589833
1015.589833
771.828890
525.939465
270.193815
151.596665
63.842535
36.538839
31.750798
39.405823
59.247613
78.437924
106.904507
125.977993
145.593882
154.158473
151.903629
141.012669
119.194984
99.934936
73.280931
57.144761
41.627884
33.362508
25.881529
23.639798
21.132827
20.387769
19.849539
19.263625
18.175840
17.964840
17.679930
17.585754
16.690493
16.023517
14.726520
14.428496
13.535619
12.489557
11.991858
11.311769
10.508895
10.045767
9.325743
9.350777
8.531809
8.322597
7.696748
7.482767
6.985664
6.986856
6.525517
6.173849
6.228685
5.698800
5.677938
##ZVALUE=300
0.895858
0.992417
0.900626
0.907779
0.748634
1.005530
0.952482
0.820756
1.056790
0.908971
0.971556
1.032948
0.872612
0.934601
1.107454
0.934601
1.183748
1.010895
1.183748
1.322627
1.367927
1.166463
1.386404
1.308918
1.448989
1.611710
1.590848
1.650453
1.797676
1.969934
2.057552
2.486706
7.965565
29.565692
104.278922
207.769871
435.647964
670.966506
993.031859
1015.589833
1015.589833
1015.589833
1015.589833
956.376791
626.243949
400.708914
200.050473
107.121468
41.150451
24.059415
23.846626
31.779408
49.139857
65.994859
91.031790
109.969974
130.008459
137.430429
135.263801
127.934813
106.834769
88.612437
63.405633
48.467517
31.634569
23.540854
16.274452
14.131665
12.268424
11.775494
11.435747
11.961460
11.435747
11.203885
10.857582
9.875894
9.770989
9.470582
8.822680
8.935928
8.108616
7.886887
7.656813
7.101893
7.330775
6.952882
6.419420
6.166697
6.085634
5.727410
5.718470
5.584955
4.979968
5.304813
5.079508
4.891753
##ZVALUE=305
0.897646
0.669956
0.883937
0.790954
0.950694
0.908971
0.904799
0.892878
0.813603
0.899434
0.881553
0.822544
1.052618
0.970960
0.816584
1.019835
0.937581
1.142621
1.066923
1.060963
1.252890
1.080632
0.952482
1.288652
1.121759
1.294613
1.421571
1.546741
1.306534
1.626611
1.824498
1.786947
1.744628
2.210736
3.354549
19.539595
57.150722
170.069933
308.885574
583.064556
827.855468
1015.589833
1015.589833
1015.589833
1015.589833
983.311534
771.602988
481.545925
295.653939
133.755803
66.518784
24.314523
16.165972
19.575953
26.683807
42.805672
59.104562
82.518458
99.748969
120.019913
123.878717
125.151873
115.908980
97.949505
78.937411
55.523515
40.787458
26.060939
18.268824
12.051463
9.484887
8.375645
8.053780
7.950664
7.684827
7.183552
7.152557
6.875992
6.861687
6.184578
6.294847
6.007552
5.871654
5.885959
5.476475
5.493760
5.296469
5.016923
5.018711
4.742742
5.081892
4.305840
4.404783
4.084706
4.377961
4.428625
##ZVALUE=310
0.644922
0.832677
0.828505
0.832677
0.807643
0.849962
0.940561
0.849962
0.708699
1.037717
0.854731
0.915527
0.854731
0.873804
1.089573
0.823736
0.977516
0.940561
0.768900
1.081824
0.941753
0.925660
1.062751
1.061559
1.057982
1.199841
1.311898
1.119971
1.238585
1.341701
1.257658
1.474619
1.590848
1.657605
1.728535
2.217889
2.503991
8.663535
28.880835
99.923611
203.836560
430.303812
656.392574
974.764824
1015.589833
1015.589833
1015.589833
1015.589833
947.046876
625.271797
415.472984
204.444528
106.294751
38.381815
16.897917
12.080669
15.316606
23.491979
33.863783
52.037835
68.187714
91.508627
105.978847
114.588737
115.019679
107.169747
94.538927
72.971582
56.431890
36.344528
25.286674
16.361475
11.404753
7.665753
6.618500
5.739927
5.622506
5.377531
5.013943
4.820824
5.020499
4.647970
4.998446
4.416704
4.538894
4.201531
4.370809
4.282594
4.181862
4.036427
3.906488
3.756881
3.935695
3.631711
3.655553
3.604889
##ZVALUE=315
0.701547
0.798702
0.689626
0.836849
0.907779
0.795722
0.807643
0.839829
0.864863
0.845790
0.890493
0.797510
0.984669
0.990629
0.826716
0.827909
0.856519
1.035929
1.054406
1.000762
1.045465
0.946522
1.025796
0.893474
0.979900
1.017451
1.293421
1.206994
1.162887
1.341701
1.131892
1.341701
1.316667
1.430511
1.562834
1.631975
1.656413
2.082586
2.122521
4.090667
15.080571
62.911510
140.867829
323.616862
535.421968
870.823860
1015.594006
1015.594006
1015.594006
1015.594006
1015.594006
752.989650
525.056720
274.332762
147.009492
53.400993
22.161603
10.385513
9.854436
13.920665
20.077825
31.809807
45.045614
65.527558
81.533790
99.587440
107.745528
110.037923
102.534890
85.475445
71.337819
51.678419
36.807656
21.784902
14.643669
9.042621
6.311536
5.235672
4.384518
4.245639
3.757477
3.923774
3.714561
3.486872
3.481507
3.635883
3.783703
3.366470
3.586411
3.406405
3.518462
3.224611
3.197789
3.106594
3.166795
3.362894
##ZVALUE=320
0.813603
0.807643
0.795722
0.633597
0.812411
0.752807
0.633597
0.620484
0.698566
0.568628
0.857711
0.759959
0.605583
0.942945
1.006722
1.041889
0.840425
0.843406
0.820756
0.936985
0.977516
0.871420
1.004934
1.106858
0.893474
0.985861
1.103878
0.994802
1.114607
1.139641
1.109838
1.233816
1.287460
1.248717
1.272559
1.441836
1.387596
1.626611
1.607537
1.802444
1.881719
2.379417
6.537437
34.935474
91.400743
241.189599
403.623581
683.977008
917.744637
1015.589833
1015.589833
1015.589833
1015.589833
878.046751
639.376640
354.762673
200.799704
83.164573
37.124753
12.644529
8.966923
9.767413
11.718869
17.971992
26.154518
43.260455
57.088733
77.250600
90.092421
100.986958
103.644729
95.489621
84.125996
64.646602
49.477816
31.946898
22.161603
12.891889
8.433461
5.343556
4.217625
3.694892
3.265738
3.151894
2.999902
2.861619
2.876520
2.826452
2.767444
3.062487
2.923608
2.765656
2.745986
2.750754
2.682805
2.670884
##ZVALUE=325
0.666976
0.610948
0.604987
0.757575
0.546575
0.766516
0.618696
0.682473
0.663996
0.701547
0.774860
0.684857
0.812411
0.750422
0.855923
0.733733
0.808835
0.808835
0.900626
0.770688
0.800490
0.730753
0.822544
0.790954
0.897646
0.849962
0.974536
1.070499
0.929832
1.162887
1.128912
0.901818
1.105666
1.012683
1.256466
1.061559
1.104474
1.239777
1.313686
1.412630
1.491904
1.609921
1.761913
2.156496
3.835559
22.523403
60.697794
162.292719
296.840668
559.883714
787.053704
1015.536785
1015.536785
1015.536785
1015.536785
952.692032
722.706914
438.220501
265.163779
113.496780
53.434968
16.899705
8.721948
7.287860
8.050799
11.506677
16.239882
26.556849
38.694739
58.120489
72.039962
86.051822
94.177723
94.714761
88.797808
74.232817
60.179830
42.917728
31.218529
17.974973
11.684895
6.299615
4.681945
3.351569
2.909899
2.694726
2.664924
2.510548
2.450943
2.614856
2.464652
2.442598
2.565980
2.283454
2.293587
2.380610
##ZVALUE=330
0.791550
0.714660
0.677705
0.863671
0.832677
0.654459
0.797510
0.699759
0.670552
0.842810
0.800490
0.753999
0.785589
0.729561
0.898838
0.700951
0.702739
0.850558
0.739694
0.841618
0.833869
0.823736
0.814795
0.759959
0.852942
0.886917
0.909567
0.915527
0.937581
1.016855
1.067519
0.921488
1.014471
1.101494
1.024604
1.187921
1.352429
1.360774
1.213551
1.323819
1.421571
1.379848
1.422763
1.754761
1.671910
1.813769
2.351999
9.605885
31.467676
106.753707
207.895637
424.159765
632.070899
932.782888
1015.601754
1015.601754
1015.601754
1008.879542
826.575756
537.921786
345.436931
157.451630
78.495741
26.959777
11.389852
6.646514
6.864667
7.260442
9.832978
16.182661
23.724437
36.887527
50.031543
68.640709
79.696774
88.145733
87.943673
82.007647
71.344972
54.356456
41.188598
26.283860
18.313527
11.453629
7.530451
4.759431
3.619790
2.761483
2.401471
2.348423
2.398491
2.343655
2.331734
2.042651
2.156496
2.129674
##ZVALUE=335
0.737906
0.773668
0.691414
0.686646
0.581741
0.552535
0.763535
0.713468
0.738502
0.504851
0.757575
0.676513
0.665784
0.688434
0.658631
0.877976
0.769496
0.715852
0.656843
0.700951
0.791550
0.575781
0.691414
0.587702
0.707507
0.818968
0.840425
0.679493
0.880957
0.767708
0.725985
0.904799
0.743866
0.886917
0.971556
1.030564
0.921488
0.949502
1.064539
1.041889
1.219511
1.241565
1.499653
1.282692
1.418591
1.536608
1.638532
1.725554
2.148747
3.672838
20.391941
56.380630
158.569813
288.656950
535.136461
765.177011
1015.557647
1015.557647
1015.557647
1015.557647
907.754898
693.172812
411.520004
245.018005
101.461411
46.279430
14.474988
7.363558
6.098747
6.237626
7.054806
9.143949
14.446974
21.606684
35.008788
46.549439
62.335730
73.637962
81.353784
82.319975
75.361729
66.653490
53.338408
41.112900
27.538538
19.081831
11.350513
7.687807
4.494786
3.317595
2.731681
2.409816
2.167821
2.032518
2.419949
2.094507
##ZVALUE=340
0.581741
0.538826
0.697970
0.563860
0.736713
0.665784
0.461936
0.665784
0.628829
0.642538
0.705719
0.740886
0.669956
0.757575
0.726581
0.826716
0.776649
0.651479
0.845790
0.708699
0.709891
0.719428
0.690818
0.752807
0.794530
0.791550
0.932813
0.807643
0.732541
0.889897
0.949502
0.903606
0.920892
0.933409
1.006722
0.880957
1.001954
1.009703
1.047850
1.049638
1.078844
1.115799
1.218915
1.190901
1.292825
1.245737
1.546741
1.382828
1.484752
1.614690
1.768470
2.456903
7.518530
38.894415
96.295476
243.816972
412.524939
687.279701
902.587771
1015.589833
1015.589833
1015.589833
997.440815
743.387938
526.804924
278.310776
148.309469
54.886937
21.622777
8.188486
6.206632
5.762577
5.771518
6.906986
8.600950
14.316440
20.525455
32.923818
44.382811
59.188604
68.795681
76.824427
77.466965
71.379542
63.207746
49.167871
39.394498
26.406646
19.171834
11.331439
7.455945
4.429817
3.427863
2.789497
2.371669
2.249479
##ZVALUE=345
0.558496
0.634789
0.586510
0.595450
0.729561
0.705719
0.449419
0.642538
0.628829
0.641942
0.477433
0.745654
0.596642
0.698566
0.635982
0.442863
0.680685
0.670552
0.564456
0.668764
0.735521
0.651479
0.653863
0.716448
0.771880
0.697970
0.801682
0.728965
0.814795
0.738502
0.859499
0.727773
0.761747
0.765920
0.766516
0.895858
0.933409
0.973940
0.884533
1.087785
1.108646
0.991821
1.095533
1.112819
1.144409
1.176596
1.210570
1.268983
1.128912
1.468658
1.581907
1.750588
1.729727
1.945496
3.555417
21.168590
59.759617
162.741542
292.078853
539.791584
744.064450
995.360613
1015.589833
1015.589833
1015.589833
834.633708
621.453524
363.489985
205.860734
79.378486
34.696460
11.344552
6.995797
5.669594
5.508661
5.206466
5.602837
7.715821
11.305809
19.364953
28.270483
42.457581
52.140951
62.960982
67.792535
71.209669
68.030953
59.363842
50.578713
37.698746
29.025674
17.988682
12.233853
6.861687
4.944801
3.277659
##ZVALUE=350
0.741482
0.913739
0.812411
0.783801
0.730753
0.703931
0.802875
0.622869
0.820756
0.724792
0.738502
0.808835
0.756979
0.856519
0.824928
0.891685
0.794530
0.918508
0.968575
0.924468
0.858903
0.964999
0.827909
0.863671
0.875592
0.874996
0.946522
0.886917
1.031756
0.920892
0.959635
0.930429
0.998974
0.983477
0.860691
0.990629
0.940561
1.009703
1.144409
0.931621
0.980496
1.007915
1.152754
1.178980
1.245737
1.270771
1.130700
1.199841
1.274943
1.340508
1.323819
1.342893
1.600981
1.605749
1.838803
1.799464
2.852678
8.367896
39.985776
94.913840
229.922533
386.722684
645.645857
847.488642
1015.722752
1015.722752
1015.722752
930.150747
651.185513
432.713628
216.182470
116.092563
43.831468
17.436743
7.205606
6.040931
5.224943
5.034804
4.739761
5.363822
7.519722
10.697842
17.383695
24.284720
35.682917
45.051575
56.186914
62.239766
63.937902
62.646866
55.639744
47.348738
35.795569
27.054548
17.495751
12.053847
##ZVALUE=355
0.739694
0.721812
0.663996
0.822544
0.706911
0.684857
0.837445
0.820756
0.609756
0.602603
0.625849
0.597835
0.696778
0.573993
0.580549
0.639558
0.732541
0.680685
0.659823
0.894666
0.906587
0.704527
0.840425
0.735521
0.709891
0.615716
0.803471
0.773668
0.706911
0.710487
0.628829
0.709891
0.779629
0.699759
0.829697
0.866652
0.836849
0.805855
0.888705
0.847578
1.098514
0.834465
0.948906
1.075864
1.050830
1.140833
1.016855
0.987649
1.044869
1.092553
1.200438
1.389980
1.217723
1.234412
1.296997
1.438856
1.434684
1.914501
1.889467
5.420446
18.281937
72.625875
150.133967
317.494869
504.251719
780.111551
951.806903
1015.589833
1015.589833
926.094651
748.722553
496.387482
312.041640
135.286450
64.000487
19.248724
8.273721
5.438924
5.258918
4.443526
4.410744
4.226565
4.698634
6.333590
8.798838
14.880896
20.797849
30.944943
39.603710
49.214959
55.149794
58.941841
57.018995
51.261783
44.010878
34.026504
##ZVALUE=360
0.529885
0.628829
0.706911
0.718832
0.615716
0.723600
0.860691
0.704527
0.485778
0.611544
0.683665
0.743866
0.776649
0.672936
0.528693
0.555515
0.700951
0.562668
0.675917
0.614524
0.621676
0.522733
0.609756
0.728965
0.860691
0.762939
0.725985
0.803471
0.692606
0.687838
0.804663
0.830889
0.750422
0.833869
0.704527
0.794530
0.919700
0.783801
0.731945
0.805855
0.787973
0.582933
0.812411
0.820756
0.990629
1.019835
1.081824
1.062751
1.107454
1.097918
1.188517
1.025796
1.077652
1.174808
1.321435
1.252890
1.337528
1.499653
1.691580
1.728535
1.886487
2.681613
8.386970
39.315820
96.357465
235.614777
387.018919
625.685453
825.474858
1009.312868
1015.578508
992.211699
837.738514
571.279526
378.859639
183.181763
94.927549
34.504533
13.204813
5.737543
4.966855
4.448891
4.286766
3.855824
3.886819
4.281998
5.101562
7.602572
10.944605
17.312765
24.677515
35.276413
42.408705
49.984455
52.613616
52.930713
##ZVALUE=365
0.667572
0.680685
0.738502
0.594854
0.759959
0.631809
0.645518
0.618696
0.615716
0.660419
0.671744
0.668764
0.615716
0.820756
0.747442
0.621676
0.622869
0.620484
0.690818
0.729561
0.733733
0.662804
0.761747
0.664592
0.693798
0.713468
0.771880
0.748634
0.678897
0.694990
0.685453
0.607967
0.740886
0.851750
0.885725
0.916719
0.899434
0.940561
0.838637
0.861883
0.845790
0.846982
0.944734
0.805855
0.902414
0.955462
0.923872
0.866652
1.117587
0.946522
1.040697
0.993609
1.090765
1.228452
1.159906
1.214743
1.273751
1.456738
1.319647
1.458526
1.511574
1.717806
1.723766
2.171993
3.544688
20.580888
59.651732
165.610909
294.946432
521.605611
715.591908
926.329494
1009.536982
995.336771
874.875784
638.208985
454.882979
250.539780
137.952566
49.414635
20.416975
6.555915
4.845858
4.438758
4.079938
3.891587
3.595948
3.709793
3.562570
4.464984
5.855560
9.816885
13.660789
20.882487
28.119683
36.695600
##ZVALUE=370
0.624657
0.582933
0.662804
0.579953
0.704527
0.542998
0.544786
0.580549
0.650883
0.724792
0.637770
0.679493
0.703931
0.738502
0.650883
0.664592
0.645518
0.672936
0.758767
0.616908
0.694990
0.631809
0.787973
0.793934
0.754595
0.736713
0.703931
0.708699
0.827909
0.785589
0.759959
0.741482
0.716448
0.704527
0.761747
0.705719
0.681877
0.626445
0.810623
0.750422
0.825524
0.821948
0.978708
0.944734
0.894666
0.920892
0.912547
0.852942
0.693798
0.843406
1.009703
1.021624
0.927448
1.116991
0.821948
1.077652
1.101494
1.086593
1.164675
1.267791
1.198649
1.324415
1.319647
1.556873
1.755953
1.691580
2.814531
9.052753
47.073960
113.109946
264.501572
413.627625
650.603771
832.193494
992.459655
1015.275717
919.196606
759.972930
507.892966
326.449871
150.790811
76.481700
28.428435
11.709929
5.173683
4.355907
3.953576
3.716946
3.569722
3.291965
3.071427
3.160834
3.862977
5.006790
8.355975
11.797547
##ZVALUE=375
0.515580
0.515580
0.684857
0.611544
0.715852
0.584722
0.620484
0.575781
0.461936
0.720620
0.563860
0.622869
0.512600
0.708699
0.788569
0.750422
0.761747
0.737906
0.744462
0.769496
0.632405
0.728965
0.529885
0.770688
0.590682
0.744462
0.685453
0.765920
0.735521
0.620484
0.677705
0.761747
0.782609
0.782609
0.818968
0.722408
0.834465
0.772476
0.741482
0.927448
0.782609
0.952482
0.660419
0.777841
0.846982
0.720620
0.865459
0.735521
0.831485
0.835657
1.048446
0.854731
0.948906
0.964999
1.140833
0.850558
0.945926
0.932813
1.062751
1.032948
0.998974
1.129508
1.226664
1.262426
1.261830
1.377463
1.489520
1.845956
1.949668
5.198717
19.570589
74.575543
156.866908
341.827869
525.668859
778.728724
921.021700
1008.226871
978.479981
808.081031
630.227923
385.288000
238.833427
108.888745
53.154826
16.679764
7.194877
4.255772
3.846884
3.587604
3.530979
3.219843
2.977848
2.858639
2.745986
3.468990
##ZVALUE=380
0.659823
0.707507
0.573993
0.490546
0.536442
0.518560
0.579953
0.529885
0.629425
0.676513
0.647902
0.498891
0.485778
0.538826
0.656843
0.575781
0.459552
0.680685
0.779629
0.603795
0.496507
0.670552
0.612736
0.746846
0.796914
0.845790
0.799894
0.793934
0.715852
0.692606
0.920892
0.796914
0.802875
0.641942
0.776649
0.838637
0.694990
0.818968
0.870824
0.781417
0.842810
0.822544
0.754595
0.834465
0.753999
0.911951
0.855923
0.680685
0.752807
0.819564
0.843406
0.941753
0.879765
1.014471
0.856519
0.744462
0.895858
1.059771
0.941753
0.935793
0.971556
0.996590
1.214743
1.032948
1.190901
1.260638
1.184940
1.334548
1.421571
1.659989
1.978874
3.097653
11.313558
53.837895
120.179653
261.849761
423.990488
682.478547
850.957036
991.537571
999.506712
869.027972
714.394450
498.178005
337.053537
166.589618
84.862709
28.462410
11.183619
4.716516
3.827810
3.594756
3.334880
3.272891
3.148913
2.918839
##ZVALUE=385
0.643730
0.520945
0.606775
0.532866
0.505447
0.461936
0.644922
0.639558
0.519753
0.671744
0.665784
0.531673
0.496507
0.665784
0.568628
0.480413
0.618696
0.464916
0.715852
0.479817
0.564456
0.609756
0.690818
0.701547
0.780821
0.682473
0.786781
0.712872
0.725985
0.609756
0.776649
0.792742
0.821948
0.904799
0.869632
0.801682
0.940561
0.850558
0.909567
0.937581
0.908971
0.754595
0.888705
0.762939
0.884533
0.824928
0.767708
0.699759
0.757575
0.844598
0.899434
0.851750
1.017451
0.935793
1.152754
0.890493
1.013875
1.051426
1.047850
0.879765
0.847578
0.914931
0.956655
0.812411
1.143813
1.080632
1.169443
1.238585
1.282692
1.396537
1.475811
1.656413
1.779795
1.974702
4.949570
28.014779
74.281693
192.340612
332.597494
577.352643
760.872960
940.799713
996.515751
932.454467
813.135505
594.675541
421.974659
229.515433
129.959583
52.501559
21.116734
5.930662
4.073977
3.463626
3.403425
3.232956
##ZVALUE=390
0.487566
0.575781
0.422597
0.511408
0.595450
0.681877
0.664592
0.564456
0.615716
0.560880
0.691414
0.609756
0.614524
0.599623
0.611544
0.551939
0.731945
0.601411
0.740886
0.731945
0.522733
0.581741
0.719428
0.829697
0.611544
0.741482
0.661612
0.862479
0.811815
0.952482
0.882745
0.895858
0.764728
0.919700
0.958443
0.978708
0.972748
0.907779
1.040697
0.958443
0.804663
0.962615
0.882745
0.895858
0.970960
0.986457
0.918508
1.000762
0.927448
0.871420
0.869632
0.963807
0.957847
0.913739
0.872612
0.958443
0.995994
0.863671
0.901818
0.891685
0.901818
1.050830
1.019835
1.032948
1.124740
1.122952
1.131892
1.199841
1.282692
1.427531
1.450777
1.507998
1.616478
1.573563
1.699924
1.712441
2.602935
14.701486
46.503544
142.101645
263.813734
489.911437
665.095448
858.142972
960.974693
988.864899
911.325812
721.725821
549.347997
332.498550
194.187760
78.453422
34.482479
9.339452
4.594922
3.702641
##ZVALUE=395
0.657439
0.657439
0.370741
0.620484
0.476837
0.651479
0.462532
0.504851
0.634789
0.646710
0.680685
0.418425
0.731945
0.586510
0.603795
0.639558
0.458956
0.481606
0.663996
0.506639
0.751615
0.649691
0.722408
0.713468
0.683665
0.576973
0.675917
0.658631
0.716448
0.699759
0.722408
0.964999
0.796914
0.765920
0.890493
0.984669
1.052618
0.971556
0.849962
0.998974
0.878572
0.953674
1.060963
1.058578
1.031756
1.056790
0.966787
1.164675
0.989437
0.837445
0.881553
1.188517
0.992417
1.076460
0.982881
0.941753
1.010895
0.829697
1.037717
1.063943
0.959635
0.837445
0.918508
1.017451
1.055598
1.216531
1.012683
1.369715
1.299977
1.402497
1.441836
1.468658
1.529455
1.405478
1.408458
1.398921
1.647472
1.789927
2.044439
7.857680
28.869510
103.168488
197.401643
378.824472
560.594797
813.895464
964.493752
1015.589833
1014.136672
862.631798
677.485466
418.785810
261.039734
112.435818
52.742958
16.900897
##ZVALUE=400
0.849962
0.876784
0.653863
0.684857
0.454783
0.681877
0.651479
0.597835
0.586510
0.642538
0.785589
0.522733
0.659823
0.602603
0.643730
0.603795
0.498891
0.467896
0.440478
0.642538
0.544786
0.713468
0.641942
0.594854
0.566840
0.624657
0.678897
0.625849
0.766516
0.703931
0.630617
0.723600
0.922680
0.954866
0.756979
0.877976
0.940561
0.840425
0.916719
0.947714
0.932813
1.046658
1.006722
1.145601
1.102686
1.140833
1.067519
0.991821
0.819564
0.988841
0.952482
1.040697
0.930429
1.196861
0.933409
1.089573
1.135468
1.073480
0.931621
0.950694
1.115799
1.017451
1.158714
1.100898
1.050830
1.178980
1.201630
1.335740
1.276731
1.305938
1.313686
1.280904
1.288652
1.489520
1.209974
1.454949
1.362562
1.480579
1.543760
1.599789
1.834631
4.060864
15.530586
62.193871
134.100914
298.304558
459.005833
685.277581
859.509706
1009.185910
1015.589833
903.616548
748.586655
517.011881
344.595909
175.175667
##END
