##TITLE=D3-4
##FORMAT=SPECTACLE-ASCII V-1.2
##DATA TYPE=ULTRAVIOLET SPECTRUM
##SECOND TYPE=ULTRAVIOLET SPECTRUM
##DATE=01/24/18
##TIME=13:42:17
##SPECTROMETER/DATA SYSTEM=SPECTACLE
##XUNITS=NM EM
##YUNITS=ENERGY
##YFACTOR=1
##FIRSTX=220
##LASTX=410
##NPOINTS=96
##3DDATA=Equidistant
##ZUNITS=NM EX
##FIRSTZ=210
##LASTZ=400
##ZPOINTS=39
##XYDATA=(Y..Y)
##ZVALUE=210
15.450716
15.463829
14.311671
11.927485
10.206699
10.663867
10.783672
9.436607
6.808639
5.610585
4.113913
3.284812
2.657771
2.798438
2.968907
3.382564
2.999902
2.855659
2.860427
2.649426
2.935529
3.393888
3.899932
4.606843
4.844666
4.708767
5.893707
6.183982
5.932450
7.170439
6.859899
7.934570
9.107590
8.507967
8.306503
9.434819
9.508729
8.992553
9.483695
10.086894
10.049939
9.160638
9.632707
9.622574
9.910464
9.917617
10.506511
11.106730
9.875894
11.898875
11.235476
12.501478
11.051893
11.512637
11.809468
12.865663
12.756586
11.892915
12.192726
11.342764
11.966825
10.987520
10.988712
11.186600
11.904836
11.150837
11.419654
10.592937
11.960864
12.014508
12.726784
14.147758
13.428926
14.918447
15.272498
15.942454
15.197992
16.015768
16.062856
14.284849
13.912916
12.061000
10.873675
10.098815
8.366704
6.997585
7.437468
6.692410
7.047653
7.491708
10.012984
12.302995
17.059445
20.025969
24.867654
31.089783
##ZVALUE=215
43.600798
42.067766
35.478473
28.887987
23.770928
19.972920
17.527938
16.359687
14.320612
14.815927
13.214946
10.611415
6.634593
6.419420
4.638433
3.558993
3.345609
3.155470
3.074408
3.229976
3.136992
3.442764
3.353953
4.063845
5.138516
5.529523
6.646514
6.106496
7.780790
8.680820
8.250475
9.663701
10.038614
9.411573
10.654926
11.637807
9.741783
10.860562
11.187792
10.968447
12.096763
12.409687
11.718869
14.316440
12.736917
13.704896
12.761950
14.093518
14.279485
14.528632
15.006661
15.110970
15.797615
16.357899
15.640855
15.807748
15.870929
16.625524
16.356707
15.813708
16.029477
15.438795
13.843775
15.144944
14.777780
13.930798
15.526414
14.879704
14.666915
15.494823
14.120936
16.780496
16.467571
16.250610
16.953945
17.759800
16.049743
16.490817
17.090440
14.305711
14.336705
12.738705
10.434985
10.927916
9.329915
8.725524
8.048415
7.438660
6.208420
6.631613
7.261634
6.391406
5.875826
7.355809
9.366870
11.115670
##ZVALUE=220
89.068413
94.157457
90.640783
82.022548
69.753528
54.274797
42.857528
33.783913
29.709935
25.927424
27.735829
25.722980
21.496415
19.994974
14.720559
11.641979
6.588697
6.397963
4.214644
3.884435
3.743768
3.611445
3.561974
4.944801
5.608797
6.104708
6.382465
7.465482
8.269548
9.288788
9.628534
9.831786
10.871887
11.807680
10.005832
13.181567
13.318658
13.205409
13.589859
14.083982
14.727712
16.677976
14.995933
15.104413
16.260743
17.692447
19.212961
19.275546
21.436810
22.533536
23.810863
23.378730
22.437572
25.286674
25.056601
25.131702
24.593472
24.982691
25.166869
24.862885
25.916696
24.471879
24.036765
22.420883
21.628737
20.827651
22.225976
20.198822
20.722747
19.964576
18.709898
20.089746
19.541979
20.917654
20.693541
19.859672
19.806623
19.961596
17.759800
16.651750
14.330745
15.194416
13.246536
11.458993
11.716485
10.097623
9.172559
8.589625
8.072853
8.473992
7.327795
7.260442
7.297993
6.714463
6.830692
5.213618
##ZVALUE=225
113.426447
120.697618
144.847631
161.238909
164.764524
151.495934
131.284595
99.911690
76.378584
58.999658
43.624640
41.003823
41.157603
40.429831
37.547946
33.601522
29.093623
21.043420
16.347766
10.633469
8.422732
5.854964
5.390644
4.628897
4.878640
5.873442
6.800890
6.885529
6.827712
8.719563
8.792877
9.690523
10.231733
10.865927
11.980534
12.461543
13.282895
14.571548
14.161468
16.325712
15.230775
18.646717
20.059943
19.691586
21.061897
22.403598
23.321509
24.531484
25.978684
26.999712
30.727983
31.277537
33.186674
33.366680
34.854412
36.012530
35.872459
35.041571
33.965707
34.944415
32.937527
34.925938
31.917691
32.293797
29.547811
28.831959
29.290915
28.369427
26.458502
25.346875
26.881695
25.203824
26.479959
25.388598
24.124980
23.977757
22.874475
22.761822
20.848513
18.302798
16.476512
16.210675
15.454888
12.625456
12.969971
11.560917
11.904836
10.027885
9.464622
9.767413
8.698702
8.227825
8.325577
7.917881
7.636547
7.417798
##ZVALUE=230
73.627830
78.722835
131.163001
182.707906
221.838951
274.311900
279.996991
270.594954
237.584710
184.525847
133.081675
94.259977
69.038868
62.057972
61.344504
66.593885
64.445734
62.117577
50.632954
42.827725
32.800436
20.622611
13.010502
9.092689
6.847978
5.998611
6.696582
7.052422
6.766915
6.900430
7.961988
8.289814
8.342862
10.582805
12.009740
11.374950
13.258457
14.186502
15.759468
16.163588
17.935634
19.294620
21.242499
22.824407
24.644732
26.978850
25.226474
27.960539
29.158592
32.065511
35.306811
33.541918
37.208796
37.987828
39.795637
37.242770
40.401816
38.227439
39.642453
39.272904
40.305853
36.472678
36.199689
33.327937
35.172701
31.692982
32.202601
31.595826
32.041669
31.230450
30.287504
29.338598
29.488802
26.191473
28.840899
24.999976
26.389956
24.933815
20.721555
21.004677
19.908547
16.667843
15.561581
15.258789
13.888478
13.514757
12.377501
10.668635
11.589527
10.894537
10.422468
10.220408
9.112954
8.433461
8.491874
8.616447
##ZVALUE=235
19.051433
23.612976
49.591660
107.347965
166.684985
266.240835
342.848897
430.362821
456.140637
462.661982
396.076441
316.667557
213.028789
162.311792
109.441876
88.621974
84.426999
87.061524
93.833804
92.085600
87.162852
70.069432
59.222579
40.341616
26.639700
16.673803
11.390448
8.363724
7.846951
7.451773
7.804632
9.751916
9.393692
9.721518
9.688735
11.424422
11.789799
14.012456
14.272928
15.744567
16.612411
19.117594
18.775463
20.183921
22.062659
23.550987
24.230480
25.564432
26.485920
29.606819
30.385852
31.419992
30.286908
34.502745
35.725832
32.326579
34.044981
35.664439
34.895539
35.027862
35.324693
34.680963
33.181906
29.744506
32.129884
31.109452
28.724670
28.928518
27.612448
27.094483
29.089451
27.011633
27.179718
26.017427
27.065873
27.298927
25.469661
24.230480
22.094846
19.732714
19.936562
17.652512
15.978813
15.827417
15.481710
13.685822
14.096498
12.778640
11.406541
11.323690
10.950565
10.832548
10.596514
11.024475
9.976625
8.423924
##ZVALUE=240
2.403855
2.642870
8.343458
20.040870
58.188438
111.125708
217.123628
323.499441
475.269556
566.388965
639.967918
641.720891
593.202710
477.856994
374.399424
239.771008
170.997977
123.237967
105.155706
112.446547
118.190646
123.727918
120.038986
110.245943
88.487864
69.437623
49.856901
36.783814
23.201704
16.501546
13.766885
11.481643
11.670589
11.595488
10.626912
11.187792
12.406707
13.102889
13.182759
15.273690
14.320612
15.311837
17.212629
18.805861
19.016862
20.601749
20.215511
21.579862
22.683740
22.036433
23.890734
25.856495
25.185943
24.998784
25.592446
26.889443
26.304722
25.822520
26.148558
28.072000
26.284456
26.152730
26.123524
25.351644
25.760531
23.496747
23.933649
23.418665
23.773909
24.765730
24.275780
23.318529
25.661588
23.700595
23.731589
22.543669
22.408962
22.626519
20.324588
19.768476
18.195510
16.043782
15.691519
15.362501
14.462471
11.655688
13.743639
12.212992
11.392832
11.890531
9.708405
9.091496
10.562539
10.066628
10.122657
9.949803
##ZVALUE=245
1.776814
2.297759
2.399683
2.370477
4.412532
15.688539
35.731792
101.729631
181.604624
293.596983
469.968915
605.989695
730.368495
763.131976
717.482567
631.690621
473.373532
344.548821
217.697620
153.003931
113.986731
106.590986
118.653774
135.511756
140.666962
136.031508
120.934844
97.360611
79.153776
57.262778
42.165518
26.418567
19.515753
14.186502
12.625456
12.312531
12.749434
13.091564
13.437867
12.090802
14.459491
13.313890
14.195442
15.452504
14.610887
16.061664
16.652942
17.128587
17.477870
19.142628
18.812418
21.091700
20.014644
20.651817
19.501448
19.844770
21.765828
20.059943
19.800663
19.911528
19.454956
20.297766
20.000935
19.337535
20.564795
19.564629
17.911792
18.204451
18.865466
18.758774
18.596649
19.495487
20.204782
19.472837
20.955801
19.649863
17.959476
15.902519
17.254949
16.083717
14.254451
13.169646
12.262464
11.891723
10.928512
11.462569
11.133552
10.255575
9.558797
9.469986
9.583831
9.419918
8.973479
8.803606
9.009838
8.447766
##ZVALUE=250
1.256466
1.443624
1.819730
1.746416
1.930594
1.698732
2.838969
7.587671
32.496452
72.270632
174.775720
289.533734
425.184965
624.164939
742.452741
839.226842
836.691856
740.235448
636.527538
446.957946
307.858586
199.545622
120.449662
104.737878
111.525655
126.758814
142.478943
148.153901
143.528581
131.398439
111.298561
85.591674
65.718889
42.573810
29.169917
18.349886
14.889836
13.591647
13.365746
13.401508
13.438463
14.245510
14.196634
15.694499
14.813542
15.885830
17.333627
17.424822
17.464757
18.399954
17.720461
19.765496
19.506812
19.078851
20.873547
19.335747
20.148754
20.400882
19.840598
18.491745
19.332767
18.356442
18.415451
18.352866
17.203689
17.572641
16.919971
17.379522
16.792417
16.301870
16.743541
15.738606
16.836524
16.602874
15.774965
16.683936
16.114712
15.502572
13.174415
12.867451
11.615753
11.281967
11.249781
10.205507
10.057688
9.470582
8.833408
8.471608
7.745624
7.322431
7.042885
6.786585
7.435679
7.127523
6.510615
7.363558
##ZVALUE=255
1.547933
1.614690
1.520514
1.444817
1.534820
1.590848
1.570582
1.765490
2.179742
4.355907
21.151900
51.855445
109.326839
242.839456
378.276706
593.699813
740.353465
882.000923
939.065814
884.530544
768.726468
610.671639
389.161706
247.980952
138.128996
104.139447
97.906590
110.823512
131.150484
147.599578
148.817897
152.820945
140.384436
114.679933
91.997981
60.792565
43.878555
29.472709
20.974874
16.604662
15.236735
15.383959
16.207695
15.996695
16.434789
18.103719
17.927885
19.035935
20.644665
21.239519
21.388531
23.787618
23.143888
23.776889
22.474527
24.617910
23.430586
23.634434
23.183823
22.957921
22.900701
21.989942
21.325946
21.505952
20.452738
21.246672
19.454956
17.708540
18.860698
17.821789
17.699599
17.566681
17.491579
17.404556
16.085505
15.790462
15.172958
14.920831
13.405681
13.272762
11.685491
10.845661
9.820461
9.727478
8.711815
9.287596
8.696914
7.665753
6.833673
7.045865
6.945729
6.190538
6.412864
6.019473
5.894899
6.170869
##ZVALUE=260
1.403689
1.433492
1.237988
1.374483
1.402497
1.606941
1.794696
1.602769
1.840591
2.098680
2.098680
2.639890
8.461475
33.831000
76.822639
190.582871
314.520597
528.942943
704.845786
922.998786
1014.559865
1015.594006
915.704966
742.847919
508.450866
347.659588
198.434591
128.128529
87.368488
88.049769
105.896592
131.829977
151.579976
159.839988
157.624483
138.971806
119.033456
90.638995
70.104599
46.566725
35.531521
25.117993
20.620823
20.367503
19.862652
21.641850
22.783875
23.096800
24.358630
26.724935
28.393865
28.794408
28.374791
28.388500
30.884743
30.142665
29.785633
29.500723
28.982759
29.258728
28.411746
27.277470
28.676987
26.942492
26.165843
24.293661
24.523735
22.770762
21.927953
20.703673
22.224784
19.772649
20.047426
19.290447
18.940568
19.287467
17.290711
15.459657
14.316440
13.768673
13.152957
12.309551
10.753870
9.487867
9.447932
9.344816
8.979440
8.229613
8.809566
7.344484
6.804466
7.614493
6.721616
6.305575
6.078482
6.516576
##ZVALUE=265
1.246929
1.182556
1.256466
1.696944
1.390576
1.399517
1.586676
1.712441
1.869798
1.418591
1.897812
1.927614
1.996756
2.556443
4.595518
21.720529
55.094957
143.660903
258.264542
487.041473
690.019727
882.306695
1015.589833
1015.589833
1009.548903
885.789990
657.550693
466.004610
264.582634
161.587000
101.549625
74.959993
85.743666
115.529895
141.064525
159.879923
165.727735
156.201720
147.761703
118.625760
98.685622
71.335435
54.893494
40.227771
32.663941
27.989745
28.206706
29.963851
30.755997
32.350421
33.251643
35.163760
35.186410
37.147999
37.599802
37.538409
38.266778
36.759973
37.140846
37.285686
36.809444
34.547448
34.047961
33.603907
31.721592
30.917525
28.927922
27.746558
26.775599
26.195645
25.758743
23.575425
24.164915
22.700429
21.042824
19.915700
19.485950
17.188787
16.826987
15.287995
14.845729
13.087988
12.011528
12.256503
11.079907
10.761619
9.529591
8.868575
8.467436
8.374453
8.064508
6.794930
6.964803
7.009506
6.305575
6.209612
##ZVALUE=270
1.236796
1.373887
1.319647
1.086593
1.227856
1.206994
1.360774
1.520514
1.422763
1.307726
1.676679
1.548529
1.579523
2.064705
2.137423
1.919866
2.694726
10.413527
29.418468
102.582574
202.723742
361.769795
637.356639
864.051580
1015.589833
1015.589833
1015.589833
1015.589833
824.842453
616.806746
426.712036
223.884583
127.871633
72.484612
69.505572
93.036890
119.483471
147.986412
164.815784
174.656510
170.445442
151.810646
133.856535
104.922652
83.682537
60.329437
50.270557
43.057799
38.595796
39.480925
41.574836
42.435527
44.222474
44.012666
44.557452
45.611858
45.679808
44.894814
44.592619
44.408441
44.122934
42.238832
41.401982
39.189458
38.330555
36.345720
35.199523
34.136772
33.490658
31.265616
30.965805
27.825832
28.312802
26.672482
25.085807
23.756623
22.623539
20.571947
19.792914
17.338991
16.402602
15.490651
14.364719
13.898611
12.460947
11.816621
11.258721
10.275841
9.832978
9.133816
8.764863
8.157492
7.763505
7.226467
7.295609
7.060766
##ZVALUE=275
1.041889
1.260638
1.236796
1.223683
1.340508
1.192689
1.194477
1.418591
1.200438
1.289845
1.269579
1.346469
1.407862
1.489520
1.603961
1.725554
1.791716
2.027750
2.271533
5.009770
18.279552
53.412914
159.207582
301.229954
564.543605
772.663951
1008.662581
1015.589833
1015.589833
1015.589833
1014.118791
774.105787
554.824471
293.585658
171.630979
83.651543
60.468912
71.479678
94.285011
125.833750
148.334503
170.903802
177.741647
175.027847
161.865950
136.301517
117.443800
92.187524
76.070428
61.742663
53.077936
51.104426
50.101876
50.409436
50.467849
52.138567
52.009821
52.264929
52.047968
50.093532
49.310923
47.136545
47.114491
44.920444
43.830872
41.378736
40.663481
39.388537
36.740899
35.387874
33.491850
33.385754
31.498671
28.882623
28.179884
25.919676
23.918748
22.813678
21.756887
19.791722
18.044710
17.031431
15.533566
15.097857
14.345646
12.556911
12.070537
11.315942
10.944605
10.301471
9.282827
8.518696
8.166432
7.840991
7.579923
7.045865
##ZVALUE=280
1.113415
1.216531
1.138449
1.023412
1.067519
1.035929
0.931621
1.061559
1.317859
1.531839
1.345873
1.219511
1.456738
1.510978
1.442432
1.641512
1.588464
1.701713
1.842976
1.975894
2.005696
2.394915
11.954904
38.970709
126.874447
237.188935
450.108647
660.790801
944.720507
1015.589833
1015.589833
1015.589833
1015.589833
883.054733
656.994581
379.727483
228.575468
106.435418
65.631866
55.818558
71.347952
101.109743
123.526454
155.765414
170.075893
180.459619
177.821517
165.890455
148.458481
119.205713
101.636648
80.659986
69.450736
59.718490
56.806803
53.398609
52.208900
52.091479
52.653551
52.232742
51.702857
50.833821
49.260855
46.242476
45.100451
43.829679
41.984916
39.429665
38.324594
38.038492
34.176707
32.558441
31.366944
29.742718
28.012991
26.105642
25.628805
22.355914
22.220612
20.565987
18.872619
18.232465
16.532540
15.080571
14.199615
13.343692
12.241602
11.664629
10.753870
10.886788
9.569526
9.052753
9.102821
8.533597
8.136630
7.180572
##ZVALUE=285
1.009703
1.098514
0.944734
1.058578
0.989437
1.018643
1.045465
1.168847
1.088977
1.111627
1.002550
1.132488
1.364946
1.219511
1.185536
1.182556
1.357794
1.333952
1.679659
1.537800
1.706481
1.960993
2.038479
2.227426
6.387830
21.614432
73.098540
151.385665
329.579711
523.966551
743.352771
1009.334922
1015.589833
1015.589833
1015.589833
997.761488
798.583627
500.981808
313.562751
152.300000
84.920526
49.374700
49.394965
71.568489
94.954967
128.785968
148.558617
170.059800
177.755952
175.991654
167.828798
145.830512
124.851465
100.374818
80.607533
64.288974
55.898428
51.766634
49.121976
47.646761
46.887994
45.855641
44.177771
43.143630
41.023493
38.884878
39.204955
37.258863
35.679936
34.038424
33.497810
31.487942
30.142665
28.470755
27.297735
25.084615
23.965836
22.017956
20.795465
19.597411
18.250942
16.945601
15.587807
14.394522
13.875961
13.269782
11.732578
11.595488
10.623932
9.933710
9.221435
8.703470
8.439422
8.553863
7.272959
6.848574
##ZVALUE=290
0.983477
1.001954
1.201630
0.969768
0.899434
0.941753
0.860691
1.116991
1.162887
0.889897
1.032948
1.021624
1.268983
1.315475
1.248717
1.057982
1.311898
1.240969
1.312494
1.418591
1.525879
1.581907
1.696944
1.811981
1.838803
2.003908
2.811551
8.069873
39.470792
96.628666
196.812749
417.527556
643.682480
967.178941
1015.589833
1015.589833
1015.589833
1015.589833
938.317776
629.366636
420.811772
213.291645
116.519928
52.902699
39.519668
50.303936
64.978600
91.326833
114.693642
143.433809
160.556436
171.775818
171.504617
156.423450
139.108896
110.264421
89.740753
70.126653
56.348443
45.779943
41.457415
37.248731
35.749674
34.146905
33.132434
32.169819
30.007958
30.384660
29.064417
27.208924
27.404428
26.091933
24.532676
23.342967
22.693872
21.058917
19.844770
18.773675
17.529726
16.645789
15.520453
14.277697
13.866425
13.348460
12.216568
11.165738
11.116862
10.009408
9.577870
9.363890
8.520484
7.985830
7.835627
7.281899
7.176995
6.663799
##ZVALUE=295
0.929832
0.834465
0.970960
0.930429
1.080632
1.035929
0.886917
0.914931
0.953674
1.021624
0.992417
1.056790
0.998974
1.041889
1.160502
1.048446
1.241565
1.118779
1.158714
1.142621
1.388788
1.329780
1.415610
1.462698
1.679659
1.809597
1.877546
2.169609
2.271533
3.739595
13.771653
63.456893
147.724748
347.005725
557.815433
883.936882
1015.591025
1015.591025
1015.591025
1015.591025
1015.591025
761.448741
527.013540
280.279517
157.361627
62.014461
36.304593
32.327771
40.473938
61.425567
78.223944
105.713606
126.221776
146.457553
154.258609
152.987838
140.095949
119.766593
100.879669
74.762702
58.573484
41.719675
33.729672
27.446747
23.957491
22.377968
21.382570
20.191669
20.329952
19.679666
19.374490
18.410683
17.850995
17.212629
16.312599
15.487671
14.792681
14.119744
13.586879
12.561679
12.087822
11.416674
10.936856
10.010600
9.483695
9.332895
8.710623
8.489490
7.855892
7.444620
7.007718
6.864667
6.387830
6.489754
5.669594
5.922914
##ZVALUE=300
0.922680
0.895858
0.828505
0.900626
0.766516
1.034737
0.910759
1.026988
0.779629
0.968575
1.056790
0.830889
1.057982
1.008511
1.084805
1.029968
1.034737
0.981688
1.048446
1.234412
1.389980
1.266599
1.248717
1.280904
1.463890
1.382828
1.498461
1.469851
1.800656
1.956820
2.120733
2.437830
9.438992
34.302473
118.474960
232.502818
477.556586
717.286468
1005.845666
1015.589833
1015.589833
1015.589833
1015.589833
943.219662
626.488924
409.721732
205.582976
111.699700
43.861866
25.127530
23.966432
32.575727
48.864484
64.444542
90.372562
110.444427
130.592585
138.637424
135.235786
126.520991
106.711984
89.639425
65.169930
48.554540
31.517744
23.786426
17.022491
14.589429
13.183951
11.506677
12.079477
11.775494
12.466908
11.831522
10.860562
10.895729
10.643601
9.847879
9.660721
9.146929
8.584857
8.366704
7.865429
7.609725
7.050633
6.943941
6.538630
6.520748
6.060600
5.816817
5.884767
5.846620
5.337000
5.134940
4.977584
5.112886
##ZVALUE=305
0.852942
0.784993
0.782609
0.945926
0.827909
0.842810
0.805855
0.824928
0.767708
0.828505
0.972748
0.876784
0.954866
1.003742
0.910759
0.912547
0.811815
0.948906
0.960827
0.950694
1.054406
0.990629
1.092553
1.214743
1.209974
1.249909
1.237988
1.456738
1.511574
1.471639
1.671910
1.728535
1.959801
2.502799
4.035830
22.633672
66.957474
194.886923
348.055959
636.050701
885.061622
1015.560627
1015.560627
1015.560627
1015.560627
983.623862
771.805644
484.687686
298.649669
134.942532
66.260695
24.726987
16.265512
19.392967
27.032495
43.047667
59.351921
82.304478
100.807548
118.430853
126.044750
125.194788
115.054846
96.572638
78.840852
55.544972
41.558743
26.524663
18.803477
11.941791
10.214448
9.362698
8.388758
8.180737
8.130670
7.544756
7.139444
7.489920
7.090569
6.920695
6.552935
6.164908
6.062984
6.010532
5.640984
5.765557
5.413890
5.062819
4.662871
5.011559
4.725456
4.723668
5.044937
4.696846
4.574656
4.454851
##ZVALUE=310
0.801682
0.779629
0.860691
0.858903
0.972748
0.886917
0.865459
0.738502
0.782609
0.773668
0.871420
0.866652
0.846982
0.974536
0.973940
0.938773
0.820756
0.914931
1.017451
1.060963
1.080632
1.121759
1.044869
1.123548
1.070499
1.145601
1.017451
1.148582
1.282692
1.225471
1.313686
1.558661
1.573563
1.766682
1.975894
1.943707
2.378821
9.353757
33.857822
120.005608
239.126682
489.567518
734.856725
1015.589833
1015.589833
1015.589833
1015.589833
1015.589833
932.596922
615.808964
411.568880
202.294588
106.191635
37.228465
16.853809
12.429953
15.222430
23.869872
33.674836
53.099990
68.594813
92.389584
105.093718
114.640594
116.647482
108.930469
96.080899
74.356794
56.478977
37.526488
25.869608
15.688539
11.420846
7.906556
6.804466
6.082654
5.856752
5.392432
5.332828
4.974604
5.082488
5.242825
4.870892
4.956722
4.686713
4.611611
4.506707
4.595518
4.473925
4.398823
4.425645
4.062653
4.177690
4.180670
4.250407
3.883839
##ZVALUE=315
0.817776
0.757575
0.686646
0.742674
0.885725
0.758767
0.839829
0.908971
0.925660
0.720620
0.780821
0.751615
0.525713
0.700951
0.769496
0.789762
0.910759
0.836849
0.807643
0.824928
1.028776
0.925660
1.065731
1.128912
1.107454
1.054406
0.955462
1.063943
1.163483
1.236796
1.227856
1.143813
1.386404
1.501441
1.668930
1.688600
1.804829
2.095699
2.273917
4.371405
16.551614
68.485737
159.747601
369.175673
592.741966
922.570825
1015.589833
1015.589833
1015.589833
1015.589833
1015.589833
757.942796
526.416898
279.291868
149.274468
54.391623
22.665858
10.816455
10.307431
13.958812
19.164681
32.678843
45.578480
65.709949
80.906749
99.935532
108.328462
109.526515
102.935433
87.425709
71.724653
52.132607
36.915541
22.339821
15.002489
9.218454
6.727576
5.405545
4.893541
4.309416
4.328489
4.012585
3.922582
3.763437
3.812909
3.997684
3.930926
3.888607
3.877878
3.841519
3.905892
3.820658
3.782511
3.697872
3.542900
3.612638
##ZVALUE=320
0.781417
0.677705
0.841618
0.757575
0.784993
0.853539
0.694990
0.662804
0.717640
0.661612
0.830889
0.733733
0.889897
0.959635
0.865459
0.735521
0.915527
0.801682
0.744462
0.884533
0.966787
0.889897
0.887513
0.951886
0.957847
0.912547
0.807643
1.010895
1.002550
1.135468
1.068711
1.116991
1.213551
1.357794
1.229644
1.447797
1.493692
1.695752
1.723766
1.840591
2.162457
2.597570
6.852746
37.612915
96.457005
255.391002
429.150462
719.700456
960.225463
1015.589833
1015.589833
1015.589833
1015.589833
872.826576
631.417632
348.971486
198.327899
83.799958
36.982894
12.444854
8.860826
9.509921
11.942983
17.867684
26.553869
43.476820
57.783723
76.637864
90.692639
99.766850
101.847649
94.930530
84.678531
64.596534
49.650669
32.347441
21.590590
12.711883
8.436441
5.234480
4.340410
3.711581
3.478527
3.516674
3.110766
3.204942
3.304482
3.301501
3.052950
3.075600
3.051758
2.921820
2.939701
3.121495
2.879500
3.008842
##ZVALUE=325
0.569820
0.810623
0.797510
0.710487
0.706911
0.710487
0.838637
0.657439
0.816584
0.627637
0.730753
0.653863
0.859499
0.793934
0.786781
0.791550
0.836849
0.831485
0.757575
0.795722
0.780821
0.889897
0.890493
0.778437
1.071692
1.081824
0.998974
0.944734
0.926852
1.260638
1.088977
1.088977
1.132488
1.086593
1.104474
1.248717
1.377463
1.526475
1.409650
1.409650
1.623631
1.754761
1.880527
2.233982
3.851652
22.722483
62.193871
169.740915
312.741995
602.711439
843.995810
1015.589833
1015.589833
1015.589833
1015.589833
968.326926
724.505782
437.374711
264.361501
113.391876
52.821636
17.107725
9.018779
7.929802
8.339882
11.278987
16.059875
26.461482
38.341880
57.734847
70.583820
85.781813
94.245672
95.050931
89.329481
74.362755
61.082840
42.892694
30.849576
18.216968
11.738539
6.705523
5.140901
3.768802
3.297925
2.989769
2.828836
2.885461
2.745986
2.572536
2.706647
2.486706
2.543926
2.708435
2.679825
2.446771
##ZVALUE=330
0.769496
0.644922
0.679493
0.790954
0.807643
0.703931
0.675917
0.665784
0.691414
0.793934
0.646710
0.857711
0.810623
0.800490
0.812411
0.652671
0.735521
0.602603
0.786781
0.822544
0.905991
0.775456
0.768900
0.849962
0.860691
0.894666
0.917912
0.765920
1.032948
1.014471
1.016855
1.007915
1.067519
1.042485
1.200438
1.165867
1.081824
1.124740
1.197457
1.340508
1.251698
1.516938
1.463890
1.691580
1.924634
2.025962
2.519488
10.086894
32.892823
111.490488
218.122602
447.294712
669.281483
980.958939
1015.585661
1015.585661
1015.585661
1015.585661
837.979913
530.641675
337.268710
153.770447
77.634454
26.529431
11.402965
7.134676
6.436706
7.890463
9.797812
16.288757
23.503900
37.281513
49.925447
68.668723
79.950690
88.264942
89.496970
81.373453
71.012974
55.485964
41.826963
27.012825
18.648505
10.920763
7.548928
4.621744
3.598928
2.846718
2.684593
2.537966
2.613664
2.517700
2.430677
2.457500
2.534986
2.458692
##ZVALUE=335
0.683665
0.698566
0.608563
0.681877
0.676513
0.769496
0.509620
0.668764
0.708699
0.812411
0.681877
0.666976
0.880957
0.830889
0.641942
0.747442
0.745654
0.602603
0.658631
0.776649
0.858903
0.722408
0.892878
0.950694
0.846982
0.879765
0.969768
0.874996
0.892878
1.024604
0.897646
1.066923
0.927448
0.964999
0.997782
0.989437
1.043677
0.920892
1.227856
1.044869
1.313686
1.335740
1.304746
1.426935
1.370907
1.644492
1.822710
1.731515
1.998544
4.443526
16.429424
67.025423
145.292878
330.356956
537.578464
856.226683
1015.587449
1015.587449
1015.587449
1015.587449
959.317684
649.572611
430.820584
219.326615
111.602545
36.842823
14.891624
7.220507
6.325841
6.429553
7.280707
9.376407
13.655424
23.876429
33.380985
49.740672
62.130690
75.127482
81.084967
82.141757
77.154636
64.135790
53.078532
39.705634
29.326677
18.094778
12.253523
7.335544
5.017519
3.559589
2.965927
2.517700
2.377629
2.377629
2.370477
2.408624
##ZVALUE=340
0.712872
0.604987
0.619888
0.559688
0.605583
0.582933
0.553727
0.648499
0.745654
0.617504
0.625849
0.573993
0.580549
0.676513
0.569820
0.595450
0.575781
0.838637
0.776649
0.718832
0.677705
0.763535
0.625849
0.703931
0.780821
0.663996
0.776649
0.703931
0.791550
0.709891
0.771880
0.731945
0.816584
0.896454
0.946522
0.899434
0.891685
1.048446
1.069903
0.935793
0.917912
1.180768
1.143813
1.123548
1.109838
1.272559
1.429915
1.445413
1.659989
1.696944
1.708865
2.631545
7.850528
40.160418
99.300742
250.082016
426.324010
713.698864
938.718915
1015.542746
1015.542746
1015.542746
1014.609933
766.981840
535.680652
274.096727
148.440599
57.526827
22.444725
7.905960
6.530881
5.878806
6.205440
6.890893
8.748770
14.180541
21.144748
32.838583
44.078827
60.357451
70.148706
76.522827
76.604486
72.324872
64.712763
50.331950
39.777756
26.428699
18.968582
11.583567
7.463694
4.540682
3.478527
2.887845
2.371669
2.377629
##ZVALUE=345
0.613928
0.745654
0.724792
0.648499
0.618696
0.708699
0.707507
0.533462
0.858903
0.621676
0.672936
0.654459
0.502467
0.751615
0.865459
0.633597
0.415444
0.900626
0.849962
0.744462
0.599623
0.547767
0.787973
0.834465
0.755787
0.739694
0.774860
0.730753
0.806451
0.804663
0.915527
0.833869
0.716448
0.893474
0.884533
0.967979
1.018643
1.099706
1.165867
1.020432
1.028776
0.973940
1.096725
1.177788
1.292825
1.306534
1.342893
1.343489
1.517534
1.358986
1.337528
1.685619
1.831651
2.136827
3.743768
22.249818
61.601996
170.210600
305.240750
564.633608
785.161853
1015.589833
1015.589833
1015.589833
1015.589833
993.188620
766.367912
449.197888
246.351957
91.837645
38.320422
11.795759
7.381439
6.275773
5.820990
5.906820
5.871654
8.185506
11.580586
19.827485
28.893948
42.768717
52.055717
63.250661
68.339705
71.090460
68.458915
59.928894
50.804615
37.640929
28.110743
17.984509
12.139678
7.220507
4.836917
3.322959
##ZVALUE=350
0.516772
0.656843
0.708699
0.611544
0.680685
0.670552
0.534654
0.609756
0.765920
0.606775
0.588894
0.757575
0.754595
0.794530
0.656843
0.713468
0.667572
0.543594
0.696778
0.726581
0.713468
0.831485
0.692606
0.835657
0.726581
0.827909
0.832677
0.776649
0.846982
0.553727
0.692606
0.787973
0.733733
0.627637
0.957847
0.863671
0.855923
0.641942
0.898838
0.934601
0.863671
1.000762
0.958443
0.934601
0.998974
1.093745
1.272559
1.326799
1.123548
1.148582
1.380444
1.188517
1.422763
1.471639
1.653433
1.745820
2.328753
10.939837
34.847856
112.306476
216.821432
440.930724
643.003583
908.727646
1015.589833
1015.589833
1015.589833
965.801477
747.842789
445.972681
274.447799
118.913651
52.916408
14.788508
7.501841
5.603433
5.001426
4.811883
4.762411
5.478859
7.093549
11.685491
16.956925
25.915504
34.784675
47.045946
54.719448
62.205791
64.781904
62.156916
57.356954
46.028495
37.163496
26.611686
19.450784
12.195706
##ZVALUE=355
0.789762
0.787973
0.674725
0.791550
0.878572
0.582933
0.724792
0.758767
0.696778
0.702739
0.758767
0.822544
0.924468
0.817776
0.658631
0.751615
0.684857
0.699759
0.777841
0.891685
0.807643
0.740886
0.736713
0.817776
0.792742
1.017451
0.775456
0.853539
0.947714
0.923872
0.937581
0.769496
0.908971
0.879765
0.977516
0.986457
0.862479
0.858903
0.771880
0.948906
1.020432
0.955462
1.091957
1.091957
1.173615
1.126528
1.242757
1.240969
1.132488
1.351833
1.224875
1.212955
1.308918
1.239777
1.547933
1.490712
1.753569
1.817942
2.087951
4.028678
22.064447
60.483813
164.840817
295.652747
541.767478
747.351646
984.234810
1015.675664
1015.675664
983.217955
734.537840
537.032485
303.206444
165.293813
60.855746
25.122762
8.582473
5.659461
5.125999
4.858971
4.569888
4.234910
5.053878
6.237626
9.573698
13.939738
22.156835
29.554963
41.531920
48.849583
55.649877
58.240891
56.815743
52.519441
42.805672
35.688877
##ZVALUE=360
0.598431
0.607967
0.627637
0.634789
0.583529
0.524521
0.623465
0.683665
0.683665
0.636578
0.650883
0.741482
0.622869
0.616908
0.684857
0.599623
0.698566
0.760555
0.747442
0.653863
0.686646
0.669956
0.703931
0.662804
0.733733
0.617504
0.782609
0.752807
0.576973
0.703931
0.835657
0.750422
0.829697
0.839829
0.807643
0.856519
0.741482
0.809431
0.734925
0.870824
0.883937
0.818968
0.909567
0.763535
0.961423
0.943542
0.902414
0.863671
0.922680
1.030564
1.113415
1.020432
1.094937
1.223683
1.258850
1.266599
1.494884
1.682639
1.725554
1.644492
1.883507
2.828836
7.958412
37.073493
92.585683
232.182741
387.749672
632.382631
831.381679
1013.578773
1015.569568
996.123552
845.677853
576.976538
384.147763
186.743736
95.682740
34.313798
13.085604
5.523562
4.871488
4.484653
4.215837
4.050732
3.840923
4.118681
5.258918
7.989407
11.229515
17.575622
24.529696
34.848452
41.643977
49.921870
52.619576
52.706599
##ZVALUE=365
0.603795
0.625849
0.646710
0.540614
0.653863
0.653863
0.621676
0.595450
0.610948
0.694990
0.601411
0.596642
0.763535
0.773668
0.703931
0.532866
0.660419
0.575781
0.736713
0.837445
0.688434
0.697970
0.738502
0.660419
0.686646
0.679493
0.644922
0.709891
0.733733
0.721812
0.850558
0.925660
0.823736
0.903606
0.888705
0.949502
0.801682
0.847578
0.767708
0.757575
0.888705
0.759959
0.828505
0.860691
0.959635
0.839829
0.944734
1.073480
1.031756
0.930429
0.930429
0.936985
1.258850
1.045465
1.138449
1.280904
1.122952
1.280904
1.227856
1.411438
1.512766
1.674891
1.580715
2.040863
3.689528
20.215511
57.099462
152.876973
281.226635
522.567630
713.064671
927.155614
1014.454961
1004.788876
895.754695
660.995841
469.771624
259.387493
141.027570
49.856901
18.635988
6.475449
4.846454
4.493594
4.182458
3.856421
3.626943
3.527999
3.523827
4.173517
5.779862
9.632707
13.949871
22.125840
28.678775
37.223697
##ZVALUE=370
0.707507
0.746846
0.650883
0.682473
0.702739
0.634789
0.606775
0.618696
0.707507
0.631809
0.534654
0.663996
0.551939
0.738502
0.775456
0.660419
0.810623
0.643730
0.640750
0.704527
0.663996
0.637770
0.684857
0.761747
0.770688
0.680685
0.867844
0.787973
0.688434
0.809431
0.768900
0.760555
0.860691
0.699759
0.777841
0.849962
0.847578
0.830889
0.839829
0.845790
0.812411
0.886917
0.752807
0.765920
0.812411
0.827909
0.876784
0.936985
0.999570
0.910759
0.829697
0.959635
1.111627
0.914931
1.165867
0.981688
1.058578
1.102686
1.210570
1.192689
1.241565
1.379848
1.334548
1.714826
1.599789
1.906753
2.462864
11.483431
37.307739
115.683675
221.671462
429.116488
627.119541
880.777836
1002.943516
1015.589833
953.191519
751.821995
557.047725
313.938856
179.535747
69.143772
30.098557
9.050965
5.031824
4.362464
4.122853
3.936887
3.649592
3.149509
3.138781
3.294945
3.768802
5.295873
7.715821
12.354851
##ZVALUE=375
0.652671
0.574589
0.516772
0.540614
0.797510
0.529885
0.603795
0.722408
0.725985
0.641942
0.596642
0.553727
0.620484
0.527501
0.578761
0.669956
0.618696
0.654459
0.755787
0.624657
0.630617
0.595450
0.547767
0.630617
0.668764
0.695586
0.827909
0.610948
0.640750
0.840425
0.820756
0.681877
0.808835
0.748634
0.854731
0.713468
0.708699
0.673532
0.711679
0.807643
0.745654
0.813603
0.900626
0.803471
0.809431
0.823736
0.853539
0.718832
0.662804
0.838637
0.884533
0.874996
0.973940
0.868440
1.062751
0.948906
1.071692
0.818968
0.954866
0.998974
1.022816
1.093745
1.190901
1.385808
1.208782
1.299977
1.368523
1.801848
1.930594
5.195737
18.073916
66.558719
143.982768
324.029922
503.726006
760.107636
911.943913
1010.493636
984.913707
818.880796
634.082556
386.675000
241.944790
118.971467
57.906508
18.028617
7.265806
4.436970
4.008412
3.679991
3.439784
3.066659
2.913475
2.698898
2.789497
3.354549
##ZVALUE=380
0.568628
0.672936
0.591874
0.655651
0.511408
0.524521
0.678897
0.566840
0.630617
0.623465
0.592470
0.677705
0.517964
0.601411
0.611544
0.562668
0.717640
0.595450
0.637770
0.633597
0.584722
0.619888
0.682473
0.672936
0.646710
0.547767
0.612736
0.684857
0.694990
0.697970
0.734925
0.880957
0.803471
0.699759
0.581741
0.741482
0.806451
0.710487
0.867844
0.667572
0.835657
0.806451
0.886917
0.857711
0.809431
0.991821
0.899434
0.860691
0.844598
1.059771
0.907779
0.787973
0.720620
0.997782
0.916719
0.774860
0.941753
0.871420
0.952482
0.897646
1.025796
0.923872
1.197457
1.055598
1.139641
1.104474
1.317859
1.375675
1.266599
1.787543
2.028942
3.163815
10.318756
49.013495
114.274621
266.893506
432.412624
670.242906
851.903558
1005.571485
1015.589833
898.259878
734.131932
492.357016
328.000784
161.595941
82.382560
28.079748
11.325479
4.894733
4.132986
3.539920
3.433824
3.168583
3.196597
2.741814
##ZVALUE=385
0.523925
0.439882
0.518560
0.509620
0.594854
0.602603
0.658631
0.527501
0.454783
0.598431
0.752807
0.662804
0.566840
0.543594
0.664592
0.600815
0.415444
0.511408
0.615716
0.637770
0.581741
0.779629
0.592470
0.571609
0.718832
0.630617
0.771880
0.764728
0.829697
0.637770
0.795722
0.820756
0.845790
0.967979
0.976920
0.881553
1.004934
0.899434
0.864863
0.955462
0.872612
0.970960
0.877976
0.852942
1.035929
0.848770
0.967979
0.903606
0.965595
0.903606
0.712872
0.762939
0.986457
0.899434
0.853539
1.047850
1.085997
0.948906
1.009703
1.007915
0.980496
1.058578
0.960827
0.981688
0.947714
1.275539
1.036525
1.302958
1.317859
1.502633
1.460910
1.637936
1.805425
1.923442
4.681945
26.703477
70.316792
179.579854
320.384502
566.765666
761.712790
942.979455
990.146995
942.808986
826.528668
611.141920
434.531569
239.163637
134.939551
55.094957
22.526979
6.310940
4.150867
3.500581
3.457665
3.308654
##ZVALUE=390
0.578761
0.637770
0.573993
0.627637
0.685453
0.470877
0.518560
0.712872
0.668764
0.631809
0.565648
0.811815
0.536442
0.542998
0.621676
0.555515
0.605583
0.742674
0.520945
0.648499
0.572801
0.694990
0.522733
0.635982
0.664592
0.612736
0.748634
0.770688
0.804663
0.805855
0.799894
0.849962
0.930429
0.911951
0.806451
0.933409
0.805855
0.927448
0.909567
0.920892
0.966787
0.980496
1.002550
0.895858
0.999570
1.019835
0.975728
0.919700
0.871420
0.967979
1.123548
1.048446
0.932813
1.030564
1.019835
0.812411
0.852942
0.935793
0.907779
1.062751
1.052618
1.078844
1.083612
1.140833
1.041889
1.075864
1.297593
1.190901
1.250505
1.295805
1.308918
1.781583
1.528859
1.543760
1.751781
1.788735
2.821684
14.058948
44.025779
136.504769
260.304809
490.916967
670.996904
868.738890
976.577997
1005.035639
929.255486
735.859871
562.125444
342.192650
201.084614
81.304908
35.558939
9.551644
4.511476
3.763437
##ZVALUE=395
0.595450
0.626445
0.645518
0.499487
0.514984
0.590682
0.618696
0.700951
0.635982
0.537634
0.546575
0.549555
0.565648
0.489950
0.542998
0.643730
0.707507
0.557899
0.577569
0.717640
0.687838
0.564456
0.590682
0.692606
0.644922
0.700951
0.814795
0.758767
0.777841
0.789762
0.849962
0.810623
0.783801
0.798702
0.902414
0.871420
0.922680
0.888705
1.161695
1.014471
1.025796
1.093745
0.909567
1.115799
0.894666
0.878572
0.937581
1.075864
0.933409
0.962615
0.892878
1.048446
1.011491
1.112819
1.070499
1.077652
0.957847
0.977516
1.046658
1.032948
0.890493
1.004934
1.035929
1.029968
1.054406
1.143813
1.112819
1.107454
1.358986
1.325607
1.383424
1.530647
1.428723
1.418591
1.360774
1.464486
1.493692
1.470447
1.968741
6.108880
34.503937
84.201694
196.835399
336.888433
568.782687
757.525563
954.955816
1015.589833
992.129445
871.870518
644.720793
453.880429
240.895748
128.845572
47.046542
19.824505
##ZVALUE=400
0.726581
0.704527
0.582933
0.648499
0.719428
0.574589
0.516772
0.683665
0.645518
0.492930
0.325441
0.354648
0.479817
0.522733
0.550747
0.583529
0.659823
0.666976
0.638962
0.688434
0.689626
0.589490
0.551939
0.585914
0.735521
0.683665
0.787973
0.700951
0.699759
0.686646
0.715852
0.720620
0.838637
0.793934
0.813603
0.950694
0.979900
1.021624
1.047850
1.169443
0.938773
0.901818
1.116991
1.085997
0.984669
0.910759
0.917912
1.034737
1.029968
1.115799
0.931621
1.086593
1.199841
0.892878
1.050830
1.019835
1.033545
0.923872
1.052618
1.016855
0.986457
0.986457
0.940561
1.071692
1.024604
1.209974
1.100898
1.391768
1.276731
1.347661
1.353621
1.435876
1.397729
1.505613
1.418591
1.355410
1.435876
1.537800
1.589656
1.489520
1.742840
4.357696
16.030669
62.461495
133.071542
292.587876
458.609462
685.039759
857.954621
1008.670926
1015.589833
901.213884
752.915740
523.951650
352.217555
179.319978
##END
