##TITLE=D3-5
##FORMAT=SPECTACLE-ASCII V-1.2
##DATA TYPE=ULTRAVIOLET SPECTRUM
##SECOND TYPE=ULTRAVIOLET SPECTRUM
##DATE=01/24/18
##TIME=13:45:22
##SPECTROMETER/DATA SYSTEM=SPECTACLE
##XUNITS=NM EM
##YUNITS=ENERGY
##YFACTOR=1
##FIRSTX=220
##LASTX=410
##NPOINTS=96
##3DDATA=Equidistant
##ZUNITS=NM EX
##FIRSTZ=210
##LASTZ=400
##ZPOINTS=39
##XYDATA=(Y..Y)
##ZVALUE=210
16.588569
17.042756
13.724566
11.489987
12.223721
12.263656
11.556745
8.318424
6.874800
5.862713
4.615784
4.253983
3.595948
3.017783
2.712607
2.883673
2.735853
3.115535
3.395677
3.512502
2.935529
3.814697
3.768802
4.583597
3.891587
4.519820
5.412698
6.331801
6.314516
7.153749
6.983876
8.040667
8.457899
9.556413
8.593798
8.760691
9.042621
9.087920
8.987784
9.417534
10.344982
9.295940
9.090900
9.609461
10.623932
10.140538
10.836720
10.727644
10.691881
10.983944
11.203885
11.917949
11.344552
12.186766
10.988712
10.940433
12.620687
10.685921
10.660887
12.285709
13.092756
11.868477
11.323690
10.911822
11.925697
11.102557
11.297464
11.668801
11.423826
12.846589
13.370514
13.634562
14.693737
15.148520
15.478730
16.382933
17.004609
16.703606
16.099811
14.694929
13.739467
11.724830
10.612607
10.117888
10.139942
7.138848
6.777644
6.664991
6.503463
8.241534
9.442568
12.783408
15.917420
20.344853
25.275946
30.487776
##ZVALUE=215
43.222904
41.725636
35.690665
29.165745
22.681952
20.867586
17.797947
16.893744
17.312765
15.161633
11.832714
11.246800
7.413626
6.063581
5.511642
3.242493
3.734827
3.427863
3.451705
3.395677
3.935695
3.695488
3.955960
4.203916
4.548430
4.650950
6.056428
6.807446
8.040667
9.404421
8.237958
10.032654
9.325743
9.943843
11.652708
11.237860
11.540651
10.619760
11.837482
11.969805
13.462901
11.879802
12.929440
13.617873
13.397932
13.584495
14.819503
14.345646
13.973713
14.788508
15.340447
16.106963
17.132759
17.368793
16.839504
17.381907
17.090440
17.112494
17.841458
17.246604
17.507672
16.752481
15.964508
15.509725
15.253425
14.939904
14.245510
13.932586
15.563965
15.509725
16.120672
16.036630
16.149879
17.432570
16.024709
17.745495
17.011762
17.697811
14.723539
15.247464
13.612509
12.737513
10.850430
9.786487
10.000467
7.884502
7.120967
6.832480
6.804466
5.825758
7.211566
5.992651
6.593466
7.454753
9.097457
12.168884
##ZVALUE=220
92.520714
90.501904
89.075565
79.192519
66.253543
50.482750
43.118000
32.611489
28.712749
25.811791
25.052428
25.601983
23.173690
19.106865
15.121698
11.411905
7.505417
5.830526
4.483461
4.013777
4.170537
4.049540
4.339814
4.059672
5.144477
5.551577
5.943775
7.071495
8.122921
8.307695
9.896755
10.290742
11.576414
12.526512
12.471676
13.171434
13.319850
13.509989
15.073419
15.612841
14.769435
16.136765
16.267896
17.004609
15.320778
17.182827
19.837618
18.991828
19.223690
20.909905
22.060871
24.299622
23.996830
27.234554
27.282834
26.276708
27.136803
27.365685
26.939511
26.235580
25.336742
24.994612
25.363564
22.559762
21.460652
21.162629
21.118522
21.873713
22.196770
19.011497
20.432472
21.702647
20.741820
19.974709
20.732880
20.779967
19.226670
18.619895
19.039512
16.633868
15.641451
14.241934
14.020801
11.888742
10.096431
10.559559
8.658767
7.178783
7.468462
8.074641
7.126927
7.464886
6.539822
7.370710
7.268786
7.563829
##ZVALUE=225
109.479427
112.317801
131.475925
155.574679
156.027675
146.346688
132.467747
95.855594
73.608756
54.405928
45.355558
40.616989
42.439699
39.401650
40.098429
34.073591
28.546453
23.433566
16.758442
10.727644
7.630587
5.159974
4.764795
4.764795
5.038977
5.816817
5.371571
6.182790
7.010698
8.635521
8.499622
9.594560
11.914968
10.743737
11.096597
13.366938
13.218522
15.429854
14.981627
15.885830
16.567707
17.868876
19.892454
20.687580
21.926761
23.407936
24.627447
25.755763
27.529597
28.270483
31.239986
32.686591
34.907460
34.800768
35.843849
34.892559
37.830472
35.715699
35.739541
34.588575
32.458901
33.696890
32.329559
29.802918
30.608773
31.014681
28.578639
28.302670
30.163527
26.475787
25.535822
24.961829
26.152730
25.352836
25.092959
21.301508
21.799803
21.247864
20.886660
19.884706
16.707778
16.957521
15.671849
14.251471
11.812449
11.985898
11.758804
9.693503
8.665919
8.497834
8.613467
9.301901
7.820725
8.282661
7.454753
8.346438
##ZVALUE=230
69.421530
76.806545
115.702748
177.542567
221.099854
259.886980
277.365446
257.643461
226.683617
191.049576
128.017664
94.708800
65.916777
58.723688
57.972670
63.393712
62.409639
61.399937
51.126480
41.348934
30.993819
20.340681
13.352633
8.689761
6.034970
6.317496
5.606413
6.640553
7.082820
6.933808
7.652640
8.501410
7.954836
10.081530
11.029840
11.332631
11.599660
15.755892
15.293956
15.924573
17.275810
20.370483
19.787550
21.725893
23.982525
25.819540
25.693774
28.394461
29.425621
30.216575
34.318566
36.316514
36.352873
37.366748
38.732886
40.280819
38.220882
40.742755
41.118860
40.266514
40.315986
39.288998
36.003590
36.300421
35.751462
33.860803
34.534931
30.329823
31.333566
27.908683
28.801560
30.178428
26.733875
27.970672
28.304458
26.683807
24.206638
22.476912
23.391843
21.210909
18.909574
17.866492
17.650723
15.137792
15.051961
13.659000
11.458993
12.621880
11.882782
10.796785
10.520816
10.130405
8.683801
9.835958
10.274649
9.897947
##ZVALUE=235
18.004775
22.136569
42.777658
98.162889
161.602497
246.706605
320.125818
406.758785
439.484715
425.385833
380.346775
303.390622
199.569464
149.558783
103.078485
86.298585
83.922744
85.018873
94.914436
91.718435
83.308816
74.339509
54.913759
40.470958
25.452971
17.311573
11.363626
8.285642
6.735921
7.215738
7.880926
8.199811
8.055568
9.210706
9.501576
10.414720
11.849999
14.320612
13.992786
14.351606
16.717911
18.988848
19.417405
20.528436
21.069646
23.662448
26.380420
25.679469
27.658939
28.923750
31.050444
31.409860
33.974648
33.501983
34.235716
35.608411
34.655929
35.139918
35.082698
35.111904
35.029650
35.051703
32.930970
32.472610
32.135844
29.424429
29.808879
29.212832
30.014515
26.465654
27.724504
29.552579
28.452873
26.226640
27.008653
26.455522
24.427772
23.385882
23.749471
21.384954
20.483732
17.520785
17.068982
16.036630
16.496778
14.436841
14.741421
11.791587
11.686683
12.272596
11.531711
11.490583
11.827946
9.986758
9.984970
9.156466
##ZVALUE=240
2.988577
2.383590
6.868839
19.845963
53.571463
101.171732
205.108523
301.817656
448.579788
539.225936
604.651570
611.209869
568.103790
445.458889
347.610712
227.480531
166.958570
116.913915
105.607510
108.103752
118.535757
128.669739
120.498538
111.430883
89.888573
72.019696
49.966574
36.351681
22.940636
16.772747
13.288856
9.679794
9.755492
9.467602
10.045767
10.719895
11.596680
11.825562
13.893843
14.736652
14.337897
14.720559
16.574860
17.283559
18.438697
18.874407
20.063519
20.943880
21.613836
23.306608
25.833845
23.496747
26.545525
26.541948
27.027726
26.952624
29.308796
26.951432
25.689602
27.414560
27.083755
26.014447
27.764440
26.032925
23.908615
24.663806
25.051832
24.574995
26.469827
24.506450
24.237633
25.527477
26.482940
24.089813
24.196506
25.437474
23.283958
21.456480
21.530986
19.281507
17.412901
16.558766
16.834736
14.459491
13.833642
13.235807
13.257861
11.948943
12.639761
10.686517
10.915995
10.783672
11.924505
10.942817
10.920763
10.932684
##ZVALUE=245
2.100468
1.904964
2.002716
2.468824
4.185438
14.672875
37.877560
99.159479
173.029900
285.498500
451.527834
579.116940
702.531934
716.621876
674.106479
596.015453
445.289612
330.211520
232.995749
142.463446
108.293891
106.003881
117.968917
134.116411
140.470862
135.316849
120.213628
100.199580
82.334876
55.450797
40.620565
24.918914
17.823577
12.631416
10.963678
10.498762
9.487867
11.892915
11.642575
12.196898
11.825562
14.417768
14.951825
14.753938
15.573502
16.072989
16.627908
17.190576
16.995668
18.658638
18.846989
19.546747
20.839572
21.174550
20.771623
20.399690
21.673441
21.458864
22.823811
21.628737
20.694733
20.447969
20.172000
20.036697
19.760728
19.921660
19.982457
18.793941
18.692613
21.127462
20.253658
19.645691
21.271706
20.161867
18.880963
19.593835
18.634796
18.154979
16.187429
15.634894
15.114546
14.293790
12.953877
12.101531
12.118816
10.938644
9.785891
10.616779
10.335445
9.496808
8.922815
8.651614
9.376407
8.493662
8.438826
8.520484
##ZVALUE=250
1.591444
1.913905
1.631975
1.523495
1.919866
1.886487
2.819896
8.010864
31.315684
70.740581
177.382827
287.044644
424.136519
613.501668
729.746819
809.601545
813.576579
721.076727
607.477427
416.165590
291.913748
191.246867
117.059946
101.974607
109.083652
127.710700
141.913891
149.108768
144.942999
131.617785
114.456415
88.212490
64.129829
41.835904
28.372407
17.604828
14.761686
11.877418
12.417436
11.833906
12.481809
13.968945
14.886856
14.539957
14.739633
16.357899
16.215444
18.208623
18.217564
18.146634
19.788742
19.541979
21.513700
21.090508
21.358728
21.418929
21.835566
21.080971
21.762848
21.024942
21.093488
21.383762
20.117760
19.224882
19.288659
19.344687
18.516779
17.585754
18.719435
17.487407
18.964410
18.063784
17.629862
18.400550
18.107891
17.541647
16.111732
15.281439
15.612841
13.982654
12.004972
12.812614
10.866523
10.727644
11.239648
8.976460
9.660721
9.326935
9.139776
8.659959
9.732842
7.755756
7.610917
7.671714
7.210970
7.295609
##ZVALUE=255
1.532435
1.472831
1.788735
1.499653
1.596808
1.832843
1.879930
2.249479
2.081990
3.635883
17.327666
46.434999
132.115483
232.200623
410.759449
573.201776
787.273645
896.898508
932.492614
881.499648
761.798620
546.787977
392.934680
222.861767
142.749548
98.204613
92.842579
113.419890
131.941438
148.585439
157.226920
148.194432
135.248899
111.607909
91.748834
61.767697
44.890642
27.230978
20.285845
16.374588
13.940930
14.508963
15.540719
17.743707
17.981529
17.642975
19.022822
19.764900
20.704865
21.670461
23.321509
22.798777
23.909807
25.156736
25.220513
25.021434
24.829507
25.097728
25.049448
24.476647
24.498701
22.980571
23.167729
22.031665
21.983981
21.761656
21.535754
20.781755
19.480586
18.391609
19.549727
18.830895
18.344522
17.862916
17.159581
16.607642
15.931726
16.489625
14.448762
13.627410
12.435913
10.733604
10.770559
9.494424
9.912848
9.731650
8.958578
8.428693
8.232594
7.840991
8.055568
6.471872
6.919503
6.821752
6.964803
6.409883
##ZVALUE=260
1.486540
1.458526
1.429915
1.318455
1.386404
1.775622
1.677871
1.715422
1.985431
1.853704
1.907945
3.071427
8.414984
33.212900
77.623725
195.643902
322.702527
550.710559
736.822486
966.854692
1015.589833
1015.589833
930.385590
751.304626
495.272875
337.790847
194.438696
123.932958
86.775422
88.738799
110.262632
131.010413
151.335597
158.393979
159.243941
140.794516
122.226477
93.619823
72.659850
47.645569
35.602450
24.603605
21.047592
20.153522
19.900799
22.566915
24.035573
24.003983
25.673509
27.369857
28.903484
28.837919
28.965473
29.433966
30.683875
30.521750
31.357408
31.407475
31.557679
30.237436
29.555559
28.954744
27.957559
28.700829
28.077960
26.394725
24.303794
24.095774
24.027824
23.783445
21.772981
22.532940
21.644831
20.076632
19.305944
19.478798
18.439889
16.545653
15.433431
14.478564
12.544990
12.358427
11.775494
11.126995
10.360479
9.872913
9.706616
8.709431
8.331537
8.006692
7.667542
7.979870
7.110834
7.327795
6.614923
6.640553
##ZVALUE=265
1.415610
1.306534
1.371503
1.275539
1.393557
1.331568
1.697540
1.561642
1.476407
1.838803
1.778603
2.081990
1.890659
1.939535
4.758835
20.649433
51.271915
136.867762
252.946615
486.223698
702.000856
911.601782
1015.584469
1015.584469
1015.584469
901.274085
666.346550
460.394621
256.704688
156.667829
89.490414
74.473619
85.183978
117.047429
137.615800
160.351992
164.921880
159.673691
150.137544
125.696659
100.612640
71.999431
54.869652
40.789843
33.125877
28.920770
30.171871
30.401945
31.637549
34.235716
36.309958
37.168860
37.946701
38.454533
39.139986
40.820837
40.407777
39.764643
38.882494
38.266778
38.420558
37.082434
36.787987
35.300851
34.087896
32.186508
32.648444
29.521585
29.042959
27.697682
28.537512
24.884939
25.342703
24.103522
22.508502
21.895766
20.742416
18.862486
17.413497
16.527772
15.538931
13.672709
13.531446
12.633801
11.642575
11.065602
10.503531
10.135770
8.929968
8.918643
8.013844
7.944703
8.068681
7.153749
7.155538
7.166862
##ZVALUE=270
1.288652
1.322627
1.271963
1.199841
1.229644
1.321435
1.286864
1.490712
1.456738
1.234412
1.705885
1.799464
1.584888
1.612902
2.125502
1.985431
2.989769
8.059740
24.237633
85.335970
180.321932
394.464731
594.384670
886.976719
1015.589833
1015.589833
1015.589833
1015.589833
870.177746
592.910647
401.466489
206.309557
120.905638
71.387887
68.308711
94.374418
116.922855
148.590803
165.499449
175.702572
173.154473
156.599879
136.678815
107.782483
85.191727
64.408779
51.005483
44.878721
41.342974
43.533444
43.049455
44.585466
45.236945
45.503974
46.737790
47.565699
47.989488
48.317909
47.376752
48.278570
45.618415
44.881701
44.283867
41.261911
41.318536
39.037466
38.192868
35.415888
34.391880
32.343864
31.340718
30.057430
28.415918
27.126670
26.083589
24.714470
23.370981
21.642447
19.434690
18.707514
18.069744
16.686916
15.005469
14.419556
13.453960
12.419820
11.761785
11.199713
10.545850
9.614825
9.305477
9.459853
8.241534
7.834435
7.580519
7.483959
##ZVALUE=275
1.132488
1.364946
1.040697
1.047850
1.203418
1.269579
1.343489
1.269579
1.113415
1.454949
1.110435
1.559854
1.454949
1.506805
1.734495
1.690984
1.690984
2.024770
2.259612
4.290938
16.357899
47.836900
147.181749
277.865529
537.738800
742.591619
986.923575
1015.611887
1015.611887
1015.611887
1005.841494
758.880973
540.798903
290.457606
172.002912
83.332658
62.933564
71.276426
91.767907
124.909878
149.888992
172.511935
180.728436
178.276896
162.918568
140.958428
119.396448
96.963644
78.483820
64.396858
55.916905
53.421855
51.817894
52.304864
52.624941
54.118633
53.293705
53.861737
53.427815
53.285956
51.235557
50.363541
49.642920
47.796965
47.103763
43.957829
43.696761
41.282773
40.033460
35.713911
36.224723
34.121871
31.734705
30.273795
29.057860
26.786923
25.469661
24.623871
22.627711
20.739436
19.604564
18.242598
17.031431
15.681982
14.716983
13.866425
13.550520
11.736751
11.519790
10.899901
9.964705
9.370446
9.025931
8.832812
7.865429
7.766485
##ZVALUE=280
0.974536
1.129508
1.019835
1.101494
1.189709
1.177788
1.159906
1.061559
1.332760
1.287460
1.223683
1.162887
1.375675
1.439452
1.388788
1.639724
1.730919
1.677871
1.644492
1.775622
1.979470
2.495646
10.482669
35.459995
114.490986
216.247439
412.906408
616.261959
903.192759
1015.589833
1015.589833
1015.589833
1015.589833
857.778788
638.082027
368.666649
225.046873
109.335780
66.720843
56.443810
69.719553
99.033713
126.044750
153.442621
172.684789
181.840658
180.888772
166.223645
148.917437
123.861432
103.039742
83.000660
70.508718
61.644912
57.221651
55.838823
54.741502
54.448843
53.162575
53.426623
51.568747
51.200986
50.038695
49.362779
47.606826
45.533776
43.185949
41.696429
40.286779
37.961602
36.644936
34.946799
33.488870
31.061769
29.846430
28.097630
26.392937
24.471879
23.261905
20.780563
19.283891
17.825961
17.854571
15.901923
15.498996
14.082789
13.575554
12.437701
11.556745
10.596514
10.403991
9.048581
8.908510
8.420944
8.281469
7.717609
##ZVALUE=285
1.099706
1.016855
0.826716
0.968575
1.028776
1.231432
0.989437
0.927448
1.057982
1.147985
1.235604
1.241565
1.190901
1.075864
1.280904
1.375675
1.420975
1.506805
1.563430
1.414418
1.440644
2.063513
2.081990
1.930594
5.319715
17.780662
62.883496
133.318901
296.817422
482.682586
700.632930
981.768966
1015.589833
1015.589833
1015.589833
988.612771
790.463686
498.071909
318.582654
158.892870
87.128878
50.078630
51.233768
71.655512
94.801784
126.480460
149.616003
169.470906
180.411935
181.054473
169.748664
148.033500
129.376650
102.437735
84.302425
66.679716
58.997869
52.376986
51.331520
48.542619
47.636628
47.503710
45.426488
44.300556
43.357611
41.575432
40.307641
38.009882
37.900805
35.787821
34.011602
32.562613
31.133890
29.485822
27.715564
26.122928
24.746656
22.752881
21.473765
20.229816
19.352436
17.599463
16.289949
15.367866
14.893413
12.860894
12.747645
12.066960
11.179447
10.111928
9.856820
9.138584
8.850694
8.196831
8.363724
7.180572
##ZVALUE=290
1.013875
0.978708
0.883937
0.930429
0.906587
0.984669
1.039505
0.919700
0.985861
0.922680
1.125932
1.043677
1.183748
1.143813
1.233816
1.248717
1.340508
1.273751
1.316667
1.380444
1.403689
1.514554
1.685619
1.795888
1.780987
1.814961
2.426505
9.346008
29.047728
96.950531
188.521743
400.727987
608.218908
909.156799
1015.589833
1015.589833
1015.589833
1015.589833
916.092992
620.687604
418.847799
214.533806
117.764473
54.865479
40.094852
49.287677
64.283609
91.570616
113.479495
142.442584
159.581900
169.997811
170.639753
156.194568
141.219497
113.786459
94.240904
71.820617
57.964921
47.786832
41.435957
37.843585
36.526918
35.105944
33.995509
33.087730
31.683445
30.969977
29.297471
28.578639
27.689934
26.480556
25.626421
24.923682
23.328662
21.187663
21.242499
19.915700
18.880963
17.306805
16.081929
15.175939
13.645887
12.905598
12.698770
11.777878
11.041760
10.598898
9.947419
9.484887
8.874536
7.907748
8.062720
7.839799
7.196665
7.446408
##ZVALUE=295
0.833869
0.839829
0.784993
0.695586
0.728965
0.668764
0.916719
0.890493
0.729561
0.726581
0.944734
0.798702
1.058578
0.950694
0.939965
1.155734
0.954866
1.039505
1.125932
1.155734
1.174808
1.123548
1.432896
1.584888
1.317859
1.735687
1.768470
1.829863
2.035499
3.272891
11.549592
52.828789
123.986006
304.080844
495.530963
802.221894
1001.373529
1015.461683
1015.461683
1015.461683
1009.450555
749.142766
527.671576
284.349918
160.806775
64.045787
36.397576
31.369925
39.924979
59.029460
77.845454
104.106665
125.976801
146.247745
155.034661
153.579712
142.696500
121.567845
103.096962
77.283978
60.274601
42.639971
34.124851
27.761459
25.175810
22.462606
21.420717
20.864606
20.310879
19.618869
19.249916
18.587708
17.849803
16.947985
16.741753
15.617609
15.040636
14.235973
13.680458
12.567639
11.540651
11.013746
11.119843
9.572506
9.298921
8.982420
8.552670
7.995963
7.835627
7.638931
7.187724
7.169843
6.436706
6.146431
5.995631
6.081462
##ZVALUE=300
1.010895
0.977516
0.870824
0.867844
0.901818
0.917912
0.903606
0.848770
0.968575
0.981688
0.924468
1.027584
1.025796
1.043677
1.135468
0.967979
1.059771
0.932813
0.991821
1.104474
0.971556
1.047850
1.114607
1.363754
1.336932
1.494884
1.483560
1.620650
1.524687
2.090931
2.109408
2.389550
7.847548
28.088689
99.966526
199.508667
415.647030
636.710525
940.468907
1015.589833
1015.589833
1015.589833
1015.589833
908.027887
606.989861
400.358438
204.229951
112.701654
45.538545
25.059581
23.695827
31.652451
48.513412
64.538717
90.011954
109.862685
129.780769
138.134956
137.168765
128.663778
109.285712
89.691877
66.408515
49.816966
33.059716
24.587512
17.493963
14.619827
12.992620
12.679696
12.346506
12.343526
11.918545
11.209846
10.531545
10.737777
10.034442
9.815693
9.471774
8.990765
8.783937
8.313656
8.004904
7.474422
7.581711
7.398725
6.592870
6.881952
6.131530
5.965829
5.732775
5.247593
5.425811
5.371571
5.247593
5.205870
##ZVALUE=305
0.709891
0.816584
0.713468
0.679493
0.864863
0.874996
0.936985
0.737906
0.840425
0.824928
0.989437
0.813603
0.957847
0.951886
0.987649
1.005530
1.163483
1.046658
1.043677
1.215935
1.006722
1.218915
1.054406
1.180768
1.257658
1.252890
1.360774
1.465678
1.478791
1.379848
1.548529
1.816750
1.747608
2.175570
3.443956
18.482804
54.518580
161.387920
297.699571
559.781790
789.234638
1015.589833
1015.589833
1015.589833
1015.589833
959.416032
741.558671
470.957756
295.891762
137.958527
68.597794
25.456548
16.595721
18.981695
26.498437
42.079687
57.001710
81.214905
99.437833
117.558837
125.291944
125.427842
117.518902
98.566413
82.731843
58.999658
42.903423
26.726723
18.988848
13.023615
10.766983
8.871555
8.797646
8.343458
7.740855
7.564425
7.705688
7.302761
7.176995
6.861687
6.422997
6.363988
6.069541
5.925894
6.095767
5.583763
5.633831
5.395412
5.440712
5.166531
5.187988
4.659891
4.577637
4.765987
4.788637
4.411936
##ZVALUE=310
0.706911
0.585914
0.688434
0.584722
0.727773
0.671744
0.662804
0.680685
0.707507
0.782609
0.683665
0.774860
0.748634
0.684857
0.706911
0.763535
0.786781
0.685453
0.818968
0.763535
0.840425
1.017451
0.975728
1.028776
0.932813
1.012683
1.016855
1.236796
1.254678
1.085997
1.133680
1.352429
1.359582
1.505613
1.644492
2.017617
2.225637
8.003712
27.594566
98.797679
198.749900
420.590639
642.230511
946.625471
1015.461683
1015.461683
1015.461683
1015.461683
906.846523
606.115460
404.866934
200.690627
107.397437
39.267540
17.115474
11.984706
14.792681
22.791624
32.222867
51.277876
68.052411
91.844797
104.545951
116.200447
119.149685
109.118819
96.303821
75.788498
58.417916
37.633777
26.413798
16.415715
11.291504
7.974505
6.921887
5.872846
5.834699
5.337596
5.269647
4.951954
5.000830
4.883409
4.599690
4.835725
4.589558
4.525781
4.373789
4.332662
4.215837
4.126430
4.322529
3.829598
4.096627
3.987551
3.814697
3.899932
##ZVALUE=315
0.887513
0.700951
0.818968
0.770688
0.735521
0.843406
0.821948
0.871420
0.817776
0.699759
0.897646
0.875592
0.791550
0.997782
1.033545
0.983477
0.935793
0.805855
0.861883
0.904799
0.885725
0.958443
0.940561
1.072884
0.941753
1.053810
1.057982
0.932813
1.188517
1.249909
1.221895
1.317859
1.398921
1.209974
1.571774
1.519918
1.786947
1.902580
2.059937
3.966689
13.927817
61.028600
139.231682
323.350430
540.791750
873.777866
1015.589833
1015.589833
1015.589833
1015.589833
998.408794
724.311471
511.280894
271.785855
148.453712
54.666996
23.694634
10.808706
10.272861
13.377666
19.103885
31.569600
44.951439
63.907504
82.179904
100.567937
107.726455
109.738708
104.293823
87.078810
73.157549
53.255558
37.893653
23.437738
15.265942
9.173751
6.972551
5.376935
4.694462
4.235506
4.261732
3.932714
3.757477
3.931522
3.923774
3.842711
3.598928
3.669858
3.722906
3.726482
3.486872
3.610849
3.460646
3.508925
3.302693
3.544688
##ZVALUE=320
0.644922
0.733733
0.671744
0.834465
0.837445
0.853539
0.824928
0.777841
0.750422
0.808835
0.691414
0.859499
0.715852
0.801682
0.799894
0.859499
0.885725
0.811815
0.939965
0.836849
0.795722
0.941753
0.982881
0.979900
1.023412
1.038909
1.030564
1.015663
0.985861
1.060963
1.317859
1.173615
1.168847
1.185536
1.342893
1.430511
1.404881
1.518726
1.687407
1.712441
2.048612
2.544522
6.526709
34.475923
89.160800
236.766934
394.659638
662.427545
886.573792
1015.589833
1015.589833
1015.589833
1015.589833
846.980810
617.592931
345.873833
201.087594
85.356832
38.552880
12.605786
8.612871
8.986592
11.382699
17.718673
26.135445
42.040944
57.033896
75.782537
91.258883
101.568699
103.144646
97.393990
86.288452
66.032410
50.764680
33.189654
22.855997
13.617873
8.661747
5.530715
4.369617
3.609657
3.418922
3.516674
3.396869
3.126860
3.277659
3.088713
3.188848
3.019571
3.088713
3.063679
3.110766
3.065467
3.091693
2.960563
##ZVALUE=325
0.796914
0.808835
0.762939
0.560880
1.013875
0.824928
0.675917
0.780821
0.756979
0.779629
0.754595
0.768900
0.689626
0.861883
0.868440
0.630617
0.668764
0.836849
0.749826
0.748634
0.834465
0.794530
0.826716
0.953674
1.056790
0.987649
0.975728
0.939965
0.970960
1.035929
1.037717
0.896454
1.081824
1.169443
1.110435
1.261830
1.337528
1.371503
1.508594
1.487732
1.543760
1.634955
1.840591
2.073646
3.562570
20.663738
57.840943
158.360600
289.662480
542.276502
766.391754
1014.530659
1015.589833
1015.589833
1015.589833
918.530822
692.856908
419.239998
255.945921
112.730861
54.038763
17.467737
8.935928
7.556677
7.713437
10.807514
15.673637
26.160479
37.695765
57.629943
71.717501
87.218881
95.282793
95.732808
90.891719
76.043606
62.580705
44.357777
31.652451
18.952489
11.890531
7.055998
5.141497
3.780723
3.247857
3.060699
2.727509
2.873540
2.612472
2.750754
2.712607
2.751946
2.580881
2.625585
2.409816
2.559423
##ZVALUE=330
0.673532
0.690818
0.756979
0.762939
0.669956
0.702739
0.687838
0.729561
0.701547
0.801682
0.697970
0.786781
0.796914
0.804663
0.618696
0.671744
0.748634
0.765920
0.810623
0.772476
0.950694
0.830889
0.758767
0.742674
0.882745
0.767708
0.928640
0.999570
0.976920
0.889897
1.004934
1.050830
1.208782
1.020432
0.962615
1.033545
1.058578
1.117587
1.374483
1.141429
1.357794
1.383424
1.415610
1.546741
1.607537
1.884699
2.396703
8.660555
29.176474
101.396441
203.395486
417.620540
623.005629
916.895866
1015.586853
1015.586853
1015.586853
996.178389
810.212493
523.606539
336.690545
155.733824
77.995658
27.679801
11.564493
6.606579
6.403923
7.388592
9.494424
15.782714
22.639632
36.834478
49.738884
67.606568
78.845620
88.599920
90.195537
83.399415
73.524714
56.158900
43.238997
27.488470
18.878579
11.308789
7.537603
4.562736
3.848672
2.772808
2.971888
2.443790
2.465844
2.462864
2.373457
2.412796
2.537966
2.331734
##ZVALUE=335
0.723600
0.699759
0.669956
0.656843
0.466704
0.705719
0.554919
0.653863
0.587702
0.610948
0.857711
0.777841
0.781417
0.720620
0.854731
0.823736
0.728965
0.853539
0.910759
0.782609
0.663996
0.860691
0.839829
0.801682
0.881553
0.968575
0.892878
0.831485
0.831485
0.978708
0.975728
1.051426
0.895858
0.823736
0.848770
1.036525
1.044869
0.968575
1.104474
1.280904
1.281500
1.300573
1.157522
1.399517
1.517534
1.434684
1.616478
1.736879
2.025962
4.156828
14.642477
61.371922
134.389400
305.424929
496.958494
792.113543
988.175869
1015.589833
1015.589833
1015.589833
880.136490
599.237680
405.221581
210.150480
109.976530
37.544966
15.394688
7.097721
6.145835
6.223917
6.714463
9.414554
13.620853
23.174882
33.250451
49.716830
61.627626
74.858665
81.617832
82.481503
78.463554
64.816475
53.530931
39.227605
29.363632
18.143654
12.193918
7.636547
5.309582
3.522635
2.832413
2.627969
2.486706
2.388954
2.353787
2.342463
##ZVALUE=340
0.544786
0.689626
0.556707
0.648499
0.532866
0.546575
0.667572
0.728965
0.684857
0.708699
0.704527
0.702739
0.733733
0.700951
0.729561
0.646710
0.836849
0.796914
0.701547
0.728965
0.718832
0.695586
0.832677
0.631809
0.710487
0.791550
0.889897
0.809431
0.670552
0.843406
0.754595
0.628829
0.799894
0.740886
0.906587
0.961423
0.834465
0.895858
1.086593
1.164675
0.954866
1.043677
1.183748
1.081824
1.224875
1.192689
1.378655
1.535416
1.351833
1.597404
1.922846
2.363920
7.016659
37.706494
93.199015
236.782432
398.815870
659.271479
856.548548
1015.586853
1015.586853
1015.586853
939.117670
694.095492
492.507815
264.867544
142.624974
52.452683
21.837950
8.174777
6.347895
6.028414
5.846620
6.555915
8.501410
14.039874
20.365715
32.324791
43.453574
58.398843
69.222450
76.710582
77.361465
72.215796
64.510703
51.131845
40.333867
27.332902
19.749999
12.133718
7.650852
4.735589
3.617406
2.690554
2.392530
2.425909
##ZVALUE=345
0.611544
0.570416
0.629425
0.596642
0.760555
0.599623
0.465512
0.651479
0.784993
0.552535
0.709891
0.762939
0.643730
0.594854
0.768900
0.608563
0.713468
0.687838
0.497699
0.685453
0.563860
0.818968
0.668764
0.764728
0.797510
0.769496
0.653863
0.736713
0.851750
0.912547
0.847578
0.858903
0.931621
0.870824
0.813603
0.878572
0.757575
0.933409
1.006722
1.001954
0.900626
0.895858
0.990629
1.060963
1.036525
1.046658
1.181960
1.204610
1.195669
1.378655
1.332760
1.735687
1.656413
1.918674
3.091693
18.802881
57.236552
157.854557
282.013416
512.251854
708.838701
952.575803
1015.592813
1015.592813
1002.097726
778.341889
581.951737
339.657664
193.063617
76.884627
34.628510
11.460781
6.970763
5.875826
5.394816
5.289912
5.752444
7.756948
11.091828
19.521713
28.392673
41.969419
52.663684
62.344670
69.348812
70.072412
68.380833
60.358644
51.190853
39.494634
29.481649
18.438697
12.633801
7.320642
4.958510
3.456473
##ZVALUE=350
0.610948
0.586510
0.651479
0.637770
0.726581
0.744462
0.697970
0.692606
0.624657
0.680685
0.670552
0.595450
0.607967
0.857711
0.657439
0.790954
0.708699
0.667572
0.749826
0.593662
0.703931
0.772476
0.752807
0.605583
0.475645
0.629425
0.649691
0.772476
0.725985
0.733733
0.942945
0.832677
0.839829
0.965595
0.843406
0.807643
0.802875
0.882745
0.785589
0.891685
0.873804
0.817776
0.846982
0.922680
1.034737
0.994802
1.061559
1.062751
1.104474
1.305938
1.141429
1.373887
1.447797
1.417994
1.332760
1.819730
2.270937
9.280443
30.641556
101.336837
197.314620
396.584868
585.674644
827.803612
987.312794
1015.585661
1014.447808
853.813887
657.998919
391.512513
236.803889
110.113621
49.892664
14.458895
7.172823
5.542636
5.168915
4.775524
4.603863
5.055666
6.796718
11.201501
16.308427
24.879575
33.786893
46.398640
54.600835
62.872767
64.967871
63.246489
57.875514
46.505928
38.052797
26.352406
18.925667
11.744499
##ZVALUE=355
0.697970
0.770688
0.749826
0.681877
0.562668
0.653863
0.639558
0.803471
0.678897
0.756979
0.687838
0.738502
0.788569
0.619888
0.650883
0.743866
0.713468
0.618696
0.696778
0.748634
0.713468
0.743866
0.736713
0.754595
0.656843
0.781417
0.753999
0.625849
0.679493
0.714660
0.760555
0.852942
0.890493
0.915527
0.795722
0.998974
0.748634
0.807643
0.820756
0.731945
0.836849
0.888705
0.894666
0.927448
0.971556
1.073480
1.131892
1.028776
1.184940
1.280904
1.257658
1.027584
1.212955
1.405478
1.438856
1.447797
1.460910
1.707673
1.922846
4.700422
16.085505
65.871477
137.212873
293.898582
467.624664
724.639893
891.839862
1011.395454
1012.656689
875.139832
708.356500
466.811657
288.282633
127.782822
62.877536
21.675825
8.947849
5.436540
4.777908
4.590750
4.362464
4.273653
4.669428
6.274581
8.643866
14.200807
20.657778
30.823946
39.004683
49.406886
55.041909
58.992505
58.323741
51.974654
45.154691
35.212636
##ZVALUE=360
0.512600
0.502467
0.617504
0.718832
0.653863
0.703931
0.701547
0.730753
0.704527
0.786781
0.613928
0.698566
0.704527
0.549555
0.645518
0.834465
0.689626
0.519753
0.731945
0.722408
0.661612
0.834465
0.886917
0.909567
0.692606
0.718832
0.864863
0.753999
0.795722
0.700951
0.797510
0.859499
0.789762
0.863671
0.682473
0.756979
0.721812
0.772476
0.793934
0.879765
0.880957
0.790954
1.133680
0.849962
0.869632
1.011491
0.879765
0.896454
0.996590
1.014471
1.195669
1.134872
1.204610
1.184940
1.378655
1.343489
1.288652
1.464486
1.500845
1.544952
1.837611
2.669692
7.438660
35.219789
87.260008
218.514800
362.427831
592.636466
776.149035
959.118605
1008.237004
930.045843
789.033771
541.369915
361.907482
178.009868
93.039870
34.446716
13.459921
5.518794
5.018711
4.408956
4.295707
4.095435
3.798604
4.056692
5.015731
7.263422
10.534525
17.323494
24.184585
34.750700
41.406751
49.176812
52.756667
52.765608
##ZVALUE=365
0.547767
0.694990
0.698566
0.543594
0.525713
0.644922
0.640750
0.623465
0.599623
0.746846
0.682473
0.651479
0.621676
0.703931
0.694990
0.747442
0.691414
0.542998
0.548959
0.659823
0.617504
0.710487
0.533462
0.728965
0.751615
0.743866
0.822544
0.746846
0.864863
0.766516
0.777841
0.845790
0.629425
0.872612
0.799894
0.831485
0.876784
0.663996
0.835657
0.946522
0.782609
1.055598
0.951886
0.954866
1.036525
0.933409
1.047850
0.800490
0.901818
0.925660
0.927448
1.051426
0.972748
0.955462
1.139641
1.218915
1.260638
1.257658
1.392961
1.464486
1.468658
1.549721
1.759529
2.015829
3.483891
18.685460
53.193569
142.850876
266.508460
492.350459
669.674873
862.456560
952.644944
937.929749
828.670859
610.029697
438.254476
242.421627
131.092668
47.623515
19.105673
6.240606
4.906654
4.498959
4.060864
3.941655
3.626943
3.462434
3.643632
4.513860
5.584955
9.277463
13.798475
21.219850
27.961731
36.964417
##ZVALUE=370
0.719428
0.649691
0.573993
0.679493
0.749826
0.621676
0.768900
0.757575
0.753999
0.712872
0.619888
0.831485
0.589490
0.969768
0.626445
0.673532
0.677705
0.730753
0.725985
0.553727
0.814795
0.624657
0.701547
0.705719
0.758767
0.846982
0.744462
0.753999
0.826716
0.772476
0.803471
0.792742
0.772476
0.912547
0.762939
0.749826
0.768900
0.860691
0.847578
0.790954
0.869632
0.855923
0.914931
0.846982
0.935793
0.884533
0.879765
0.855923
0.998974
0.915527
0.962615
0.900626
0.993609
1.025796
0.976920
1.042485
0.891685
1.216531
1.155734
1.217723
1.051426
1.352429
1.297593
1.467466
1.577735
1.824498
2.163649
9.289980
31.610727
105.317831
202.312469
386.874676
567.728877
798.363686
912.241936
948.285460
874.858499
689.208508
512.662530
288.513899
163.401961
65.059662
29.980540
10.025501
5.529523
4.270673
3.873706
3.859997
3.555417
3.341436
3.151894
3.227592
3.772974
5.369782
7.676482
12.238622
##ZVALUE=375
0.709891
0.575781
0.499487
0.644922
0.679493
0.638962
0.832677
0.647902
0.605583
0.672936
0.691414
0.730753
0.557899
0.758767
0.474453
0.631809
0.688434
0.604987
0.640750
0.582933
0.747442
0.649691
0.708699
0.622869
0.682473
0.736713
0.824928
0.745654
0.720620
0.794530
0.626445
0.873804
0.844598
0.799894
0.820756
0.731945
0.836849
0.714660
0.851750
0.908971
0.824928
0.734925
0.776649
0.892878
0.891685
0.867844
0.901818
0.929832
0.845790
0.924468
0.863671
0.888705
0.835657
0.946522
0.979900
1.017451
0.890493
0.976920
1.022816
1.108646
1.151562
1.223683
1.190901
1.102686
1.124740
1.252890
1.499653
1.642704
1.848936
4.547834
16.599894
62.948465
136.681795
306.037664
474.088788
714.672804
850.397944
932.453871
910.847783
753.023028
591.943860
365.317464
233.525634
115.405917
58.424473
19.018650
7.547736
4.298687
3.909469
3.572702
3.304482
3.189445
3.009439
2.820492
2.917647
3.281832
##ZVALUE=380
0.688434
0.743866
0.823736
0.656843
0.903606
0.750422
0.808835
0.789762
0.799894
0.783801
0.789762
0.734925
0.845790
0.693798
0.803471
0.848770
0.777841
0.858903
0.757575
0.685453
0.777841
0.846982
0.811815
0.901818
0.835657
0.784993
0.859499
0.853539
0.903606
0.821948
0.852942
0.945926
0.902414
1.068711
0.838637
1.075864
1.008511
1.059771
0.959635
0.888705
0.857711
1.043677
0.954866
0.878572
0.967979
0.981688
0.747442
0.985861
0.940561
1.077652
0.952482
0.817776
1.067519
1.099706
1.115799
1.199841
1.043677
1.083612
1.121759
0.986457
1.176596
1.132488
1.131892
1.335740
1.156926
1.420975
1.455545
1.470447
1.512766
1.771450
2.027750
2.968907
8.786917
43.715835
103.199482
245.102644
400.028825
625.982881
789.812803
930.935740
933.934450
814.240575
671.609640
471.034646
319.064856
159.241557
81.845522
28.381944
11.420846
4.997849
4.121661
3.711581
3.503561
3.424883
3.152490
2.971888
##ZVALUE=385
0.660419
0.702739
0.475645
0.762939
0.590682
0.475645
0.456572
0.592470
0.606775
0.703931
0.536442
0.665784
0.613928
0.591874
0.635982
0.666976
0.566840
0.626445
0.660419
0.689626
0.759959
0.586510
0.545979
0.770688
0.591874
0.716448
0.704527
0.683665
0.796914
0.756979
0.715852
0.796914
0.908971
0.946522
0.975728
0.987649
0.982881
0.933409
0.990629
0.853539
0.956655
0.918508
0.875592
0.790954
0.893474
0.886917
0.931621
0.773668
0.957847
0.900626
1.056790
0.941753
0.903606
0.974536
1.004934
1.033545
1.019835
1.001954
0.829697
0.929832
0.942945
0.985861
1.036525
1.101494
0.973940
1.157522
1.142621
1.254678
1.280904
1.405478
1.604557
1.600981
1.865625
2.039671
4.191995
23.519993
63.415766
165.332556
296.676755
533.746481
709.068775
882.100463
927.777886
881.832838
775.669813
573.507547
410.182476
224.856734
129.033923
52.263737
21.445751
6.256700
4.070997
3.589988
3.542900
3.203750
##ZVALUE=390
0.543594
0.576973
0.653863
0.713468
0.590682
0.678897
0.490546
0.440478
0.589490
0.523925
0.564456
0.637770
0.630617
0.673532
0.605583
0.561476
0.472665
0.654459
0.483990
0.694990
0.632405
0.621676
0.536442
0.610948
0.581741
0.678897
0.740886
0.608563
0.774860
0.620484
0.704527
0.879765
0.967979
0.939965
0.934601
0.972748
0.988841
0.961423
0.976920
0.840425
0.921488
1.058578
1.011491
1.018643
0.858903
0.933409
1.019835
0.840425
0.786781
0.981688
0.918508
0.812411
1.007915
1.036525
1.083612
1.041889
0.952482
1.024604
0.941753
1.030564
0.969768
1.103878
0.951886
1.035929
1.032948
1.081824
1.106858
1.081824
1.226664
1.062751
1.199841
1.555681
1.573563
1.526475
1.689792
1.882911
2.671480
12.183785
37.843585
120.536685
230.022669
446.095467
624.745488
825.711489
923.467875
937.428474
861.291885
681.567788
519.979000
319.472551
187.972784
76.946616
35.792589
11.160970
5.001426
3.581643
##ZVALUE=395
0.604987
0.570416
0.574589
0.655651
0.618696
0.629425
0.465512
0.620484
0.589490
0.531673
0.528693
0.520945
0.555515
0.580549
0.632405
0.601411
0.561476
0.669956
0.544786
0.523925
0.474453
0.713468
0.611544
0.708699
0.597835
0.685453
0.659823
0.815988
0.795722
0.787973
0.846982
0.940561
0.819564
0.872612
0.976920
0.851750
0.996590
0.842810
0.955462
1.027584
1.045465
0.988841
1.019835
0.944734
1.023412
0.884533
0.930429
1.001954
0.957847
0.839829
0.979900
1.007915
1.075864
0.927448
1.047850
0.979900
1.146793
0.968575
0.966787
1.007915
0.861883
0.877976
0.987649
0.986457
1.106858
1.082420
1.074672
1.211762
1.234412
1.336932
1.332760
1.397729
1.365542
1.332760
1.387596
1.388788
1.644492
1.770854
1.830459
7.097721
25.002956
89.425445
172.211528
334.759951
498.992801
739.305615
891.530514
987.996459
959.676504
807.217956
632.135868
394.760966
247.137547
108.626485
52.309632
16.910434
##ZVALUE=400
0.843406
0.727773
0.593662
0.694990
0.503659
0.435710
0.617504
0.622869
0.631809
0.464916
0.577569
0.594854
0.532866
0.621676
0.635982
0.570416
0.422597
0.580549
0.585914
0.681877
0.545979
0.596642
0.542998
0.617504
0.609756
0.566840
0.516772
0.701547
0.629425
0.721812
0.719428
0.730753
0.690818
0.855923
0.852942
0.834465
0.875592
0.981688
0.899434
0.897646
1.004934
0.978708
1.024604
0.975728
1.018643
0.962615
1.082420
1.142621
1.085997
0.994802
1.049638
1.044869
1.170635
1.044869
1.161695
0.896454
0.995994
0.938773
0.982881
0.975728
1.050830
1.010895
1.178980
1.096725
1.047850
1.128912
1.180768
1.190901
1.085997
1.267791
1.423955
1.328588
1.303554
1.335740
1.172423
1.196861
1.365542
1.343489
1.466870
1.638532
1.718998
3.927946
13.468862
50.765872
111.095905
252.568722
410.247445
645.099878
807.916522
936.572552
953.942537
846.632719
693.245530
461.272597
306.624770
154.787898
##END
