##TITLE=D3-6
##FORMAT=SPECTACLE-ASCII V-1.2
##DATA TYPE=ULTRAVIOLET SPECTRUM
##SECOND TYPE=ULTRAVIOLET SPECTRUM
##DATE=01/24/18
##TIME=13:48:36
##SPECTROMETER/DATA SYSTEM=SPECTACLE
##XUNITS=NM EM
##YUNITS=ENERGY
##YFACTOR=1
##FIRSTX=220
##LASTX=410
##NPOINTS=96
##3DDATA=Equidistant
##ZUNITS=NM EX
##FIRSTZ=210
##LASTZ=400
##ZPOINTS=39
##XYDATA=(Y..Y)
##ZVALUE=210
16.841888
16.729832
13.927817
12.622476
10.953546
10.320544
9.281635
8.443594
6.514788
5.688667
4.819632
3.660917
2.779961
2.717972
2.671480
2.524853
3.112555
3.161430
3.270507
3.536940
3.610849
3.726482
3.923774
3.826618
4.313588
5.372763
5.574822
5.451441
7.585883
6.916523
8.517504
8.778572
8.018613
9.710789
10.452867
10.709763
10.642409
9.954572
10.454655
9.926558
11.150837
10.295510
10.380745
10.553598
11.237860
11.045933
12.620687
11.656880
13.359785
12.592673
13.175607
15.103817
13.564825
14.831424
14.492869
14.657974
15.144944
13.112426
13.723969
14.759898
13.233423
14.194846
12.925863
14.503598
14.403462
14.175773
14.399886
16.192794
16.374588
19.139647
18.552542
20.601749
24.431944
25.042892
25.525689
26.469827
23.606420
24.684668
21.369457
20.422935
15.969872
15.527606
13.056993
12.186766
10.381937
10.272861
9.056926
7.748604
9.934902
11.228919
12.604594
15.991926
21.286607
23.906827
31.028986
33.647418
##ZVALUE=215
49.263835
50.053596
36.979914
30.543804
23.914576
19.976497
17.949939
17.414689
17.167926
13.690591
12.614727
9.558797
8.342862
5.386472
4.250407
3.725886
3.037453
3.422499
2.793670
3.914833
3.755689
3.997684
4.055500
4.109740
5.108714
6.057620
6.942749
6.875992
8.367896
8.109808
8.821487
10.061860
10.418892
10.974407
11.078715
12.208819
11.630654
12.790561
11.531711
13.429523
12.528896
13.137460
13.637543
13.722777
13.320446
14.745593
14.979839
14.351606
15.404820
15.437603
17.148852
17.132759
17.373562
17.942786
19.120574
17.762780
19.739866
17.179847
19.561648
17.957687
17.775893
16.718507
16.080737
16.586781
16.570687
17.406940
15.219450
16.431808
16.832948
18.166900
17.134547
19.084811
18.577576
19.383430
19.680858
21.027923
21.474957
19.174814
18.034577
18.225908
14.446974
14.332533
14.111996
12.157559
9.389520
9.677410
8.353591
9.125471
8.604527
7.634759
6.699562
6.379485
6.530881
8.071661
11.240840
13.374686
##ZVALUE=220
99.771619
98.283887
100.273490
87.498426
75.934529
58.134794
42.968988
34.036636
26.944876
25.362968
27.487874
28.372407
22.168756
19.004941
16.187429
11.107922
8.204579
5.962849
4.813671
4.672408
4.329681
4.087687
4.922748
4.836917
5.194545
6.944537
6.277561
8.052588
8.785725
9.081960
9.650588
10.939837
12.035966
12.769699
11.821985
13.088584
15.422702
14.818907
14.036894
16.486645
17.788410
15.925765
16.470551
17.895699
18.498898
20.100474
19.192696
20.838976
22.000670
23.418665
22.983551
26.315451
27.147532
25.266409
26.442409
26.494861
28.590560
26.449561
26.143789
26.755929
25.803447
25.362968
24.485588
24.984479
23.461580
21.997690
22.670627
22.269487
23.010969
22.255778
20.791888
21.872520
22.500753
23.179650
22.543669
24.519563
22.752881
21.260977
23.351908
19.594431
17.864704
17.149448
14.589429
13.101697
12.141466
11.326671
10.257959
9.592772
10.095835
7.393956
8.884668
7.190704
7.452965
7.307529
6.653666
7.392764
##ZVALUE=225
120.555758
120.974779
151.458979
175.077915
183.613896
165.986419
146.702528
104.816556
77.489614
62.352419
44.740438
39.535761
39.937496
38.979650
38.299561
34.554601
27.744770
20.936728
14.323592
11.051893
7.292628
5.811453
5.183816
5.414486
5.559921
5.626678
6.498694
6.576777
8.172989
8.945465
8.944869
10.656714
11.831522
12.455583
12.372732
13.089776
14.876723
14.680624
16.396642
17.453432
18.773675
19.490719
21.139979
21.729469
22.933483
24.492741
26.520491
27.257800
28.924942
29.749870
30.767918
33.983588
35.244823
35.368800
34.769773
36.527514
38.393736
38.096905
36.705732
37.488937
35.819411
34.400821
33.433437
35.170913
31.171441
29.591918
29.548407
29.471517
29.089451
28.630495
28.124452
26.469827
28.737783
29.726624
27.135611
27.115941
26.560426
25.547743
24.385452
21.460652
20.252466
19.397736
15.686750
15.762448
12.831688
12.408495
12.834668
11.478662
10.941625
9.062886
9.694695
9.232759
9.410977
8.949637
7.758737
7.844567
##ZVALUE=230
75.179935
88.069439
128.725767
200.462937
248.121619
284.121633
299.405456
289.243460
251.566768
207.749605
143.703818
100.022554
69.480538
62.564611
63.408613
63.326955
62.458515
61.054826
53.597689
42.468905
33.143759
21.715760
13.819933
9.967685
7.494688
6.857514
5.716681
7.365942
6.942749
7.513762
7.542968
8.094907
8.798838
9.508729
11.812449
12.341738
13.627410
17.187595
16.434789
17.963648
18.568635
20.867586
22.495985
23.960471
25.408864
26.389956
28.436780
30.705929
32.852888
34.942627
33.863783
36.941767
37.900805
39.952993
40.351748
40.480494
41.019917
41.901469
40.962696
40.157437
38.262606
39.928555
38.221478
36.594868
36.820769
35.073757
33.327937
33.480525
32.056570
31.875968
29.831529
30.073524
31.657815
29.018521
28.138757
26.938915
27.503967
27.396679
24.888515
23.498535
20.606518
19.068718
17.479658
16.421676
15.229583
13.846755
13.569593
12.371540
12.416840
11.818409
10.486841
11.206865
11.169910
9.190440
10.480881
9.525418
##ZVALUE=235
19.814968
25.492907
49.154758
115.226507
183.693767
274.203420
357.522964
443.799496
482.390523
474.672914
417.462587
342.279673
227.917433
162.862539
111.137629
91.740489
85.964799
89.329481
93.441606
92.204809
89.987516
71.296692
56.695938
39.795637
28.107762
16.865730
12.144446
10.770559
8.690953
7.968545
8.876920
8.581877
10.087490
11.611581
11.127591
13.439655
12.986660
14.111996
15.450716
17.077923
17.813444
19.982457
20.986795
21.970868
23.058653
24.555922
27.542710
30.221939
29.863715
31.248927
32.876730
35.767555
34.241676
34.204721
34.054518
35.123825
34.277439
34.642816
35.572648
37.086606
34.703612
34.877658
34.442544
33.432841
33.151507
30.466914
33.199787
30.548573
28.814673
30.094981
29.148459
31.059980
29.712915
31.024814
29.658675
27.564764
27.192831
25.616884
24.343729
21.077991
23.170710
21.115541
19.218922
17.311573
15.516877
15.693903
14.237761
13.987422
13.406873
13.028979
11.547804
11.964440
10.764599
11.439919
11.208653
11.199713
##ZVALUE=240
2.667904
3.757477
10.161996
21.555424
62.387586
113.103986
224.610567
346.090794
511.313677
622.591972
712.761879
699.710846
644.932985
506.523848
397.166014
251.124501
179.571509
125.487447
106.788874
108.776689
120.821595
126.233697
122.871995
116.791725
91.511607
71.835518
50.928593
36.767721
23.567677
18.143654
14.724731
12.134910
11.285543
13.353825
13.117790
12.532473
13.806820
14.524460
14.567971
15.827417
17.903447
18.442869
17.667413
19.022822
21.975636
22.559762
21.528602
22.899508
23.675561
25.779605
26.893616
28.291941
28.710961
28.794408
28.855801
27.772784
28.086901
27.428865
28.404593
27.132630
29.347539
28.044581
27.780533
25.973916
27.593970
25.979877
26.805997
25.443435
25.313497
27.089715
27.029514
27.257800
28.919578
27.687550
28.712749
25.807619
24.988651
24.374723
22.503734
20.958781
18.750429
18.087626
19.428730
16.421676
15.724897
13.939738
14.768839
14.499426
12.083650
12.450814
13.223886
13.209581
10.785460
11.496544
12.429953
11.733770
##ZVALUE=245
2.238750
2.130866
2.380610
2.707839
3.756881
17.346740
39.237738
113.218427
201.180577
360.626578
505.082011
695.440769
798.060894
825.549960
794.613957
667.924881
542.889833
361.196995
247.101784
149.983764
116.282701
112.708807
122.569799
138.163567
141.567588
133.450627
121.263862
104.050636
80.695748
61.164498
44.263601
31.240582
20.613670
16.709566
14.103651
14.886856
13.588667
13.950467
14.891624
13.953447
15.101433
14.848709
15.392900
16.113520
16.763806
17.015934
19.088984
18.577576
19.161701
20.549893
21.245480
21.109581
21.622777
21.485686
22.904873
22.069812
22.689700
22.663474
23.437738
22.774935
22.226572
21.394491
21.515489
22.498965
22.428632
21.645427
21.598935
21.640658
20.553470
21.128654
22.406578
23.210645
25.181770
23.372769
22.915602
23.965836
21.630526
20.852685
19.710660
18.788576
17.165542
15.776753
15.331507
14.081597
14.435649
13.351440
12.771487
11.819601
11.536479
10.582805
10.822415
11.480451
10.914803
11.045933
10.688901
10.969639
##ZVALUE=250
1.871586
2.113581
2.009869
2.141595
2.114773
2.555847
2.917647
8.283854
36.251545
78.332424
194.998980
327.634811
489.543676
722.107887
873.654485
994.540453
990.340710
882.431865
735.935569
509.587526
340.121984
218.783617
128.596425
106.252432
115.680695
129.451752
149.243474
153.136849
142.953992
133.265853
113.694668
88.971853
67.417622
43.077469
32.449961
21.385550
17.172694
13.525486
14.444590
14.544725
15.983582
16.251802
16.882420
16.873479
16.803741
17.072558
17.940998
17.889738
19.372702
19.776821
21.246672
21.194816
21.368861
22.501945
22.533536
23.779869
22.926927
22.817850
22.759438
24.045706
22.718906
21.363497
21.463633
21.453500
22.119880
20.494461
19.604564
20.545721
20.544529
20.615458
20.351410
20.132661
21.161437
22.179484
20.981431
19.128919
19.516945
17.781854
17.283559
16.448498
15.239716
13.501644
12.549758
13.279915
12.406707
11.276603
10.687709
10.862947
10.964870
9.845495
9.763837
9.502769
9.774566
9.062886
9.284616
9.252429
##ZVALUE=255
1.584888
1.588464
1.676679
1.691580
2.428889
1.875758
2.036691
2.141595
2.587438
5.445480
23.606420
57.689548
126.325488
281.582475
445.748568
693.475604
875.317454
1015.589833
1015.589833
1010.621786
885.722637
694.920421
437.761545
275.605917
147.504807
108.252764
100.759864
111.884475
134.499669
150.782466
155.776739
155.331492
139.311552
114.189982
93.099475
65.763593
46.371818
29.427409
22.371411
17.703772
17.546415
16.404986
17.945766
18.608570
19.672513
19.414425
20.663738
21.082759
22.849441
24.107695
23.497939
26.357770
23.995638
25.539994
25.145411
26.696920
25.831461
27.611852
26.616454
25.622845
26.406646
25.290847
23.985505
24.520755
23.927689
23.951530
22.661686
21.827817
21.082759
21.977425
22.340417
20.833611
20.447969
20.889640
20.979643
19.462705
17.870665
17.628670
17.002821
15.730858
13.799667
13.501644
12.740493
12.767911
11.093616
10.873675
10.420680
10.554790
9.186864
9.296536
8.971691
8.561611
8.703470
8.128881
8.349419
8.206964
##ZVALUE=260
1.444817
1.577735
1.574755
1.593828
1.447797
1.901984
1.698732
1.762509
1.622438
2.077818
2.191663
3.198981
9.158850
37.036538
86.587667
219.525695
374.361873
632.071495
846.098661
1015.589833
1015.589833
1015.589833
1015.589833
848.448873
560.005903
382.126570
217.368603
136.090517
89.540482
89.401603
105.495453
136.240721
153.620839
162.823796
162.169933
142.639875
123.275518
92.698932
71.913600
47.358871
34.844875
26.724935
23.094416
21.901727
22.752881
23.439527
25.266409
27.063489
26.569963
28.847456
29.871464
31.092763
30.202866
31.110644
32.506585
32.450557
33.715963
33.283830
32.885671
32.103658
32.161474
32.782555
31.272769
30.343533
29.174685
28.195977
27.479529
27.572513
26.462674
24.676919
24.594665
23.845434
23.747683
22.323728
21.953583
21.339655
20.069480
18.811822
17.009974
16.436577
16.041994
14.160872
13.470650
13.694763
12.611747
11.050701
10.284781
10.864735
9.891987
9.372830
9.588599
9.216666
8.984804
9.041429
8.996725
8.991957
##ZVALUE=265
1.491904
1.557469
1.662970
1.358986
1.552701
1.548529
1.708865
1.809597
1.623631
1.757741
2.022982
2.068877
1.959801
2.437830
4.548430
24.534464
63.062906
169.649720
309.389830
586.040616
839.200020
1015.589833
1015.589833
1015.589833
1015.589833
996.170044
731.056929
516.107678
284.425616
171.806812
106.155872
78.618526
88.905692
118.388534
142.046809
160.040855
169.711709
164.471865
148.536563
121.292472
101.287961
71.953535
55.379868
41.201711
34.088492
30.887723
31.048656
33.187866
33.498406
36.055446
36.928654
37.144423
40.155649
39.861798
40.062666
40.945411
42.051673
40.624738
40.319562
39.012432
39.965510
40.575862
38.182735
36.909580
35.116673
35.463572
33.214688
32.607913
30.838847
30.412674
28.944612
28.005838
28.552413
26.564598
25.174618
23.688674
22.128820
20.892620
19.984841
18.783808
17.348528
16.323924
14.683604
13.704896
13.310909
11.773705
11.726618
11.673570
11.105537
9.839535
9.706616
9.285808
8.589625
9.859800
9.038448
8.940697
##ZVALUE=270
1.224875
1.522899
1.509786
1.319647
1.461506
1.320839
1.398921
1.586676
1.407862
1.351833
1.697540
1.679659
2.031922
1.832843
2.045631
2.336502
2.840757
11.047721
34.234524
122.084618
244.179964
435.868502
766.143799
1003.083587
1015.589833
1015.589833
1015.589833
1015.589833
912.645459
689.017773
416.380763
261.861682
126.721859
79.561472
71.757436
90.705752
122.616887
145.806670
167.668462
173.573494
171.891451
159.206986
131.979585
110.401511
84.379911
67.411661
51.940680
46.107769
43.240786
43.011904
44.787526
46.087503
46.914816
47.538877
48.689842
51.631927
49.905777
50.912499
49.644709
48.630834
47.925711
48.643947
43.911934
44.816732
42.567849
41.731596
39.834976
38.007498
37.507415
35.656691
33.146739
32.435656
31.589866
29.972792
28.696656
28.040409
26.427507
23.862720
21.981001
20.421743
18.594861
18.994808
16.629696
15.459657
14.612675
14.552474
12.557507
12.212992
11.551976
12.032986
10.528564
10.926723
10.389686
10.423660
9.308457
9.602904
##ZVALUE=275
1.120567
1.209974
1.259446
1.226664
1.250505
1.280904
1.193881
1.437664
1.219511
1.419783
1.356602
1.329780
1.500845
1.453757
1.630783
1.820922
2.281666
2.180934
2.424717
5.824566
20.393729
61.863661
191.842914
372.061729
700.517893
949.281454
1015.588641
1015.588641
1015.588641
1015.588641
1015.588641
858.408809
614.894629
329.889655
194.185972
93.589425
65.635443
74.747801
95.653534
128.151774
149.331689
173.999667
183.525681
178.411007
165.520906
138.080716
120.157003
95.123649
80.377460
64.668655
58.473945
54.682493
53.169727
53.203702
54.535866
55.217743
55.741668
55.023432
56.151748
55.217743
51.932931
52.212477
51.245689
49.951673
49.055815
45.693517
43.926835
42.416453
40.784478
39.213896
37.676692
35.831928
35.272837
33.058524
32.300949
29.283762
27.507544
25.541782
24.122596
22.658706
21.271706
19.033551
17.425418
17.123818
16.631484
15.055537
13.986826
13.269782
12.552738
11.708736
11.801720
10.823607
11.000633
10.300875
10.259748
10.242462
##ZVALUE=280
1.192689
1.159906
1.125932
1.258850
1.295805
1.242757
1.304746
1.265407
1.533628
1.398921
1.372695
1.324415
1.284480
1.500845
1.649857
1.567602
1.577735
1.672506
1.905560
1.993775
2.362728
3.574491
12.487769
42.214990
145.385861
280.225873
544.879436
806.404948
1015.589833
1015.589833
1015.589833
1015.589833
1015.589833
1000.287533
687.969923
458.151698
235.880613
130.459666
65.889955
58.516860
76.314807
98.140836
131.798983
154.070854
175.160766
184.429884
180.311799
170.322657
143.994689
124.663711
100.496411
85.256696
70.144534
64.203739
57.874918
56.826472
56.613684
55.622458
55.034757
54.644942
54.292679
52.848458
51.382780
50.415993
48.557520
47.951937
45.228601
43.558478
41.597486
40.424466
38.485527
35.831928
35.525560
32.801628
32.449961
30.023456
27.999878
26.160479
23.995638
22.600889
20.661950
19.860864
18.644929
17.601848
16.233921
15.317798
14.654994
13.614893
13.002753
11.980534
11.672974
11.427999
11.040568
10.665655
10.340810
9.965897
##ZVALUE=285
1.039505
1.179576
1.068711
1.077652
1.242757
1.078844
0.979900
1.225471
1.118779
1.152754
1.154542
1.223683
1.248717
1.431704
1.361966
1.469851
1.493692
1.311898
1.451969
1.652837
1.864433
2.209544
2.246499
2.447963
6.096959
21.274686
78.301430
171.834826
392.052531
618.483424
959.427953
1015.589833
1015.589833
1015.589833
1015.589833
1015.589833
868.018866
610.402822
327.880979
193.295479
89.639425
56.540966
53.942800
69.060922
99.203587
122.853518
152.240992
170.092583
181.493759
181.436539
164.969563
150.380731
123.875737
105.359554
82.717538
69.021583
58.155656
55.441856
52.752495
50.529838
49.026608
48.333406
45.889616
45.303702
43.923855
43.689609
40.736794
40.898919
38.614869
36.736727
35.601854
34.068823
32.311678
31.343699
29.106736
28.516650
26.346445
25.194883
22.858977
20.705462
19.258857
18.570423
17.714500
16.475916
15.316606
14.382601
13.697743
12.963414
11.882782
11.841655
11.541843
11.035800
10.402799
10.281801
10.371804
10.042787
##ZVALUE=290
1.077652
1.097918
1.065731
0.952482
0.961423
0.972748
1.246929
1.052618
1.204610
1.047850
1.156926
1.019835
1.129508
1.256466
1.389980
1.336932
1.245737
1.128912
1.434684
1.265407
1.511574
1.597404
1.556873
1.939535
2.251863
2.269745
3.170967
8.896589
43.148994
103.779435
213.403702
470.285416
738.254786
1015.589833
1015.589833
1015.589833
1015.589833
1015.589833
1015.589833
719.497800
476.296544
242.499709
129.536986
56.476593
41.118860
49.286485
65.279603
91.720819
113.714933
144.516826
162.110925
173.614621
170.852542
157.787800
140.087605
111.733675
93.131661
71.361661
58.223605
47.200918
41.873455
39.412975
37.160516
35.820603
35.583973
33.919811
33.616424
32.187700
31.369925
30.681491
29.635429
27.763844
26.687980
25.532842
24.201870
23.200512
21.831989
20.163655
19.046664
17.789602
16.542673
15.598536
15.125871
14.058948
13.856888
13.099909
12.225509
11.677742
10.909438
10.897517
9.829998
9.439588
9.718537
9.356737
9.596944
9.124875
##ZVALUE=295
1.103878
0.903606
0.902414
0.944734
0.945926
0.906587
1.013875
0.940561
0.977516
1.149774
1.164675
1.130700
1.183748
1.241565
1.208782
1.256466
1.128912
1.112819
1.268983
1.315475
1.297593
1.594424
1.488924
1.461506
1.786947
1.958609
2.015829
2.188683
2.521873
4.046559
14.422536
63.791871
152.391791
375.604630
617.125630
985.922813
1015.589833
1015.589833
1015.589833
1015.589833
1015.589833
871.909857
605.126023
325.547457
177.652836
70.664883
39.116740
32.616854
41.092634
62.293410
79.505444
107.996464
126.501918
149.751902
156.456828
153.826475
141.831636
120.521784
99.287629
75.294971
58.679581
42.575598
34.187436
27.237535
25.501847
23.514628
22.354722
22.184849
21.356940
20.417571
20.283461
19.212961
19.042492
18.159747
18.065572
16.840696
16.324520
15.058517
13.940930
13.556480
12.612939
11.743903
11.605620
11.306405
10.764599
10.001659
9.888411
9.175539
9.271502
8.638501
8.213520
8.408427
8.486509
7.885695
8.061528
7.762909
##ZVALUE=300
0.893474
0.866652
0.906587
0.870824
0.726581
0.767708
0.911951
0.955462
0.898838
1.009703
1.026988
1.164675
1.012683
1.077652
1.088977
1.239777
1.165867
1.045465
1.249909
1.246929
1.077652
1.160502
1.481771
1.406670
1.282692
1.421571
1.632571
1.626611
1.996756
2.196431
2.305508
2.625585
8.867979
33.310652
117.893815
238.118768
507.797003
789.051652
1015.589833
1015.589833
1015.589833
1015.589833
1015.589833
1015.589833
718.646646
472.019911
241.748691
127.693415
47.345757
25.793910
25.061965
32.826662
49.912930
65.828562
92.147589
111.003518
132.139921
139.175653
136.415958
128.174424
107.450485
88.100433
64.149499
48.560500
33.154488
24.430752
17.647743
15.292764
13.928413
13.264418
13.062954
12.496710
12.446642
12.460947
12.188554
11.882782
10.804534
10.725856
9.790659
9.702444
9.171963
9.100437
8.680820
8.133650
7.809997
7.538795
7.585883
7.384419
6.973743
7.012486
6.634593
6.638765
6.649494
6.640553
6.687641
6.435513
##ZVALUE=305
0.896454
0.878572
0.863671
0.716448
0.978708
0.793934
0.862479
0.947714
0.899434
0.851750
1.130700
1.061559
1.002550
0.778437
0.952482
0.998974
1.039505
1.180768
1.099706
1.094937
1.224875
1.013875
1.168847
1.379848
1.309514
1.165867
1.322627
1.586676
1.639724
1.537800
1.758933
2.115965
2.131462
2.486706
3.937483
22.701621
66.209435
195.993781
366.607904
689.321756
972.529650
1015.589833
1015.589833
1015.589833
1015.589833
1015.589833
875.605941
553.303957
341.791511
154.064894
75.382590
26.588440
17.086864
20.656586
27.608871
44.204593
60.276985
84.188581
101.412535
120.093822
126.486421
124.039650
116.295815
98.390579
81.489682
57.944655
41.492581
26.395917
17.998815
12.919903
10.871887
9.021759
9.245872
9.019971
8.590817
8.447766
8.118749
8.118749
7.907748
7.614493
7.130504
6.677508
6.794930
6.585717
6.515980
6.123781
6.115437
5.864501
6.029606
5.763769
5.802512
5.704761
5.818605
5.755424
5.850792
5.942583
##ZVALUE=310
0.763535
0.902414
0.889897
0.946522
1.071692
0.885725
0.911951
0.932813
0.917912
0.788569
0.821948
0.868440
1.025796
0.855923
0.866652
1.012683
0.837445
1.028776
1.107454
1.213551
1.077652
1.036525
1.036525
1.265407
1.201630
1.264811
1.329780
1.369715
1.337528
1.450777
1.633763
1.736879
1.641512
1.966953
2.054572
2.388954
2.720952
9.988546
32.999516
115.311742
231.681466
494.167805
762.308836
1015.592813
1015.592813
1015.592813
1015.592813
1015.592813
1015.592813
704.205632
465.001464
229.620934
120.215416
42.408705
17.988682
12.698770
15.579462
23.927689
34.849644
53.659678
69.830418
92.402697
106.993914
116.454959
117.019415
108.618736
96.571445
74.901581
56.602955
36.703944
26.075840
16.612411
11.692643
8.618832
7.410645
6.609559
6.513596
6.109476
5.793571
5.804896
5.739927
5.534887
5.178452
5.358458
5.313754
5.402565
5.284548
5.025864
5.169511
5.013943
5.228519
5.058646
5.395412
5.016923
4.964471
5.124807
##ZVALUE=315
0.750422
0.839829
0.901818
0.806451
0.887513
0.934601
0.795722
0.997782
0.840425
0.733733
0.962615
0.789762
0.813603
0.970960
0.974536
0.928640
0.744462
0.971556
1.007915
0.973940
1.196861
1.118779
1.115799
0.949502
1.137853
1.058578
1.275539
1.205802
1.308918
1.168847
1.321435
1.365542
1.439452
1.546741
1.749992
1.906753
1.736879
2.192855
2.436638
4.546642
16.966462
72.318912
160.647631
373.739004
602.887869
972.303748
1015.589833
1015.589833
1015.589833
1015.589833
1015.589833
851.410031
596.188903
311.965942
167.912841
61.355829
25.529861
10.728836
10.950565
14.229417
20.246506
32.996535
46.577454
66.435933
81.859827
99.370480
107.815862
110.077858
102.119446
86.811781
72.479844
51.218867
36.539435
22.577643
14.869571
9.203553
7.149577
5.490780
5.139709
4.687905
4.269481
4.220605
4.441738
4.239678
4.214644
4.230738
4.241467
4.372597
4.293919
4.535913
4.331470
4.352927
4.595518
4.534721
4.644990
4.911423
##ZVALUE=320
0.538826
0.700951
0.743866
0.678897
0.691414
0.543594
0.702739
0.681877
0.933409
0.660419
0.622869
0.678897
0.612736
0.662804
0.733733
0.749826
0.728965
0.858903
0.856519
0.687838
0.821948
0.751615
0.781417
0.996590
0.865459
1.014471
0.827909
0.906587
1.141429
1.021624
1.037717
1.083612
1.191497
1.222491
1.288652
1.438856
1.409650
1.562834
1.624823
1.806617
1.968741
2.648830
7.914901
41.681528
104.807615
269.442797
456.734896
778.936744
1008.595824
1015.461683
1015.461683
1015.461683
1015.461683
981.179476
724.717975
404.653549
228.429437
91.557503
39.946437
13.824701
9.163618
9.751916
11.898875
18.610954
26.943684
43.610930
58.975816
77.046752
91.744661
101.241469
102.809668
95.490813
85.267425
65.150857
49.417615
31.819940
22.039413
13.136864
8.891821
5.653501
4.572868
4.078746
3.744960
3.635883
3.652573
3.367662
3.380775
3.582835
3.423691
3.723502
3.700852
3.784895
3.938675
3.995895
4.066825
4.139543
##ZVALUE=325
0.676513
0.538826
0.647902
0.650883
0.637770
0.706911
0.522733
0.577569
0.712872
0.708699
0.768900
0.717640
0.762939
0.669956
0.850558
0.760555
0.782609
0.905991
0.889897
0.913739
0.720620
0.777841
0.714660
0.776649
0.781417
1.002550
0.827909
1.017451
0.960827
0.889897
0.975728
1.048446
1.098514
1.123548
1.056790
1.324415
1.370907
1.319647
1.476407
1.570582
1.446605
1.792908
1.688600
2.315640
4.055500
25.400519
68.910718
183.234811
333.808661
636.429787
893.179774
1015.501618
1015.501618
1015.501618
1015.501618
1014.299989
805.018544
490.520000
300.074816
129.855871
60.723424
18.538833
9.017587
7.643700
8.252859
11.889935
16.309619
26.902556
38.848519
58.639646
72.329640
87.346435
95.165968
95.898509
88.998675
74.576735
61.095953
43.823719
30.682683
18.342733
11.932850
6.544590
4.964471
4.042983
3.523827
3.262758
3.052950
3.421903
3.197789
3.322959
3.310442
3.616810
3.518462
3.957748
3.999472
3.931522
##ZVALUE=330
0.752807
0.747442
0.746846
0.780821
0.824928
0.837445
0.692606
0.890493
0.982881
0.870824
0.945926
0.932813
0.786781
0.715852
0.693798
0.885725
0.990629
0.953674
1.006722
0.876784
1.112819
0.883937
0.954866
1.001954
1.008511
1.012683
1.124740
1.041889
1.110435
0.974536
1.046658
1.083612
1.149774
1.239777
1.114607
1.352429
1.336932
1.337528
1.554489
1.517534
1.551509
1.612902
1.623631
1.799464
2.001524
2.354980
2.679825
11.561513
37.537813
122.409463
237.664580
482.389927
728.854537
1015.691757
1015.691757
1015.691757
1015.691757
1015.691757
928.264856
605.005622
388.200879
177.782774
89.097619
30.764937
12.362599
7.650852
7.059574
7.824898
10.159612
16.370416
24.489760
38.149953
51.403642
69.226623
80.104470
88.046789
88.686943
82.060695
71.834922
54.542422
42.601824
27.123690
19.254684
11.395812
7.902980
5.128980
4.229546
3.579855
3.632903
3.471971
3.814697
3.681779
3.923774
3.965497
4.225969
4.318953
##ZVALUE=335
0.715852
0.603795
0.854731
0.707507
0.785589
0.889897
0.760555
0.635982
0.644922
0.716448
0.845790
0.760555
0.790954
0.795722
0.808835
0.751615
0.753999
0.725985
0.757575
0.618696
0.781417
0.814795
0.819564
0.754595
0.713468
0.932813
0.947714
0.963807
0.873804
0.873804
0.928640
0.944734
0.960827
1.042485
1.121759
1.124740
1.176000
1.222491
1.169443
1.227856
1.267791
1.269579
1.328588
1.424551
1.450777
1.596808
1.691580
2.112985
2.147555
5.154610
18.210411
75.049400
159.536600
357.522964
579.668880
919.328928
1015.589833
1015.589833
1015.589833
1015.589833
1006.698608
709.728599
480.430722
246.450901
128.477812
43.968558
16.712546
7.440448
6.503463
6.385446
7.267594
10.075569
14.254451
24.315715
34.848452
50.879717
62.761903
75.658560
82.154870
83.153844
78.115463
65.561533
53.855777
38.401484
29.135942
18.330812
12.359619
7.641912
5.745888
4.686713
4.004836
3.973842
4.007816
4.274845
4.204512
4.728436
##ZVALUE=340
0.697970
0.585914
0.646710
0.567436
0.754595
0.659823
0.640750
0.700951
0.730753
0.566840
0.673532
0.689626
0.818968
0.904799
0.679493
0.844598
0.846982
0.789762
0.846982
0.704527
0.649691
0.671744
0.830889
0.990629
0.814795
0.900626
0.816584
0.760555
0.885725
0.807643
0.904799
0.862479
0.957847
0.905991
1.018643
1.176000
1.182556
1.336932
1.110435
1.251698
1.118779
1.142621
1.163483
1.183748
1.408458
1.286864
1.514554
1.611710
1.767874
1.877546
2.198815
2.904534
9.198785
45.306683
110.182762
275.635719
465.951562
771.859884
993.379951
1015.589833
1015.589833
1015.589833
1015.589833
817.270875
575.046539
299.487710
164.681673
64.004660
24.577975
8.529425
6.624460
6.267428
6.536841
7.053614
9.074807
14.799833
21.113753
33.145547
44.921637
60.721636
70.313811
77.254772
77.208877
72.466731
64.215660
50.680637
40.287971
28.055906
19.491911
12.519956
8.873940
6.007552
5.199909
4.762411
4.928708
5.098581
##ZVALUE=345
0.620484
0.649691
0.708699
0.706911
0.730753
0.546575
0.719428
0.797510
0.664592
0.808835
0.690818
0.832677
0.924468
0.828505
0.768900
0.785589
0.821948
0.797510
0.720620
0.628829
0.791550
0.750422
0.785589
0.749826
0.744462
0.720620
0.825524
0.967979
0.865459
0.700951
0.737906
0.894666
0.934601
0.915527
0.874996
0.813603
0.937581
1.010895
0.969768
0.998974
0.927448
1.044869
1.162887
1.042485
1.159906
1.256466
1.282692
1.335740
1.508594
1.462698
1.750588
1.656413
1.837611
2.247691
4.080534
24.212003
69.001913
186.142921
333.246589
615.507960
848.423839
1015.594602
1015.594602
1015.594602
1015.594602
928.850770
690.180659
390.276909
222.700834
92.870593
38.889647
11.652708
7.066727
6.339550
5.806684
5.596876
6.323457
8.228421
11.892915
19.943714
28.902888
42.642951
52.674413
64.653754
70.145726
71.148872
69.149733
59.611797
51.267743
38.615465
29.422641
19.806623
14.100671
9.796619
7.507801
6.489754
##ZVALUE=350
0.728965
0.589490
0.712872
0.594854
0.724792
0.661612
0.735521
0.806451
0.570416
0.787973
0.669956
0.648499
0.628829
0.677705
0.640750
0.691414
0.701547
0.713468
0.886917
0.695586
0.605583
0.825524
0.750422
0.813603
0.823736
0.835657
0.839829
0.896454
0.969768
0.913739
0.731945
0.862479
0.889897
0.875592
0.869632
0.841618
1.003742
1.088977
0.862479
0.844598
0.979900
1.149774
1.034737
1.115799
1.186728
0.993609
1.132488
1.277924
1.159906
1.395941
1.377463
1.542568
1.525879
1.597404
1.739860
2.021790
2.620816
13.100505
40.999651
125.268698
242.881775
489.696860
709.410906
985.514522
1015.589833
1015.589833
1015.589833
999.403000
786.098838
475.347638
293.644667
133.683681
60.764551
16.987920
7.745624
5.808473
5.325675
5.133748
5.153418
5.753636
7.474422
12.080669
17.030835
26.233792
34.846663
47.754645
56.319833
63.439608
65.727830
63.253641
57.296753
47.488809
38.748980
27.870536
20.868778
14.384985
##ZVALUE=355
0.583529
0.664592
0.855923
0.810623
0.741482
0.562668
0.564456
0.669956
0.736713
0.720620
0.741482
0.792742
0.697970
0.577569
0.589490
0.696778
0.747442
0.794530
0.812411
0.672936
0.738502
0.664592
0.598431
0.810623
0.798702
0.816584
0.838637
0.795722
0.820756
0.708699
0.786781
0.739694
0.836849
0.929832
0.883937
0.972748
1.075864
1.032948
1.001954
1.041889
1.106858
0.934601
1.088977
0.937581
0.897646
1.115799
1.157522
1.247525
1.185536
1.193881
1.272559
1.177788
1.449585
1.509786
1.525879
1.577735
1.766682
1.940727
2.257824
5.868673
21.612644
83.453655
171.406865
360.818505
565.365553
883.307457
1015.589833
1015.589833
1015.589833
1015.589833
871.845484
590.187907
377.979875
170.096755
82.306862
24.659634
9.792447
6.005764
5.343556
4.862547
4.608631
4.699826
5.183816
6.897449
9.716749
15.486479
21.765828
32.901764
41.017532
50.405860
57.004690
59.775710
60.017705
54.346919
47.510862
37.966967
##ZVALUE=360
0.787973
0.614524
0.690818
0.670552
0.793934
0.744462
0.631809
0.664592
0.601411
0.602603
0.691414
0.681877
0.647902
0.635982
0.769496
0.766516
0.805855
0.748634
0.755787
0.629425
0.691414
0.742674
0.822544
0.707507
0.965595
0.799894
0.962615
0.832677
0.695586
0.763535
0.817776
0.799894
0.933409
0.885725
0.757575
0.867844
0.816584
0.889897
0.821948
0.853539
1.036525
0.990629
1.015663
1.069903
0.957847
1.039505
0.998974
1.135468
1.108646
1.133680
1.100898
1.260638
1.231432
1.334548
1.406670
1.466870
1.583695
1.516938
1.833439
1.943707
2.123713
3.212690
9.542704
42.690635
104.195476
263.673663
438.934565
715.819597
937.739015
1015.592813
1015.592813
1015.592813
967.295766
675.646663
455.530882
225.653648
118.427873
44.170618
16.864538
6.387830
5.194545
4.831553
4.711747
4.295707
4.195571
4.653931
5.725622
8.140802
11.799932
18.815994
25.584698
36.347508
44.484735
52.242875
55.364966
55.716634
##ZVALUE=365
0.642538
0.784993
0.821948
0.605583
0.723600
0.656843
0.689626
0.790954
0.752807
0.624657
0.864863
0.787973
0.781417
0.560880
0.568628
0.631809
0.716448
0.611544
0.840425
0.729561
0.838637
0.651479
0.790954
0.679493
0.898838
0.750422
0.680685
0.873804
0.677705
0.844598
0.788569
0.849962
0.742674
0.934601
0.645518
0.869632
1.024604
1.000762
0.867844
0.879765
0.996590
0.864863
1.000762
0.975728
0.975728
1.005530
1.129508
1.068711
1.190901
1.110435
1.111627
1.077652
1.165867
1.093745
1.107454
1.404881
1.480579
1.437664
1.598597
1.516938
1.705885
1.831651
1.902580
2.308488
4.384518
24.218559
64.911842
173.231959
321.445465
597.243905
806.227922
1009.758711
1015.589833
1015.589833
991.500020
738.318563
532.306433
300.719738
168.924928
63.188672
25.405884
7.462502
5.329847
4.718900
4.567504
4.330873
4.111528
3.954768
4.259944
5.144477
6.965995
11.097789
14.955997
22.921562
29.548407
39.217472
##ZVALUE=370
0.693798
0.722408
0.648499
0.644922
0.812411
0.812411
0.626445
0.754595
0.571609
0.740886
0.763535
0.491738
0.580549
0.804663
0.701547
0.529885
0.565648
0.790954
0.756979
0.717640
0.958443
0.832677
0.721812
0.710487
0.676513
0.858903
0.759959
0.823736
0.870824
0.837445
0.846982
0.701547
0.896454
0.840425
0.805855
0.807643
0.817776
0.855923
0.823736
0.940561
0.913739
0.919700
0.997782
0.939965
0.876784
0.944734
0.877976
0.919700
0.913739
1.096725
0.998974
1.080632
1.092553
1.225471
1.111627
1.106858
1.029968
1.221895
1.184940
1.246929
1.296997
1.371503
1.619458
1.652837
1.930594
2.102852
2.838969
12.710690
41.344762
129.116774
245.492458
470.284820
682.093501
950.548649
1015.589833
1015.589833
1013.809443
818.127990
612.360835
351.399779
201.949477
82.299709
36.750436
11.371970
5.964637
4.677773
4.371405
4.098415
4.016757
3.800988
4.054904
4.511476
5.018711
6.849766
9.072423
14.218688
##ZVALUE=375
0.637770
0.694990
0.559688
0.792742
0.701547
0.688434
0.709891
0.669956
0.738502
0.520945
0.590682
0.609756
0.588894
0.772476
0.762939
0.728965
0.566840
0.552535
0.750422
0.705719
0.607967
0.658631
0.651479
0.675917
0.633597
0.787973
0.655651
0.642538
0.724792
0.764728
0.678897
0.733733
0.672936
0.805855
0.765920
0.710487
0.795722
0.823736
0.862479
0.919700
0.705719
0.928640
0.803471
0.902414
0.674725
0.886917
0.827909
0.924468
1.083612
0.920892
0.847578
1.052618
0.927448
0.922680
0.961423
0.997782
0.963807
1.049638
1.018643
0.989437
1.065731
1.074672
1.320839
1.481771
1.380444
1.489520
1.589656
1.768470
2.241731
6.110668
20.810962
74.490905
161.049962
361.827612
562.137961
836.281776
997.102857
1015.585661
1015.585661
885.233879
683.375001
413.060784
259.991884
126.665831
62.056780
19.497871
7.924438
4.722476
4.374981
4.011989
4.129410
3.939867
3.989935
3.998876
4.394650
4.603863
##ZVALUE=380
0.539422
0.591874
0.309944
0.393987
0.497699
0.556707
0.579953
0.574589
0.506639
0.488758
0.652671
0.581741
0.533462
0.493526
0.645518
0.653863
0.533462
0.621676
0.670552
0.635982
0.485778
0.657439
0.718832
0.500679
0.585914
0.668764
0.678897
0.680685
0.673532
0.818968
0.777841
0.786781
0.738502
0.877976
0.633597
0.556707
0.914931
0.803471
0.825524
0.694990
0.715852
0.793934
0.910759
0.823736
0.772476
0.859499
0.761747
0.850558
0.760555
0.743866
0.867844
0.687838
0.862479
0.972748
0.816584
0.921488
0.955462
0.799894
0.958443
0.920892
1.008511
0.999570
1.044869
1.067519
1.198649
1.137853
1.154542
1.429915
1.596808
1.682639
2.186894
2.899766
14.447570
44.697523
137.031674
252.727866
478.019714
691.176653
939.949751
1015.523672
1015.523672
963.367820
751.968622
565.874577
330.293775
190.748572
77.283978
34.894943
9.914637
5.140901
4.097819
3.859997
3.986955
3.887415
3.845692
3.580451
##ZVALUE=385
0.662804
0.642538
0.619888
0.600815
0.564456
0.655651
0.603795
0.497699
0.477433
0.515580
0.495911
0.599623
0.572801
0.526905
0.500679
0.608563
0.568628
0.612736
0.545979
0.573993
0.644922
0.509620
0.594854
0.551939
0.665784
0.718832
0.789762
0.725985
0.914931
0.830889
0.760555
0.870824
0.805855
0.788569
0.832677
0.860691
0.735521
0.977516
0.852942
1.047850
1.085997
0.834465
0.804663
0.928640
0.841618
0.896454
0.935793
0.857711
0.759959
1.090765
0.813603
1.141429
0.974536
0.891685
0.945926
0.987649
0.926852
0.785589
0.999570
0.978708
1.084805
1.109838
1.113415
1.186728
1.197457
1.166463
1.099706
1.303554
1.307726
1.466870
1.627803
1.706481
1.850724
2.273917
5.490780
30.771494
81.415772
202.446580
358.748436
634.892583
845.522881
1015.553474
1015.553474
1015.553474
921.504498
679.189563
486.879945
260.291696
143.287778
57.073832
23.098588
6.383657
4.429817
3.950596
3.904700
3.944635
##ZVALUE=390
0.713468
0.624657
0.528693
0.653863
0.598431
0.721812
0.519753
0.558496
0.521541
0.716448
0.486970
0.651479
0.532866
0.591874
0.636578
0.498891
0.566840
0.577569
0.580549
0.612736
0.547767
0.628829
0.643730
0.605583
0.541806
0.735521
0.778437
0.727773
0.789762
0.921488
0.817776
0.988841
0.985861
1.034737
0.961423
1.107454
0.953674
0.824928
1.063943
1.036525
1.011491
0.737906
0.771880
0.945926
1.106858
0.922680
1.060963
0.870824
0.969768
1.133680
1.081824
0.915527
1.017451
1.051426
1.074672
1.141429
0.891685
0.959635
0.982881
1.135468
0.999570
1.082420
1.248717
1.108646
0.975728
1.248717
1.344681
1.188517
1.396537
1.424551
1.526475
1.729727
1.677871
1.645684
1.757741
1.915693
3.399849
12.748837
59.827566
138.245821
317.965746
495.857000
745.788813
922.534466
1015.589833
1015.589833
985.189676
824.169517
562.544465
379.773974
192.804933
96.644759
33.021569
11.957884
4.917979
4.201531
##ZVALUE=395
0.620484
0.592470
0.686646
0.581741
0.542998
0.527501
0.478625
0.628829
0.594854
0.689626
0.642538
0.579953
0.632405
0.518560
0.673532
0.613928
0.573993
0.633597
0.544786
0.683665
0.596642
0.673532
0.736713
0.693798
0.766516
0.780821
0.803471
0.789762
0.941753
0.900626
0.891685
0.932813
1.044869
0.778437
1.011491
0.990629
0.919700
1.044869
1.076460
1.118779
1.162887
1.097918
0.970960
0.991821
1.223683
1.149774
0.936985
0.951886
0.926852
1.118779
1.027584
1.076460
0.971556
1.029968
1.041889
1.148582
1.110435
1.003742
1.027584
1.146793
1.133680
1.082420
1.100898
1.196861
1.103878
1.216531
1.218915
1.351833
1.351833
1.480579
1.486540
1.626611
1.527667
1.516938
1.627803
1.547933
1.789927
1.808405
2.434850
6.967783
38.441420
94.015002
221.783519
372.504592
635.640621
838.646889
1015.589833
1015.589833
1015.589833
925.347805
683.758855
481.655002
253.114700
134.174824
49.044490
20.729899
##ZVALUE=400
0.651479
0.800490
0.634789
0.742674
0.681877
0.777841
0.638962
0.593662
0.607967
0.598431
0.508428
0.580549
0.480413
0.600815
0.521541
0.392795
0.479817
0.574589
0.494719
0.633597
0.740886
0.690818
0.560880
0.607967
0.755787
0.799894
0.611544
0.723600
0.776649
0.796914
0.736713
0.810623
0.847578
0.912547
1.117587
0.948906
0.962615
0.939965
1.116991
1.102686
1.048446
1.085997
1.080632
1.050830
1.188517
1.034737
0.995994
1.070499
1.082420
1.117587
1.112819
1.040697
0.992417
1.198649
0.887513
1.105666
1.044869
1.073480
1.168847
1.062751
1.020432
1.216531
1.310706
1.050830
1.229644
1.129508
1.325607
1.153946
1.446605
1.469851
1.383424
1.543760
1.524687
1.265407
1.421571
1.276731
1.398921
1.482964
1.796484
1.723766
1.950860
3.840923
18.922687
55.109859
155.727863
287.893414
532.674789
737.919807
981.645584
1015.589833
1015.589833
989.370942
759.435892
559.786558
320.575833
190.749764
##END
