##TITLE=D4-4
##FORMAT=SPECTACLE-ASCII V-1.2
##DATA TYPE=ULTRAVIOLET SPECTRUM
##SECOND TYPE=ULTRAVIOLET SPECTRUM
##DATE=01/24/18
##TIME=13:23:30
##SPECTROMETER/DATA SYSTEM=SPECTACLE
##XUNITS=NM EM
##YUNITS=ENERGY
##YFACTOR=1
##FIRSTX=220
##LASTX=410
##NPOINTS=96
##3DDATA=Equidistant
##ZUNITS=NM EX
##FIRSTZ=210
##LASTZ=400
##ZPOINTS=39
##XYDATA=(Y..Y)
##ZVALUE=210
16.625524
15.949607
15.093684
11.563897
12.162924
10.609627
9.674430
8.724928
7.421970
5.545616
4.723668
3.783703
3.084540
2.667904
2.682805
2.366900
2.752542
3.247857
3.131628
3.049970
3.427863
2.744794
3.328919
3.634691
4.508495
5.046725
5.169511
5.829930
5.851984
6.553531
7.147789
8.363724
9.029508
7.992983
7.916689
9.084940
8.417964
8.665919
8.241534
8.340478
8.724928
8.496642
8.208752
7.819533
7.859468
7.181764
7.651448
7.101893
8.003712
7.280707
8.793473
7.725954
7.765889
7.171631
7.497668
7.367730
7.390976
8.449554
7.836819
8.154511
8.467436
6.852746
8.223653
7.027984
7.559657
7.058978
7.596612
7.331967
9.140968
10.114908
9.329915
10.850430
10.224581
11.820793
12.780428
13.177991
12.896657
12.205839
13.764501
11.322498
11.486411
10.526776
9.170771
8.463860
6.765723
6.506443
5.723834
5.805492
6.718636
6.688833
9.671450
12.207627
18.159747
20.928979
26.007891
32.363534
##ZVALUE=215
44.117570
41.996837
35.947561
27.261972
22.217631
20.053983
17.800927
17.017722
16.429424
13.422966
12.266636
10.481477
7.799864
5.597472
4.913807
3.612638
3.242493
2.622604
3.125668
3.327727
3.012419
4.348755
3.755689
4.381537
4.518628
5.357862
6.041527
6.562471
8.170605
7.910728
8.955598
9.706616
10.101795
10.117888
9.905696
10.683537
11.571646
10.149479
11.199713
10.472536
8.691549
8.394718
9.311438
8.926988
8.449554
8.090734
8.759499
10.117888
8.949637
9.728670
9.037852
8.863807
9.744763
9.355545
9.621978
9.126663
9.775758
9.888411
9.262562
9.588599
9.536743
8.476973
7.802844
9.102821
8.632541
7.634759
7.281899
8.033514
8.364916
9.651780
9.455681
10.611415
10.904670
11.246800
12.056828
12.714863
13.240576
11.210442
11.676550
11.436939
9.459853
8.007884
8.650422
7.251501
6.595850
6.339550
5.561709
4.687905
4.467964
4.420877
4.558563
5.121827
5.628467
6.426573
8.098483
13.746619
##ZVALUE=220
89.692473
87.443590
86.119771
78.831911
65.867901
48.657656
40.877461
31.695962
28.336644
26.166439
23.611784
25.077462
23.840666
19.257665
15.357733
11.167526
7.012486
4.859567
4.391670
4.251599
3.723502
3.363490
4.095435
4.752874
5.753636
6.097555
6.230474
8.391738
8.013844
9.370446
8.766651
9.751916
9.106994
10.554790
10.613799
11.622906
11.135936
10.912418
12.214780
11.368990
10.954738
10.904670
10.507703
11.000633
9.602904
10.005832
10.286570
10.110736
11.802912
11.205673
11.843443
11.190772
12.897849
11.776686
12.125969
13.800859
12.598634
13.602972
13.344884
12.997985
11.787415
12.886524
11.432767
11.421442
10.566711
10.621548
10.576844
9.753704
9.245872
11.577606
10.454655
12.444854
11.991858
13.132691
12.436509
14.048815
13.284683
13.245940
10.961890
11.424422
10.025501
9.828806
8.674860
9.144545
6.525517
6.436706
5.574822
5.830526
5.255938
5.439520
5.745888
4.535913
4.150867
4.962683
4.558563
5.221963
##ZVALUE=225
100.559592
110.087991
126.646757
143.630505
146.173835
131.688714
118.063688
86.686611
64.750910
52.871704
41.035414
40.212870
40.610433
42.018890
39.271712
34.853816
27.012825
21.311641
16.967654
11.260509
6.812811
5.126595
5.202889
5.135536
4.567504
6.163716
6.320477
6.950498
7.768869
7.782578
7.579923
9.441972
9.299517
10.058880
10.352731
10.649562
10.067821
11.129975
9.604692
11.840463
10.990500
11.903644
11.332631
10.897517
11.003613
11.913776
11.749864
11.778474
11.147857
13.781786
14.282465
14.651418
14.582872
14.896989
14.788508
15.057921
15.624762
15.801787
14.290810
14.218688
14.165640
14.917850
14.338493
12.779832
13.349652
13.735890
13.185740
12.379885
13.935566
12.966990
13.204813
14.191866
14.997721
13.840795
14.193654
12.627840
13.108850
12.618899
12.084842
11.648536
10.386705
9.920597
9.616613
7.824898
7.180572
7.292628
6.702542
7.028580
5.606413
5.378723
6.813407
5.209446
5.273819
5.494952
5.915761
5.248785
##ZVALUE=230
62.511563
72.543621
104.014874
160.244703
194.394588
234.013796
252.067447
236.949921
210.771561
154.157877
119.235516
82.984567
65.410733
58.637857
60.509443
64.057708
61.432719
63.153505
51.922798
41.847825
29.617548
20.559430
11.839867
9.107590
5.159974
5.033612
6.013513
5.540848
5.888939
6.433725
8.195639
6.478429
7.108450
7.826686
7.508993
8.531809
9.494424
9.916425
8.835793
9.784698
10.564923
11.033416
10.997653
10.426641
11.869669
10.386705
10.713935
11.955500
11.876822
13.455749
12.915730
12.282729
15.641451
14.965534
14.372468
16.440749
15.349984
16.897917
15.593767
16.775727
15.870929
14.689565
15.983582
15.548468
14.122725
14.769435
14.544725
14.854670
13.663769
14.595985
14.250875
14.358759
14.884472
15.068650
14.815927
14.385581
14.439821
13.250709
14.213920
11.070967
12.149811
11.175871
9.110570
9.133816
9.284616
9.141564
7.278919
6.975532
7.225871
7.235408
6.184578
7.063746
6.762743
6.482601
5.985498
5.073547
##ZVALUE=235
15.587807
20.717978
37.069917
85.502863
136.609674
212.181807
272.908807
345.015526
377.762914
373.705626
327.883959
259.456635
189.150572
131.966472
102.001429
82.708597
80.125928
89.831948
94.581842
92.934966
86.626410
72.098970
55.706501
36.402941
25.984645
15.191436
11.481643
8.436441
7.089972
5.863905
6.840825
6.790757
7.271767
7.083416
7.380843
7.552505
8.090734
8.350611
8.112788
9.105802
9.610653
10.315776
10.311604
10.622740
10.233521
10.689497
11.962652
11.836886
11.606812
11.669993
12.389421
12.701750
14.945865
14.167428
14.847517
13.960600
14.748573
13.826489
14.383793
14.317632
14.891624
15.057921
14.376640
13.570786
14.036894
13.211966
13.705492
14.497638
14.518499
15.088916
14.592409
14.970899
14.754534
16.008615
15.261769
14.835000
15.485883
15.001893
14.359951
13.045669
12.618899
11.061430
11.506677
10.158420
10.295510
9.347796
9.287596
9.357929
8.369684
7.766485
7.671714
8.025765
8.380413
8.448958
7.531643
8.063912
##ZVALUE=240
2.508759
2.585649
6.726980
16.135573
43.593645
83.319545
164.523721
253.226757
377.893448
456.885695
526.752472
524.508953
493.844748
393.100977
307.443738
202.891827
144.351721
108.148456
101.786852
109.562874
121.586919
123.735666
119.846463
109.684467
86.033940
71.192980
51.561594
34.918785
20.742416
13.824701
10.318756
8.648634
8.778572
8.160472
8.003712
8.317828
9.612441
9.146929
8.635521
9.361506
10.414720
10.038614
9.976625
11.608601
10.185838
11.114478
11.144876
10.606647
12.083650
12.672544
11.673570
12.598634
12.443662
12.120605
12.878776
11.869669
11.736751
13.094544
12.808442
13.133883
12.652874
14.205575
12.375712
12.052655
14.031529
13.257861
14.007688
13.815761
14.365911
14.078617
15.041828
15.123487
15.600920
15.932918
15.239716
16.074777
15.895963
15.710592
15.725493
13.699532
13.453960
12.871623
12.356639
10.598898
11.409521
10.538697
9.827614
8.868575
8.883476
8.618832
9.472966
8.344650
7.864833
7.627606
9.190440
7.742643
##ZVALUE=245
1.598597
1.634955
1.668930
2.105832
4.288554
9.440780
32.204986
69.999695
159.904957
245.395899
390.300751
494.740009
570.251942
606.113672
592.890978
497.763753
409.296751
274.673700
191.046596
128.377676
102.416873
102.983713
119.040608
130.372643
139.709711
130.517483
117.924809
96.807480
73.093772
55.438876
37.643909
26.211739
17.228723
10.768771
9.773970
9.557605
8.992553
8.718967
7.707477
9.252429
9.311438
9.965897
10.309815
10.570884
9.793639
10.645986
11.697412
11.436939
11.539459
10.785460
10.836720
11.273623
11.693835
10.987520
12.210608
10.965466
11.320710
11.420846
11.060834
12.108684
10.674596
10.941625
11.074543
11.763573
11.529922
10.411739
10.857582
11.411905
11.202693
12.452602
13.009906
12.726784
13.601780
12.796521
13.439655
13.069510
13.414621
12.249947
11.499524
10.708570
12.173653
9.628534
10.848641
9.181499
9.045601
9.496808
8.451939
8.075833
7.740855
8.342862
7.993579
7.362962
6.853938
7.269979
6.704926
6.902814
##ZVALUE=250
1.686811
1.381636
1.742840
1.825690
1.782775
1.583695
2.429485
7.062554
25.238991
56.051612
134.858489
229.544640
345.608592
497.303009
600.767732
684.287548
685.547590
614.196658
518.607497
359.761715
247.682929
168.079734
106.966496
99.172592
112.827420
124.674439
139.756799
146.156549
140.087605
127.870440
110.837817
80.423951
62.443614
36.430955
26.124716
16.027689
11.868477
10.082722
9.346604
10.013580
9.998679
9.741783
9.717941
10.885596
10.829568
9.964705
10.675788
11.730790
11.156797
11.019707
11.847615
11.282563
11.428595
11.958480
10.906458
10.864735
10.912418
11.092424
10.815859
10.638833
10.129809
9.626746
10.574460
10.020733
10.004640
9.249449
9.592772
9.982586
9.390712
10.238886
10.380745
10.987520
10.984540
10.885000
11.066794
11.067986
10.560751
9.869933
10.383725
9.298921
7.967949
8.096695
8.179545
7.138848
6.952882
6.370544
6.074905
6.105900
6.017685
6.197691
5.489588
5.909801
5.733967
5.538464
5.465746
5.667806
##ZVALUE=255
1.222491
1.640916
1.692772
1.420975
1.653433
1.716614
1.806617
1.861453
1.966953
4.761815
13.265610
44.896603
91.942549
200.474858
313.598514
478.828549
607.004762
725.899935
773.091912
723.408461
635.245442
509.012938
328.113437
211.472511
121.613741
94.425678
93.181729
109.728575
131.910443
148.332715
150.620937
148.251653
135.005713
109.654665
88.059902
58.750510
42.219758
25.247931
17.636418
12.562871
11.374950
10.293722
10.641813
10.148883
10.869503
11.031628
11.496544
11.408925
11.124611
11.416674
10.980964
11.342764
12.167692
11.849999
11.057854
10.946989
10.991693
9.827614
10.957718
10.660887
11.282563
10.475516
9.924769
9.130836
9.782910
9.114742
8.843541
8.887649
8.665919
9.039640
8.807778
8.885860
9.045601
9.122491
9.079576
8.426905
8.417964
7.867813
8.194447
7.706881
7.600784
6.912947
6.052852
5.615950
6.100535
5.508661
5.479455
5.032420
5.056858
4.864931
4.457831
4.471540
4.292727
4.963875
4.460812
4.532933
##ZVALUE=260
1.118779
1.339912
1.484752
1.555681
1.300573
1.566410
1.285672
1.644492
1.840591
1.645684
1.621842
2.416968
6.415844
26.638508
58.465600
149.826407
246.793628
418.896675
563.088655
737.839937
822.835565
845.664740
750.091672
613.798499
409.786701
284.831524
166.685581
107.795596
82.109571
85.318685
102.702975
130.379796
147.127509
159.862638
158.756971
139.445662
117.415786
86.978674
64.698458
41.883588
28.774738
18.843412
14.448762
11.932850
12.039542
11.917949
12.769699
11.866689
12.739897
12.540817
12.542605
12.474656
11.910796
12.888908
11.865497
12.702942
11.243820
11.950731
11.652708
11.313558
10.623932
10.698438
9.930730
10.382533
9.689927
9.402633
9.185672
9.247661
8.924603
8.336902
8.704662
8.658767
8.924603
8.207560
8.937716
7.947683
7.468462
7.618666
7.117987
6.897449
6.292462
5.777478
5.473495
5.311966
5.126595
5.436540
4.778504
4.015565
4.330873
4.539490
4.265904
3.971457
4.181862
4.363656
3.778934
4.346967
##ZVALUE=265
1.079440
1.309514
1.159906
1.338720
1.316667
1.170635
1.387596
1.528859
1.516938
1.600981
1.460910
1.820922
1.658797
1.938939
4.561543
14.638901
52.401423
104.831457
186.124444
365.826488
532.335639
746.873617
854.655504
902.019739
844.255686
685.168505
545.407534
343.303680
223.084688
120.704770
81.870556
71.744919
85.961819
116.000772
137.766600
156.292915
161.513686
154.340863
139.856935
115.590692
90.520978
61.669946
44.195652
28.057694
20.291805
15.073419
14.108419
13.612509
13.235807
13.318658
12.968779
13.859868
13.088584
13.203621
14.532804
13.887882
13.667941
12.569427
12.862682
12.219548
12.509823
11.832714
11.038780
10.850430
10.730624
9.970665
9.591579
9.403825
9.151697
9.951591
8.648634
8.867979
8.929968
8.600950
8.119941
8.063912
7.722974
6.981492
6.695986
6.613731
5.977750
5.103946
5.519986
4.908442
4.781485
4.477501
4.511476
4.603863
4.584789
3.952980
4.045963
4.086494
4.143715
3.933907
3.903508
3.669858
##ZVALUE=270
1.026988
1.136661
0.980496
1.211762
1.086593
1.276731
1.198649
1.202822
1.263618
1.279712
1.341701
1.495481
1.397729
1.679659
1.468658
1.793504
2.117753
8.225441
24.088621
76.782703
156.466961
279.359818
495.779514
668.976903
862.065554
946.213603
927.298665
844.348669
653.675795
495.806932
368.047953
186.219811
110.345483
64.544678
65.009594
89.889765
110.743642
141.178966
159.717798
162.172914
160.670877
139.834881
119.889975
90.259910
66.932440
45.185685
31.020641
22.068620
18.844604
16.151667
15.542507
15.630722
15.330911
14.698505
15.166998
14.824867
14.818907
15.207529
13.648868
13.969541
14.051795
12.934804
12.220740
11.662841
11.343956
11.044741
10.331869
10.010600
9.772778
9.655952
9.674430
10.405779
9.445548
9.107590
8.496642
7.837415
7.737875
7.175803
7.017851
6.618500
6.306767
5.988479
5.290508
5.225539
4.721880
4.618764
4.515648
4.476905
4.594922
3.848672
3.933907
3.950596
3.800988
4.061460
3.855824
3.977418
##ZVALUE=275
0.918508
0.898838
0.993609
1.018643
1.169443
1.071692
1.065731
1.174808
1.187921
1.197457
1.354814
1.317859
1.274943
1.493692
1.368523
1.226664
1.534820
1.715422
1.856685
3.800988
14.284849
40.760636
119.624734
229.470730
434.280038
606.333613
796.485543
918.408632
969.372988
921.303034
813.266635
605.932474
430.101752
230.619907
137.148499
66.753626
53.449869
64.253807
83.349943
114.180446
135.470629
155.699849
163.432956
157.879591
141.562819
113.317966
94.912648
68.809986
50.030947
32.780766
24.948716
19.025803
16.886592
16.458631
16.334653
15.087724
15.337467
14.991760
15.017986
14.541745
14.121532
13.326406
12.979507
12.796521
12.004972
11.183619
10.925531
10.708570
10.592937
10.451674
9.874701
9.305477
9.430647
9.063482
8.849502
8.460879
8.595586
7.482767
7.704496
6.727576
6.233454
5.798936
6.136894
5.615950
4.991889
4.736781
5.134940
4.409552
4.583597
4.650950
4.662871
4.194975
3.839731
3.997684
4.000664
3.858805
##ZVALUE=280
1.054406
0.873804
1.058578
0.953674
0.926852
0.915527
0.965595
1.023412
1.132488
1.237988
1.234412
1.341701
1.160502
1.248717
1.098514
1.349449
1.410842
1.440644
1.594424
1.747608
1.931787
2.170801
9.357929
29.686689
94.521642
175.224543
339.851975
497.639775
721.343756
870.406628
949.810743
958.888531
873.776674
667.181015
493.936539
281.153917
167.508721
80.402493
50.621629
46.108961
59.775710
87.198615
110.707879
138.500929
152.562857
161.925554
155.024529
136.502981
117.787719
87.927580
68.029761
46.289563
34.069419
23.418665
19.062757
15.313625
14.680624
14.713407
14.050603
13.363957
13.264418
13.190508
13.107657
11.878610
11.606812
11.867881
10.826588
10.805726
10.088682
10.113716
9.768605
9.736419
9.722710
9.249449
8.857846
8.765459
8.019805
7.782578
7.278919
6.897449
6.878972
6.134510
5.965829
5.646944
5.431771
5.011559
4.962683
4.652739
4.608631
4.517436
4.332662
4.562736
4.186630
4.233718
4.077554
3.858805
##ZVALUE=285
0.872612
1.074672
0.863671
0.946522
0.885725
0.990629
1.001954
1.133680
1.065731
0.998974
1.045465
1.275539
0.971556
1.045465
1.116991
1.043677
1.168847
1.071692
1.423955
1.495481
1.560450
1.552701
1.850724
1.991987
4.508495
15.305877
53.163767
112.153888
250.601768
396.737456
556.714535
788.784623
921.540856
993.409753
938.421488
769.196749
606.116652
379.266739
239.235759
114.396811
64.134002
36.417842
38.429499
57.180524
77.843666
107.165575
127.956867
145.576000
150.525570
148.089528
137.905478
113.973618
94.232559
65.444708
49.591660
30.637980
22.360682
15.428662
13.711452
12.221932
11.858940
11.449456
11.225939
10.761619
10.563731
10.493994
10.532737
10.136962
9.928942
9.356737
9.430647
9.484887
8.894801
8.783937
8.866787
8.665919
7.873774
7.378459
7.334948
7.141829
6.226897
6.539822
6.092787
5.318522
5.369782
5.731583
5.272627
5.359650
5.148649
4.610419
4.519820
4.067421
4.228950
4.058480
4.114509
4.039407
##ZVALUE=290
0.749826
0.953674
0.795722
0.793934
0.791550
0.837445
0.821948
0.781417
0.962615
0.793934
0.884533
0.855923
0.965595
0.885725
1.157522
0.964999
1.094937
1.002550
1.125932
1.279712
1.303554
1.421571
1.336932
1.496673
1.725554
1.759529
2.253652
6.008744
28.011799
67.518950
137.583613
295.537710
468.279719
720.746517
878.875852
1007.848978
995.215774
869.000554
710.435510
475.462675
312.270522
153.943896
81.012845
36.011934
26.851892
36.474466
49.751997
73.747635
92.239976
121.966004
136.697888
146.969557
143.746734
130.387545
111.542940
83.964467
64.091682
43.364763
29.861927
18.810630
14.166832
11.060834
9.539723
9.255409
9.065866
8.793473
8.781552
8.673668
8.270741
8.343458
8.422732
8.580685
8.150935
8.320808
8.148551
7.917881
7.523894
7.393956
6.925464
6.557703
6.474853
5.822778
5.957484
5.528927
5.382895
5.647540
5.199909
5.149841
4.923940
4.714727
4.693866
4.235506
3.936887
4.428625
4.269481
4.269481
##ZVALUE=295
0.795722
0.761747
0.824928
0.782609
0.714660
0.801682
0.758767
0.754595
0.965595
0.900626
0.818968
0.976920
0.803471
0.962615
0.989437
0.927448
0.962615
0.828505
1.139641
0.949502
1.077652
1.135468
1.110435
1.293421
1.532435
1.421571
1.640916
1.649857
1.924634
3.187656
14.497638
41.216612
95.596910
234.674811
385.753512
626.963973
794.442892
953.534842
1000.474691
920.688510
791.605711
564.709902
387.163758
199.472904
111.462474
44.424534
25.070906
21.656752
29.955506
47.983527
65.280795
92.820525
110.399723
131.354928
137.844682
135.761499
122.688413
101.214647
82.697868
56.717992
41.250587
26.103854
17.635822
11.894703
8.906722
7.850528
7.292628
7.547736
7.299781
7.187724
7.639527
7.402897
7.190704
7.280707
7.528663
6.967783
7.250905
6.497502
6.358624
6.071925
5.930662
5.754828
5.679727
5.046725
5.388856
4.904866
5.116463
4.499555
4.462600
4.671812
4.375577
4.200935
4.191995
3.930926
4.045963
4.151464
##ZVALUE=300
0.834465
0.750422
0.909567
0.784993
0.740886
0.879765
0.791550
0.816584
0.735521
0.808835
0.848770
0.935793
1.062751
0.940561
1.038909
0.916719
0.919700
0.951886
0.982881
1.020432
1.080632
1.146793
1.002550
0.968575
1.220703
1.331568
1.210570
1.314878
1.454949
1.445413
1.669526
1.846552
6.386638
21.523833
76.800585
152.593851
320.585966
492.912531
731.878877
875.157714
989.724994
988.638997
860.307813
702.446699
461.220741
301.502943
149.363875
79.807639
30.317903
17.636418
18.871427
25.338531
41.885972
57.643652
81.435442
101.077557
121.590495
128.229856
128.076673
118.506551
99.495649
80.841780
55.707693
39.842725
24.861693
17.154813
10.365844
8.371472
7.031560
6.415844
6.259680
6.580949
6.271601
6.580949
6.534457
6.409883
5.991459
5.913973
5.683899
5.609989
5.464554
5.521774
5.326867
5.163550
4.891753
5.104542
4.643798
4.484653
4.665852
3.953576
4.203916
4.146695
4.110932
3.693700
3.633499
3.840923
##ZVALUE=305
0.680685
0.657439
0.708699
0.681877
0.679493
0.779629
0.590682
0.780821
0.779629
0.815988
0.835657
0.861883
0.872612
0.930429
0.694990
0.729561
0.919700
0.779629
0.735521
0.782609
0.868440
1.002550
1.053810
0.971556
1.158714
0.946522
1.098514
1.295805
1.209974
1.364946
1.551509
1.553893
1.639724
1.746416
3.492832
11.879802
49.317479
108.917952
250.850916
402.340889
639.028549
810.886025
975.776911
1008.111835
916.245580
775.496960
548.517704
382.892489
203.384757
110.087991
42.232871
21.034479
12.861490
15.300512
25.456548
36.937594
57.708621
75.495839
98.031759
111.686587
120.283961
119.564533
110.021830
96.440911
73.365569
55.378675
36.912560
25.161505
14.632940
9.716749
7.248521
6.644726
6.011724
5.700588
5.562901
5.193949
5.625486
5.382895
5.061626
5.177855
4.936457
4.993677
4.759431
4.504919
4.657507
4.517436
4.606843
4.351735
4.177690
3.853440
3.714561
3.683567
3.598928
3.854632
3.521442
3.536940
##ZVALUE=310
0.685453
0.712872
0.591874
0.728965
0.727773
0.720620
0.873804
0.685453
0.768900
0.697970
0.769496
0.596642
0.729561
0.729561
0.632405
0.843406
0.810623
0.773668
0.741482
0.907779
0.911951
1.011491
0.911951
0.990629
1.043677
1.048446
1.005530
1.051426
1.060963
1.176596
1.347661
1.290441
1.441836
1.234412
1.546741
1.779795
1.919866
6.432533
21.075010
72.066784
144.986510
303.696990
467.256904
699.341893
854.784846
968.634486
957.100987
832.729936
685.825944
457.123518
302.324891
147.737861
77.901483
28.717518
13.683438
10.628700
13.235807
22.124648
32.074451
49.808621
66.915751
88.143945
102.632642
112.545490
114.315748
104.541779
93.071461
72.853565
54.791570
35.353899
24.317503
14.894605
10.404587
6.870627
5.685687
5.383492
4.996657
4.322529
4.485846
3.832579
4.102588
4.119873
3.818870
3.781915
3.720522
3.769994
3.672838
3.735423
3.843904
3.612638
3.513694
3.409982
3.262758
3.222823
3.071427
3.249645
##ZVALUE=315
0.724792
0.657439
0.662804
0.710487
0.601411
0.774860
0.655651
0.797510
0.760555
0.762939
0.803471
0.621676
0.628829
0.677705
0.695586
0.657439
0.852942
0.833869
0.638962
0.727773
0.824928
0.849962
0.932813
0.858903
0.948906
0.880957
1.114607
0.980496
0.992417
1.046658
1.046658
1.178980
1.146793
1.166463
1.209974
1.299977
1.389980
1.527667
1.780987
3.022552
10.826588
45.303702
100.871921
231.127739
385.489464
629.626513
788.080692
930.816531
973.796844
892.157555
757.955909
540.872812
381.249785
200.845599
108.419657
40.332675
18.247962
9.554625
9.524822
13.133883
18.454790
31.002760
43.958426
64.444542
80.733895
97.990632
106.739998
107.549429
101.156831
83.559752
69.605708
50.349832
35.878420
21.551847
13.978481
8.101463
5.580783
4.714727
4.225969
3.749728
3.282428
3.304482
3.399849
3.454685
3.200769
3.143549
3.027916
3.185868
3.105998
3.045797
2.827644
2.959967
2.797842
3.024936
2.888441
3.083944
##ZVALUE=320
0.667572
0.611544
0.489950
0.640750
0.827909
0.672936
0.709891
0.647902
0.764728
0.730753
0.780821
0.740886
0.967979
0.764728
0.681877
0.674725
0.711679
0.554919
0.651479
0.764728
0.721812
0.775456
0.760555
0.881553
0.864863
0.889897
1.050830
0.938773
0.952482
0.896454
0.932813
0.992417
1.082420
1.113415
0.955462
1.150966
1.178980
1.419783
1.409650
1.515746
1.664758
2.003908
5.066991
25.851727
64.379573
169.298649
288.024545
494.359732
667.610765
863.075852
949.286819
947.659612
851.689577
644.176006
464.050770
256.719589
145.506859
61.399937
28.273463
10.796785
7.739663
8.423924
10.690689
17.471910
25.834441
41.722655
55.751801
74.399710
88.594556
99.823475
102.460980
94.214678
83.581805
63.033700
49.139857
30.621886
21.144748
12.061596
7.984638
4.804730
3.640652
3.300905
2.985597
2.830625
2.640486
2.458692
2.621412
2.695918
2.617836
2.586842
2.581477
2.433658
2.479553
2.575517
2.513528
2.548695
##ZVALUE=325
0.780821
0.903606
0.798702
0.818968
0.704527
0.828505
0.990629
0.703931
1.033545
0.935793
0.902414
0.878572
0.934601
0.925660
1.022816
1.045465
0.797510
0.787973
1.015663
0.930429
0.928640
0.923872
0.991821
1.048446
1.067519
1.050830
1.160502
0.952482
0.940561
1.161695
1.237988
1.115799
1.053810
1.240969
1.253486
1.203418
1.146793
1.315475
1.451969
1.388788
1.498461
1.536608
1.804829
2.086759
3.203750
15.907884
42.222738
113.309622
206.036568
399.585962
568.221807
781.242847
895.903707
939.525962
872.340798
689.590573
519.914627
313.002467
189.906955
81.868768
40.050745
13.442636
8.244514
7.121563
7.849932
11.341572
15.518665
25.359988
38.006902
56.821704
70.394874
86.126924
91.840625
94.493628
88.270903
73.000789
59.948564
42.425990
30.916929
17.911792
11.481643
6.390810
4.375577
3.562570
3.071427
2.779961
2.680421
2.573729
2.390742
2.281666
2.274513
2.412796
2.340674
2.316833
2.264977
2.454519
##ZVALUE=330
0.924468
0.922680
0.904799
0.732541
0.791550
0.852942
1.174808
0.913739
0.971556
1.073480
1.002550
0.904799
0.858903
0.865459
0.914931
0.702739
0.942945
0.830889
0.778437
1.020432
1.043677
1.047850
1.077652
1.088977
1.093745
1.169443
1.068711
1.045465
1.206994
1.303554
1.066923
1.118779
1.136661
1.213551
1.137853
1.216531
1.159906
1.300573
1.249909
1.241565
1.311898
1.323819
1.489520
1.688600
1.789927
1.929998
2.356768
7.123947
21.974444
75.529814
146.802664
300.312638
454.762578
675.254464
818.758011
923.341513
903.504491
769.569874
619.472861
391.305685
248.858929
114.323497
57.953596
21.228790
9.716749
6.418824
6.387830
7.153749
8.996725
15.863776
22.776723
36.832690
49.602985
67.613721
79.120994
87.445974
88.126659
80.546737
70.710778
54.086447
41.255951
26.058555
18.435717
11.294484
7.325411
4.606843
3.447533
2.842546
2.745986
2.451539
2.455711
2.490878
2.329946
2.152920
2.354980
2.182722
##ZVALUE=335
0.616908
0.509620
0.646710
0.611544
0.493526
0.447631
0.593662
0.727773
0.627637
0.688434
0.611544
0.777841
0.606775
0.589490
0.638962
0.628829
0.578761
0.808835
0.698566
0.726581
0.687838
0.708699
0.798702
0.830889
0.788569
0.866652
0.821948
0.758767
0.828505
0.791550
0.789762
0.790954
0.891685
0.757575
0.833869
0.878572
0.858903
0.953674
0.830889
1.049638
0.907779
1.035929
1.045465
1.164675
1.169443
1.222491
1.271963
1.582503
1.533628
3.405809
11.092424
44.000745
96.149445
217.784643
357.949734
579.320788
736.907721
876.078606
905.964971
824.883580
689.981580
466.060638
311.559439
163.206458
85.738897
29.988885
12.964606
6.472468
5.589724
5.483627
6.341934
9.173751
13.010502
22.585988
33.237934
48.880577
61.254501
74.255466
80.206990
81.702471
75.942874
63.854456
52.188635
37.884712
27.309656
17.366409
11.413693
7.208586
5.007982
2.961755
2.651811
2.290606
1.909733
1.904964
1.666546
1.785755
##ZVALUE=340
0.548959
0.622869
0.662804
0.586510
0.657439
0.619888
0.527501
0.527501
0.560880
0.527501
0.528693
0.597835
0.571609
0.666976
0.582933
0.586510
0.658631
0.604987
0.534654
0.802875
0.572801
0.669956
0.802875
0.780821
0.723600
0.623465
0.736713
0.800490
0.824928
0.559688
0.690818
0.786781
0.875592
0.787973
0.750422
0.792742
0.767708
0.904799
0.855923
0.987649
0.751615
0.809431
1.036525
0.907779
0.982881
1.110435
1.196861
1.195669
1.201630
1.361966
1.605749
2.005696
5.408525
27.476549
68.249702
168.357491
285.340548
476.099849
622.698665
795.444846
863.078833
833.053589
732.346773
543.784499
389.274955
214.918852
115.559697
42.594671
17.523766
6.963611
5.581975
5.179644
5.174875
6.271601
8.363724
13.477802
19.883513
31.840801
43.398738
57.869554
66.979527
75.140595
75.217485
70.115924
62.089562
49.132705
38.996935
27.608871
19.626617
11.326671
7.331967
4.210472
2.942681
2.176762
2.218485
1.843572
##ZVALUE=345
0.659823
0.620484
0.590682
0.580549
0.736713
0.626445
0.600815
0.559688
0.528693
0.454783
0.516772
0.686646
0.551939
0.542998
0.622869
0.731945
0.593662
0.593662
0.675917
0.686646
0.539422
0.655651
0.579953
0.727773
0.685453
0.761747
0.694990
0.740886
0.561476
0.738502
0.714660
0.765920
0.774860
0.832677
0.705719
0.700951
0.923872
0.797510
0.830889
0.769496
0.952482
0.799894
0.828505
0.804663
0.830889
1.047850
0.962615
0.978708
1.086593
1.173615
1.159906
1.241565
1.263618
1.635551
2.745986
14.972687
41.506886
112.079978
202.435851
375.167727
525.668859
712.335706
807.971954
838.019848
775.162578
606.876612
453.264713
268.278718
151.777864
59.634447
26.602745
9.402633
6.159544
5.420446
4.824996
4.638433
5.161762
7.492900
11.043549
19.125938
27.667880
41.144490
50.974488
61.201453
67.161918
69.463849
66.737533
58.641434
49.805641
36.814809
27.057528
16.994476
11.604428
6.694794
4.358888
2.805591
##ZVALUE=350
0.662804
0.572801
0.558496
0.655651
0.574589
0.514984
0.610948
0.392795
0.688434
0.526905
0.598431
0.586510
0.575781
0.544786
0.702739
0.527501
0.562668
0.602603
0.738502
0.614524
0.522733
0.623465
0.715852
0.769496
0.590682
0.495911
0.620484
0.603795
0.571609
0.590682
0.744462
0.627637
0.742674
0.667572
0.786781
0.731945
0.841618
0.741482
0.787973
0.659823
0.656843
0.875592
0.871420
0.759959
0.848770
0.763535
0.902414
0.955462
0.967979
0.957847
1.119971
0.992417
1.007915
1.229644
1.226664
1.474619
1.877546
7.597804
23.291707
76.113939
147.193670
298.648477
436.928868
624.248981
747.609735
828.706026
801.737905
666.386485
515.592694
304.943919
186.019540
84.734559
38.846731
11.453629
6.131530
4.824996
4.415512
4.072785
4.190803
4.988909
6.677508
11.232495
16.257763
24.806857
33.565760
46.481490
54.340959
60.933828
63.462853
60.614944
55.251718
45.151711
35.909414
24.507642
17.894506
10.898709
##ZVALUE=355
0.590682
0.551939
0.616908
0.634789
0.558496
0.514984
0.564456
0.592470
0.668764
0.562668
0.649691
0.626445
0.721812
0.607967
0.580549
0.542998
0.630617
0.739694
0.663996
0.581741
0.533462
0.598431
0.667572
0.714660
0.626445
0.595450
0.693798
0.772476
0.804663
0.725985
0.895858
0.788569
0.789762
0.689626
0.695586
0.641942
0.678897
0.605583
0.652671
0.811815
0.691414
0.736713
0.816584
0.854731
0.841618
0.983477
0.865459
0.919700
0.800490
0.908971
0.983477
0.811815
0.921488
1.230836
1.197457
1.106858
1.164675
1.305938
1.529455
2.827644
14.159679
39.588809
108.353496
194.737911
364.108682
508.284569
679.388642
768.090487
779.529810
694.699883
519.174933
378.190875
212.737918
116.837621
44.331551
19.205809
7.217526
4.956722
4.265904
4.134774
3.766418
3.795624
4.643798
5.540848
8.841753
13.402700
21.273494
28.858781
40.191412
47.070980
55.137873
57.948828
55.895448
51.329732
42.379498
34.642816
##ZVALUE=360
0.467896
0.428557
0.442863
0.584722
0.438690
0.527501
0.505447
0.686646
0.510812
0.494719
0.398755
0.371933
0.630617
0.497699
0.614524
0.548959
0.339746
0.491738
0.596642
0.544786
0.573993
0.475645
0.563860
0.498891
0.602603
0.533462
0.403523
0.620484
0.514984
0.629425
0.560880
0.571609
0.757575
0.520945
0.670552
0.667572
0.505447
0.542998
0.761747
0.604987
0.533462
0.733733
0.687838
0.801682
0.784993
0.757575
0.844598
0.832677
0.652671
0.862479
0.910759
0.835657
0.818968
0.800490
0.943542
0.991821
1.097918
1.127720
1.238585
1.178980
1.441836
1.856685
5.490780
24.562478
60.455799
155.740976
263.619423
438.745618
584.104657
734.858513
774.892569
729.100704
628.373027
436.713696
294.709802
143.098831
74.204803
27.215481
10.953546
4.941821
4.501939
3.921986
3.610849
3.459454
3.469586
3.590584
4.621744
7.162690
10.596514
16.659498
23.797750
34.161806
40.441751
48.206449
52.059889
52.243471
##ZVALUE=365
0.585914
0.534654
0.463724
0.607967
0.654459
0.573993
0.567436
0.575781
0.516772
0.652671
0.522733
0.449419
0.515580
0.587702
0.574589
0.547767
0.514984
0.606775
0.528693
0.627637
0.752807
0.588894
0.812411
0.524521
0.693798
0.709891
0.658631
0.594854
0.725985
0.668764
0.647902
0.607967
0.675917
0.796914
0.747442
0.674725
0.585914
0.690818
0.701547
0.565648
0.787973
0.837445
0.779629
0.878572
0.734925
0.749826
0.771880
0.759959
0.780821
0.909567
0.977516
0.939965
1.046658
1.079440
1.065731
0.893474
0.897646
0.930429
1.138449
1.121759
1.228452
1.273751
1.484752
1.684427
2.705455
13.927817
37.974715
102.342963
190.284848
359.459519
495.274663
645.065904
717.632771
714.269876
634.980798
471.584797
339.746475
190.257430
103.484988
38.618445
15.346408
5.673766
4.504919
4.200935
3.824830
3.393888
3.298521
3.345609
3.363490
4.019737
5.582571
9.297729
13.791919
21.424890
28.355718
36.616921
##ZVALUE=370
0.465512
0.343919
0.438690
0.395775
0.400543
0.370741
0.520945
0.422597
0.427961
0.403523
0.244975
0.314713
0.489950
0.325441
0.474453
0.244975
0.425577
0.491738
0.454783
0.471473
0.554919
0.406504
0.492930
0.472665
0.499487
0.404716
0.424981
0.450611
0.410676
0.426769
0.518560
0.418425
0.446439
0.470877
0.400543
0.597835
0.547767
0.528693
0.455976
0.605583
0.639558
0.546575
0.568628
0.642538
0.646710
0.547767
0.550747
0.667572
0.544786
0.621676
0.662804
0.681877
0.638962
0.595450
0.650883
0.840425
0.621676
0.728965
0.825524
0.730753
0.802875
0.976920
1.050830
0.980496
1.079440
1.337528
1.725554
7.073879
23.196936
75.193644
145.838857
287.665725
428.055525
608.506799
703.196526
739.208460
694.918633
545.859933
407.285690
229.002833
129.552484
51.015615
23.599863
8.208752
4.676580
3.904700
3.659725
3.179908
2.993941
2.656579
2.740622
2.737641
3.516674
5.126595
7.509589
12.285709
##ZVALUE=375
0.528693
0.688434
0.668764
0.449419
0.480413
0.434518
0.607967
0.597835
0.582933
0.605583
0.506639
0.585914
0.401735
0.654459
0.729561
0.714660
0.647902
0.558496
0.633597
0.599623
0.716448
0.631809
0.729561
0.684857
0.555515
0.655651
0.639558
0.578761
0.781417
0.705719
0.671744
0.671744
0.590682
0.617504
0.767708
0.800490
0.665784
0.617504
0.750422
0.835657
0.686646
0.803471
0.750422
0.703931
0.692606
0.773668
0.675917
0.777841
0.842810
0.805855
0.749826
0.702739
0.660419
0.655651
0.759959
0.904799
0.912547
0.896454
0.910759
0.952482
0.943542
0.903606
0.954866
0.980496
1.065731
1.069903
1.205802
1.337528
1.482964
3.235936
16.113520
41.340590
107.879639
194.955468
358.461738
490.995646
651.195645
722.999573
710.024834
626.139641
474.253893
338.848829
187.778473
107.616782
41.699409
17.976761
5.698800
4.059672
3.696680
3.411770
3.176928
3.116727
2.859831
2.903938
2.790689
3.401637
##ZVALUE=380
0.561476
0.610948
0.573993
0.531673
0.613928
0.554919
0.632405
0.604987
0.526905
0.610948
0.664592
0.483990
0.505447
0.477433
0.591874
0.575781
0.605583
0.589490
0.604987
0.591874
0.645518
0.622869
0.652671
0.671744
0.626445
0.692606
0.751615
0.813603
0.833869
0.753999
0.610948
0.694990
0.814795
0.758767
0.604987
0.671744
0.695586
0.717640
0.734925
0.760555
0.677705
0.760555
0.667572
0.697970
0.735521
0.867844
0.766516
0.750422
0.742674
0.631809
0.681877
0.846982
0.876784
0.728965
0.797510
0.734925
0.875592
0.834465
0.883937
0.898838
0.828505
0.798702
0.833869
0.873804
0.953674
0.887513
1.025796
1.071692
1.250505
1.372695
1.611710
2.035499
8.553863
26.896596
82.997680
155.632496
298.854709
437.346697
606.039762
694.471598
706.894994
644.118786
509.516001
386.337638
231.559873
140.804648
59.134960
27.070642
7.917881
4.353523
3.559589
3.455877
3.221631
3.191829
2.885461
2.892613
##ZVALUE=385
0.482798
0.573993
0.525713
0.446439
0.594854
0.607967
0.561476
0.469685
0.355840
0.574589
0.460744
0.532866
0.651479
0.420809
0.541806
0.602603
0.493526
0.598431
0.501871
0.696778
0.600815
0.633597
0.464916
0.529885
0.688434
0.553727
0.618696
0.606775
0.676513
0.726581
0.670552
0.597835
0.738502
0.713468
0.759959
0.731945
0.738502
0.820756
0.838637
0.726581
0.794530
0.669956
0.678897
0.776649
0.788569
0.808835
0.684857
0.770688
0.736713
0.704527
0.746846
0.768900
0.792742
0.736713
0.605583
0.739694
0.771880
0.741482
0.617504
0.780821
1.030564
0.625849
0.663996
0.883937
0.801682
0.846982
1.000762
0.922680
0.972748
1.257658
1.267791
1.380444
1.269579
1.502633
3.347993
17.246604
45.640469
117.389560
211.079717
378.609896
511.164665
640.381575
678.804517
651.513934
575.821996
427.354574
309.621692
171.363950
99.154711
40.866733
16.786456
5.096793
3.680587
3.090501
3.078580
3.028512
##ZVALUE=390
0.453591
0.495911
0.352859
0.533462
0.456572
0.511408
0.490546
0.493526
0.568628
0.669956
0.521541
0.474453
0.351667
0.519753
0.595450
0.616908
0.517964
0.409484
0.432730
0.602603
0.522733
0.466704
0.620484
0.485778
0.586510
0.632405
0.746846
0.671744
0.615716
0.741482
0.715852
0.612736
0.654459
1.002550
0.663996
0.845790
0.936985
0.744462
0.924468
0.970960
0.815988
0.736713
0.718832
0.714660
0.684857
0.815988
0.823736
0.674725
0.839829
0.741482
0.695586
0.689626
0.792742
0.837445
0.755787
0.714660
0.855923
0.810623
0.770688
0.940561
0.937581
0.765920
0.678897
0.825524
0.885725
0.820756
0.930429
0.795722
1.061559
1.130700
1.087785
1.130700
1.264811
1.227856
1.246929
1.351833
1.854897
8.833408
27.939677
87.131858
165.872574
315.635800
434.727669
566.311479
637.938976
662.620664
614.627600
491.425991
374.512672
230.511427
135.781765
57.455897
26.074648
7.608533
3.932714
3.341436
##ZVALUE=395
0.784993
0.784993
0.628829
0.800490
0.750422
0.726581
0.758767
0.776649
0.699759
0.611544
0.428557
0.696778
0.822544
0.745654
0.743866
0.692606
0.770688
0.642538
0.671744
0.654459
0.792742
0.682473
0.795722
0.557899
0.841618
0.838637
0.945926
0.746846
0.849962
0.946522
1.255870
1.059771
0.992417
0.997782
0.851750
0.998974
0.997782
0.943542
1.089573
1.019835
0.880957
0.988841
0.993609
0.969768
0.980496
1.045465
1.003742
0.934601
1.121759
0.995994
1.027584
1.032948
1.031756
1.011491
1.027584
0.910759
1.034737
0.850558
0.964999
0.936985
0.959635
0.854731
0.990629
0.978708
0.919700
1.081824
1.186728
0.987649
1.131892
1.068711
1.278520
1.256466
1.131892
1.244545
1.145601
1.277924
1.275539
1.480579
1.656413
5.439520
18.176436
63.731670
121.442676
234.269500
350.977778
513.920784
616.732836
678.075552
663.504601
561.480522
440.765619
274.779797
172.096491
76.851845
37.885904
12.845993
##ZVALUE=400
0.672936
0.712872
0.574589
0.538826
0.491738
0.490546
0.516772
0.617504
0.575781
0.476837
0.536442
0.529885
0.440478
0.460744
0.589490
0.463724
0.490546
0.627637
0.608563
0.527501
0.515580
0.506639
0.587702
0.442863
0.491738
0.650883
0.650883
0.630617
0.638962
0.675917
0.628829
0.821948
0.786781
0.755787
0.778437
0.815988
0.752807
0.676513
0.676513
0.770688
0.839829
0.699759
0.846982
0.817776
0.723600
0.795722
0.799894
0.867844
0.806451
0.649691
0.864863
0.814795
0.885725
0.820756
0.863671
0.790954
0.814795
0.764728
0.836849
0.768900
0.796914
0.796914
0.857711
0.805855
0.797510
1.049638
1.051426
0.771880
0.983477
0.786781
1.015663
1.068711
1.100898
1.068711
1.062751
1.043677
1.081824
1.044869
1.198649
1.363754
1.373887
2.927780
9.896755
35.538673
77.366829
174.364448
282.841921
446.427464
557.746887
650.741458
664.801598
586.046576
488.842726
333.397985
223.165751
115.518570
##END
