##TITLE=D4-5
##FORMAT=SPECTACLE-ASCII V-1.2
##DATA TYPE=ULTRAVIOLET SPECTRUM
##SECOND TYPE=ULTRAVIOLET SPECTRUM
##DATE=01/24/18
##TIME=13:27:23
##SPECTROMETER/DATA SYSTEM=SPECTACLE
##XUNITS=NM EM
##YUNITS=ENERGY
##YFACTOR=1
##FIRSTX=220
##LASTX=410
##NPOINTS=96
##3DDATA=Equidistant
##ZUNITS=NM EX
##FIRSTZ=210
##LASTZ=400
##ZPOINTS=39
##XYDATA=(Y..Y)
##ZVALUE=210
16.384721
15.065670
13.089776
11.613965
11.361837
10.050535
10.300875
7.647872
6.227493
5.764961
3.703833
3.622770
3.271699
2.703667
2.075434
2.621412
2.522469
2.680421
2.857447
2.741814
3.100634
3.670454
3.266931
3.497601
4.143715
4.639626
5.402565
5.394816
6.627440
6.671548
7.538795
7.960796
8.248687
7.079840
8.112788
8.333921
7.987618
7.953644
8.035898
8.307695
7.840991
8.116961
7.719994
7.286668
7.231832
8.313656
7.435679
7.736683
8.079410
7.506609
7.629991
7.728934
7.834435
7.849932
6.613731
7.940531
6.913543
8.422732
7.555485
7.298589
6.469488
7.303953
5.833507
6.839633
7.376671
6.686449
7.215738
7.841587
8.005500
7.964969
10.391474
10.248423
10.432601
11.475682
11.908412
13.365746
12.862682
14.125705
12.343526
11.910796
11.076927
9.856820
8.061528
8.512735
6.639957
5.918741
5.887747
5.850792
5.878806
6.649494
7.543564
10.447502
16.376972
19.433498
24.596453
29.108524
##ZVALUE=215
40.081739
38.493872
32.365918
24.078488
21.492839
19.575953
17.146468
16.936660
15.717745
15.264750
12.480617
9.458661
7.881522
4.491806
4.015565
3.839731
2.968907
3.250837
2.969503
2.887845
3.253818
3.462434
3.952980
3.697872
5.075932
5.375743
5.720854
7.332563
7.237792
8.065701
8.698702
9.167790
10.986924
10.120869
10.408759
9.504557
10.180473
10.715723
9.565949
9.859800
9.415746
9.348989
9.526610
8.727908
8.795857
8.295774
9.172559
9.076595
9.008646
8.815527
8.945465
9.758472
9.071827
9.607673
10.366440
10.308623
9.688735
8.678436
10.013580
8.762479
9.543896
9.567738
8.527637
8.759499
7.410645
8.372664
8.385777
8.848906
8.954406
9.624958
9.855628
10.938644
10.719895
12.473464
12.627840
13.032556
10.556579
11.600852
11.760592
11.577606
9.677410
9.480715
7.778406
8.044839
6.485581
6.660819
5.391836
5.543828
5.438924
5.821586
5.500913
4.253983
5.448461
6.403923
8.034706
9.628534
##ZVALUE=220
78.564882
82.265735
73.697567
71.103573
64.059496
46.656728
36.987662
29.985905
28.737783
25.382638
24.412870
24.843812
23.431778
19.576550
14.404655
12.183785
8.593798
4.855990
4.352927
3.384948
3.518462
3.937483
4.318953
4.773736
4.239678
5.931854
6.844997
7.392764
7.761717
7.658601
9.644628
10.090470
11.064410
10.404587
10.499954
10.519624
11.296868
12.085438
11.344552
12.353659
10.534525
11.365414
10.660887
10.758638
10.175705
10.419488
10.814667
11.412501
11.827946
11.627674
12.196898
12.678504
12.062788
12.680888
12.896657
14.169812
12.585521
12.609959
14.265776
12.821555
12.980700
12.613535
12.179613
11.383891
11.102557
12.351871
10.790825
11.201501
10.778904
10.087490
13.461709
11.916757
12.560487
12.706518
13.479590
12.747645
12.628436
12.019873
12.637973
10.408759
10.288954
8.888841
8.271933
8.148551
8.965731
6.358624
6.317496
5.937815
5.392432
5.345941
4.649758
4.622936
5.454421
4.898906
4.893541
5.127788
##ZVALUE=225
93.968511
100.238919
120.360851
137.314796
139.483809
127.605796
112.272501
83.545446
68.252683
47.722459
42.198896
40.645599
41.570663
39.579868
38.923621
32.930970
28.415918
21.246672
12.716651
10.190606
6.555915
5.369782
4.893541
4.773736
4.486442
5.146861
6.457567
6.996989
6.989837
7.725954
9.048581
9.586811
9.284616
9.297729
10.135770
10.247827
10.478497
10.798573
11.472702
11.019707
10.530949
11.240840
10.515451
10.674596
10.788441
10.900497
12.232661
12.383461
12.309551
12.318492
14.434457
12.928843
14.349818
14.991760
15.504956
14.807582
16.702414
14.351606
14.395714
15.229583
13.540983
15.312433
15.559793
14.663935
14.236569
12.670755
14.137626
14.176965
12.280941
12.838840
14.032722
13.175607
13.080835
14.448762
14.065504
14.035702
13.967752
11.835694
12.004972
11.584759
10.057688
9.339452
9.736419
8.879900
8.084774
7.910728
7.387996
7.131696
6.508827
6.029606
7.125735
6.281734
5.237460
5.748868
5.384684
5.323887
##ZVALUE=230
63.411593
64.259768
99.755526
152.188540
193.127990
231.408477
235.736966
224.047899
195.596814
159.663558
109.102726
79.707503
63.532591
57.552457
59.933662
62.654614
64.178705
59.954524
51.897764
43.232441
29.105544
20.843744
15.025735
8.438826
5.833507
5.261898
5.584955
5.569458
6.581545
5.935431
7.463694
6.791949
7.593632
8.131862
8.021593
8.260608
9.008646
8.867979
9.679794
10.988712
10.984540
10.656714
11.277795
11.239648
11.336803
11.531711
11.224747
12.432933
13.023615
13.803840
13.355613
13.132691
14.424920
14.865994
16.322732
16.172528
16.656518
16.208887
15.936494
17.180443
15.200973
16.659498
16.773939
16.825795
16.736984
15.092492
14.714599
15.453696
13.807416
16.192794
14.891624
15.665889
15.713573
16.207695
15.663505
15.072823
14.915466
14.600754
13.292432
12.845993
12.408495
10.774732
9.679794
8.967519
8.418560
8.809566
7.919669
7.380843
7.192492
7.270575
7.626414
7.308722
6.782413
7.478595
6.531477
7.182956
##ZVALUE=235
16.284585
18.602610
39.354563
86.542964
139.775872
216.435790
282.944441
342.842937
372.812748
353.681445
320.181847
251.318812
181.889534
121.235847
97.417831
82.934499
81.103444
85.421801
92.196465
94.595551
84.812641
69.677830
51.725507
39.755702
25.680661
17.443895
13.966560
7.778406
8.127689
7.462502
6.316900
7.288456
7.761717
8.944869
7.033944
9.449720
8.815527
9.075999
9.578466
10.717511
10.053515
10.664463
11.099577
11.811852
11.867881
11.358857
11.236668
12.051463
11.464953
11.608601
12.797713
12.558699
14.639497
14.798641
13.756752
15.858412
14.957786
15.137792
13.897419
15.662909
14.778972
14.846921
14.735460
15.773773
15.420914
14.105439
13.512969
13.764501
14.805794
15.224814
15.046597
16.107559
15.958548
16.596913
18.007755
17.394423
16.232729
16.657710
15.079975
13.743639
12.136698
11.791587
13.088584
10.671616
9.188652
9.540915
10.159612
9.291768
9.130836
8.262992
8.550882
8.247495
8.417964
7.826686
7.924438
7.944703
##ZVALUE=240
2.278686
2.482533
6.534457
18.154979
43.043494
93.299747
158.720613
275.812745
364.043713
440.820456
529.384613
517.121553
461.089611
382.094979
286.251903
202.529430
135.919452
109.531879
98.980665
106.768608
118.432641
128.019452
123.370886
111.348629
88.740587
64.467788
48.963428
33.264756
22.001863
16.246438
12.009740
11.365414
10.569692
10.605454
10.474920
11.166930
9.009838
9.228587
9.570718
10.717511
11.169910
10.952950
12.459755
11.126995
11.991858
12.185574
11.748672
11.684895
12.226701
12.824535
12.713671
12.848973
12.569427
13.867617
14.546514
12.184978
13.467669
12.174845
15.187860
13.917685
13.821721
14.418960
13.073683
14.090538
13.594627
14.118552
14.193654
13.882518
14.439821
14.438629
14.535785
16.477704
16.052723
16.734600
17.106533
16.967654
16.980767
15.096664
15.019774
13.455749
13.839602
13.061762
12.275577
11.202693
10.365844
11.203885
10.984540
10.682940
9.845495
8.994937
10.285974
10.252595
9.007454
7.989407
8.243918
8.719563
##ZVALUE=245
2.154708
2.010465
2.234578
2.166629
4.098415
13.444424
29.780865
82.249641
145.017505
264.785886
370.602012
511.695743
584.300756
606.539845
569.478869
483.635664
383.120775
285.648704
181.282759
135.611892
103.627443
103.348494
122.248530
129.912496
136.970878
134.806633
119.500756
101.686716
77.521801
58.415532
42.053461
27.742982
20.441413
14.158487
13.239980
12.564659
12.823939
11.641979
10.800958
10.831952
11.287928
12.222528
10.697842
11.728406
12.513995
11.476874
11.598468
12.153983
12.524724
11.891723
13.019443
12.875795
13.228655
12.324452
12.114644
12.657642
10.512471
12.147427
11.933446
12.084842
11.792779
12.114644
13.501644
12.126565
11.998415
11.269450
11.796951
12.033582
12.221932
12.620687
13.668537
14.163852
13.005733
13.155937
14.412999
15.196800
14.002919
13.420582
12.901425
11.852980
11.525750
11.157990
9.566545
10.857582
9.558797
9.912848
9.343624
7.931590
8.570552
7.454753
7.851720
7.964969
8.358955
7.593632
8.108616
8.209944
##ZVALUE=250
1.561642
1.617670
1.590848
1.699924
2.130866
1.492500
2.164841
8.265972
22.323728
52.461624
128.931999
223.701596
381.723642
486.037731
610.736609
677.055717
665.364861
618.111491
557.819605
363.089442
251.664519
147.834420
111.558437
101.609826
109.430552
130.096674
144.989491
149.392486
140.652657
131.039619
113.229752
83.020926
64.931512
42.342544
28.795600
18.908978
14.720559
12.051463
11.945963
12.314916
11.466742
10.777712
10.596514
11.575818
12.121797
10.961890
11.613965
11.804700
12.859702
11.990666
11.998415
11.574626
11.743903
11.547804
11.605620
10.940433
11.472702
11.249781
10.568500
11.142492
11.325479
11.172891
11.444688
10.683537
10.406971
9.525418
9.948611
10.306835
10.769963
11.021495
10.183454
11.288524
11.575818
10.938644
11.921525
11.643767
11.189580
10.148883
10.005832
9.576678
9.341836
8.691549
9.218454
8.275509
7.404685
7.521510
6.657839
6.882548
6.285906
6.029606
5.884767
6.769896
6.256700
5.724430
5.788803
6.807446
##ZVALUE=255
1.367927
1.159906
1.376867
1.587868
1.559854
1.426935
1.788735
1.581907
2.067685
4.143715
18.904805
44.014454
90.765953
195.542574
307.758451
486.073494
599.891543
726.670623
761.801600
722.000599
625.532866
493.163466
311.150551
206.317902
116.606951
91.570616
92.905760
109.797716
135.984421
148.107409
153.272748
150.982738
138.078928
114.444494
90.873837
60.640574
42.441487
26.142001
19.235611
13.014674
11.638999
11.149645
11.781454
11.685491
10.557771
11.938810
11.476874
11.805892
12.169480
12.140870
11.820793
12.218952
11.619925
12.055635
11.432767
11.545420
11.649728
11.073947
11.287928
11.036992
11.180639
10.577440
10.002851
10.167956
10.199547
9.668469
9.670854
9.516478
9.533763
10.090470
9.835958
9.491444
9.329915
9.324551
9.445548
9.450912
8.788705
8.646846
8.306503
8.287430
7.682443
6.728768
6.736517
6.656647
6.112456
6.042719
5.554557
5.322695
5.428791
5.210638
5.295873
4.445910
5.261898
5.085468
5.426407
5.217791
##ZVALUE=260
1.461506
1.392961
1.142621
1.094937
1.693964
1.279712
1.309514
1.374483
1.459718
1.909733
1.829863
2.622604
6.356835
27.425885
64.501762
155.328512
259.801745
427.835584
570.192933
746.275783
828.870535
832.964778
730.141997
593.400598
400.444865
272.147655
158.722997
105.858445
81.203580
87.043643
107.141733
132.921934
151.038766
158.819556
156.004429
137.361884
116.051435
89.141726
65.200925
43.572783
29.621720
19.434690
15.049577
12.726784
12.342930
12.044907
12.493730
12.224913
12.594461
12.325644
12.430549
13.120770
12.519956
13.041496
11.772513
12.205839
11.529922
11.966825
12.453794
11.753440
11.474490
11.056662
10.103583
9.504557
9.239912
9.710789
10.131598
9.389520
9.317994
9.578466
9.237528
8.699894
9.504557
8.828640
8.659959
8.127689
8.055568
7.494688
7.923841
7.065535
6.721616
6.538630
5.950928
5.658865
5.310774
4.963875
5.009770
4.583597
5.226731
4.170537
4.409552
4.201531
4.262924
4.164577
4.276633
4.302859
##ZVALUE=265
1.067519
1.225471
1.157522
1.161695
1.090765
1.254678
1.191497
1.371503
1.485944
1.521707
1.707673
1.602769
1.639724
2.004504
3.875494
18.434525
46.327710
115.752816
211.341977
398.935676
563.004017
714.052916
862.591863
905.936956
817.005634
701.154470
522.748828
366.445780
205.456614
130.674839
87.455511
70.304871
84.468722
116.655827
137.160420
157.819986
163.074732
156.340599
140.775442
116.027594
91.110468
63.511729
46.038628
28.932691
20.729899
15.872717
13.762712
14.076829
13.485551
13.546944
13.574958
14.748573
14.658570
14.304519
13.709664
13.758540
12.740493
13.203621
13.319850
12.692809
11.965632
11.238456
11.274815
11.576414
10.264516
9.973645
9.671450
9.820461
8.972883
9.846687
9.689927
9.462833
8.956790
8.345842
8.632541
8.302927
7.508993
7.533431
7.215738
6.848574
5.853772
5.378723
5.667806
5.388856
5.712509
4.869699
4.737973
4.468560
4.868507
4.165769
4.121661
3.922582
4.070997
4.104972
3.948808
3.951788
##ZVALUE=270
1.030564
1.202822
1.262426
1.412630
1.036525
1.160502
1.246929
1.219511
1.262426
1.422763
1.302958
1.341701
1.432896
1.420975
1.515746
1.578927
2.226830
8.329749
25.173426
81.158876
162.776709
288.077593
506.058931
679.586530
864.964724
935.694575
910.555720
820.674896
638.641715
487.153530
363.828540
182.764530
109.322667
67.233443
65.743923
88.861585
113.180876
142.003894
158.442855
166.278481
160.377622
141.908526
118.853450
88.010430
66.493750
44.025779
32.013655
22.249818
18.046498
16.981959
15.945435
15.922785
16.219616
15.902519
16.518831
15.473962
14.909506
14.694929
14.191866
13.790727
13.540983
12.439489
12.770891
12.460947
11.942983
11.040568
10.523796
10.227561
9.683967
9.889603
9.618998
9.856820
9.409785
8.834600
8.832812
7.723570
8.179545
7.736683
7.094741
6.724596
6.782413
6.073713
5.953908
5.465746
5.376935
4.819632
4.475713
4.971623
4.407763
4.144907
4.369617
3.986955
3.874898
4.198551
3.959537
4.301667
##ZVALUE=275
1.176000
0.937581
0.869632
1.098514
1.231432
1.152754
1.203418
0.930429
1.214743
1.206994
1.158714
1.420975
1.419783
1.281500
1.278520
1.411438
1.575947
1.701713
1.885891
4.060864
15.112758
43.119788
127.865672
238.360763
447.428823
613.883734
802.640915
912.812948
967.581868
912.604928
795.859694
593.726635
420.382023
224.888921
132.118464
67.467690
53.755641
65.516829
83.696842
115.678906
137.735605
159.574747
164.822936
160.574913
145.255923
116.657615
96.220970
66.841841
50.802827
33.443570
25.228858
19.321442
18.021464
16.448498
15.632510
16.314983
15.966892
14.889836
15.375614
14.700890
14.262795
13.510585
13.145804
13.084412
12.515783
12.026429
11.224747
11.100769
10.749698
10.202527
10.429621
10.255575
9.777546
9.735823
9.626746
9.068847
8.331537
7.540584
7.430911
6.713867
6.797910
6.348491
6.023645
5.948544
5.512834
5.178452
5.294681
5.310774
4.459620
4.742742
4.259944
4.505515
3.880858
4.186630
4.236698
4.025698
##ZVALUE=280
0.898838
0.983477
0.837445
0.807643
0.814795
0.876784
0.889897
0.885725
0.866652
0.949502
0.912547
1.201630
0.857711
1.102686
1.176596
1.272559
1.199841
1.376867
1.348853
1.539588
1.791716
2.109408
9.506941
31.354427
100.523829
185.155869
349.597931
512.082577
729.609728
867.834687
949.941874
954.567790
864.866972
658.715963
487.580895
280.278921
172.194839
80.507994
51.524639
48.005581
61.615705
88.077784
112.414956
139.611959
154.559612
162.964463
154.635906
138.749480
121.408701
90.474486
69.119930
46.696663
34.039617
22.923946
18.454790
16.478896
15.486479
15.463829
14.552474
14.162660
13.938546
13.213754
13.143420
12.133718
11.861920
11.587739
11.478662
11.231899
10.615587
10.259748
10.134578
10.141730
9.823442
9.079576
9.341836
8.297563
8.705854
8.076429
7.331967
7.272959
6.894469
6.251931
5.787611
5.477667
5.581975
5.177855
5.141497
5.019903
4.955530
4.714727
4.681945
4.145503
4.247427
4.293919
4.086494
3.808737
##ZVALUE=285
0.940561
0.960827
0.922680
0.878572
0.846982
0.903606
0.927448
0.943542
1.082420
0.865459
1.012683
1.034737
1.133680
1.140833
1.217723
1.100898
1.347661
1.328588
1.278520
1.382828
1.362562
1.581907
1.557469
1.852512
4.864931
15.964508
55.456758
117.037892
251.654983
397.013426
570.630431
792.469978
922.454000
979.474783
926.838517
755.892992
591.588616
369.868875
235.638618
113.768578
61.045885
35.985708
38.672686
57.602525
78.550577
110.437870
126.705766
145.716667
154.672861
149.574876
138.234496
115.000606
93.968511
65.677762
48.307776
30.463934
22.270679
16.302466
14.053583
12.920499
12.391806
11.914968
11.556745
11.597872
11.107922
10.993481
10.475516
10.106564
10.219812
10.328889
10.270476
9.564757
9.944439
9.347796
9.284616
8.729696
8.242726
7.503629
7.585883
6.872416
6.616712
6.542802
6.163716
6.052852
5.930662
5.735755
5.432963
4.875660
5.084872
4.975796
4.819632
4.613996
4.316568
4.532933
4.088879
4.183650
##ZVALUE=290
0.881553
0.874996
0.800490
0.929832
0.708699
0.927448
0.837445
0.991821
1.014471
0.834465
0.995994
0.988841
0.955462
0.965595
1.142621
0.987649
1.109838
1.309514
1.104474
1.133680
1.364946
1.357794
1.422763
1.420975
1.718998
1.656413
2.332926
6.558895
31.204820
71.875453
172.389746
301.735401
473.400950
712.648034
872.195959
983.820558
970.211625
846.792459
689.502954
474.890471
311.941504
156.541467
81.532598
35.391450
26.521683
35.367608
50.093532
74.068904
95.787644
123.157501
137.708783
147.908926
146.114826
133.287907
113.202929
83.906651
63.921809
40.996671
30.321479
18.875599
14.632940
11.625886
9.930730
9.503961
9.370446
9.380579
9.024739
8.816719
8.996725
9.137988
8.192658
8.848906
8.945465
8.664727
8.476973
7.953644
7.903576
7.752776
6.891489
6.467700
6.358624
5.877614
5.966425
5.622506
5.652905
5.346537
5.518794
4.927516
4.858971
4.881620
4.310608
4.316568
4.718900
4.175901
4.414916
4.152656
##ZVALUE=295
0.795722
0.908971
0.920892
0.833869
0.791550
0.923872
0.784993
0.802875
0.762939
0.873804
0.814795
0.922680
1.077652
0.850558
0.910759
0.988841
0.998974
1.029968
0.925660
1.146793
1.157522
1.095533
1.199841
1.002550
1.233816
1.338720
1.424551
1.605749
1.791716
3.010631
15.293956
42.165518
100.545883
243.339539
395.984650
635.000467
798.317790
955.595970
985.211730
909.539461
778.085589
556.810498
382.144451
199.080706
110.762715
44.120550
24.443865
22.363663
29.553771
48.163533
65.722466
92.087984
111.987591
130.359530
137.776732
136.130452
124.876499
103.770494
82.924962
57.736635
43.121576
26.128888
17.432570
11.810660
9.443760
8.070469
7.476807
7.604957
7.460713
8.031726
7.637739
7.336736
7.362962
7.713437
7.531643
6.972551
7.060766
6.974936
6.621480
6.488562
6.109476
5.841851
5.741715
5.206466
5.579591
5.164742
4.921556
4.684925
4.785657
4.729629
4.581809
4.385710
4.422665
4.514456
4.273653
4.312992
##ZVALUE=300
0.720620
0.784993
0.744462
0.757575
0.826716
0.813603
0.779629
0.933409
0.771880
0.794530
0.816584
0.814795
0.807643
0.821948
0.786781
0.878572
1.008511
0.899434
0.900626
1.207590
1.034737
0.774860
1.085997
1.104474
1.249909
1.228452
1.589656
1.333952
1.668930
1.443624
1.849532
1.895428
6.479621
23.000836
78.752637
156.148672
323.011875
491.324663
726.656914
862.299800
968.051553
958.402753
826.670527
676.268935
448.037982
292.469859
146.084428
80.412626
31.765699
17.555952
18.339753
25.886893
42.075515
58.117509
83.643794
102.721453
122.164488
130.004883
129.255652
119.535923
99.459887
81.144571
57.654977
42.322874
24.659634
16.702414
10.869503
8.207560
6.808639
6.735921
6.573796
6.311536
6.835461
6.499887
6.593466
6.758571
6.378889
6.264448
5.823970
5.795956
5.586743
5.885959
5.444884
5.265474
5.265474
4.934669
4.621744
4.403591
4.530549
4.223585
4.632473
4.272461
4.412532
3.995895
3.987551
3.978610
##ZVALUE=305
0.705719
0.758767
0.628829
0.657439
0.782609
0.773668
0.841618
0.664592
0.657439
0.700951
0.787973
0.897646
0.842810
0.763535
0.872612
0.813603
1.046658
0.659823
0.915527
0.819564
0.976920
0.970960
0.909567
1.090765
1.064539
1.140833
1.113415
1.160502
1.165867
1.435876
1.242757
1.418591
1.439452
1.657605
2.724528
15.270710
43.120980
122.198462
224.622488
420.470834
591.001511
805.192590
924.252868
960.765481
894.583464
715.448856
553.951859
343.477726
214.567780
98.743439
48.596859
19.094944
12.611747
16.318560
24.162531
40.504932
56.758523
80.929995
97.592473
116.305947
122.534633
121.778846
111.679435
93.451738
75.914860
52.812696
38.693547
23.566484
16.120672
9.547472
7.608533
6.498694
6.191730
6.020665
5.573630
5.354881
5.422831
5.157590
5.134940
4.909635
5.151629
5.313754
4.808903
4.435778
4.773736
4.485846
4.339814
4.285574
4.329681
4.119873
4.004836
3.905892
3.994703
3.578663
3.786683
3.622770
##ZVALUE=310
0.725985
0.794530
0.663996
0.710487
0.673532
0.721812
0.751615
0.822544
0.833869
0.646710
0.743866
0.958443
0.871420
0.839829
0.854731
0.668764
0.829697
0.939965
0.879765
0.852942
0.771880
0.897646
1.055598
0.893474
1.144409
1.018643
1.112819
1.214743
1.089573
1.127720
1.162887
1.368523
1.396537
1.504421
1.430511
1.679659
1.914501
6.519556
22.104979
74.557662
148.467422
312.314630
472.595692
700.013638
849.719644
959.607959
944.151878
825.117826
677.541494
446.740985
295.713544
148.505569
79.666972
29.281974
13.571978
11.026859
13.356805
22.041798
32.441616
50.545931
67.939758
90.198517
105.364919
114.662647
115.342736
106.200576
94.174743
72.190762
54.944754
36.248565
24.745464
15.375614
10.329485
6.701946
5.848408
5.384684
4.944801
4.570484
4.555583
4.428625
4.221797
4.374981
4.176497
3.985763
3.848672
4.221797
3.774762
3.780723
3.483891
3.661513
3.681779
3.624558
3.520846
3.504753
3.607869
3.538728
##ZVALUE=315
0.657439
0.611544
0.810623
0.646710
0.725985
0.752807
0.710487
0.783801
0.789762
0.702739
0.746846
0.740886
0.724792
0.890493
0.750422
0.991821
0.711679
0.775456
0.709891
0.943542
0.848770
0.841618
1.071692
0.865459
0.907779
0.821948
0.779629
1.037717
0.983477
1.235604
1.032948
1.044869
1.283884
1.243949
1.272559
1.284480
1.649857
1.525879
1.728535
3.218651
11.150837
46.806931
103.571415
238.126516
392.268896
634.353757
789.902806
936.206579
971.602798
885.565877
759.506822
540.044904
374.829769
199.233890
107.200742
40.215850
18.242598
9.382963
9.383559
13.393760
18.504858
31.845570
44.312477
64.557791
80.986619
99.697709
107.067823
107.042789
100.708604
84.448457
69.155693
50.651431
36.273599
21.730661
13.956428
8.464456
6.107688
4.569888
4.115701
3.604889
3.520846
3.405809
3.293753
3.326535
3.514886
2.923608
3.265738
3.262758
3.058910
3.134608
3.111959
2.944469
2.827644
3.166795
3.256798
3.253818
##ZVALUE=320
0.692606
0.543594
0.590682
0.644922
0.615716
0.891685
0.720620
0.713468
0.663996
0.535846
0.741482
0.656843
0.577569
0.599623
0.742674
0.720620
0.730753
0.690818
0.655651
0.678897
0.927448
0.812411
0.850558
0.885725
0.797510
1.029968
0.765920
0.802875
0.994802
0.999570
1.105666
0.882745
1.034737
1.149774
1.236796
1.088977
1.264811
1.282692
1.296997
1.337528
1.609921
2.075434
5.323887
27.551651
68.801641
177.137852
301.407576
505.228639
679.505467
868.244767
946.762562
940.074921
850.003958
656.552911
474.257469
265.234709
152.008533
64.241886
29.291511
10.619760
7.725954
8.760691
11.190772
17.340779
25.761724
42.626858
57.192445
76.160431
89.338422
101.369619
101.467967
94.669461
83.967447
64.216852
49.373507
30.970573
21.513700
12.344718
7.832646
5.053878
4.027486
3.282428
3.193617
2.803802
2.715588
2.709627
2.645850
2.743602
2.607703
2.533793
2.646446
2.553463
2.512932
2.570748
2.458692
2.738833
##ZVALUE=325
0.568628
0.648499
0.686646
0.523925
0.616908
0.638962
0.749826
0.727773
0.536442
0.563860
0.778437
0.697970
0.601411
0.783801
0.660419
0.649691
0.686646
0.618696
0.829697
0.818968
0.793934
0.714660
0.873804
0.834465
0.862479
0.846982
0.657439
0.830889
0.869632
0.859499
0.854731
0.825524
0.941753
0.996590
1.046658
1.035929
1.057982
1.176596
1.176596
1.283884
1.237988
1.452565
1.517534
1.704693
2.985001
16.280413
44.699907
118.412971
215.841532
405.942798
573.248863
777.636766
895.989537
933.758616
870.585442
687.898993
520.868897
316.286683
192.099810
84.291697
40.970445
14.292598
8.043647
7.067919
7.537603
10.881424
15.403628
26.007891
37.868619
57.027936
71.160793
85.514784
92.828870
94.267726
88.256598
73.901415
60.689449
42.603612
30.756593
17.662644
11.207461
6.225705
4.500747
3.285408
2.986789
2.665520
2.557635
2.579689
2.354980
2.341866
2.304912
2.504587
2.459884
2.486706
2.318621
2.513528
##ZVALUE=330
0.583529
0.821948
0.586510
0.587702
0.472665
0.716448
0.604987
0.703931
0.664592
0.597835
0.516772
0.620484
0.810623
0.675917
0.533462
0.638962
0.688434
0.787973
0.780821
0.719428
0.662804
0.716448
0.666976
0.643730
0.692606
0.838637
0.823736
0.617504
0.740886
0.821948
0.925660
0.878572
0.767708
0.943542
0.969768
0.928640
1.016855
1.131892
0.974536
1.115799
1.216531
1.194477
1.190901
1.269579
1.375675
1.495481
2.028942
7.653832
23.492575
78.092813
151.817799
313.953757
461.698771
672.897696
809.668899
890.966654
869.399905
739.936829
594.185591
383.750796
246.891975
116.118789
58.502555
21.360517
9.664893
6.187558
6.099939
6.875992
9.234548
15.484691
23.346543
36.637783
50.122738
67.608953
78.845620
87.039471
88.170767
80.269575
70.355535
53.815842
40.460825
25.884509
18.148422
11.171699
7.160902
4.549623
3.062487
2.427697
2.517700
2.259612
2.297759
2.042651
2.202988
2.229810
2.147555
2.239943
##ZVALUE=335
0.578761
0.481606
0.590682
0.579953
0.554919
0.560880
0.594854
0.668764
0.559688
0.780821
0.620484
0.655651
0.708699
0.898838
0.649691
0.663996
0.559688
0.554919
0.655651
0.671744
0.775456
0.659823
0.728965
0.604987
0.708699
0.770688
0.798702
0.661612
0.816584
0.700951
0.639558
0.778437
0.873804
0.843406
0.795722
0.808835
0.923872
0.848770
0.859499
0.799894
0.844598
1.129508
1.054406
1.207590
1.277924
1.290441
1.393557
1.406670
1.501441
3.607869
12.052655
47.280788
101.209879
227.966905
372.231603
592.607856
744.868517
867.294669
881.631970
791.171789
663.285851
455.775857
307.835937
161.295533
86.157918
31.415820
12.706518
6.279945
5.758405
5.811453
6.394982
8.840561
13.151765
22.726655
32.961965
48.777461
61.217546
73.021650
80.186725
81.516504
76.063871
63.840747
53.432584
37.866831
28.431416
17.760992
11.693835
6.887913
4.755855
3.159642
2.534986
2.120733
2.230406
2.114773
2.118945
2.174973
##ZVALUE=340
0.657439
0.539422
0.608563
0.540614
0.526905
0.650883
0.511408
0.549555
0.579953
0.612736
0.651479
0.621676
0.609756
0.583529
0.595450
0.485778
0.605583
0.595450
0.596642
0.577569
0.576973
0.696778
0.676513
0.656843
0.709891
0.551939
0.719428
0.783801
0.717640
0.784993
0.692606
0.651479
0.752807
0.754595
0.718832
0.638962
0.828505
0.813603
0.872612
0.690818
0.764728
0.967979
1.055598
1.017451
1.082420
1.201630
1.144409
1.077652
1.212955
1.302958
1.409650
1.848936
5.546808
28.836727
70.381761
177.271962
302.086473
506.336689
651.870966
800.275803
849.762559
803.873539
707.437992
523.526669
367.545485
192.547441
106.084943
42.414665
17.941594
6.975532
5.423427
4.972816
5.159974
5.811453
7.992983
13.468862
20.225644
32.017827
43.947697
58.556795
68.946481
75.642467
75.946450
71.016550
63.848495
50.020814
39.320588
26.438832
19.364953
11.280775
7.288456
4.307628
3.140569
2.489686
2.410412
2.286434
##ZVALUE=345
0.539422
0.524521
0.406504
0.539422
0.582933
0.636578
0.633597
0.462532
0.438690
0.509620
0.525713
0.578761
0.626445
0.642538
0.587702
0.518560
0.424981
0.534654
0.607967
0.559688
0.520945
0.612736
0.557899
0.545979
0.582933
0.605583
0.642538
0.652671
0.679493
0.802875
0.676513
0.661612
0.655651
0.650883
0.652671
0.769496
0.787973
0.504851
0.679493
0.869632
0.816584
0.816584
0.780821
1.019835
0.936985
1.087785
0.932813
0.982881
0.995994
1.107454
1.237988
1.147985
1.305938
1.474619
3.411770
12.321472
51.574707
106.268525
228.635669
362.402797
562.358499
704.729557
820.986629
835.977793
742.556453
617.221594
418.956876
274.216533
126.907825
61.862469
20.684600
9.466410
5.771518
5.378723
4.636645
4.792809
5.359650
6.884933
12.089610
17.874837
30.203462
39.290786
51.912665
60.246587
68.785548
70.542693
66.758990
60.176849
47.983527
38.562417
26.568770
18.374920
10.800958
7.317662
4.237890
3.302693
##ZVALUE=350
0.571609
0.585914
0.495911
0.659823
0.753999
0.721812
0.503659
0.553727
0.601411
0.705719
0.476837
0.565648
0.725985
0.517964
0.599623
0.559688
0.592470
0.588894
0.601411
0.621676
0.632405
0.607967
0.678897
0.684857
0.611544
0.620484
0.709891
0.777841
0.651479
0.773668
0.641942
0.671744
0.579953
0.629425
0.721812
0.777841
0.607967
0.784993
0.767708
0.725985
0.819564
0.854731
0.855923
0.846982
0.850558
0.933409
0.936985
0.872612
0.977516
0.897646
1.059771
0.988841
1.176596
1.104474
1.381636
1.398921
1.849532
6.059408
27.939677
65.487623
163.550973
278.393626
468.872786
602.182746
748.939514
801.008940
758.439898
656.625628
458.205938
309.664011
158.912539
86.570978
33.543706
13.782978
6.055832
5.034804
4.548430
4.380941
4.172921
4.873872
6.767511
9.883642
16.766787
23.655891
35.453439
44.634938
55.962801
60.504675
63.964725
61.817765
54.051876
46.110749
34.125447
26.182532
17.423630
12.165904
##ZVALUE=355
0.574589
0.568628
0.729561
0.503659
0.546575
0.638962
0.444651
0.700951
0.747442
0.617504
0.511408
0.386834
0.524521
0.529885
0.539422
0.741482
0.456572
0.563860
0.652671
0.522733
0.528693
0.559688
0.704527
0.586510
0.559688
0.647902
0.656843
0.649691
0.631809
0.656843
0.705719
0.757575
0.704527
0.633597
0.699759
0.658631
0.691414
0.740886
0.731945
0.919700
0.752807
0.733733
0.779629
0.911951
0.788569
0.927448
0.710487
0.992417
0.969768
0.841618
1.140833
0.985861
1.054406
1.181960
1.021624
1.234412
1.302958
1.377463
1.628995
3.792644
13.337731
51.945448
106.613636
224.565864
351.668596
543.390512
671.290755
768.156648
765.470862
661.420822
537.253618
358.686447
232.164860
105.654597
50.609708
15.393496
7.187724
4.797578
4.298687
4.173517
3.916621
4.047751
4.379749
6.065965
8.720756
14.639497
20.454526
30.070543
38.130879
49.002767
54.603815
57.410598
57.049990
51.202774
44.681430
34.182668
##ZVALUE=360
0.675917
0.632405
0.780821
0.519753
0.580549
0.526905
0.679493
0.687838
0.543594
0.622869
0.541806
0.477433
0.649691
0.680685
0.553727
0.726581
0.719428
0.753999
0.740886
0.575781
0.551939
0.619888
0.537634
0.573993
0.520945
0.670552
0.726581
0.576973
0.755787
0.625849
0.709891
0.721812
0.716448
0.639558
0.834465
0.645518
0.784993
0.787973
0.746846
0.691414
0.844598
0.645518
0.694990
0.839829
0.809431
0.862479
0.960827
0.974536
0.978708
0.845790
0.831485
0.917912
1.047850
1.065731
0.999570
1.101494
1.210570
1.110435
1.245737
1.206994
1.269579
2.159476
6.003976
26.264787
64.688921
162.851810
271.048546
443.745852
580.319762
714.723468
747.679472
698.236823
596.532822
407.857895
270.949602
133.007765
69.013834
25.379658
10.385513
4.857779
4.342794
3.893971
3.652573
3.636479
3.480911
3.859997
4.882812
7.384419
10.589957
17.200708
24.058819
34.399629
42.030811
49.816966
52.478909
52.162409
##ZVALUE=365
0.475645
0.547767
0.560880
0.453591
0.442863
0.645518
0.572801
0.631809
0.502467
0.569820
0.560880
0.695586
0.669956
0.629425
0.651479
0.496507
0.622869
0.575781
0.599623
0.600815
0.727773
0.615716
0.661612
0.676513
0.598431
0.483990
0.665784
0.590682
0.715852
0.559688
0.747442
0.631809
0.721812
0.654459
0.724792
0.636578
0.739694
0.680685
0.624657
0.749826
0.842810
0.616908
0.719428
0.732541
0.768900
0.684857
0.724792
0.693798
0.747442
0.929832
0.789762
1.016855
0.976920
1.019835
0.946522
0.826716
1.031756
0.954866
0.985861
1.106858
1.399517
1.218915
1.374483
1.523495
2.908707
14.794469
40.025711
106.863976
197.492838
367.292762
497.858524
639.106631
711.485744
698.714852
618.855953
454.193950
323.666930
179.850459
98.557472
35.950541
14.571548
5.516410
4.548430
3.991723
3.733635
3.338456
3.294945
3.082752
3.227592
4.165769
5.662441
9.353757
13.659596
21.543503
28.584599
36.835670
##ZVALUE=370
0.554919
0.559688
0.615716
0.518560
0.536442
0.725985
0.586510
0.373721
0.518560
0.659823
0.557899
0.560880
0.398755
0.539422
0.505447
0.604987
0.593662
0.674725
0.498891
0.648499
0.667572
0.609756
0.504851
0.477433
0.507832
0.590682
0.675917
0.564456
0.644922
0.605583
0.627637
0.433922
0.615716
0.622869
0.672936
0.669956
0.690818
0.829697
0.583529
0.649691
0.569820
0.723600
0.793934
0.759959
0.673532
0.938773
0.744462
0.961423
0.753999
0.717640
0.911951
0.709891
0.872612
0.920892
0.787973
0.920892
0.874996
0.899434
0.998974
0.947714
1.053810
1.016855
1.013875
1.223683
1.240969
1.313686
1.761913
7.443428
24.326444
80.250502
150.242448
287.384987
418.733954
590.173602
676.174760
701.794028
648.868680
511.591434
380.053520
215.137601
119.833946
47.813654
22.194982
8.103848
4.502535
3.773570
3.575683
3.294945
3.067851
3.097653
2.796650
2.924800
3.716946
5.210638
7.602572
12.021661
##ZVALUE=375
0.357628
0.326633
0.323653
0.307560
0.350475
0.311732
0.260472
0.343919
0.429749
0.348687
0.300407
0.334978
0.411868
0.322461
0.203848
0.371933
0.233650
0.228882
0.333786
0.330806
0.404716
0.722408
0.200868
0.408888
0.429749
0.425577
0.363588
0.342727
0.422597
0.498891
0.482798
0.369549
0.414848
0.466704
0.393987
0.489950
0.484586
0.582933
0.482798
0.524521
0.524521
0.576973
0.549555
0.406504
0.605583
0.437498
0.626445
0.526905
0.468493
0.504851
0.582933
0.360608
0.636578
0.605583
0.536442
0.580549
0.698566
0.578761
0.604987
0.500679
0.858903
0.688434
0.802875
0.815988
0.970960
0.901818
0.902414
1.161695
1.258850
3.805757
13.253689
50.200820
107.372999
235.088468
354.616642
516.105890
622.410774
695.278645
675.776005
566.501617
439.574718
269.842744
170.850754
84.676743
42.523742
13.772845
5.785823
3.525615
3.402829
3.205538
2.829432
2.671480
2.493858
2.574921
2.632737
3.118515
##ZVALUE=380
0.396967
0.661612
0.588894
0.281930
0.435710
0.564456
0.521541
0.480413
0.345707
0.503659
0.475645
0.536442
0.477433
0.548959
0.554919
0.463724
0.515580
0.647902
0.458956
0.431538
0.486970
0.337958
0.443459
0.529885
0.720620
0.546575
0.575781
0.560880
0.638962
0.634789
0.648499
0.655651
0.754595
0.771880
0.578761
0.656843
0.648499
0.671744
0.702739
0.633597
0.566840
0.668764
0.631809
0.589490
0.602603
0.683665
0.651479
0.576973
0.672936
0.658631
0.736713
0.634789
0.729561
0.581741
0.590682
0.687838
0.788569
0.757575
0.644922
0.695586
0.747442
0.796914
0.843406
0.822544
0.802875
0.913739
1.023412
1.143813
1.202822
1.293421
1.189709
2.097487
7.302761
33.492446
77.727437
183.866620
295.737982
457.716584
578.084588
676.421523
681.723952
589.709878
488.041639
340.703726
231.049657
114.987493
59.453845
20.866990
8.927584
4.119873
3.546476
3.281832
3.233552
2.970695
2.964735
2.768636
##ZVALUE=385
0.539422
0.516772
0.555515
0.474453
0.442863
0.424981
0.602603
0.511408
0.518560
0.632405
0.529885
0.531673
0.580549
0.459552
0.547767
0.467896
0.571609
0.485778
0.553727
0.559688
0.476837
0.570416
0.530481
0.588894
0.751615
0.642538
0.631809
0.760555
0.690818
0.702739
0.684857
0.829697
0.889897
0.829697
0.782609
0.924468
0.778437
0.886917
0.811815
0.742674
0.862479
0.852942
0.762939
0.757575
0.861883
0.856519
0.731945
0.751615
0.781417
0.735521
0.797510
0.762939
0.751615
0.724792
0.650883
0.777841
0.636578
0.748634
0.692606
0.761747
0.730753
0.957847
0.871420
0.948906
0.736713
0.888705
0.945926
0.945926
0.870824
1.083612
1.146793
1.274943
1.351833
1.613498
3.593564
18.971562
48.644543
122.853518
219.557881
384.426713
513.546467
643.160939
673.999786
646.037459
563.971996
416.862965
296.935439
162.481666
92.401505
38.124919
15.939474
5.182624
3.798604
3.326535
3.273487
3.129840
##ZVALUE=390
0.715852
0.630617
0.580549
0.703931
0.594854
0.513792
0.630617
0.587702
0.628829
0.566840
0.584722
0.708699
0.487566
0.608563
0.557899
0.653863
0.556707
0.496507
0.681877
0.673532
0.633597
0.686646
0.729561
0.602603
0.791550
0.644922
0.643730
0.765920
0.855923
0.924468
0.792742
0.913739
0.940561
0.825524
0.918508
1.073480
1.034737
1.005530
0.909567
1.004934
0.834465
0.965595
0.888705
0.842810
0.898838
0.971556
0.840425
0.869632
0.887513
0.819564
0.913739
0.930429
0.878572
0.789762
0.864863
0.911951
0.826716
0.792742
0.901818
0.967979
0.802875
0.862479
0.908971
0.792742
1.076460
1.006722
1.084805
1.040697
1.110435
1.167655
1.202822
1.465678
1.276731
1.336932
1.375675
1.509786
2.012849
9.832978
30.319691
93.241930
177.281499
332.880616
451.229811
588.083863
657.697916
675.055981
619.577765
488.732457
370.207429
228.229761
133.507848
55.248737
25.868416
7.870793
4.351735
3.576875
##ZVALUE=395
0.540614
0.671744
0.489950
0.609756
0.522733
0.621676
0.530481
0.635982
0.680685
0.746846
0.638962
0.465512
0.579953
0.486970
0.555515
0.524521
0.376701
0.572801
0.601411
0.476837
0.607967
0.629425
0.670552
0.721812
0.783801
0.647902
0.773668
0.786781
0.768900
0.807643
0.905991
0.911951
0.813603
0.967979
0.794530
0.861883
0.973940
0.902414
0.944734
0.837445
0.936985
0.904799
0.930429
0.899434
0.967979
1.015663
0.902414
0.977516
0.820756
0.833869
0.934601
0.869632
0.801682
0.746846
0.928640
0.958443
0.972748
1.021624
0.883937
0.846982
0.836849
0.842810
0.838637
0.931621
0.981688
1.122952
0.973940
1.065731
1.035929
1.157522
1.104474
1.329780
1.260638
1.290441
1.180768
1.077652
1.231432
1.282692
1.698732
5.893707
20.451546
70.012808
134.326816
253.380537
374.587774
547.870398
645.107627
701.909661
678.656697
575.468540
449.090004
280.287862
172.735453
76.237917
36.702752
12.597442
##ZVALUE=400
0.705719
0.672936
0.686646
0.461936
0.477433
0.553727
0.497699
0.568628
0.506639
0.443459
0.616908
0.678897
0.456572
0.515580
0.400543
0.457764
0.454783
0.487566
0.549555
0.444651
0.566840
0.529885
0.509620
0.560880
0.584722
0.555515
0.665784
0.602603
0.706911
0.592470
0.719428
0.734925
0.862479
0.787973
0.785589
0.945926
0.852942
0.768900
0.819564
0.857711
0.825524
0.767708
0.895858
0.868440
0.920892
0.863671
0.951886
0.805855
0.792742
0.763535
0.722408
0.714660
0.740886
0.599623
0.630617
0.860691
0.848770
0.735521
0.915527
0.865459
0.789762
0.716448
0.902414
0.980496
0.833869
0.902414
0.828505
0.901818
0.896454
0.980496
1.068711
0.978708
1.031756
0.946522
0.991821
0.991821
0.975728
1.227856
1.131892
1.362562
1.406670
2.961755
10.708570
42.244792
89.892745
199.296474
308.477879
461.807847
580.611825
684.410930
691.160560
601.252913
497.759581
345.022678
228.347778
115.005970
##END
