##TITLE=D6-1
##FORMAT=SPECTACLE-ASCII V-1.2
##DATA TYPE=ULTRAVIOLET SPECTRUM
##SECOND TYPE=ULTRAVIOLET SPECTRUM
##DATE=01/24/18
##TIME=12:42:08
##SPECTROMETER/DATA SYSTEM=SPECTACLE
##XUNITS=NM EM
##YUNITS=ENERGY
##YFACTOR=1
##FIRSTX=220
##LASTX=410
##NPOINTS=96
##3DDATA=Equidistant
##ZUNITS=NM EX
##FIRSTZ=210
##LASTZ=400
##ZPOINTS=39
##XYDATA=(Y..Y)
##ZVALUE=210
14.981627
14.483929
12.187958
11.356473
11.023879
10.861754
9.735823
9.289980
8.091927
5.699992
4.776716
3.310442
2.638698
2.505779
2.651811
2.262592
2.987981
2.046824
2.323985
2.435446
2.773404
2.509952
3.417730
3.011823
3.852844
4.514456
4.848838
4.593730
6.204844
6.052852
7.100701
6.893873
6.906986
8.456707
7.350445
6.872416
7.275939
8.160472
7.749796
7.101893
6.374717
6.427765
6.488562
6.786585
6.425977
6.067753
6.354451
6.318688
5.832911
6.888509
6.880760
6.166697
6.534457
5.904436
6.164908
6.391406
6.605983
6.693602
5.880594
5.774498
6.061792
6.591678
6.192923
5.520582
6.579757
5.423427
5.119443
6.367564
7.027984
7.269979
8.105636
8.195639
10.038614
9.777546
10.751486
12.578964
11.421442
11.546612
11.054873
10.583997
10.730624
9.933710
9.066463
6.685853
6.648898
5.834699
5.333424
5.052686
5.157590
5.784631
7.454753
10.145903
12.558699
16.571879
19.783974
26.088953
##ZVALUE=215
38.049817
36.449432
27.947426
24.306774
19.706488
18.610954
17.996430
18.135905
14.926791
13.530850
11.457801
10.101795
8.509755
5.627871
3.920794
2.821684
3.129840
2.618432
2.648830
3.078580
2.964735
2.869964
3.539920
3.722906
4.433990
4.426837
5.122423
6.543994
7.653832
8.481741
8.072853
8.118749
9.309649
9.083748
8.309484
8.856654
10.105968
9.265542
9.272695
8.124709
9.391904
8.299947
8.414984
7.634759
7.474422
7.418990
7.514954
8.043647
7.509589
7.743835
9.242892
8.663535
7.660985
7.968545
8.163452
7.457733
9.262562
7.967949
8.738637
7.721782
7.668734
8.107424
6.886721
7.220507
7.161498
6.679893
7.457733
6.654859
8.345842
8.413792
8.795857
8.652806
10.615587
11.410713
10.683537
10.840893
9.944439
9.717941
9.972453
9.027719
8.116961
8.734465
7.041693
6.428957
6.006956
4.680753
5.695820
5.200505
4.713535
4.582405
4.461408
5.322695
4.653931
5.605817
6.880760
10.637641
##ZVALUE=220
74.991584
75.182915
74.794888
64.274669
56.997538
44.764876
35.875440
29.864907
27.143955
24.627447
26.813745
25.630593
23.056865
19.319654
14.445782
11.510849
6.988645
5.671978
3.585815
3.428459
2.887845
3.576875
4.110932
3.730655
4.870892
5.431771
5.748868
6.002784
7.284880
8.634925
9.084940
9.121895
9.915829
10.092854
11.960864
9.725690
9.411573
10.572672
10.934472
10.661483
10.643601
9.603500
10.173917
9.010434
9.269714
9.453893
8.400679
9.895563
9.547472
10.562539
11.024475
11.022687
10.985732
11.690855
10.123849
11.165738
10.061860
10.282993
10.838509
10.916591
10.567904
10.307431
9.869933
9.317994
9.152889
9.431839
9.030700
9.012818
9.515882
10.129809
10.607839
11.099577
10.680556
11.299849
12.075901
11.289716
11.128783
10.471940
10.102987
9.667873
9.746552
7.961988
8.668900
6.863475
6.925464
5.978942
5.671978
5.365610
4.790425
4.700422
5.108714
4.783869
4.377961
4.480481
4.322529
4.511476
##ZVALUE=225
90.513825
91.428757
109.322667
125.814676
130.339861
120.353699
103.298426
81.211925
62.799454
49.132705
41.358471
39.456487
41.743517
40.845871
38.113594
33.719540
27.721524
22.417903
16.110539
10.496974
6.835461
4.414916
4.652739
4.462600
4.295707
5.297661
4.900694
5.375743
6.214976
7.344484
7.704496
7.856488
8.925796
9.384751
9.237528
9.943843
9.925961
10.828972
10.246634
10.423660
9.544492
9.115934
9.462833
10.084510
10.316968
8.714795
9.827614
10.314584
10.555983
10.753870
11.810660
11.872649
11.799932
11.228919
11.166930
12.787580
11.741519
13.441443
13.591647
12.433529
11.725426
11.470914
11.182427
11.296868
11.042953
10.089874
10.091662
11.198521
9.224415
10.431409
11.388659
11.702776
12.253523
12.660623
11.628866
10.470748
11.722445
10.098815
9.188652
8.400679
9.189844
7.132888
7.680655
6.297827
7.098913
5.646944
5.795956
5.487800
6.265640
4.401803
4.164577
4.779696
4.972816
5.254745
4.792809
4.200935
##ZVALUE=230
55.510998
61.600804
90.785623
142.325759
168.592930
212.977529
216.576457
207.464695
178.138614
148.713589
104.895830
77.314973
61.099529
57.387948
61.004758
64.792633
65.381527
60.024858
54.360628
41.742921
30.949712
20.990968
13.368726
8.083582
4.999638
4.971623
4.691482
5.520582
5.852580
6.093979
6.054640
6.397963
6.494522
7.230639
8.108616
7.624626
7.711649
9.143949
9.532571
9.044409
9.156466
9.222627
9.419918
10.256767
8.925796
9.585619
9.272695
9.721518
10.283589
10.124445
11.329651
11.564493
12.506843
12.488961
12.572408
12.715459
12.146831
11.429787
12.056828
12.333989
12.244582
11.748672
11.807680
11.360645
10.427833
10.587573
10.343790
10.852814
11.244416
10.900497
11.916757
11.974573
12.078881
12.119412
12.715459
13.123751
12.011528
12.953877
11.260509
10.690689
10.843873
8.832812
7.360578
8.309484
7.356405
7.318854
6.850958
5.976558
5.342960
5.614758
5.710721
6.379485
5.719662
5.008578
5.918741
5.084872
##ZVALUE=235
16.515851
19.791722
36.422610
82.397461
129.097700
196.573734
254.630446
312.919617
335.987806
332.802534
283.717513
239.587426
160.825849
125.213861
94.201565
83.686709
82.350969
88.790655
93.214512
92.560649
85.095763
69.417953
57.170987
36.683679
25.337934
15.131831
10.468960
7.187724
6.325841
6.187558
6.953478
6.351471
6.644726
6.940961
7.920861
7.345676
7.465482
8.700490
7.673502
8.857846
8.934736
9.015799
8.826852
9.277463
9.567738
9.302497
9.726882
9.127855
9.428859
9.193420
10.129809
10.025501
9.460449
10.650754
11.668801
11.334419
9.822845
10.675788
10.649562
11.632442
11.592507
11.074543
10.516644
10.944605
10.424852
9.612441
9.570718
11.017919
10.439754
11.360645
11.237860
12.101531
13.902783
11.995435
13.963580
12.601614
13.388991
12.362599
11.991858
10.517836
10.932684
9.880662
8.868575
8.421540
7.998943
6.684661
7.024407
7.797480
7.000566
6.244779
6.236434
6.092787
6.526709
6.210804
6.518960
6.390810
##ZVALUE=240
2.277493
2.418756
5.990863
14.475584
42.739511
71.993470
146.698952
221.129656
325.430632
401.659608
448.915958
454.610586
417.792797
339.367986
266.671777
177.388787
128.767490
102.689862
100.575686
108.925700
118.804574
124.027729
118.020773
107.521415
86.878538
69.268942
44.188499
33.567548
20.060539
15.871525
10.334849
7.695556
7.685423
7.614493
7.687807
7.702708
8.299947
8.134842
8.655787
8.453727
8.601546
8.198619
8.989573
9.902716
9.009838
9.776950
8.869767
9.789467
9.511709
9.542704
8.790493
8.716583
9.268522
8.661747
10.652542
8.966923
8.944869
10.232925
9.942651
9.563565
9.685755
9.688735
9.391904
10.299683
9.142756
9.569526
10.151863
9.956956
9.893775
10.110736
10.597706
11.477470
11.709929
13.315678
12.736917
11.406541
12.821555
11.534691
11.036992
11.598468
9.879470
9.169579
9.683967
8.992553
7.519722
8.205771
6.842613
7.342696
7.269979
6.892681
6.633997
6.764531
7.362962
6.578565
6.147623
6.856918
##ZVALUE=245
1.370907
1.741648
1.413822
1.933575
3.851652
8.650422
29.352903
59.546828
134.669542
214.236975
336.733460
425.968766
484.762788
526.739955
503.412485
427.517891
349.613428
241.795778
170.359612
117.357969
100.919604
103.681684
119.738579
131.302476
135.673881
132.457614
115.410686
102.427006
74.071884
55.570602
40.642619
24.193525
15.900731
10.583997
9.483695
9.068847
8.512735
8.770823
8.324981
8.528829
8.231997
9.121895
8.673668
8.639693
9.243488
9.103417
8.973479
9.173751
8.352995
8.100867
8.171797
9.146929
9.549856
8.392930
8.640885
9.231567
9.715557
9.816885
8.603930
9.416938
8.758903
9.522438
8.541942
7.982850
8.012652
8.816719
8.973479
9.886622
9.853840
10.468960
9.515882
10.345578
10.325909
11.118650
10.757446
10.154843
10.098815
9.180903
9.645820
9.782910
8.538961
8.570552
7.991791
8.147955
7.168651
6.569624
6.340742
6.319880
5.918741
6.028414
5.778670
5.956888
6.361604
4.960895
5.593896
6.493926
##ZVALUE=250
1.474619
1.365542
1.685619
1.387596
1.539588
1.576543
2.256632
5.876422
21.846890
48.619509
117.767453
196.318626
296.550989
429.082513
515.590906
588.575602
578.211546
522.213578
440.290570
315.915942
221.012831
147.637725
100.224614
94.506741
110.171437
125.891566
142.575502
142.504573
141.310692
128.931999
110.026002
80.197453
61.812997
40.074587
25.973916
14.954805
12.179613
10.247827
8.927584
8.861423
9.255409
8.418560
8.514524
8.624792
8.446574
9.105802
8.286834
9.838939
9.267926
9.973645
9.134412
9.209514
8.600950
9.509921
8.917451
8.926988
8.740425
8.462667
8.301735
8.425713
8.758903
7.846951
7.814765
8.295774
8.550882
7.857680
8.033514
8.151531
7.795691
8.484721
8.176565
8.374453
8.499622
8.478761
8.869767
8.988976
8.752942
8.239746
8.495450
6.960630
6.781816
6.330609
5.914569
5.822778
5.695820
5.355477
4.941821
4.514456
4.985929
4.931688
5.197525
4.800558
4.666448
4.736781
4.564524
5.088449
##ZVALUE=255
1.229644
1.288652
1.349449
1.329780
1.460910
1.677871
1.496673
1.822710
1.780987
3.568530
15.393496
35.863519
75.994730
166.188478
257.945657
409.948826
513.808727
621.091723
660.975575
624.144673
548.252463
442.726612
275.923610
190.725923
112.108588
92.433691
91.596842
109.725595
128.529668
142.170787
151.067972
145.866871
130.947828
106.366873
86.486936
58.459640
40.307641
25.121570
16.549826
12.046695
10.684729
9.551644
9.145737
8.978844
9.704828
9.026527
9.783506
8.967519
8.635521
9.665489
10.032654
9.563565
8.663535
9.076595
9.290576
8.590817
9.600520
9.370446
9.585619
8.320808
7.900596
7.883906
8.124709
7.865429
7.636547
7.903576
7.871985
7.342696
7.426739
7.540584
6.773472
6.976724
8.004904
8.140802
7.767677
7.412434
7.660985
6.951690
6.663799
5.836487
6.250739
5.386472
5.497932
4.567504
4.723668
4.761815
4.593730
4.157424
4.205704
4.534721
4.205704
3.790855
3.987551
4.352927
4.069805
3.576875
##ZVALUE=260
1.338720
1.161695
1.498461
1.484752
1.390576
1.158714
1.199841
1.281500
1.357794
1.435876
1.821518
2.101660
5.237460
23.624897
52.391887
123.986602
210.722685
359.362960
481.398702
635.581017
708.662868
731.276870
653.568506
541.899800
370.901823
261.703730
152.002573
101.613998
78.797936
86.118579
103.978515
128.593445
143.526793
156.205893
152.086616
133.974552
114.176869
84.036589
61.797500
40.609837
27.834773
17.296672
12.963414
11.119843
9.973645
9.447932
10.532737
11.009574
9.734631
10.507703
10.659695
9.633899
10.076761
10.363460
9.799600
9.520650
9.749532
9.522438
8.701682
9.264946
8.790493
8.129478
8.686781
8.387566
7.585883
7.742643
7.688999
7.491708
7.054806
8.076429
7.716417
7.315874
7.658601
7.087588
7.434487
6.440878
6.682873
6.653666
5.875826
5.376935
5.186796
5.287528
4.889965
4.602671
4.488826
3.888607
3.904700
3.474951
3.940463
3.499985
3.722906
3.866553
3.342628
3.570914
3.285408
3.013611
##ZVALUE=265
1.096725
1.176596
1.279712
1.126528
1.119971
1.058578
1.369715
1.267791
1.244545
1.167655
1.269579
1.618862
1.596808
1.791716
3.773570
16.303658
39.620996
98.832846
177.881718
341.512561
474.793911
608.829856
751.991868
791.644454
728.009939
636.310577
468.974710
331.127048
183.990598
117.761493
72.516799
68.991780
83.366632
114.866495
135.447979
154.638886
161.681771
151.806474
138.771534
109.630823
89.054704
61.186552
42.246580
25.596619
19.690990
13.263822
11.472702
10.937452
11.060834
11.763573
11.288524
10.803938
11.968613
11.634827
11.245608
10.394454
11.528730
10.749698
10.439754
9.426475
9.214878
9.362698
8.913875
8.534789
8.268952
8.350611
7.667542
7.853508
7.206798
7.493496
6.995797
7.489920
6.872416
7.390976
6.741881
6.733537
6.302595
6.002784
5.725622
5.468726
5.261898
4.439950
4.510880
4.348755
4.209876
4.118681
3.501773
3.892779
3.724694
3.839731
3.229976
3.336668
3.250837
3.110766
3.116727
3.263950
##ZVALUE=270
1.097918
0.756979
1.087785
1.037717
1.151562
1.081824
1.232624
1.332760
1.263618
1.130700
1.398921
1.308918
1.413822
1.178980
1.199841
1.508594
1.954436
7.237792
21.300912
68.490505
138.418674
250.701904
447.297692
606.199503
771.611929
835.842490
820.428729
736.234784
567.882657
423.474908
324.801803
160.076618
94.757676
59.307814
60.225725
88.070631
108.772516
140.324831
153.323412
160.677433
157.709718
138.193965
119.298697
88.883638
66.147447
41.039586
28.315783
20.308495
15.846491
13.650656
12.975931
13.036728
12.570620
12.175441
12.197495
11.985898
11.885762
11.321902
11.490583
11.429787
10.665655
10.130405
9.659529
9.115934
8.792877
8.461475
8.787513
7.855892
7.897615
7.855892
7.813573
7.514954
7.518530
7.367730
6.970763
7.246733
6.636977
6.405711
5.754828
5.383492
5.167723
4.912615
4.496574
4.457831
4.329681
4.153848
3.960729
3.628731
3.587604
3.556609
3.781915
3.578663
3.632903
3.216863
3.147721
3.228784
##ZVALUE=275
0.952482
0.918508
0.847578
0.995994
0.971556
1.034737
1.076460
1.075864
1.047850
1.095533
1.008511
1.142621
1.035929
1.190901
1.155734
1.458526
1.507998
1.549721
1.483560
3.805757
13.569593
37.474632
111.352801
213.184953
402.040482
545.267463
722.704530
819.249749
851.603746
810.226798
704.127550
520.951748
367.122889
200.681686
118.304491
61.648488
50.516725
63.366890
82.391500
112.391710
132.888556
154.980421
160.267949
153.735876
140.785575
111.735463
89.808702
63.637495
45.784712
28.770566
21.289587
15.184879
13.983846
12.159944
12.830496
11.242628
11.386871
11.673570
11.397600
11.178851
10.874867
10.398626
9.661913
9.550452
9.434819
8.573532
8.277893
7.914901
7.860661
7.849932
7.821918
7.865429
7.846951
7.676482
7.226467
6.790757
6.384850
6.157756
6.300807
5.390644
5.275607
4.990697
4.964471
4.639626
4.192591
4.097819
4.290938
3.686547
3.610849
3.718734
3.632903
3.362894
3.318787
3.009439
3.110766
3.184676
##ZVALUE=280
0.939965
0.725985
0.953674
0.683665
1.044869
0.803471
0.987649
0.987649
1.027584
0.806451
1.022816
1.019835
1.044869
1.313686
1.053810
1.063943
1.296997
1.379848
1.406670
1.463890
1.460910
2.089739
7.834435
25.976896
86.432695
162.395835
307.517648
455.314517
657.050014
772.385597
851.223469
838.188529
755.572915
573.946834
420.102477
241.254568
147.602558
72.339773
46.712756
44.917464
58.417916
84.689856
108.143687
136.025548
149.248838
155.794621
149.160624
134.892464
113.809705
86.008906
65.160990
42.815804
30.068755
19.713640
14.939904
11.997819
11.194944
10.534525
10.196567
9.948611
10.450482
9.909868
9.532571
8.932948
8.771420
8.428693
8.481741
8.184910
7.972717
7.983446
7.873774
7.365942
7.454753
7.225871
7.173419
7.020831
6.481409
6.129742
5.828738
5.381703
5.474687
5.060434
4.785657
4.612803
4.692674
4.574656
3.885627
4.064441
4.078746
3.580451
3.456473
3.447533
3.499985
3.348589
3.287792
3.308654
##ZVALUE=285
0.793934
0.895858
0.841618
0.737906
0.855923
0.865459
0.761747
1.052618
1.019835
0.905991
0.961423
0.909567
0.928640
1.173615
1.018643
0.921488
0.948906
1.092553
1.233816
1.144409
1.314878
1.500845
1.547933
1.675487
4.082918
13.107657
49.156547
102.797747
218.490958
351.377726
505.756736
703.118443
815.230012
873.003602
819.325447
657.467842
514.849424
318.837762
199.469924
96.848607
53.455830
33.466816
36.609769
54.774880
74.375868
105.787516
125.140548
143.458843
147.819519
146.059990
133.934617
110.020638
88.647604
61.478615
43.911934
26.916862
18.670559
12.540817
10.447502
9.303689
8.866787
8.451939
8.161664
8.926988
7.954836
7.410645
7.968545
7.798672
7.716417
7.716417
7.434487
7.341504
6.854534
6.996989
6.752610
6.623864
6.260872
5.980730
5.603433
5.674958
5.545616
4.913807
5.083680
4.686713
4.166961
4.364848
4.127622
3.846884
3.651977
3.633499
3.946424
3.393888
3.559589
3.321767
3.355742
3.428459
##ZVALUE=290
0.774860
0.764728
0.883937
0.867844
0.936985
0.857711
0.741482
0.758767
0.865459
0.741482
0.850558
1.009703
1.070499
0.882745
0.975728
0.918508
0.870824
1.015663
1.085997
1.019835
1.234412
0.993609
1.277924
1.393557
1.357794
1.570582
1.821518
5.370975
24.660826
60.347915
121.549964
258.084536
404.973030
613.878965
743.693709
835.718513
825.271606
709.761977
583.308935
390.951633
259.484649
131.497979
71.212649
32.113791
24.522543
33.987761
49.288869
72.116852
93.045831
117.608905
133.756995
140.522718
141.589642
125.447512
108.458996
80.910921
61.024427
39.457679
26.818514
16.055703
11.305809
8.118749
7.407665
6.862879
6.693602
6.732941
6.552935
6.914735
6.480813
6.716847
6.703734
6.721616
6.584525
6.631613
6.352663
6.286502
6.161928
5.780458
5.855560
5.184412
5.305409
4.852414
4.609823
4.561543
4.355907
4.299879
4.191995
3.989935
3.950596
3.952980
3.853440
3.628731
3.851652
3.785491
3.375411
3.213882
##ZVALUE=295
0.578761
0.597835
0.678897
0.635982
0.620484
0.557899
0.699759
0.725985
0.714660
0.725985
0.612736
0.868440
0.667572
0.712872
0.788569
0.859499
0.777841
0.846982
0.891685
0.734925
0.915527
0.936985
1.053810
0.950694
0.944734
1.060963
1.204610
1.324415
1.490712
2.428889
12.753606
35.397410
101.401806
191.987753
362.491608
511.806607
692.683458
795.172453
824.974775
773.465633
628.158450
487.428904
304.857492
188.778639
89.195967
45.282841
21.404624
19.245744
29.325485
43.380857
67.325830
86.735487
110.775828
125.170946
133.480430
132.110715
116.913915
101.872683
77.041984
59.504509
37.717819
25.452971
15.578866
10.474920
7.096529
5.980730
5.636811
5.506873
5.686879
5.681515
5.806684
6.121993
5.458593
5.958676
5.747676
5.843639
5.657673
5.166531
5.221963
4.967451
4.592538
4.549623
4.169941
4.130602
3.965497
3.741980
3.794432
3.839731
3.654957
3.545880
3.406405
3.389716
3.167987
3.147721
3.140569
3.150702
##ZVALUE=300
0.788569
0.673532
0.758767
0.780821
0.828505
0.706911
0.772476
0.769496
0.836849
0.842810
0.754595
0.801682
0.739694
0.746846
0.753999
0.915527
0.984669
0.841618
0.994802
0.967979
0.839829
0.738502
1.081824
0.991821
1.031756
1.084805
1.032948
1.318455
1.385808
1.371503
1.815557
1.842976
5.596876
19.014478
65.741539
130.362511
280.300975
425.451994
621.556640
742.822886
824.946761
823.732018
701.359510
570.629835
378.082991
249.077678
128.699541
71.275830
27.598739
15.872717
17.222762
24.865866
40.561557
56.468844
81.241727
99.269748
119.344592
126.421452
124.159455
115.924478
95.661879
79.295635
55.666566
39.658546
23.343563
15.313625
9.320974
6.607771
5.668998
5.528927
5.359650
5.134940
5.223751
5.261898
5.037785
4.943609
5.054474
4.828572
4.926920
4.709959
4.747510
4.296899
4.306436
3.945827
4.050732
4.067421
3.638864
3.811717
3.644824
3.461838
3.711581
3.299713
3.202558
3.222823
3.369451
3.022552
##ZVALUE=305
0.611544
0.625849
0.558496
0.620484
0.661612
0.571609
0.792742
0.724792
0.696778
0.722408
0.575781
0.754595
0.998974
0.749826
0.785589
0.681877
0.678897
0.780821
0.973940
0.792742
0.753999
0.886917
0.791550
0.696778
0.928640
1.085997
1.010895
0.897646
0.911951
1.015663
1.216531
1.474619
1.417994
1.568794
2.575517
13.111830
37.361979
111.894608
205.614567
380.662680
524.714589
698.796511
791.758895
817.989707
757.229924
596.607924
466.131568
295.354724
187.867880
86.567998
43.636560
17.034411
12.058616
15.768409
23.038983
38.287640
54.232478
76.723695
94.353557
111.891627
119.336843
117.535591
108.824968
91.954470
73.690414
50.715804
36.938787
21.903515
14.446974
8.466840
6.709695
5.270839
5.108714
4.839897
4.663467
4.540682
4.629493
4.232526
4.060864
4.081726
4.160404
3.748536
3.938675
3.475547
3.565550
3.655553
3.538728
3.406405
3.207922
3.182888
2.999902
3.028512
2.893806
2.985597
3.065467
3.052950
##ZVALUE=310
0.712872
0.735521
0.573993
0.724792
0.628829
0.917912
0.693798
0.995994
0.872612
0.754595
0.797510
0.818968
0.902414
0.709891
0.661612
0.760555
0.732541
0.963807
0.778437
0.973940
0.815988
0.877976
0.826716
0.849962
1.003742
0.994802
0.985861
1.058578
0.927448
0.998974
1.139641
1.235604
1.238585
1.458526
1.303554
1.364946
1.675487
5.609989
18.776655
64.953566
131.416917
273.144841
412.832499
602.414608
715.065598
801.106691
780.177712
678.007603
560.166836
384.000540
260.246992
133.051872
72.874427
27.169585
12.934804
10.027885
13.043880
21.642447
31.144619
49.784780
66.413879
88.120699
102.065802
112.371445
112.484694
103.061795
90.618730
69.329739
53.502917
34.092665
23.510456
14.059544
9.180903
6.273985
5.065799
4.399419
3.987551
3.911853
3.795624
3.358722
3.643632
3.379583
3.467798
3.462434
3.446937
3.287792
3.340840
3.247857
3.275871
3.058910
2.983809
2.886653
2.746582
2.847910
2.844930
2.827644
##ZVALUE=315
0.624657
0.575781
0.718832
0.608563
0.607967
0.739694
0.621676
0.653863
0.663996
0.624657
0.594854
0.682473
0.624657
0.719428
0.713468
0.737906
0.721812
0.813603
0.589490
0.715852
0.877976
0.671744
0.937581
0.785589
0.936985
0.861883
0.729561
1.004934
0.964999
0.987649
0.977516
0.985861
1.024604
1.003742
1.055598
1.295805
1.286864
1.567602
1.565814
2.724528
9.764433
41.014552
93.955994
218.706727
345.851779
543.144941
666.964650
777.231455
809.309483
749.023557
653.962493
483.408570
346.576571
186.541677
103.617907
38.831830
16.867518
8.699894
8.782744
12.703538
18.084645
30.487776
44.004917
63.682795
79.771876
97.091794
104.293823
105.196834
99.229813
81.699491
67.547560
48.511624
34.062862
20.184517
13.045669
7.540584
5.188584
3.973842
3.620982
3.203750
2.860427
2.972484
3.048778
2.810955
2.760887
2.791882
2.669692
2.781749
2.696514
2.708435
2.630949
2.578497
2.377629
2.534986
2.430677
2.486706
##ZVALUE=320
0.651479
0.524521
0.532866
0.610948
0.502467
0.436902
0.473857
0.614524
0.560880
0.691414
0.507832
0.674725
0.530481
0.604987
0.617504
0.696778
0.587702
0.725985
0.537634
0.622869
0.600815
0.941753
0.682473
0.534654
0.682473
0.780821
0.711679
0.710487
0.862479
0.833869
0.781417
0.832677
0.899434
0.984669
0.842810
1.057982
1.035929
1.171827
1.208782
1.220703
1.285672
1.821518
5.576611
19.562840
68.670511
138.811469
276.743770
400.580764
577.133894
693.982840
782.799721
775.566697
681.238770
563.136935
385.011435
254.603624
118.820667
62.766671
23.578405
10.859966
7.589459
7.808805
10.604858
15.627742
26.517510
38.394928
56.726933
71.817636
88.909864
97.035766
97.687840
92.505813
78.213811
65.247416
45.473576
32.925606
19.636750
12.432933
6.648898
4.271865
3.074408
2.887845
2.499819
2.393723
2.146959
2.105832
2.115965
1.966953
2.101660
2.352595
2.110600
2.107620
2.193451
1.969934
2.089739
2.195835
##ZVALUE=325
0.491738
0.357628
0.398755
0.424981
0.448823
0.397563
0.473857
0.434518
0.557899
0.590682
0.593662
0.563860
0.660419
0.580549
0.429749
0.540614
0.422597
0.292659
0.360608
0.475645
0.641942
0.580549
0.566840
0.617504
0.569820
0.593662
0.677705
0.563860
0.564456
0.524521
0.586510
0.594854
0.647902
0.744462
0.691414
0.852942
0.757575
0.889897
1.017451
0.979900
1.076460
1.117587
1.182556
1.300573
2.540946
15.396476
40.679574
106.540918
190.291405
356.479883
498.705506
674.637556
760.627985
789.829493
736.272931
597.333908
456.725955
283.304453
173.666477
75.957775
36.718845
12.177825
7.243752
6.381869
6.997585
10.164976
14.916658
25.484562
37.216544
56.372881
69.707632
84.193945
91.459751
92.030764
85.895658
71.532726
58.389902
41.386485
29.295683
17.108917
10.956526
5.790591
3.822446
2.680421
2.393723
1.926422
1.943707
1.810789
1.619458
1.933575
1.911521
1.756549
1.766682
1.712441
1.787543
1.961589
##ZVALUE=330
0.473857
0.385642
0.363588
0.536442
0.520945
0.384450
0.290871
0.324845
0.436902
0.536442
0.478625
0.350475
0.510812
0.486970
0.417829
0.366569
0.470877
0.402927
0.577569
0.472665
0.606775
0.492930
0.466704
0.546575
0.450611
0.548959
0.511408
0.568628
0.544786
0.436902
0.518560
0.606775
0.666976
0.744462
0.523925
0.592470
0.774860
0.858903
0.645518
0.785589
0.818968
0.875592
0.798702
1.016855
1.100898
1.198649
1.431704
6.065965
19.595623
67.698956
130.192637
260.615945
384.149551
554.285645
659.804940
728.550553
711.736679
611.119866
494.828820
325.142741
212.546587
101.331472
51.356554
18.786788
8.438826
5.480647
5.291700
6.626844
8.737445
14.610887
22.226572
35.068989
47.828555
66.153407
76.795816
86.122751
86.116791
79.174638
69.238544
52.595735
40.471554
25.608540
17.216802
10.041595
6.236434
3.685951
2.499819
2.087951
1.856685
1.748800
1.483560
1.833439
1.707673
1.494884
1.643896
1.536608
##ZVALUE=335
0.582933
0.504851
0.647902
0.486970
0.479817
0.745654
0.632405
0.582933
0.620484
0.431538
0.374913
0.582933
0.535846
0.454783
0.422597
0.629425
0.508428
0.566840
0.656843
0.645518
0.724792
0.558496
0.616908
0.638962
0.567436
0.503659
0.719428
0.731945
0.762939
0.700951
0.738502
0.695586
0.815988
0.712872
0.695586
0.787973
0.846982
0.821948
0.765920
0.877976
0.818968
0.737906
1.023412
0.952482
1.107454
1.005530
1.153946
1.259446
1.478791
2.996922
10.271668
39.555430
84.575415
188.608766
302.390456
473.599434
591.763854
695.450902
710.311532
647.571683
546.326637
375.916958
259.675980
140.951872
75.300932
27.259588
11.613965
6.089807
5.364418
5.275607
5.727410
8.239746
12.600422
22.186637
32.893419
48.675537
59.987903
73.189735
79.214573
79.822540
73.803663
62.211752
51.085949
36.702752
26.995540
17.049909
11.236668
6.587505
4.441738
2.724528
2.351999
1.867414
1.757741
1.785755
1.538992
1.836419
##ZVALUE=340
0.626445
0.507832
0.577569
0.558496
0.564456
0.742674
0.501871
0.489950
0.713468
0.560880
0.662804
0.533462
0.499487
0.497699
0.537634
0.602603
0.604987
0.564456
0.710487
0.467896
0.546575
0.531673
0.642538
0.592470
0.647902
0.650883
0.735521
0.681877
0.760555
0.675917
0.695586
0.779629
0.819564
0.663996
0.620484
0.767708
0.764728
0.695586
0.825524
0.624657
0.706911
0.886917
0.957847
0.965595
0.903606
1.028776
0.998974
1.084805
1.181960
1.153946
1.360774
1.869798
5.111694
23.555756
57.153702
143.287778
238.183737
393.950939
514.391661
638.500452
687.351823
666.666627
590.480566
446.851850
318.834782
169.644952
94.662905
37.996769
15.816689
6.308556
5.481839
5.018711
4.766583
5.711913
8.100867
13.091564
20.054579
30.800700
42.651892
57.635903
66.954494
74.486732
75.017810
69.149733
61.182976
48.483610
37.770867
25.490522
18.192530
10.839701
7.043481
3.834963
2.819896
2.086759
1.848936
1.659989
##ZVALUE=345
0.537634
0.502467
0.485778
0.676513
0.433922
0.715852
0.699759
0.663996
0.460744
0.588894
0.463724
0.504851
0.486970
0.597835
0.631809
0.538826
0.509620
0.465512
0.521541
0.577569
0.581741
0.414848
0.492930
0.594854
0.502467
0.654459
0.730753
0.628829
0.647902
0.598431
0.546575
0.557899
0.655651
0.652671
0.651479
0.689626
0.641942
0.703931
0.653863
0.886917
0.792742
0.805855
0.728965
0.787973
0.775456
0.817776
0.858903
0.957847
0.913739
0.974536
1.177788
1.148582
1.269579
1.321435
2.372861
13.100505
35.499930
95.963478
171.266794
311.380625
427.687764
575.444698
644.675493
666.568875
615.882874
479.604006
359.703898
217.811465
124.089718
50.135851
22.982955
8.389950
5.570650
4.698634
4.627705
4.504919
4.894733
7.081628
10.978580
18.846989
27.392507
41.073561
50.336719
60.856938
66.477656
68.357587
65.980554
57.419538
49.017668
36.499500
27.275681
16.453862
11.361837
6.538630
4.285574
2.786517
##ZVALUE=350
0.525713
0.567436
0.501871
0.528693
0.575781
0.527501
0.491738
0.644922
0.511408
0.605583
0.625849
0.637770
0.546575
0.613928
0.702739
0.588894
0.567436
0.625849
0.598431
0.505447
0.520945
0.566840
0.724792
0.688434
0.694990
0.607967
0.443459
0.672936
0.507832
0.611544
0.565648
0.497699
0.675917
0.522733
0.597835
0.683665
0.705719
0.857711
0.865459
0.711679
0.539422
0.759959
0.756979
0.754595
0.742674
0.727773
0.652671
0.820756
0.820756
0.868440
0.986457
0.700951
1.129508
1.033545
0.934601
1.182556
1.505613
6.819963
21.020770
64.029694
122.175813
245.350599
355.201960
501.089692
593.751669
653.328896
627.355576
523.574948
408.270955
249.090791
153.352618
72.728992
33.628941
10.744929
5.584955
4.598498
4.244447
3.772974
3.950000
4.620552
6.141663
10.817647
15.837550
24.544001
33.242702
44.659972
53.271651
60.173869
61.806440
60.831904
54.429770
44.548512
35.051703
24.390817
17.542839
10.451674
##ZVALUE=355
0.423789
0.542998
0.479817
0.486970
0.542998
0.404716
0.443459
0.433922
0.523925
0.383854
0.492930
0.419617
0.430942
0.602603
0.536442
0.504851
0.402927
0.445843
0.570416
0.451803
0.619888
0.256896
0.596642
0.413656
0.580549
0.578761
0.522733
0.423789
0.715852
0.682473
0.738502
0.428557
0.615716
0.584722
0.511408
0.577569
0.838637
0.749826
0.686646
0.556707
0.663996
0.804663
0.659823
0.701547
0.732541
0.626445
0.647902
0.964999
0.798702
0.762939
0.646710
0.727773
0.730753
0.985861
0.963807
0.950694
1.027584
1.137853
1.341701
2.300739
12.672544
34.872890
92.667937
164.274573
302.945971
414.570570
545.669794
607.815981
617.675781
548.951626
415.883660
307.773948
176.977515
101.768970
40.129423
17.721653
6.486773
4.602671
4.044771
3.824830
3.413558
3.493428
3.958941
5.232692
8.712411
12.645721
21.175742
28.650761
39.237738
46.800971
53.424835
56.637526
55.542588
50.205588
41.298866
33.962727
##ZVALUE=360
0.544786
0.540614
0.582933
0.541806
0.541806
0.453591
0.581741
0.413656
0.414848
0.512600
0.489950
0.503659
0.460744
0.494719
0.497699
0.560880
0.687838
0.516772
0.460744
0.413656
0.495911
0.429749
0.832677
0.499487
0.531673
0.442863
0.453591
0.578761
0.565648
0.638962
0.597835
0.622869
0.673532
0.473857
0.608563
0.592470
0.650883
0.696778
0.460744
0.602603
0.763535
0.863671
0.790954
0.727773
0.913739
0.784993
0.748634
0.614524
0.767708
0.840425
0.655651
0.669956
0.733733
0.742674
0.941753
0.831485
0.953674
0.990629
1.212955
1.282692
1.169443
1.899600
5.005002
21.768808
51.886439
127.311945
217.565894
368.523598
479.624867
578.593016
616.377592
570.747852
488.202572
341.068506
231.022835
111.626983
59.477687
22.356510
9.360909
4.657507
4.148483
3.758669
3.536940
3.301501
3.325939
3.474951
4.406571
6.681681
10.082722
16.769767
23.709536
33.641458
40.695667
47.625899
50.610900
51.330924
##ZVALUE=365
0.429749
0.484586
0.539422
0.557899
0.452995
0.435710
0.442863
0.533462
0.494719
0.426769
0.442863
0.471473
0.617504
0.507832
0.605583
0.456572
0.477433
0.726581
0.717640
0.388622
0.670552
0.540614
0.559688
0.511408
0.609756
0.453591
0.495911
0.605583
0.590682
0.629425
0.653863
0.590682
0.668764
0.550747
0.696778
0.505447
0.591874
0.545979
0.702739
0.691414
0.559688
0.651479
0.678897
0.768900
0.667572
0.765920
0.745654
0.751615
0.742674
0.789762
0.796914
0.839829
0.769496
0.678897
0.731945
0.716448
0.888705
0.828505
0.856519
0.868440
1.009703
1.169443
1.327991
1.358986
2.606511
12.539625
33.227801
88.094473
161.698461
298.463702
403.577685
523.406863
580.900908
574.706793
513.873696
381.612778
276.497006
154.015422
85.020661
32.052994
13.333559
4.960895
4.136562
3.793836
3.447533
3.147721
2.901554
3.029704
3.035665
3.951788
5.427599
8.596778
13.071895
20.827651
27.523637
35.999417
##ZVALUE=370
0.543594
0.510812
0.601411
0.551939
0.524521
0.553727
0.596642
0.561476
0.576973
0.591874
0.488758
0.614524
0.597835
0.646710
0.459552
0.473857
0.522733
0.307560
0.360608
0.563860
0.590682
0.565648
0.531673
0.524521
0.557899
0.646710
0.524521
0.563860
0.674725
0.646710
0.625849
0.513792
0.489950
0.680685
0.700951
0.733733
0.557899
0.656843
0.595450
0.378489
0.653863
0.653863
0.622869
0.622869
0.650883
0.775456
0.679493
0.663996
0.700951
0.657439
0.663996
0.528693
0.638962
0.777841
0.667572
0.765920
0.770688
0.672936
0.791550
0.924468
0.783801
0.820756
1.048446
1.096725
1.253486
1.235604
1.515746
6.351471
20.605922
63.488483
118.913651
228.546858
334.130526
474.464893
548.106432
569.204688
530.556440
425.236821
319.097638
184.414983
105.600953
43.086410
19.706488
6.682873
4.351735
3.639460
3.022552
3.044605
2.973676
2.679825
2.598763
2.861619
3.172755
4.706979
6.824732
11.623502
##ZVALUE=375
0.483990
0.475645
0.568628
0.473857
0.444651
0.655651
0.613928
0.451803
0.507832
0.442863
0.388622
0.490546
0.403523
0.416636
0.489950
0.502467
0.491738
0.588894
0.684857
0.535846
0.633597
0.522733
0.606775
0.534654
0.507832
0.655651
0.371933
0.529885
0.574589
0.526905
0.522733
0.582933
0.652671
0.660419
0.675917
0.587702
0.626445
0.383854
0.781417
0.611544
0.520945
0.629425
0.690818
0.730753
0.669956
0.608563
0.645518
0.553727
0.573993
0.663996
0.758767
0.720620
0.767708
0.711679
0.667572
0.744462
0.751615
0.755787
0.745654
0.762939
0.883937
0.820756
0.797510
0.835657
0.964999
0.964999
1.016855
1.163483
1.376867
3.172755
10.297894
36.315918
79.662800
176.001787
273.194909
414.821506
497.118831
549.706817
541.313887
454.104543
357.984900
222.128630
141.269565
70.644617
36.507845
12.044907
5.478859
3.665686
3.442764
3.005862
2.940893
2.667904
2.593994
2.515912
2.439618
2.967715
##ZVALUE=380
0.489950
0.515580
0.312924
0.480413
0.507832
0.490546
0.390410
0.476837
0.397563
0.500679
0.439882
0.456572
0.398755
0.507832
0.486970
0.300407
0.597835
0.685453
0.552535
0.591874
0.515580
0.452995
0.462532
0.529885
0.603795
0.548959
0.666976
0.569820
0.545979
0.576973
0.684857
0.658631
0.566840
0.714660
0.633597
0.609756
0.667572
0.653863
0.596642
0.616908
0.544786
0.488758
0.579953
0.572801
0.608563
0.686646
0.623465
0.615716
0.525713
0.642538
0.649691
0.580549
0.558496
0.639558
0.702739
0.716448
0.551939
0.683665
0.630617
0.727773
0.806451
0.656843
0.753999
0.825524
0.926852
0.893474
0.873804
1.007915
0.941753
1.222491
1.357794
1.912713
5.763769
26.717782
61.395764
143.136978
230.568647
361.144543
454.552770
555.840731
555.076003
495.393872
417.015553
286.678672
198.023915
97.520947
51.521659
17.990470
7.604957
3.913641
3.251433
3.074408
2.786517
2.587438
2.535582
2.495646
##ZVALUE=385
0.484586
0.388622
0.455976
0.692606
0.497699
0.427961
0.435710
0.457764
0.457764
0.493526
0.446439
0.513792
0.456572
0.502467
0.374913
0.500679
0.531673
0.520945
0.495911
0.453591
0.291467
0.506639
0.525713
0.459552
0.503659
0.636578
0.520945
0.523925
0.733733
0.747442
0.642538
0.681877
0.694990
0.775456
0.614524
0.759959
0.697970
0.677705
0.695586
0.698566
0.783801
0.717640
0.711679
0.699759
0.625849
0.626445
0.672936
0.721812
0.565648
0.678897
0.564456
0.606775
0.547767
0.638962
0.696778
0.630617
0.640750
0.617504
0.692606
0.881553
0.757575
0.703931
0.700951
0.621676
0.762939
0.637770
0.955462
0.957847
0.910759
0.937581
1.065731
1.012683
1.161695
1.380444
3.379583
10.930896
39.463639
86.062551
184.787512
284.462571
420.342684
497.211814
544.312000
529.563427
453.078747
362.272859
232.756734
149.478912
69.621801
34.563541
12.237430
5.157590
3.250837
2.995729
2.932549
2.705455
##ZVALUE=390
0.461936
0.484586
0.594854
0.522733
0.440478
0.484586
0.498891
0.461936
0.477433
0.588894
0.457764
0.433922
0.469685
0.482798
0.425577
0.535846
0.522733
0.621676
0.484586
0.600815
0.399947
0.603795
0.412464
0.574589
0.522733
0.496507
0.596642
0.563860
0.678897
0.549555
0.654459
0.672936
0.731945
0.869632
0.822544
0.692606
0.755787
0.733733
0.822544
0.829697
0.843406
0.762939
0.617504
0.714660
0.834465
0.724792
0.755787
0.660419
0.773668
0.654459
0.735521
0.688434
0.819564
0.675917
0.746846
0.701547
0.611544
0.647902
0.718832
0.554919
0.660419
0.625849
0.794530
0.842810
0.786781
0.745654
0.684857
0.942945
0.939965
0.946522
0.985861
1.107454
1.098514
1.118779
1.030564
0.998974
1.737475
6.096959
27.386546
63.136816
146.706700
231.137872
357.404947
447.520614
530.242920
547.335744
496.906638
418.759584
286.728740
195.504427
102.051497
52.677989
18.527508
7.319450
3.492832
3.010631
##ZVALUE=395
0.564456
0.662804
0.827909
0.533462
0.518560
0.623465
0.658631
0.353456
0.568628
0.693798
0.632405
0.750422
0.717640
0.503659
0.647902
0.477433
0.460744
0.701547
0.569820
0.525713
0.578761
0.580549
0.644922
0.642538
0.662804
0.630617
0.684857
0.697970
0.657439
0.908971
0.971556
0.877976
0.759959
0.756979
0.852942
0.870824
0.731945
0.903606
0.848770
0.808835
0.880957
0.849962
1.012683
0.898838
0.811815
0.818968
0.854731
0.783801
0.830889
0.847578
0.772476
0.641942
0.769496
0.965595
0.832677
0.712872
0.738502
0.812411
0.726581
0.881553
0.787973
0.838637
0.790954
0.857711
0.979900
0.870824
0.864863
0.889897
0.875592
1.217723
0.886917
0.953674
1.244545
1.072884
1.017451
1.128912
1.094937
1.180768
1.530647
4.260540
15.434623
52.142739
100.661516
191.572905
285.091996
419.603586
498.709679
551.674962
541.562438
461.308956
366.096497
229.361653
146.707892
67.939758
32.181740
10.767579
##ZVALUE=400
0.659823
0.644922
0.661612
0.500679
0.436902
0.464916
0.540614
0.575781
0.549555
0.480413
0.476837
0.414848
0.555515
0.437498
0.489950
0.528693
0.555515
0.470877
0.511408
0.436902
0.443459
0.555515
0.580549
0.554919
0.446439
0.442863
0.618696
0.631809
0.593662
0.588894
0.707507
0.711679
0.608563
0.693798
0.681877
0.689626
0.755787
0.790954
0.700951
0.682473
0.782609
0.737906
0.725985
0.681877
0.740886
0.705719
0.746846
0.841618
0.712872
0.663996
0.719428
0.719428
0.773668
0.805855
0.657439
0.591874
0.704527
0.646710
0.649691
0.687838
0.761747
0.710487
0.745654
0.773668
0.737906
0.769496
0.664592
0.812411
0.718832
0.801682
0.889897
0.874996
1.010895
0.993609
0.866652
0.918508
0.827909
0.948906
1.040697
1.126528
1.162887
2.387762
8.018613
28.741956
63.514709
145.033002
232.489705
365.504622
455.828905
531.255603
543.556809
480.181575
394.748449
265.776515
175.923705
90.005994
##END
