##TITLE=D7-1
##FORMAT=SPECTACLE-ASCII V-1.2
##DATA TYPE=ULTRAVIOLET SPECTRUM
##SECOND TYPE=ULTRAVIOLET SPECTRUM
##DATE=01/24/18
##TIME=12:24:45
##SPECTROMETER/DATA SYSTEM=SPECTACLE
##XUNITS=NM EM
##YUNITS=ENERGY
##YFACTOR=1
##FIRSTX=220
##LASTX=410
##NPOINTS=96
##3DDATA=Equidistant
##ZUNITS=NM EX
##FIRSTZ=210
##LASTZ=400
##ZPOINTS=39
##XYDATA=(Y..Y)
##ZVALUE=210
14.934540
13.225675
13.048649
12.226701
10.960698
9.718537
10.254979
7.598996
7.214546
5.339980
3.984571
3.001690
2.277493
1.886487
2.446771
1.607537
1.963973
2.526641
2.682805
2.203584
2.413988
2.549887
2.995729
2.895594
2.880692
3.765821
4.157424
5.098581
5.582571
6.542802
6.661415
8.033514
6.810427
7.169843
7.668734
7.251501
7.551908
6.409883
7.038713
7.302761
6.755590
6.248951
5.729795
7.003546
6.334782
5.492568
6.052852
6.437898
5.727410
6.272793
4.978776
5.301833
5.368590
6.194711
5.608797
4.892945
5.347729
5.007982
5.361438
5.077720
4.616976
4.542470
5.256534
4.987717
5.074739
5.376935
4.538894
4.874468
4.592538
5.914569
6.090999
6.883740
6.440878
6.500483
7.040501
8.121729
8.813739
9.751916
8.538961
7.408857
7.605553
6.635785
6.643534
4.956722
5.137920
4.324913
5.098581
3.978610
4.622936
5.698800
6.991625
9.207726
11.420846
15.100837
20.245910
21.551847
##ZVALUE=215
33.181906
33.093691
28.284788
24.472475
20.261407
18.448830
17.808676
17.670989
16.472936
13.564825
11.859536
9.907484
6.908774
4.844666
4.012585
2.768636
2.472997
2.110600
2.248883
2.490878
2.516508
2.597570
2.919436
2.838969
3.548861
4.087687
5.421638
5.968809
7.170439
6.724596
8.129478
8.721948
8.426905
8.795857
8.873940
8.907914
8.740425
7.817745
8.618832
8.323789
7.100701
7.406473
6.420612
6.875992
6.763935
7.024407
6.309748
6.543994
6.385446
6.393790
6.628633
6.564856
6.422997
7.366538
6.604791
6.712675
6.890893
7.173419
6.598830
6.371737
6.727576
6.155968
5.925894
5.333424
5.727410
5.580783
6.744862
6.217957
6.083846
5.772710
6.291866
7.199645
7.445812
7.838607
7.908940
8.465648
8.132458
7.426739
7.482767
7.563829
6.748438
6.323457
6.542802
4.485846
4.688501
3.723502
3.699660
3.988743
3.558993
3.102422
3.115535
3.862977
4.061460
4.135966
5.678535
8.702874
##ZVALUE=220
61.564445
67.665577
67.621469
58.137774
53.540468
43.581724
35.812855
28.619766
25.919676
26.663542
25.021434
22.980571
22.082925
20.074844
14.209747
9.928942
6.928444
4.162788
3.802776
3.444552
2.957582
3.023744
3.519654
4.073977
3.771782
5.342960
6.090999
5.671978
6.866455
8.135438
9.355545
8.692741
8.582473
9.322762
9.366870
9.835958
10.569692
9.365678
9.141564
8.420944
8.716583
9.055734
8.065701
7.133484
7.185936
7.582903
7.869601
7.658601
7.928610
7.690787
7.920861
8.817911
9.206533
9.701848
9.332895
9.426475
9.106994
8.887649
9.402633
9.796619
8.507967
8.735657
8.655787
7.395744
7.710457
6.490946
6.376505
6.280541
7.247925
6.954670
6.978512
7.911921
8.068681
7.645488
7.550716
8.391738
8.532405
7.836819
8.155704
8.112788
6.459951
6.193519
5.629659
4.746914
4.676580
4.185438
3.644824
4.305840
3.966689
3.811717
4.082918
3.693700
3.249645
3.116727
2.732873
3.485680
##ZVALUE=225
73.998570
78.882575
94.576478
106.842518
114.605427
108.179450
93.168616
71.673989
60.976744
48.711896
39.108992
39.446950
40.988922
42.786002
39.919615
35.537481
28.959513
20.578504
14.214516
10.052919
5.969405
4.342794
4.037619
3.688931
3.926754
4.678965
5.062819
5.334616
5.967617
6.027818
7.178783
7.605553
7.832646
7.902980
8.683801
9.041429
8.094907
8.550882
8.485913
8.886456
8.254647
8.342862
8.623600
8.032918
7.975698
7.955432
8.751750
8.056760
8.189678
8.221865
9.403825
10.317564
10.613799
10.208488
10.899901
10.067821
10.416508
10.148883
10.138750
10.102987
9.837747
9.599924
9.406805
9.508729
8.562803
7.770658
8.444786
8.537769
7.186532
8.154511
8.333921
8.091927
8.323789
7.958412
9.469986
8.610487
8.636713
7.136464
8.307695
6.707907
6.345510
6.038547
5.598664
5.891919
4.878640
4.535913
4.836917
4.838705
4.184842
4.022717
3.816485
3.767610
3.773570
3.592968
3.769994
4.314780
##ZVALUE=230
48.548579
52.445531
85.014701
115.581751
146.066546
182.150006
187.240839
182.950497
162.274837
129.062533
95.421672
72.184801
59.894919
59.046745
62.930584
67.017674
64.031482
58.040619
52.199960
38.792491
31.016469
18.758774
13.208985
7.748604
5.270839
4.372597
4.047751
4.681945
5.040765
4.993677
6.247759
6.068945
5.966425
5.639791
5.888939
6.771684
6.750822
6.775856
6.952882
7.605553
7.502437
8.309484
7.807612
7.529855
7.740855
8.001924
7.188916
7.371902
8.497834
8.152723
8.823872
9.358525
10.283589
9.577870
9.419918
11.045933
10.671616
9.925961
9.215474
9.809732
9.616613
10.348558
9.827614
9.691715
8.872747
8.958578
8.970499
8.529425
8.750558
8.035898
9.449720
8.871555
8.381605
9.187460
8.751750
9.618998
8.753538
7.620454
6.557703
7.506609
6.609559
7.400513
5.858541
6.214976
6.125569
5.323887
5.417466
5.090833
5.271435
5.322695
4.537702
5.057454
4.175901
3.751516
4.910827
4.550815
##ZVALUE=235
12.263656
14.810562
34.201741
65.877438
105.681419
170.857906
220.647454
280.672908
303.917527
295.146704
270.210505
207.384825
161.253810
112.975836
88.971853
77.727437
82.551837
88.682771
94.933510
92.386603
87.747574
75.323582
56.481957
40.397644
22.949576
16.781688
9.931922
7.412434
5.481839
5.708933
5.604625
6.438494
4.557967
5.997419
5.932450
6.477833
6.875992
6.489754
6.479621
6.830692
7.284880
7.118583
8.190870
7.233620
7.875562
8.116961
7.046461
7.972717
7.882714
8.618832
9.124875
8.325577
8.673668
7.738471
8.688569
8.741617
8.845925
9.770989
9.627938
9.099841
10.037422
9.272695
8.616447
8.798838
9.203553
8.690953
9.016991
8.373857
9.220839
8.670688
9.389520
10.078549
9.437799
10.695457
10.587573
10.047555
9.887815
11.266470
9.346604
8.739829
7.141829
8.333921
7.082820
7.164478
6.571412
6.029606
5.755424
5.319715
5.560517
6.032586
5.305409
5.509853
5.859733
5.576611
5.234480
5.641580
##ZVALUE=240
1.963973
2.313852
4.459620
14.950633
31.179786
73.869824
115.260482
205.658674
272.493958
339.342952
396.872759
395.127535
361.178517
306.960940
230.741501
168.467760
118.911862
97.688437
98.713636
107.640624
114.910603
124.999881
118.050575
102.391839
87.475777
61.944723
47.659874
30.570626
20.935535
11.094809
8.635521
7.253885
5.978942
6.107688
6.468892
6.685853
6.661415
6.567836
6.889701
7.404685
7.801652
7.710457
7.757545
7.038713
7.482767
8.467436
7.349849
7.415414
8.663535
7.231832
8.774996
8.227825
8.024573
8.691549
7.910728
8.483529
8.927584
8.154511
8.218884
8.289814
8.954406
8.048415
7.824898
7.911921
9.322762
8.094907
7.947683
7.367730
9.061694
9.177923
9.154677
9.164810
9.537935
10.159612
10.064840
11.046529
10.421872
8.972883
9.204745
9.793639
8.844733
8.220673
7.657409
7.339716
7.008910
6.663799
6.756783
7.224679
5.935431
6.344914
5.353689
5.891919
5.685687
5.480647
5.715489
5.360842
##ZVALUE=245
1.515746
1.210570
1.483560
1.676679
2.729893
9.223819
22.218823
60.216784
113.284588
197.640657
281.049609
385.240912
445.646644
470.587611
452.560782
386.332870
313.333869
213.121772
155.203938
106.334686
96.199512
99.150538
115.845799
129.485726
135.815740
126.014948
115.166903
96.815825
71.302652
56.902766
35.783648
22.112727
13.710856
9.879470
7.762909
7.200837
7.101893
7.709861
7.360578
8.416772
8.221865
7.763505
8.168817
8.324981
7.765889
8.055568
7.332563
7.679462
7.074475
7.633567
8.658767
7.638931
7.774830
7.546544
7.300973
7.928610
7.394552
7.867813
7.473826
7.260442
7.712841
6.933808
6.977916
6.778836
6.536841
6.321669
7.160902
7.052422
7.642508
8.191466
8.005500
8.784533
8.088946
7.630587
7.749796
8.303523
8.558631
6.892681
7.383823
6.951690
7.716417
6.928444
6.706715
5.652905
5.709529
5.442500
5.913973
5.126595
5.805492
5.512834
5.476475
5.401969
5.166531
5.003810
4.583597
5.032420
##ZVALUE=250
1.396537
1.641512
1.657605
1.433492
1.800656
2.032518
2.284646
5.204678
20.021796
43.607950
106.399655
174.859762
255.495906
377.570987
456.597805
513.222814
512.855649
465.562940
398.636460
282.838941
199.260712
134.625435
97.217560
90.764761
106.378794
120.840669
137.896538
143.188834
136.822462
125.570893
108.912587
78.522563
58.352947
36.546588
23.256540
13.317466
11.103749
7.710457
8.237958
8.425713
7.610917
8.312464
7.912517
8.061528
8.636713
8.308887
8.670688
8.457899
8.281469
8.246899
8.899570
7.757545
8.805990
8.473992
8.095503
8.535981
8.057952
7.269979
7.117987
7.329583
7.216930
6.836653
7.215738
6.560683
7.066727
6.738901
6.976724
6.566644
6.165504
6.396770
7.022619
6.960630
7.257462
6.909966
7.088780
6.907582
7.182956
7.246733
6.443858
6.166697
5.831718
5.181432
5.550981
5.231500
5.175471
4.798770
4.935861
4.571676
4.581809
4.899502
4.273653
4.272461
4.164577
4.352927
4.225969
4.239678
##ZVALUE=255
1.054406
1.089573
1.243949
1.556873
1.364946
1.158714
1.416802
1.489520
1.543760
2.473593
10.944605
28.966665
79.958439
138.049722
244.295001
343.651772
473.654866
543.273687
574.643016
562.490821
491.872430
363.966823
266.013741
162.897706
108.727813
85.000992
87.018609
107.706785
125.822425
145.158768
145.500898
142.570734
127.837658
103.623867
82.266927
54.206848
38.613677
23.397803
15.591979
10.160804
9.230971
7.519722
7.566810
8.781552
8.466840
7.832646
7.652640
8.412600
8.098483
8.662939
8.193851
7.970929
7.565618
6.834865
7.153749
7.658601
7.431507
7.179976
7.950664
6.383657
6.187558
6.753802
5.991459
6.461740
5.807877
6.159544
5.611777
6.105900
5.233884
5.327463
5.393624
5.831718
5.545616
5.901456
6.015897
5.417466
5.585551
5.695820
4.679561
4.423857
4.189610
4.255772
3.950596
3.888607
3.372431
3.521442
3.595948
3.454685
3.909469
3.662705
3.303885
3.589988
3.499985
3.055930
3.142953
3.348589
##ZVALUE=260
1.109838
1.362562
1.091957
1.274943
1.165867
1.131892
1.281500
1.345873
1.438856
1.586676
1.624823
2.147555
5.167723
20.088553
46.736598
114.623904
190.066695
316.673517
425.677896
557.913780
621.516705
629.093647
563.532710
467.431545
320.898890
219.833851
131.396651
93.557835
74.432492
83.067417
101.394653
126.393437
141.570568
152.379870
147.515535
130.824447
112.255812
83.554983
61.233640
38.819909
26.022792
15.698671
11.656880
9.199977
8.113980
8.224845
8.312464
8.668900
8.022785
8.550882
8.134842
8.684993
8.781552
8.181930
8.484721
8.019805
7.851720
7.119775
7.008910
7.021427
7.112622
6.380677
6.282926
5.940795
5.770922
5.798936
5.465746
4.717708
4.708767
5.088449
5.073547
5.087852
4.320741
5.349517
5.595684
5.301833
4.653931
4.522800
4.308820
3.848672
4.189610
3.590584
3.619790
3.385544
3.108978
3.249645
3.066659
3.080964
3.515482
3.080964
3.166795
3.242493
3.027916
2.899766
3.309846
2.883673
##ZVALUE=265
0.918508
1.204610
0.930429
1.034737
1.016855
0.972748
1.027584
1.242757
1.270771
1.188517
1.395941
1.416802
1.192689
1.443624
3.043413
13.604760
33.203959
84.941983
153.196454
284.354687
406.473875
525.923967
638.910532
673.719645
617.744923
533.279777
399.007797
282.590985
165.305734
105.967522
73.252916
65.631866
80.059767
112.305880
130.250454
152.327418
155.501962
147.867799
133.337975
108.064413
85.809827
56.934953
40.072799
23.746490
15.786886
10.700822
9.311438
9.074807
8.933544
8.912683
8.851886
8.756518
8.963943
8.540750
8.260608
8.567572
8.030534
8.195639
7.694960
7.475615
6.680489
6.581545
6.297827
5.381703
5.486608
5.292892
5.313754
4.910827
5.276799
5.418658
4.658699
4.650950
4.872680
5.132556
4.955530
4.773736
4.324913
4.196763
3.900528
3.483891
3.545880
3.466606
3.470778
3.345609
3.313422
2.549887
3.012419
2.804995
2.919436
2.385974
2.612472
2.494454
2.266765
2.800822
2.606511
2.665520
##ZVALUE=270
0.765920
0.722408
0.977516
0.986457
1.014471
0.841618
1.064539
1.082420
1.156926
0.956655
0.985861
1.202822
1.255870
1.353621
1.447797
1.372695
1.650453
6.140471
18.260479
58.664680
117.798448
201.164484
367.568731
497.616529
642.274618
694.033504
684.951544
619.161725
482.413769
369.448662
227.578878
141.406655
85.789561
56.195855
59.886575
84.788799
107.065439
136.053562
149.745941
157.849789
151.422620
134.616494
111.810565
82.349777
61.911941
39.433837
27.415752
16.939640
12.295842
10.212660
9.742975
9.922981
8.962750
9.428859
9.626746
8.647442
8.278489
8.046627
8.294582
8.004904
7.354617
6.921887
6.928444
6.148815
6.472468
5.673766
5.715489
5.528927
5.279779
4.798770
4.907846
4.558563
4.656911
5.217791
4.593730
4.423857
4.259944
4.183650
3.879666
3.568530
3.717542
3.662705
3.270507
2.975464
2.857447
2.708435
2.799630
2.722740
2.392530
2.702475
2.370477
2.644658
2.221465
2.662539
2.926588
2.354980
##ZVALUE=275
0.809431
0.864863
0.842810
0.876784
0.727773
1.013875
0.769496
0.930429
1.041889
0.980496
0.878572
1.052618
1.012683
1.100898
1.010895
1.292825
1.162887
1.471639
1.370907
3.018975
10.934472
30.056834
89.654922
170.651674
322.169662
443.983674
591.709018
673.798919
720.582008
690.701008
609.253645
451.496840
323.788524
179.000497
106.303692
56.029558
47.411919
59.999824
81.134439
110.111833
131.010413
149.057508
155.986547
146.599412
134.626627
107.291937
86.878538
61.891675
44.099689
26.724935
19.030571
13.258457
11.152625
9.508729
9.399652
9.021759
8.864999
8.307695
8.019805
8.311868
8.172989
7.401705
6.718636
7.057786
6.656647
6.668568
5.885959
5.961657
5.630851
5.588531
5.380511
4.995465
5.564690
5.038977
4.662871
4.765987
4.257560
4.303455
4.244447
3.490448
3.392696
3.400445
3.526807
3.340840
3.083944
2.636909
2.995729
2.583861
2.827644
2.488494
2.570748
2.620816
2.550483
2.610683
2.549887
2.440810
##ZVALUE=280
0.727773
0.826716
0.796914
0.808835
0.781417
1.000762
0.930429
0.981688
0.993609
0.960827
0.872612
0.993609
1.224875
0.896454
0.997782
1.083612
1.147985
1.138449
1.140833
1.447797
1.503825
1.786947
6.670952
21.756887
70.304871
131.474733
250.369906
376.130939
539.643764
638.696551
707.535744
717.306733
650.279522
500.618815
372.902751
214.812756
131.403804
63.955784
41.191578
42.493939
55.977702
82.098842
105.626583
131.754875
143.669844
153.215528
146.288872
128.708482
109.850764
79.587698
60.190558
38.957596
27.207732
17.189980
11.602640
9.688735
8.199811
8.080602
8.255839
7.777810
7.629991
7.415414
7.191896
6.805658
6.201863
6.076694
5.829930
5.618930
5.721450
5.344748
5.745888
5.451441
5.278587
5.136728
4.667640
4.898906
4.452467
4.513860
3.845692
3.846884
3.620982
3.615618
3.685951
3.396869
3.010631
2.975464
3.060699
3.009439
2.834797
2.685785
2.916455
2.510548
2.434850
2.592802
2.680421
2.599955
##ZVALUE=285
0.780821
0.787973
0.743866
0.789762
0.812411
0.679493
0.646710
0.887513
0.743866
0.748634
1.004934
1.013875
0.924468
0.797510
0.994802
0.852942
0.897646
1.090765
1.115799
1.147985
1.120567
1.143813
1.407862
1.457930
3.389716
11.241436
38.221478
82.700849
184.252858
286.138654
445.887446
567.955971
665.910840
715.472698
683.851838
562.633872
441.988707
278.794765
175.764561
84.439516
48.370957
29.452443
34.936666
53.842664
73.789954
101.644993
119.068623
138.678551
145.792961
141.233802
129.860640
106.639862
84.724426
58.626533
41.098595
24.153590
16.448498
9.973645
7.971525
6.870627
6.656647
6.270409
6.514788
6.018877
5.691648
5.730987
5.762577
5.290508
5.347729
5.323887
5.121827
5.272627
5.220771
4.985929
4.807711
4.685521
4.659891
4.281998
4.209876
4.126430
3.926754
3.825426
3.369451
3.311634
3.367662
3.132820
3.157854
2.854466
3.098845
3.028512
2.909899
2.923608
2.452731
2.448559
2.657771
2.719760
##ZVALUE=290
0.726581
0.883937
0.652671
0.694990
0.732541
0.690818
0.647902
0.914931
0.708699
0.815988
0.674725
0.716448
0.805855
0.901818
0.741482
0.766516
0.813603
0.786781
0.892878
1.014471
1.000762
0.900626
1.187921
1.321435
1.287460
1.427531
1.857877
4.206896
20.620823
50.058961
101.466775
219.866633
340.123773
518.096685
624.767542
711.644888
710.480809
619.036555
512.779951
348.291993
233.120918
119.283795
63.538551
28.450489
22.801757
33.177733
46.973825
68.840981
89.298487
116.199851
129.655600
137.802958
135.895610
122.407675
104.496479
76.382756
58.256984
36.326647
24.500489
13.662577
9.893775
6.661415
6.013513
5.314946
4.923940
4.960895
4.867911
4.649758
4.896522
4.962683
5.167723
4.888773
5.168915
5.139709
4.672408
4.707575
4.448891
4.342794
4.260540
3.989935
3.950000
4.130602
3.529787
3.544688
3.606677
3.399849
3.377795
3.252625
3.052950
2.960563
2.988577
2.620816
2.977848
2.740622
2.848506
2.682805
##ZVALUE=295
0.758767
0.784993
0.599623
0.743866
0.904799
0.771880
0.636578
0.623465
0.736713
0.645518
0.850558
0.672936
0.734925
0.853539
0.706911
0.652671
0.868440
0.865459
0.909567
0.971556
0.891685
0.920892
1.207590
1.185536
1.324415
1.151562
1.277924
1.310706
1.606941
2.438426
10.504723
30.344725
69.759488
170.315504
274.379849
446.900725
565.552711
684.521794
713.801980
667.913556
579.077005
420.460701
291.827917
153.587461
87.045431
35.072565
20.153522
19.336939
27.120709
44.156909
62.432885
87.500811
105.820894
123.161674
131.044984
128.184557
118.439794
95.758438
77.730417
52.819848
37.618876
21.093488
14.019608
8.329749
6.286502
5.107522
4.635453
4.391670
4.530549
4.450679
4.979968
4.824996
4.925728
4.835725
4.731417
4.713535
4.313588
4.398823
4.364848
3.992915
3.894567
3.645420
3.587604
3.554821
3.465414
3.360510
3.261566
3.147721
3.166795
3.060699
2.986789
2.975464
3.112555
2.970695
2.837777
2.942681
##ZVALUE=300
0.754595
0.666976
0.613928
0.611544
0.800490
0.720620
0.758767
0.686646
0.615716
0.696778
0.712872
0.812411
0.696778
0.662804
0.750422
0.780821
0.762939
0.631809
0.652671
0.774860
0.883937
0.748634
0.842810
0.943542
0.831485
0.867844
1.150966
1.213551
1.213551
1.354814
1.387000
1.445413
3.388524
18.021464
45.623779
119.674802
207.991004
365.504622
490.502715
625.420809
688.773990
686.003566
619.516969
472.260714
352.197886
201.288462
118.137002
53.125620
26.337504
14.345646
15.600920
25.653839
37.051439
57.946444
76.744556
101.588964
115.853548
123.720765
122.658610
109.589696
95.008612
71.893930
55.021644
35.799742
23.681521
13.157725
8.984804
6.113648
4.901886
4.568696
4.464984
4.601479
4.397631
4.588962
4.388690
4.131794
4.196763
4.039407
3.954768
3.812909
3.983974
3.715754
3.723502
3.561974
3.281832
3.363490
3.180504
3.094673
2.969503
2.955794
3.241897
2.850890
3.045797
2.910495
2.833605
2.786517
##ZVALUE=305
0.727773
0.588894
0.710487
0.612736
0.636578
0.621676
0.682473
0.623465
0.685453
0.638962
0.649691
0.640750
0.556707
0.750422
0.594854
0.700951
0.778437
0.801682
0.681877
0.619888
0.703931
0.710487
0.731945
0.664592
0.908971
0.913739
0.948906
0.906587
1.031756
1.158714
1.014471
1.163483
1.151562
1.358986
2.065897
10.423660
30.006766
86.300969
158.208609
297.488570
418.416858
570.121408
651.819706
687.974691
645.457506
512.368679
404.495597
258.339643
162.600875
75.338483
38.536787
15.494823
11.140704
15.076995
22.047758
38.565993
53.485632
75.407624
92.984438
110.064745
115.593672
115.433931
107.957721
89.202523
72.172880
47.967434
35.374761
21.278858
13.518929
7.710457
5.990863
5.103946
4.364848
4.223585
4.051924
3.839731
3.893971
3.782511
3.971457
3.849864
3.695488
3.774762
3.521442
3.395677
3.534555
3.513694
3.286600
2.921820
3.143549
2.871752
2.753735
2.932549
2.663732
2.717972
2.663732
2.766848
##ZVALUE=310
0.566840
0.646710
0.746846
0.488758
0.575781
0.470877
0.561476
0.509620
0.489950
0.614524
0.587702
0.609756
0.722408
0.587702
0.586510
0.758767
0.659823
0.665784
0.728965
0.701547
0.643730
0.663996
0.849962
0.815988
0.649691
0.715852
0.708699
0.900626
0.854731
0.980496
0.839829
0.938773
0.952482
1.009703
1.092553
1.194477
1.572967
3.789663
18.751621
45.484900
115.982890
199.528933
350.391865
471.635461
606.962442
662.195683
658.933520
597.524643
461.841822
344.533920
200.217962
120.622516
53.717494
25.616884
10.987520
9.145737
13.036728
19.687414
32.124519
45.268536
65.881610
82.717538
99.672675
108.358860
109.381676
102.213621
86.365938
69.578886
48.348904
34.090877
20.967722
13.482571
7.647872
5.721450
4.326701
4.052520
3.622770
3.466606
3.149509
3.213882
3.087521
3.194809
3.001690
2.853870
2.894998
2.850890
2.811551
2.893806
2.742410
2.696514
2.525449
2.752542
2.527833
2.596974
2.451539
2.686977
##ZVALUE=315
0.615716
0.690818
0.716448
0.446439
0.676513
0.397563
0.641942
0.754595
0.617504
0.574589
0.629425
0.807643
0.666976
0.633597
0.515580
0.577569
0.660419
0.514984
0.500679
0.571609
0.526905
0.751615
0.821948
0.818968
0.835657
0.582933
0.827909
0.644922
0.963807
0.897646
0.953674
0.962615
1.096725
0.950694
1.066923
1.099706
1.068711
1.325607
1.359582
2.182722
7.680655
31.556487
70.301890
162.898898
265.877843
431.256890
540.641546
635.961890
668.042898
618.571639
531.699657
381.862521
273.362994
146.562457
82.062483
31.745434
14.176965
7.843971
8.075833
11.979938
17.665625
30.140877
42.505860
61.793923
77.230930
95.106959
101.832747
104.156733
96.269846
81.119537
65.660477
47.475696
33.513904
19.759536
12.483597
6.991625
4.801750
3.330708
3.015995
2.731681
2.606511
2.455711
2.516508
2.663732
2.379417
2.304912
2.337694
2.470613
2.357960
2.447963
2.304912
2.400875
2.382994
2.293587
2.272725
2.366900
##ZVALUE=320
0.528693
0.624657
0.472665
0.722408
0.644922
0.612736
0.592470
0.571609
0.701547
0.520945
0.681877
0.413656
0.630617
0.611544
0.687838
0.447631
0.645518
0.611544
0.601411
0.655651
0.653863
0.745654
0.759959
0.610948
0.606775
0.627637
0.771880
0.803471
0.709891
0.633597
0.753999
0.586510
0.795722
0.924468
0.835657
0.765920
0.856519
0.865459
1.033545
1.243949
1.522899
1.514554
3.919601
18.497705
45.989752
117.020607
197.552443
339.280963
452.165008
580.158830
635.562539
631.712675
573.096871
440.955758
325.114727
185.280442
107.655525
46.965480
22.387505
8.769631
6.809831
7.338524
9.917617
16.159415
24.257898
40.752888
54.039955
73.402524
85.119605
95.887780
96.513629
90.943575
79.592466
60.537457
45.909882
29.588938
19.565821
11.055470
6.996989
4.187822
2.949834
2.553463
2.282858
2.177954
2.121925
2.070665
2.012849
1.973510
1.859665
2.029538
1.899600
1.931787
2.129674
1.962781
2.031922
1.990795
##ZVALUE=325
0.585914
0.470877
0.440478
0.418425
0.624657
0.563860
0.654459
0.694990
0.579953
0.674725
0.535846
0.571609
0.574589
0.525713
0.474453
0.672936
0.527501
0.643730
0.521541
0.471473
0.587702
0.589490
0.495911
0.641942
0.719428
0.641942
0.781417
0.878572
0.760555
0.670552
0.706911
0.795722
0.713468
0.964999
0.629425
0.823736
0.827909
0.851750
0.958443
0.934601
1.070499
1.034737
1.149774
1.428723
2.076626
11.234879
29.945970
79.721808
145.841837
279.504657
392.068624
530.989766
602.555871
626.052022
585.358739
464.558601
355.701447
218.994617
136.348605
60.591698
30.189753
10.723472
6.834865
5.996823
6.447434
9.926558
14.294982
25.115609
36.212802
53.865910
67.642927
82.746744
89.771748
90.665817
84.008574
70.017576
57.204962
39.841533
28.603673
16.877651
10.191798
5.907416
3.677607
2.744794
2.452731
1.940727
1.930594
1.740456
1.833439
1.686811
1.729727
1.966953
1.839995
1.738667
1.704693
1.650453
##ZVALUE=330
0.602603
0.623465
0.536442
0.530481
0.519753
0.572801
0.472665
0.451803
0.364780
0.499487
0.702739
0.539422
0.581741
0.498891
0.652671
0.614524
0.544786
0.618696
0.673532
0.566840
0.495911
0.789762
0.684857
0.509620
0.564456
0.618696
0.659823
0.622869
0.579953
0.654459
0.762939
0.710487
0.651479
0.899434
0.727773
0.842810
0.899434
0.803471
0.954866
0.803471
0.847578
0.888705
0.898838
1.082420
1.151562
1.195669
1.335740
4.912615
15.400648
50.379634
100.306869
206.081867
306.993723
450.084805
545.581579
611.108541
595.059991
511.398911
409.813523
271.906853
176.343918
84.493756
45.292974
17.263889
7.987618
5.546808
5.384684
5.972981
8.019805
14.550686
21.205544
34.530759
46.878457
65.119863
76.065660
83.935857
84.149837
76.536536
67.331791
51.451921
39.258599
24.368763
17.138720
9.948611
6.647706
3.648996
2.570748
2.030730
1.975894
1.836419
1.844764
1.707673
1.512766
1.710653
1.548529
1.533628
##ZVALUE=335
0.393987
0.602603
0.500679
0.387430
0.549555
0.496507
0.414848
0.653863
0.642538
0.627637
0.708699
0.703931
0.560880
0.676513
0.498891
0.397563
0.428557
0.585914
0.610948
0.593662
0.458956
0.676513
0.679493
0.679493
0.599623
0.596642
0.572801
0.595450
0.598431
0.712872
0.647902
0.622869
0.735521
0.862479
0.649691
0.591874
0.842810
0.588894
0.877976
0.705719
0.850558
0.717640
0.869632
0.920892
0.967979
0.990629
0.964999
1.069903
1.059771
2.452731
7.712841
31.386614
66.874623
153.090954
250.992775
399.532914
500.149727
589.115620
600.310564
543.515682
458.684564
320.423841
221.883655
118.117929
63.654780
22.693872
10.148883
5.655885
4.878640
4.977584
5.601645
8.056760
12.044907
21.454692
31.515956
46.966672
58.871508
71.455836
77.082515
78.532696
73.883533
62.365532
51.130652
36.461949
26.971698
16.327500
10.948777
6.062984
4.099607
2.573729
1.982450
1.617670
1.639724
1.565814
1.610518
1.602769
##ZVALUE=340
0.568628
0.535846
0.379682
0.493526
0.571609
0.571609
0.585914
0.370741
0.446439
0.460744
0.535846
0.561476
0.457764
0.611544
0.513792
0.520945
0.681877
0.436902
0.550747
0.537634
0.513792
0.417829
0.618696
0.541806
0.487566
0.584722
0.485778
0.648499
0.689626
0.680685
0.582933
0.466704
0.526905
0.651479
0.662804
0.607967
0.718832
0.766516
0.797510
0.803471
0.760555
0.784993
0.866652
0.671744
0.737906
0.866652
0.842810
0.932813
1.040697
1.160502
1.098514
1.622438
3.870726
17.821789
45.688748
114.849806
199.235678
337.072015
437.609553
545.311570
588.515997
567.104816
502.651930
384.871960
276.035666
150.224566
85.596442
35.492778
14.727712
5.937815
5.142689
4.564524
4.646778
5.484819
7.508993
12.334585
18.962622
31.008720
42.100549
56.072474
65.972805
72.668791
73.823929
67.780614
60.459971
48.332810
38.104653
25.622845
17.858744
10.346770
6.558895
3.791451
2.551675
1.987815
1.691580
1.727939
##ZVALUE=345
0.406504
0.505447
0.514984
0.472665
0.551939
0.481606
0.476837
0.602603
0.475645
0.481606
0.470877
0.636578
0.445843
0.306964
0.388622
0.379682
0.610948
0.522733
0.539422
0.477433
0.644922
0.622869
0.500679
0.477433
0.512600
0.445843
0.457764
0.693798
0.567436
0.431538
0.665784
0.613928
0.721812
0.660419
0.631809
0.679493
0.673532
0.596642
0.617504
0.686646
0.673532
0.657439
0.612736
0.723600
0.753999
0.760555
0.767708
0.891685
0.856519
0.861883
1.022816
1.136661
1.182556
1.283884
1.890659
9.955764
27.939677
76.377988
138.725638
262.591839
367.052555
498.391986
563.289523
571.842790
531.071424
416.890979
315.028429
192.167759
112.877488
46.680570
21.449924
8.228421
5.194545
4.381537
4.306436
4.287958
4.664660
6.771684
10.143518
17.831922
26.670694
39.454699
49.398541
60.695410
65.903664
67.263842
65.420866
55.804849
48.170686
35.957694
26.400685
16.076565
11.264682
6.684661
4.146695
2.543926
##ZVALUE=350
0.440478
0.488758
0.481606
0.390410
0.548959
0.416636
0.462532
0.410676
0.431538
0.536442
0.493526
0.480413
0.529885
0.522733
0.591874
0.560880
0.509620
0.690818
0.438690
0.467896
0.388622
0.425577
0.463724
0.629425
0.624657
0.523925
0.536442
0.472665
0.507832
0.614524
0.755787
0.605583
0.553727
0.570416
0.503659
0.504851
0.614524
0.737906
0.558496
0.584722
0.699759
0.580549
0.729561
0.757575
0.690818
0.799894
0.578761
0.878572
0.873804
0.701547
0.786781
0.763535
0.761747
0.819564
0.743866
1.101494
1.295805
4.708767
15.283823
49.272776
95.393658
193.708539
284.819007
407.128930
484.829545
531.415939
514.238477
436.288714
342.381597
214.640498
135.543942
65.782666
30.551553
9.828806
5.337596
4.230738
3.990531
3.716946
3.823638
4.533529
5.847812
10.667443
15.280843
24.033785
32.208562
44.158697
52.049756
59.143901
61.830878
59.161782
53.871870
42.921901
35.141706
23.694634
17.093420
10.491610
##ZVALUE=355
0.534654
0.639558
0.437498
0.468493
0.524521
0.487566
0.447631
0.493526
0.552535
0.380874
0.441670
0.585914
0.730753
0.648499
0.557899
0.449419
0.684857
0.568628
0.496507
0.446439
0.362992
0.544786
0.489950
0.586510
0.562668
0.533462
0.626445
0.561476
0.526905
0.572801
0.534654
0.518560
0.643730
0.587702
0.676513
0.610948
0.679493
0.568628
0.591874
0.642538
0.647902
0.590682
0.736713
0.621676
0.666976
0.711679
0.787973
0.711679
0.708699
0.758767
0.701547
0.793934
0.741482
0.793934
0.802875
0.949502
1.046658
0.953674
1.094937
2.473593
8.045435
31.827688
66.785812
141.746998
229.376554
357.391834
439.762473
508.369803
513.885617
448.541641
369.552970
254.622698
163.794756
74.427724
36.547780
12.146831
5.929470
4.400611
3.939867
3.511906
3.345609
3.412962
3.911853
5.258918
7.704496
13.503432
19.454956
29.391646
37.199855
47.251582
52.918792
56.095719
54.501891
49.805641
42.487979
32.808781
##ZVALUE=360
0.499487
0.471473
0.518560
0.375509
0.592470
0.568628
0.474453
0.517964
0.573993
0.613928
0.511408
0.488758
0.447631
0.538826
0.484586
0.355840
0.535846
0.524521
0.617504
0.592470
0.521541
0.435710
0.599623
0.489950
0.581741
0.540614
0.626445
0.529885
0.465512
0.522733
0.529885
0.589490
0.589490
0.637770
0.574589
0.449419
0.563860
0.635982
0.515580
0.577569
0.571609
0.495911
0.557899
0.468493
0.609756
0.635982
0.677705
0.677705
0.667572
0.698566
0.680685
0.693798
0.812411
0.696778
0.801682
0.684857
0.963807
0.897646
0.989437
0.844598
1.153946
1.412630
3.721714
16.441941
39.740801
100.873709
171.631575
285.541415
379.361510
473.126769
496.468544
467.557907
398.542881
277.877450
189.110637
94.349980
51.086545
19.875765
8.782744
4.343987
3.846884
3.581643
3.356934
3.069639
3.105998
3.280640
4.236698
6.774664
9.845495
16.158819
22.775531
32.608509
39.242506
46.547651
50.184727
50.525665
##ZVALUE=365
0.511408
0.381470
0.509620
0.477433
0.493526
0.461936
0.508428
0.571609
0.463724
0.542998
0.562668
0.475645
0.436902
0.487566
0.480413
0.675917
0.537634
0.547767
0.515580
0.526905
0.497699
0.490546
0.670552
0.537634
0.558496
0.532866
0.526905
0.628829
0.635982
0.597835
0.585914
0.639558
0.571609
0.614524
0.704527
0.572801
0.598431
0.561476
0.667572
0.755787
0.652671
0.634789
0.643730
0.410676
0.489950
0.683665
0.616908
0.605583
0.580549
0.713468
0.756979
0.908971
0.820756
0.686646
0.754595
0.730753
0.585914
0.729561
0.781417
0.705719
0.845790
0.935793
1.044869
1.114607
1.953840
8.982420
24.443865
66.144466
124.953985
237.401724
328.165889
426.998734
477.246642
477.294922
429.506898
319.051743
229.892731
129.749775
72.188973
27.294755
11.559725
4.590750
3.781915
3.594756
3.354549
3.050566
2.846718
2.959967
3.021955
3.422499
4.909635
8.502603
12.513995
20.474792
26.958585
35.708547
##ZVALUE=370
0.478625
0.411868
0.510812
0.492930
0.549555
0.534654
0.349879
0.512600
0.635982
0.383854
0.435710
0.735521
0.601411
0.460744
0.511408
0.573993
0.589490
0.547767
0.582933
0.468493
0.570416
0.416636
0.389814
0.538826
0.609756
0.552535
0.645518
0.606775
0.524521
0.506639
0.456572
0.581741
0.558496
0.631809
0.678897
0.644922
0.605583
0.704527
0.540614
0.648499
0.433922
0.518560
0.610948
0.693798
0.534654
0.527501
0.523925
0.665784
0.566840
0.620484
0.662804
0.708699
0.609756
0.674725
0.633597
0.592470
0.663996
0.678897
0.612736
0.621676
0.745654
0.823736
0.783801
0.842810
0.904799
1.044869
1.277924
4.769564
14.887452
49.099922
92.934966
180.056691
270.314813
389.207602
455.153584
477.979779
440.847874
352.608562
267.605782
153.281689
89.979768
37.367940
17.228723
6.097555
3.945827
3.334880
3.092885
2.801418
2.591610
2.467632
2.499819
2.680421
3.047585
4.503727
6.909966
11.392832
##ZVALUE=375
0.495911
0.435710
0.477433
0.507832
0.476837
0.483990
0.631809
0.440478
0.645518
0.484586
0.541806
0.564456
0.483990
0.584722
0.631809
0.465512
0.527501
0.567436
0.359416
0.618696
0.555515
0.648499
0.558496
0.590682
0.557899
0.469685
0.561476
0.682473
0.460744
0.533462
0.616908
0.423789
0.728965
0.635982
0.618696
0.445843
0.615716
0.683665
0.557899
0.402927
0.398755
0.626445
0.597835
0.700951
0.690818
0.607967
0.498891
0.502467
0.719428
0.659823
0.632405
0.804663
0.720620
0.705719
0.640750
0.715852
0.723600
0.626445
0.639558
0.694990
0.628829
0.780821
0.825524
0.797510
0.824928
1.059771
0.966787
1.012683
1.121759
2.703667
8.261800
28.477907
62.204003
141.712427
224.099755
340.394974
412.246585
458.310843
448.921919
375.755429
292.502642
180.192590
115.084648
58.433414
30.362606
10.380745
4.861951
3.454685
2.978444
2.889633
2.620816
2.503991
2.409816
2.349615
2.390742
2.866983
##ZVALUE=380
0.433922
0.434518
0.510812
0.514984
0.685453
0.469685
0.395775
0.313520
0.406504
0.427961
0.514984
0.343919
0.607967
0.508428
0.492930
0.499487
0.479817
0.325441
0.574589
0.596642
0.384450
0.513792
0.428557
0.424981
0.500679
0.536442
0.506639
0.573993
0.470877
0.521541
0.606775
0.498891
0.648499
0.483990
0.667572
0.588894
0.547767
0.459552
0.551939
0.451803
0.489950
0.566840
0.661612
0.588894
0.576973
0.651479
0.561476
0.664592
0.526905
0.689626
0.644922
0.549555
0.641942
0.565648
0.543594
0.558496
0.778437
0.598431
0.680685
0.533462
0.626445
0.698566
0.638962
0.589490
0.729561
0.689626
0.751615
0.679493
0.951886
0.885725
0.970960
1.596808
4.362464
19.930601
47.059655
112.241507
184.492469
295.023918
383.386016
455.508828
468.636751
412.489772
346.391797
246.389508
168.293715
81.347823
42.795539
15.380979
6.703734
3.392696
3.000498
2.752542
2.809763
2.617836
2.462864
2.228618
##ZVALUE=385
0.387430
0.434518
0.392795
0.506639
0.444651
0.422597
0.394583
0.461936
0.246763
0.397563
0.498891
0.479817
0.449419
0.555515
0.300407
0.343919
0.447631
0.580549
0.452995
0.462532
0.364780
0.299811
0.446439
0.524521
0.460744
0.429749
0.478625
0.517964
0.563860
0.668764
0.591874
0.759959
0.636578
0.720620
0.610948
0.787973
0.798702
0.651479
0.638962
0.658631
0.667572
0.685453
0.693798
0.629425
0.624657
0.639558
0.559688
0.466704
0.533462
0.448823
0.605583
0.713468
0.775456
0.705719
0.723600
0.656843
0.554919
0.622869
0.622869
0.576973
0.596642
0.594854
0.675917
0.551939
0.535846
0.803471
0.692606
0.770688
0.828505
0.869632
0.836849
0.871420
0.971556
1.083612
2.476573
11.469722
29.430985
75.995922
133.416653
237.006545
320.459604
405.900478
434.304476
413.045883
366.090536
269.686580
193.648934
108.120441
61.708689
26.315451
10.930896
3.999472
3.273487
2.749562
2.601743
2.629757
##ZVALUE=390
0.489950
0.417829
0.478625
0.459552
0.395775
0.470877
0.528693
0.499487
0.552535
0.433922
0.433922
0.478625
0.514984
0.680685
0.483990
0.514984
0.472665
0.494719
0.647902
0.571609
0.479817
0.449419
0.492930
0.507832
0.429749
0.340939
0.711679
0.525713
0.659823
0.706911
0.567436
0.824928
0.744462
0.748634
0.660419
0.740886
0.857711
0.871420
0.735521
0.637770
0.781417
0.625849
0.570416
0.597835
0.747442
0.873804
0.807643
0.692606
0.548959
0.683665
0.671744
0.716448
0.630617
0.515580
0.689626
0.607967
0.467896
0.664592
0.610948
0.546575
0.606775
0.499487
0.584722
0.735521
0.552535
0.601411
0.705719
0.641942
0.758767
0.733733
0.880957
0.816584
0.772476
0.878572
0.883937
0.923872
1.344681
5.878806
17.915964
55.628419
104.961991
202.149749
279.312730
363.613963
414.281487
432.139635
400.947928
319.691896
245.095491
149.625540
88.060498
37.700534
17.528534
5.858541
3.382564
2.783537
##ZVALUE=395
0.521541
0.425577
0.452995
0.516772
0.431538
0.384450
0.436902
0.523925
0.417829
0.416636
0.502467
0.498891
0.418425
0.430942
0.229478
0.480413
0.453591
0.630617
0.416636
0.441670
0.401735
0.510812
0.416636
0.375509
0.418425
0.493526
0.588894
0.591874
0.522733
0.563860
0.618696
0.627637
0.655651
0.807643
0.634789
0.765920
0.620484
0.722408
0.626445
0.659823
0.764728
0.705719
0.808835
0.471473
0.585914
0.640750
0.601411
0.516772
0.401735
0.708699
0.630617
0.696778
0.718832
0.751615
0.606775
0.528693
0.661612
0.541806
0.566840
0.516772
0.593662
0.465512
0.567436
0.436902
0.454783
0.561476
0.774860
0.866652
0.820756
0.656843
0.856519
0.936985
0.678897
0.843406
0.871420
0.905991
0.795722
0.883937
0.976920
3.250837
11.433959
39.672852
75.843930
147.358775
220.424533
324.593782
390.067697
433.282852
425.975919
366.457701
288.694501
184.686780
116.569996
53.318739
25.767684
9.250641
##ZVALUE=400
0.611544
0.628829
0.590682
0.580549
0.596642
0.530481
0.409484
0.350475
0.410676
0.448823
0.473857
0.521541
0.635982
0.502467
0.542998
0.380874
0.453591
0.479817
0.552535
0.418425
0.409484
0.411868
0.352859
0.405908
0.512600
0.497699
0.609756
0.544786
0.769496
0.687838
0.620484
0.700951
0.616908
0.674725
0.411868
0.593662
0.574589
0.718832
0.753999
0.651479
0.718832
0.751615
0.679493
0.700951
0.660419
0.745654
0.647902
0.496507
0.564456
0.649691
0.585914
0.856519
0.655651
0.640750
0.594854
0.621676
0.613928
0.645518
0.686646
0.587702
0.559688
0.587702
0.730753
0.646710
0.691414
0.471473
0.645518
0.687838
0.735521
0.745654
0.731945
0.922680
0.798702
0.832677
0.893474
0.926852
0.726581
0.760555
0.759959
0.803471
0.906587
2.044439
6.351471
22.402406
48.388839
110.096931
176.867843
280.206800
350.907445
414.024591
430.244803
387.149453
324.198008
218.321681
146.024823
74.948668
##END
