##TITLE=D7-4
##FORMAT=SPECTACLE-ASCII V-1.2
##DATA TYPE=ULTRAVIOLET SPECTRUM
##SECOND TYPE=ULTRAVIOLET SPECTRUM
##DATE=01/24/18
##TIME=12:35:51
##SPECTROMETER/DATA SYSTEM=SPECTACLE
##XUNITS=NM EM
##YUNITS=ENERGY
##YFACTOR=1
##FIRSTX=220
##LASTX=410
##NPOINTS=96
##3DDATA=Equidistant
##ZUNITS=NM EX
##FIRSTZ=210
##LASTZ=400
##ZPOINTS=39
##XYDATA=(Y..Y)
##ZVALUE=210
15.911460
14.684796
12.321472
10.966659
11.972785
11.232495
10.770559
8.849502
6.593466
5.633831
4.400611
3.638864
2.641678
2.682805
2.753735
2.152920
2.321601
2.646446
2.785921
2.352595
2.899766
3.453493
2.645850
2.992749
3.534555
4.678965
4.660487
5.390644
5.279779
7.092953
6.739497
6.748438
6.800890
6.759763
7.399917
7.469654
7.237792
7.755756
6.639957
7.051826
7.018447
6.466508
6.832480
6.499887
6.457567
6.366968
4.702806
5.994439
6.273985
6.277561
6.289482
6.130934
6.060600
5.934834
6.017685
5.719662
6.182790
7.046461
5.335808
5.580783
5.487800
5.038977
6.049871
5.236864
5.583763
5.948544
5.446672
5.489588
6.184578
6.691813
6.835461
8.184910
7.960796
9.963512
8.375645
9.688735
9.583831
9.243488
9.605885
9.052753
8.248687
6.911755
7.037520
6.695986
5.715489
4.311800
4.909635
4.622936
5.129576
5.805492
7.133484
10.326505
12.770891
16.655922
20.430684
26.864409
##ZVALUE=215
37.352443
37.692785
29.811859
26.416779
22.309422
18.620491
16.644597
16.832948
16.340613
13.803840
11.765957
9.072423
6.935596
4.987717
3.748536
2.814531
3.122687
2.701879
2.953410
2.949834
2.932549
2.773404
3.335476
3.295541
4.200935
5.042553
4.630685
5.592704
6.838441
7.804632
7.673502
9.333491
8.065701
7.930994
9.380579
9.377599
8.832812
8.722544
8.741617
8.477569
9.106994
8.347631
7.075667
7.620454
7.696748
7.658601
8.207560
7.528663
7.220507
6.808639
7.706881
7.398725
7.623434
8.176565
8.112788
7.785559
6.248951
7.675886
7.522702
6.600618
6.549954
6.936789
6.909966
6.094575
7.053614
5.750656
6.828904
6.153584
6.998777
6.255507
6.806850
8.079410
8.255839
8.395910
8.950830
8.863807
8.344650
7.894635
9.218454
8.269548
7.465482
6.311536
5.855560
6.586909
4.400611
4.754663
4.739761
4.388690
4.180670
3.825426
4.144907
4.576445
4.037619
5.094409
6.912947
8.603930
##ZVALUE=220
68.383813
70.374608
68.946481
65.581799
54.819584
43.222904
36.450624
29.894710
27.469993
24.716854
25.535822
25.293827
24.497509
20.196438
14.665723
10.847449
6.513000
5.311966
3.838539
3.880858
3.241897
3.694892
3.819466
4.052520
4.219413
5.160570
5.673766
6.267428
7.617474
7.126927
8.298755
9.138584
10.099411
9.734631
9.449720
10.649562
9.513497
9.661913
9.231567
8.863807
8.100867
9.513497
8.603930
8.522868
8.118749
7.639527
7.325411
7.780790
8.408427
8.652806
10.863543
9.427667
9.266734
10.229945
10.506511
10.047555
9.602904
11.585951
9.660721
9.656549
9.701848
8.602738
7.844567
8.060932
7.795691
9.068847
6.835461
7.475615
8.408427
8.505583
7.973909
8.747578
7.865429
8.872747
8.917451
10.381937
8.926988
8.177757
8.229613
7.049441
6.808639
7.381439
5.815625
6.155968
5.581975
4.456639
4.129410
4.241467
3.412962
3.772974
3.729463
4.241467
3.896952
3.574491
4.235506
3.622770
##ZVALUE=225
83.723664
88.755488
103.950500
119.657516
128.327608
116.905570
101.182461
77.951550
58.759451
46.440959
39.864779
39.478540
40.314794
40.873885
37.513971
33.863783
27.187467
21.172762
15.535951
9.807944
6.127954
4.409552
3.708601
4.568696
4.010797
4.534721
4.901886
5.424619
5.658865
6.462932
7.823706
7.875562
8.725524
7.984638
8.243918
8.724928
8.851886
9.140968
9.557605
9.132624
8.217692
9.196997
9.274483
8.751750
8.427501
8.867979
8.735657
10.617971
8.702874
10.518432
10.828972
10.515451
12.048483
11.914968
11.494756
11.704564
12.079477
10.387897
11.525750
11.615753
10.583997
9.600520
10.091662
9.301901
9.367466
8.533597
8.486509
8.652806
8.963943
9.550452
9.886622
11.087656
9.976625
10.269880
10.515451
9.878874
9.209514
9.277463
8.989573
8.264780
7.464886
7.199645
6.777644
6.295443
6.091595
4.416704
5.084872
4.677773
5.024672
4.041791
4.214644
4.526973
4.480481
4.851818
4.089475
4.231930
##ZVALUE=230
55.075884
54.830909
89.865923
133.826733
172.085762
196.577907
206.004977
199.252963
166.360736
137.487650
96.696615
74.253678
62.849522
56.066513
59.890747
63.341856
63.747764
60.612559
54.907799
41.415691
34.605861
18.009543
12.827516
8.036494
5.203485
4.878640
4.891753
5.179644
5.535483
5.381703
5.668998
6.491542
6.921887
6.250739
7.121563
7.541776
7.927418
7.075667
7.344484
8.041859
8.319616
8.981824
8.171797
7.776618
8.582473
8.320808
8.112788
9.837747
8.404851
8.164644
9.466410
10.555983
9.902716
10.822415
10.642409
10.510683
10.178685
12.643933
11.374950
11.221766
11.316538
11.622906
10.072589
11.270642
10.945797
9.885430
10.348558
8.637905
10.415912
9.705424
10.533929
10.871887
10.454655
10.763407
10.471940
10.533929
10.099411
9.060502
9.318590
9.695888
8.099675
6.946921
7.275939
7.036924
6.747842
6.084442
5.899668
5.971789
5.317926
4.904866
5.685687
5.114675
4.705787
5.008578
4.169941
4.726648
##ZVALUE=235
15.356541
16.104579
33.958554
75.504780
120.229721
181.906819
231.938958
303.018689
314.747691
318.138599
272.635818
224.393606
154.757500
120.120645
93.066692
84.129572
83.850622
90.585947
92.924833
91.733932
84.295869
71.269870
55.810809
38.734674
27.391911
14.791489
9.988546
7.295609
6.871819
6.045699
6.592870
6.072521
6.817579
6.039739
6.729960
7.824898
7.104874
7.523894
7.221699
6.679893
7.553697
7.056594
8.011460
8.698702
8.450747
8.925796
8.831620
9.211898
9.671450
10.539889
9.354949
10.421872
10.878444
9.398460
9.851456
10.669827
10.104775
10.521412
9.297729
10.782480
10.992885
9.628534
11.098981
9.986758
9.757876
9.433627
8.990765
9.978414
9.984970
10.404587
10.549426
11.017919
10.544658
11.259913
11.359453
10.411739
11.554956
10.162592
11.443496
9.600520
9.443760
9.305477
7.465482
7.901788
7.307529
7.286668
7.039905
6.557703
5.932450
6.710887
6.184578
5.942583
5.806684
5.312562
5.982518
6.377697
##ZVALUE=240
2.145767
2.458692
5.343556
13.840795
37.941933
68.312883
139.517784
209.267735
311.611891
376.663804
428.933501
435.304642
400.859714
318.015814
250.316858
163.571835
125.571489
100.941658
98.807812
105.640888
116.658807
120.748878
118.017793
106.099844
86.484551
69.502592
48.659444
33.414960
21.372437
14.681816
9.422898
7.149577
7.479787
7.965565
6.681681
7.449985
7.462502
8.009672
8.252859
8.345842
9.056926
8.270741
9.106994
8.620620
8.691549
9.234548
9.467602
8.623600
8.541942
8.881688
9.442568
9.019971
8.612871
8.833408
10.130405
9.192824
9.876490
10.499954
10.799766
10.095835
9.222627
9.703636
9.254813
10.016561
9.414554
8.730888
10.162592
11.105537
9.453893
10.323524
10.883808
10.812879
10.906458
12.761950
11.900663
11.725426
11.995435
12.038946
11.549592
10.972619
8.739829
8.545518
8.827448
9.007454
8.201599
7.183552
7.668734
7.331967
7.432699
6.341934
6.899834
6.871819
6.759763
6.959438
6.419420
7.085800
##ZVALUE=245
1.616478
1.401901
1.414418
1.862645
3.210902
8.941889
29.375553
58.563948
134.276748
206.088424
318.889618
414.049625
475.253463
508.456826
484.112501
405.341983
334.178805
232.015848
167.219639
111.940503
96.773505
98.219514
114.901662
128.953457
131.716728
127.870440
116.908550
100.403428
72.386861
53.751469
40.464997
23.567677
16.524792
10.540485
9.150505
8.004904
8.415580
7.401705
7.657409
8.453727
8.101463
7.841587
8.835793
8.413792
8.457899
8.315444
8.194447
8.959770
8.862615
9.361506
9.061694
9.433627
9.487867
9.194613
8.774996
8.348823
8.814931
8.331537
9.123683
8.549690
9.543896
8.701682
8.836985
8.814931
8.199811
8.138418
9.126663
9.043813
9.158850
8.859634
9.345412
9.474754
10.371804
10.903478
10.176897
9.876490
9.982586
8.983612
8.574724
8.608699
8.047819
8.337498
8.300543
7.252693
7.205606
6.769896
6.851554
5.833507
6.322861
5.612969
5.630851
5.740523
5.409718
5.673766
6.032586
6.206632
##ZVALUE=250
1.371503
1.482964
1.539588
1.342893
1.394749
1.494884
2.183914
5.422831
21.716952
46.712756
107.818842
185.874701
277.831554
407.219529
490.299463
566.161871
574.004650
513.556600
442.974567
308.359861
223.317742
153.269768
104.090571
95.403790
110.078454
127.268434
139.608979
143.276453
137.116909
124.522448
108.230710
82.047582
59.166551
36.877990
24.797916
15.074611
11.098981
9.368658
8.263588
9.600520
8.931756
8.466840
9.414554
9.584427
9.526610
9.929538
10.027885
9.594560
10.018945
10.278821
9.374619
10.155439
9.597540
9.291768
9.813905
9.953976
9.792447
9.468794
9.325743
9.102821
8.237958
8.325577
9.234548
8.299947
8.478761
8.438826
8.916855
8.786917
8.806586
8.249879
8.502603
9.643435
9.024739
9.476542
9.688735
7.935762
9.037852
8.972883
8.168817
7.359982
7.596612
6.595850
7.001758
6.028414
5.528927
6.032586
5.571842
5.426407
4.877448
5.209446
5.082488
4.916787
5.260706
4.440546
4.779696
4.499555
##ZVALUE=255
1.129508
1.134872
1.161695
1.129508
1.537800
1.171827
1.383424
1.438856
1.835823
3.174543
13.708472
34.380555
70.338845
155.883431
248.743892
394.856930
491.273999
601.929426
634.157658
615.952015
547.364950
443.803668
288.654566
190.968513
115.106702
91.105700
90.504885
105.199814
130.660534
143.623948
147.394538
144.889951
134.849548
107.037425
84.060431
57.603717
40.186644
24.207830
17.135739
12.247562
9.892583
10.604858
10.622740
9.563565
9.551644
9.732842
9.903908
9.806752
9.098649
9.414554
9.619594
9.975433
9.294748
10.108948
9.094477
9.921789
9.150505
9.116530
8.919835
8.158684
8.206964
7.264614
7.665753
7.172823
7.714629
7.248521
6.414652
6.867647
6.379485
6.970763
7.176995
7.100701
7.196665
7.401705
6.943941
7.415414
6.837845
6.155968
5.829930
6.403923
5.958676
4.966855
4.643798
4.639626
5.057454
4.752874
4.794598
4.328489
4.018545
3.836751
3.830791
4.020929
3.987551
3.837943
3.879666
3.891587
##ZVALUE=260
1.254678
0.998974
1.033545
1.241565
1.178980
1.170635
1.329780
1.420975
1.575947
1.298785
1.655817
2.109408
5.472898
21.676421
49.587488
124.502778
205.775499
348.752737
465.766788
614.869595
679.996014
695.986748
614.394546
508.586764
347.296596
239.527822
143.560767
97.093582
75.450540
85.104704
101.682544
129.397511
145.879984
155.561566
149.845481
135.592818
113.881826
84.002614
62.823892
41.231513
27.416945
16.250610
12.352467
9.462833
9.425879
9.290576
9.027719
9.534955
9.508729
8.761883
9.418726
9.565949
8.675456
8.787513
8.725524
8.173585
9.013414
8.359551
7.951856
7.387996
6.963611
7.604957
7.517934
7.426739
7.050633
6.571412
5.933642
6.324649
5.938411
5.766749
5.724430
5.657673
5.570650
5.268455
5.883574
5.679727
5.415678
4.721880
5.118847
5.318522
4.740953
4.496574
4.524589
3.640652
3.602505
3.465414
3.991723
3.171563
3.174543
3.410578
3.473759
3.407598
2.849698
2.999902
2.987981
3.130436
##ZVALUE=265
1.100898
1.042485
1.109838
0.983477
1.163483
1.192689
1.185536
1.143813
1.120567
1.281500
1.278520
1.181960
1.449585
1.583695
3.248453
14.014840
35.979748
92.359781
164.025426
315.056443
443.830490
567.465425
697.299838
735.820532
673.134923
577.356815
427.290797
308.068991
175.590515
109.635592
75.813532
68.116784
82.372427
111.306906
133.386850
152.986646
157.063603
148.691535
136.003494
108.766556
86.743832
57.853460
42.869449
24.848580
17.402768
11.494756
10.571480
9.970665
9.461641
9.400845
10.011792
10.167956
10.045767
9.443760
9.220839
9.157658
9.048581
9.199977
8.174777
8.089542
7.984638
7.615685
7.371902
7.081628
6.864667
6.076694
6.046891
5.853772
5.932450
5.443692
5.822778
5.462766
5.666614
5.720854
5.299449
5.305409
4.819632
4.675984
4.988909
4.463792
4.107952
3.734827
3.888607
3.884435
3.638864
3.325939
3.309846
3.218651
3.351569
3.174543
3.404617
2.965927
2.879500
3.251433
2.980828
2.980828
##ZVALUE=270
1.056790
1.161695
1.040697
1.086593
0.989437
1.251698
1.275539
0.944734
1.205802
1.002550
1.186728
1.187921
1.137853
1.249909
1.242757
1.572967
1.790524
6.359816
19.282699
63.819885
127.756000
226.812959
405.752659
549.167991
698.971748
753.136873
742.064714
671.219826
518.860817
395.251513
274.359584
146.272779
88.794827
57.687759
60.207844
86.167455
107.212663
136.030912
149.940848
158.880949
153.849721
135.532618
115.314722
86.630583
63.389540
38.416982
27.724504
18.329620
13.855696
11.246800
10.782480
10.763407
10.710955
10.507703
10.468960
10.567904
9.552836
9.853840
9.407997
9.521842
8.707643
8.007884
8.112788
7.525682
6.845593
6.475449
6.476641
6.464720
5.926490
5.740523
5.999804
5.454421
5.981922
5.818605
5.262494
5.180836
4.926920
4.793406
4.622936
4.324913
3.992915
3.660917
3.517866
3.445745
3.746748
3.041625
3.126860
3.030896
3.215671
3.258586
3.276467
2.993941
3.130436
2.736449
3.086925
2.981424
##ZVALUE=275
0.857711
0.866652
1.034737
0.796914
0.901818
0.956655
0.970960
0.953674
1.120567
0.971556
1.239777
1.069903
1.065731
1.061559
1.341701
1.253486
1.442432
1.411438
1.528859
3.267527
11.849403
32.742620
97.024441
187.864900
355.274677
483.628511
642.308593
735.129714
770.533681
734.782815
649.679899
485.728979
344.088674
185.588598
110.533834
58.183670
47.613978
61.749816
82.226992
111.085773
130.604506
149.774551
157.478452
148.853660
135.778785
109.914541
87.519884
62.947869
46.067834
29.024482
20.051599
13.833642
12.288690
11.346936
10.904670
9.933710
9.694695
9.611845
9.582639
9.507537
8.970499
7.731915
8.425713
7.403493
7.422566
6.867647
6.767511
6.668568
6.469488
6.179810
6.101727
5.938411
5.695820
5.653501
5.600452
6.037951
4.966855
5.015731
4.301667
4.509687
4.354715
3.864765
3.838539
3.474951
3.629923
3.433824
3.411770
3.190637
3.065467
3.034472
2.797842
2.897978
2.964735
2.713799
2.858639
3.023744
##ZVALUE=280
1.098514
1.172423
0.869632
1.048446
0.921488
1.090765
1.005530
1.096725
1.222491
1.092553
1.367927
0.980496
1.172423
1.171827
1.184940
1.205802
1.407862
1.442432
1.439452
1.609921
1.605749
1.933575
7.648468
23.980737
76.906681
142.444968
272.877812
405.583978
590.770841
696.212649
778.080821
771.081448
703.456998
535.787940
396.266580
230.865479
142.064691
67.922473
44.195652
42.857528
57.026744
82.592964
106.891990
131.797791
148.104429
154.075623
149.391890
131.278634
112.282634
83.384514
63.073635
41.111708
29.736757
17.568469
13.076663
11.075735
9.675622
9.601712
8.868575
8.650422
8.998513
8.137822
8.023977
7.953644
7.535815
7.060766
7.475615
6.826520
6.763935
6.637573
6.322861
6.474853
6.174445
6.017685
6.086826
5.561709
5.569458
5.334616
5.360842
4.427433
4.608631
4.331470
4.171729
4.025698
3.886819
3.911853
3.749728
3.424883
3.355742
3.015995
3.386736
3.466606
3.183484
2.935529
3.105998
3.105998
##ZVALUE=285
0.869632
0.842810
0.873804
0.776649
0.808835
0.894666
0.687838
0.942945
0.853539
0.860691
0.744462
0.724792
0.967979
0.859499
1.049638
0.890493
0.985861
1.127720
1.128912
1.028776
1.205802
1.299977
1.501441
1.735687
3.156662
15.393496
38.314462
103.379488
182.405710
335.820913
471.258759
647.539496
744.502544
791.688561
749.617815
617.116690
483.815670
295.947790
187.959671
92.344880
50.787926
31.797886
35.204887
53.865910
73.035955
101.031661
121.231675
140.111446
146.180987
142.728686
131.018758
108.370781
86.726546
59.690475
42.754412
25.852919
16.776919
11.046529
8.791685
7.721782
7.331967
7.219911
7.070899
6.661415
6.568432
6.452799
6.208420
6.235838
6.473660
6.018877
6.219745
5.779862
5.975962
5.538464
5.835891
5.447865
4.937649
4.875660
4.626513
4.543662
4.578829
4.327893
4.114509
3.774762
3.780723
3.635883
3.502965
3.160834
3.595948
3.625751
3.383756
3.063679
3.037453
3.099442
3.052950
3.281832
##ZVALUE=290
0.746846
0.668764
0.788569
0.783801
0.792742
0.675917
0.769496
0.785589
0.716448
0.945926
0.820756
0.875592
1.013875
0.771880
0.957847
0.922680
0.791550
1.038909
1.149774
1.096725
1.169443
1.264811
1.149774
1.345873
1.218915
1.432896
1.954436
4.946589
23.049712
55.463910
111.251473
238.561630
371.590853
569.429994
691.129565
780.866742
772.220492
667.832494
551.245809
371.033549
245.580673
125.005841
67.768693
29.770732
22.573471
32.874942
47.791600
70.474744
90.922713
117.301941
132.310987
141.122937
137.628913
123.381615
105.443001
78.812838
57.968497
37.033558
25.280714
15.379786
10.330677
7.706881
6.420612
6.342530
5.851984
5.682707
5.572438
5.557537
5.715489
5.580783
5.801916
5.656481
5.610585
5.732775
5.302429
5.287528
5.094409
5.215406
4.551411
4.700422
4.414916
4.299879
4.240870
4.050732
3.883839
3.984571
4.000664
3.286600
3.415942
3.269911
3.456473
3.233552
3.212690
3.326535
3.324747
2.782941
##ZVALUE=295
0.731945
0.574589
0.690818
0.719428
0.789762
0.714660
0.773668
0.843406
0.948906
0.725985
0.693798
0.753999
0.781417
0.900626
0.916719
0.659823
0.890493
0.908971
0.997782
1.266599
0.994802
1.260638
1.032948
1.086593
1.115799
1.190901
1.574755
1.275539
1.545548
2.322793
8.132458
35.035610
77.755451
190.465450
308.373570
498.238802
626.830459
748.943686
775.256753
716.917515
614.591837
439.381003
306.576490
164.434910
90.303421
35.947561
20.812750
19.477606
27.925968
45.522451
63.425899
89.060664
106.613636
125.975609
132.218003
129.933953
118.951797
97.364783
79.161525
55.692792
38.575530
22.758842
15.103817
9.297729
7.231832
5.822778
5.455613
5.037785
5.126595
5.421638
5.403757
5.329847
5.840659
5.857944
5.558729
5.453825
5.359650
4.819632
4.722476
4.812479
4.601479
4.008412
4.239678
4.267693
3.838539
4.044771
3.867745
3.696680
3.793836
3.472567
3.346801
3.377795
3.488660
3.267527
3.328919
3.173947
##ZVALUE=300
0.652671
0.580549
0.542998
0.646710
0.689626
0.868440
0.633597
0.588894
0.617504
0.813603
0.736713
0.839829
0.706911
0.760555
0.859499
0.875592
0.859499
0.670552
0.865459
0.576973
0.828505
0.936985
1.020432
1.031756
1.157522
1.058578
1.074672
1.286864
1.182556
1.337528
1.549721
1.658797
4.823804
17.033815
59.791803
119.620562
246.815681
384.182930
571.102500
682.204962
766.785741
760.138035
660.926700
543.138981
361.782908
237.149000
119.188428
63.691735
25.164485
14.915466
16.750693
24.245977
40.172935
55.958629
80.415606
98.078847
117.335916
123.823881
123.887658
115.785003
95.924735
77.488422
53.531528
38.395524
23.060441
15.651584
8.904934
7.037520
5.525947
4.926920
4.984736
4.954934
5.132556
5.105734
4.810691
4.596710
4.759431
4.648566
4.822612
4.793406
4.438758
4.394650
4.025698
4.091859
4.194975
3.733635
3.559589
3.528595
3.631711
3.671646
3.362894
3.503561
3.371835
3.266931
3.146529
2.988577
##ZVALUE=305
0.873804
0.897646
0.857711
0.898838
0.886917
0.767708
0.935793
0.767708
0.833869
0.910759
0.756979
0.933409
0.850558
0.990629
0.841618
0.868440
1.083612
0.894666
1.038909
1.066923
0.963807
1.018643
1.131892
1.165867
1.100898
1.309514
1.118779
1.075864
1.260638
1.245737
1.454949
1.530647
1.690984
1.842976
3.113747
9.958744
40.448904
87.441802
198.479891
313.257575
492.243767
618.848801
732.941628
759.885907
692.277551
585.681796
416.534543
293.149948
157.060623
85.661411
34.194589
17.727613
12.040734
14.541745
23.486614
35.519600
56.328773
73.966980
95.119476
108.826756
118.879676
118.690729
108.567476
92.582703
71.458817
53.788424
35.257936
23.804903
13.474822
9.138584
5.996823
5.326867
4.985929
5.046725
4.704595
4.440546
4.695654
4.531741
4.263520
4.258752
4.201531
4.049540
3.897548
4.116893
3.839731
3.869534
3.481507
3.996491
3.639460
3.653765
3.443956
3.354549
3.271699
3.402829
3.499985
3.174543
##ZVALUE=310
0.770688
0.572801
0.573993
0.615716
0.489950
0.644922
0.674725
0.617504
0.774860
0.687838
0.604987
0.638962
0.656843
0.756979
0.592470
0.749826
0.792742
0.693798
0.685453
0.705719
0.714660
0.784993
0.658631
0.914931
0.869632
1.019835
0.833869
0.836849
0.895858
0.874996
0.927448
1.185536
1.041889
1.064539
1.272559
1.555681
1.691580
5.416870
17.077923
57.060719
115.617514
242.697001
367.679000
544.197559
658.391714
736.848712
727.770925
630.849004
519.530773
344.560742
227.766633
114.623904
61.296821
23.388863
12.373924
10.034442
13.090968
20.765662
31.071901
48.901439
65.655708
87.594986
101.064444
111.441612
110.815763
101.157427
90.525746
69.126487
53.330660
34.225583
23.563504
13.756752
9.251833
5.581975
4.819632
4.171729
3.823638
3.855824
3.716946
3.511906
3.523827
3.459454
3.368855
3.201962
3.150702
3.172755
3.193617
3.088713
2.967715
2.952814
3.025532
2.882481
2.835989
2.875924
2.793670
2.758503
##ZVALUE=315
0.595450
0.524521
0.719428
0.614524
0.648499
0.574589
0.656843
0.641942
0.600815
0.686646
0.674725
0.690818
0.493526
0.681877
0.634789
0.727773
0.626445
0.712872
0.727773
0.771880
0.904799
0.996590
0.689626
0.948906
0.816584
0.826716
0.892878
0.825524
1.028776
0.747442
0.999570
0.854731
0.879765
1.034737
0.982881
0.995994
1.199841
1.221895
1.674891
2.426505
9.050965
36.409497
82.997680
191.396475
303.143859
477.889776
594.469905
701.688528
726.229548
669.491887
574.199557
413.438678
292.297006
159.014463
86.345673
33.072829
15.111566
8.088946
8.775592
12.425780
17.605424
30.109882
43.046474
62.505603
79.107881
95.704794
103.825927
105.449557
98.446608
82.625747
67.387819
49.251914
34.754872
20.376444
12.955666
7.535815
5.431771
3.821850
3.302693
3.187656
3.130436
2.910495
2.815723
2.767444
2.669692
2.693534
2.719760
2.675653
2.480745
2.633929
2.547503
2.587438
2.473593
2.701879
2.550483
2.686977
##ZVALUE=320
0.447631
0.589490
0.719428
0.625849
0.772476
0.674725
0.657439
0.511408
0.660419
0.523925
0.669956
0.583529
0.696778
0.700951
0.614524
0.741482
0.707507
0.683665
0.640750
0.789762
0.616908
0.596642
0.719428
0.639558
0.607967
0.760555
0.807643
0.659823
0.826716
0.653863
0.839829
0.884533
0.720620
1.030564
0.967979
0.889897
1.104474
1.143813
0.955462
1.329780
1.266599
1.598597
3.876686
20.213723
51.243901
135.440826
226.398706
377.091765
504.705906
648.697615
708.760619
695.551634
625.336766
475.956798
344.353914
193.216801
112.054944
48.550963
23.681521
9.191632
7.030964
7.877946
10.162592
16.644597
25.416613
40.663481
55.680871
73.319674
87.449551
96.938610
98.897815
91.258883
80.528855
61.058998
46.570897
29.223561
20.333529
11.649728
7.194877
4.429817
3.278852
2.811551
2.578497
2.362728
2.323985
2.363920
2.166629
2.400875
2.281666
2.380610
2.232790
2.140999
2.062917
2.321601
2.310872
2.246499
##ZVALUE=325
0.594854
0.584722
0.496507
0.778437
0.633597
0.717640
0.572801
0.527501
0.597835
0.588894
0.568628
0.526905
0.611544
0.669956
0.575781
0.535846
0.611544
0.467896
0.569820
0.768900
0.634789
0.700951
0.637770
0.672936
0.753999
0.780821
0.763535
0.806451
0.827909
0.733733
0.771880
0.814795
0.904799
0.791550
0.808835
1.019835
0.905991
1.001954
0.913739
1.108646
0.980496
1.244545
1.201630
1.419783
2.316833
13.003945
33.915639
89.797974
163.833499
309.837461
435.573459
587.829947
668.493509
699.183941
647.424459
509.252548
387.212634
237.151980
145.655870
64.963698
31.878948
11.551976
7.217526
6.132722
6.580949
9.778738
14.492869
25.483966
36.662817
55.270791
67.855716
82.459450
89.840889
91.733932
85.456967
71.637630
58.049560
41.221976
28.996468
16.797781
10.917783
5.902648
4.012585
2.843738
2.484918
2.195835
1.964569
2.060533
2.038479
2.085567
2.091527
2.137423
1.913905
2.038479
1.975894
1.974702
##ZVALUE=330
0.636578
0.399947
0.662804
0.421405
0.443459
0.609756
0.462532
0.499487
0.662804
0.565648
0.650883
0.399947
0.619888
0.420809
0.434518
0.525713
0.632405
0.657439
0.671744
0.650883
0.725985
0.595450
0.683665
0.831485
0.671744
0.786781
0.634789
0.667572
0.526905
0.766516
0.720620
0.949502
0.700951
0.810623
0.881553
0.830889
0.929832
0.910759
0.847578
0.861883
0.981688
1.149774
1.106858
1.028776
1.166463
1.298785
1.661777
5.639791
17.702579
59.810877
114.657879
234.227777
347.200632
504.611731
605.620742
667.283535
649.105906
551.835895
443.601608
287.317634
185.641646
87.259412
44.385791
16.965866
8.241534
5.654693
5.440712
5.906820
8.691549
14.710426
22.027493
34.879446
47.866702
65.372586
76.150894
84.403753
84.588528
79.133511
69.220662
52.959919
40.151477
25.194883
17.585754
10.061860
6.801486
3.733635
3.047585
2.436638
2.083778
2.015829
1.869798
1.867414
1.806617
1.633763
1.974702
1.904964
##ZVALUE=335
0.383854
0.395775
0.363588
0.367761
0.276566
0.347495
0.357628
0.450611
0.446439
0.383854
0.367761
0.340939
0.233650
0.435710
0.501871
0.507832
0.447631
0.315905
0.501871
0.400543
0.451803
0.309944
0.563860
0.476837
0.531673
0.456572
0.358820
0.432730
0.662804
0.421405
0.529885
0.674725
0.614524
0.519753
0.614524
0.619888
0.779629
0.461936
0.516772
0.599623
0.644922
0.758767
0.752807
0.788569
0.957847
0.745654
0.964999
1.038909
1.216531
2.573729
9.052753
36.095977
76.109767
172.283649
277.211666
440.862775
550.652742
637.594461
648.728013
582.923889
483.889580
336.280465
227.829814
119.071603
61.584711
21.973848
9.878874
5.484819
5.056858
4.992485
5.540848
8.045435
11.945963
21.620989
31.567812
47.528744
59.143901
71.961880
78.185797
77.985525
73.785782
60.912967
51.161647
37.171841
27.625561
16.789436
10.895729
6.133914
4.051924
2.675653
2.252460
1.922846
1.797676
1.727939
1.547933
1.486540
##ZVALUE=340
0.383854
0.383854
0.281930
0.411868
0.463724
0.417829
0.397563
0.293851
0.322461
0.359416
0.323653
0.345707
0.302792
0.468493
0.428557
0.430942
0.375509
0.405908
0.454783
0.244975
0.395775
0.405908
0.447631
0.317693
0.375509
0.323653
0.462532
0.410676
0.567436
0.532866
0.582933
0.514984
0.475645
0.476837
0.531673
0.539422
0.467896
0.409484
0.577569
0.483990
0.578761
0.574589
0.732541
0.672936
0.740886
0.789762
0.752807
0.711679
0.769496
0.953674
0.997782
1.441836
4.490614
21.887422
54.446459
134.960413
226.287842
370.403528
479.267836
590.962768
623.997450
588.759780
512.639880
382.180810
267.983675
142.138600
79.695582
32.237768
13.796687
5.886555
4.746914
4.501939
4.256964
5.457997
7.530451
12.805462
19.433498
31.071901
42.312741
56.814551
66.832900
73.493719
73.283911
69.489479
62.249899
48.601627
38.242936
25.474429
17.753839
10.521412
6.569624
3.775954
2.961755
1.996756
1.849532
1.771450
##ZVALUE=345
0.453591
0.666976
0.438690
0.478625
0.366569
0.404716
0.592470
0.472665
0.528693
0.532866
0.548959
0.613928
0.650883
0.527501
0.590682
0.621676
0.645518
0.580549
0.583529
0.621676
0.634789
0.553727
0.663996
0.533462
0.587702
0.573993
0.699759
0.647902
0.729561
0.742674
0.639558
0.446439
0.615716
0.602603
0.708699
0.826716
0.821948
0.648499
0.717640
0.697970
0.795722
0.569820
0.680685
0.749826
0.855923
0.718832
0.804663
0.893474
0.877976
0.892878
1.281500
1.064539
1.151562
1.318455
2.206564
11.229515
32.099485
88.102818
158.307552
289.054513
394.966602
525.164008
589.146018
599.346757
545.738935
417.861938
314.350724
184.715986
104.431510
42.047501
19.876957
7.895827
5.274415
4.842877
4.233718
4.364848
4.794598
6.838441
10.296702
18.388629
26.756525
40.979981
49.718618
59.411526
65.066814
68.138838
65.365434
56.880713
48.052669
36.249757
26.783943
16.321540
11.405945
6.548762
4.335642
2.914667
##ZVALUE=350
0.554919
0.579953
0.454783
0.606775
0.606775
0.533462
0.611544
0.498891
0.571609
0.402927
0.518560
0.539422
0.472665
0.536442
0.556707
0.586510
0.554919
0.436902
0.594854
0.513792
0.463724
0.568628
0.663996
0.588894
0.538826
0.552535
0.659823
0.729561
0.521541
0.653863
0.585914
0.568628
0.678897
0.650883
0.521541
0.725985
0.727773
0.562668
0.657439
0.573993
0.646710
0.782609
0.716448
0.716448
0.660419
0.827909
0.843406
0.811815
0.885725
0.850558
0.859499
0.852942
1.041889
0.968575
0.852942
1.230836
1.532435
5.887747
17.670989
58.101416
116.205812
231.441855
335.576534
464.169979
540.336967
586.890578
559.642911
455.386639
348.901749
213.706493
130.046606
58.547854
27.693510
9.129643
5.604625
4.401803
4.130602
3.806949
3.868937
4.497766
6.149411
10.463595
16.112924
24.896860
33.205748
45.243502
53.435564
59.702992
62.646866
60.044527
54.321885
43.245554
35.663843
24.616718
18.027425
10.990500
##ZVALUE=355
0.347495
0.434518
0.456572
0.425577
0.593662
0.536442
0.377893
0.508428
0.399947
0.556707
0.451803
0.451803
0.494719
0.332594
0.490546
0.576973
0.430942
0.535846
0.466704
0.586510
0.562668
0.415444
0.492930
0.365973
0.446439
0.601411
0.608563
0.450611
0.525713
0.522733
0.442863
0.692606
0.492930
0.595450
0.711679
0.572801
0.705719
0.664592
0.737906
0.753999
0.663996
0.640750
0.662804
0.626445
0.743866
0.513792
0.569820
0.792742
0.776649
0.720620
0.587702
0.825524
0.763535
0.893474
1.066923
0.844598
0.886917
1.072884
1.159906
2.694726
9.664893
37.841797
79.293847
167.382956
263.446569
406.162739
497.487783
558.659434
554.296970
474.973917
386.629701
258.083940
164.385438
74.327588
36.278963
12.275577
6.033778
4.214644
3.931522
3.608465
3.333688
3.405809
3.801584
5.540848
7.964969
13.694763
19.444823
29.615760
37.628412
47.165751
52.870512
56.312680
55.352449
49.996972
42.774677
33.518672
##ZVALUE=360
0.319481
0.290871
0.383854
0.314713
0.300407
0.428557
0.375509
0.376701
0.376701
0.330806
0.376701
0.382662
0.317693
0.383854
0.292659
0.472665
0.492930
0.463724
0.220537
0.404716
0.425577
0.404716
0.404716
0.483990
0.492930
0.313520
0.575781
0.492930
0.423789
0.422597
0.494719
0.524521
0.444651
0.476837
0.575781
0.459552
0.453591
0.569820
0.479817
0.527501
0.541806
0.450611
0.667572
0.585914
0.447631
0.586510
0.655651
0.443459
0.673532
0.729561
0.551939
0.824928
0.603795
0.728965
0.766516
0.862479
0.814795
0.887513
1.108646
0.987649
1.209974
1.330972
5.255938
16.516447
55.703521
106.494427
213.244557
317.888856
455.785990
525.048971
547.348857
508.621931
409.881473
310.027599
183.332562
111.071467
48.251748
21.893978
7.321835
4.464984
3.762841
3.710985
3.277659
3.120899
3.115535
3.319979
4.275441
6.417632
10.856986
15.703440
24.068952
31.716824
41.148663
46.619773
50.360560
51.012635
##ZVALUE=365
0.555515
0.544786
0.534654
0.539422
0.594854
0.587702
0.494719
0.297427
0.426769
0.560880
0.435710
0.566840
0.557899
0.439882
0.561476
0.592470
0.509620
0.398755
0.440478
0.592470
0.432730
0.478625
0.557899
0.511408
0.582933
0.548959
0.602603
0.505447
0.627637
0.610948
0.549555
0.669956
0.618696
0.590682
0.484586
0.651479
0.534654
0.613928
0.583529
0.722408
0.666976
0.650883
0.705719
0.840425
0.664592
0.606775
0.580549
0.726581
0.755787
0.803471
0.550747
0.774860
0.718832
0.668764
0.724792
0.806451
0.972748
0.968575
0.940561
0.854731
1.000762
1.088977
1.076460
1.248717
2.381802
11.178851
29.878616
80.806613
149.545670
279.920697
383.055806
492.929816
542.748570
527.306795
460.460782
337.563753
238.998532
131.718516
72.172880
27.346611
11.540651
5.056858
3.975630
3.587604
3.398657
3.050566
2.743602
2.807975
2.888441
3.858805
5.261898
8.744597
13.026595
20.401478
27.309656
35.439730
##ZVALUE=370
0.344515
0.264645
0.307560
0.330806
0.332594
0.345707
0.493526
0.360608
0.421405
0.399947
0.368953
0.347495
0.326633
0.275970
0.338554
0.322461
0.313520
0.531673
0.382662
0.387430
0.540614
0.481606
0.360608
0.250936
0.177622
0.492930
0.281930
0.350475
0.443459
0.404716
0.371933
0.398755
0.539422
0.414848
0.430942
0.510812
0.394583
0.528693
0.375509
0.410676
0.283718
0.362992
0.445843
0.458956
0.509620
0.625849
0.491738
0.475645
0.547767
0.498891
0.517964
0.497699
0.531673
0.572801
0.545979
0.581741
0.589490
0.673532
0.737906
0.604987
0.745654
0.803471
0.831485
0.755787
0.860691
1.055598
1.318455
5.492568
17.766953
58.364868
111.646652
214.825869
318.463445
453.234911
519.442558
531.316996
486.466885
376.070738
275.336504
154.403448
87.094903
35.266876
16.780496
6.516576
4.072785
3.428459
3.198981
2.848506
2.703667
2.551675
2.348423
2.718568
3.211498
4.732609
7.031560
11.639595
##ZVALUE=375
0.536442
0.470877
0.457764
0.436902
0.429749
0.552535
0.562668
0.474453
0.453591
0.204444
0.494719
0.572801
0.550747
0.482798
0.458956
0.468493
0.554919
0.527501
0.669956
0.484586
0.534654
0.458956
0.563860
0.574589
0.505447
0.478625
0.460744
0.494719
0.559688
0.587702
0.532866
0.622869
0.636578
0.738502
0.554919
0.659823
0.576973
0.653863
0.558496
0.561476
0.608563
0.718832
0.661612
0.670552
0.686646
0.622869
0.644922
0.631809
0.703931
0.595450
0.633597
0.706911
0.588894
0.646710
0.734925
0.726581
0.694990
0.681877
0.760555
0.837445
0.636578
0.723600
0.825524
0.977516
0.866652
1.008511
1.027584
1.023412
1.290441
3.132820
10.385513
37.028790
78.577995
176.606774
276.557803
413.485765
489.262938
533.814430
522.636771
425.575972
330.417752
202.459693
126.343966
58.505535
29.598475
10.201931
5.042553
3.722906
3.237724
3.135800
2.868772
2.816916
2.599955
2.327561
2.463460
2.778769
##ZVALUE=380
0.578761
0.508428
0.503659
0.520945
0.405908
0.477433
0.599623
0.435710
0.398755
0.419617
0.462532
0.326633
0.576973
0.501871
0.421405
0.547767
0.611544
0.362992
0.511408
0.440478
0.461936
0.513792
0.506639
0.566840
0.451803
0.539422
0.518560
0.615716
0.529885
0.614524
0.643730
0.620484
0.575781
0.663996
0.544786
0.627637
0.583529
0.553727
0.593662
0.685453
0.581741
0.662804
0.821948
0.676513
0.624657
0.716448
0.607967
0.506639
0.602603
0.615716
0.758767
0.681877
0.593662
0.706911
0.593662
0.680685
0.694990
0.648499
0.682473
0.718832
0.735521
0.823736
0.698566
0.851750
0.893474
0.839829
0.753999
0.868440
0.959635
1.060963
1.133680
1.732707
5.503893
24.612546
56.420565
133.755803
216.506720
339.613557
432.251692
509.874821
513.324738
445.245504
365.647674
253.495574
170.559883
84.807873
43.801665
16.090870
7.134676
3.487468
3.098845
2.898574
2.920628
2.539754
2.564788
2.491474
##ZVALUE=385
0.430942
0.412464
0.469685
0.420809
0.488758
0.382662
0.510812
0.481606
0.440478
0.478625
0.461936
0.480413
0.541806
0.449419
0.577569
0.463724
0.495911
0.454783
0.320673
0.696778
0.368953
0.521541
0.461936
0.560880
0.542998
0.544786
0.542998
0.671744
0.644922
0.628829
0.822544
0.745654
0.734925
0.662804
0.540614
0.744462
0.708699
0.795722
0.742674
0.725985
0.773668
0.576973
0.666976
0.685453
0.744462
0.615716
0.687838
0.696778
0.613928
0.676513
0.680685
0.659823
0.625849
0.506639
0.568628
0.620484
0.609756
0.715852
0.633597
0.826716
0.919700
0.786781
0.650883
0.761747
0.746846
0.681877
0.731945
0.787973
0.894666
0.919700
0.896454
1.059771
1.241565
1.283884
2.650619
13.415813
34.827590
90.302825
157.551765
280.094743
380.511880
476.138592
504.449606
477.517843
418.300629
305.776000
218.944550
127.584934
72.916746
27.890801
11.912584
4.219413
3.336668
2.895594
2.664924
2.627969
##ZVALUE=390
0.453591
0.406504
0.268817
0.530481
0.478625
0.477433
0.582933
0.529885
0.496507
0.637770
0.426769
0.467896
0.440478
0.424981
0.456572
0.466704
0.494719
0.354648
0.383854
0.570416
0.490546
0.419617
0.398755
0.481606
0.533462
0.761747
0.577569
0.523925
0.578761
0.779629
0.854731
0.712872
0.713468
0.727773
0.756979
0.687838
0.793934
0.759959
0.862479
0.911951
0.715852
0.791550
0.607967
0.775456
0.758767
0.706911
0.694990
0.744462
0.623465
0.688434
0.747442
0.763535
0.663996
0.684857
0.692606
0.746846
0.684857
0.614524
0.724792
0.739694
0.497699
0.548959
0.568628
0.685453
0.681877
0.626445
0.544786
0.767708
0.762939
0.797510
0.763535
1.001954
0.947714
1.088977
0.996590
1.077652
1.660585
7.013679
21.559596
67.011714
125.462413
235.964656
323.987007
423.520803
475.377440
492.159724
453.954935
359.530449
274.791718
167.801976
99.285841
41.620731
19.402504
6.236434
3.566742
3.216863
##ZVALUE=395
0.554919
0.555515
0.381470
0.528693
0.394583
0.445843
0.362992
0.371933
0.466704
0.458956
0.428557
0.492930
0.441670
0.673532
0.381470
0.612736
0.487566
0.365973
0.470877
0.531673
0.438690
0.576973
0.476837
0.543594
0.526905
0.406504
0.658631
0.545979
0.674725
0.669956
0.663996
0.642538
0.760555
0.754595
0.615716
0.695586
0.648499
0.691414
0.761747
0.651479
0.634789
0.649691
0.829697
0.658631
0.683665
0.785589
0.746846
0.811815
0.758767
0.649691
0.673532
0.732541
0.766516
0.709891
0.668764
0.706911
0.600815
0.658631
0.641942
0.840425
0.626445
0.613928
0.716448
0.527501
0.602603
0.709891
0.650883
0.836849
0.807643
0.806451
0.886917
1.099706
0.860691
0.780821
0.854731
0.838637
1.008511
0.942945
1.357794
3.173947
16.582608
40.204525
95.889568
162.843466
276.328921
371.610522
470.114946
506.251454
489.198565
432.576537
326.635838
227.686763
120.361447
66.105723
25.193691
11.511445
##ZVALUE=400
0.607967
0.639558
0.616908
0.472665
0.515580
0.495911
0.471473
0.411868
0.484586
0.443459
0.434518
0.416636
0.500679
0.584722
0.447631
0.479817
0.584722
0.561476
0.457764
0.542998
0.597835
0.450611
0.407696
0.385642
0.392795
0.471473
0.649691
0.591874
0.614524
0.624657
0.671744
0.519753
0.863671
0.714660
0.749826
0.775456
0.803471
0.767708
0.760555
0.586510
0.742674
0.774860
0.553727
0.645518
0.644922
0.603795
0.785589
0.681877
0.551939
0.715852
0.599623
0.579953
0.712872
0.761747
0.753999
0.658631
0.621676
0.584722
0.733733
0.772476
0.546575
0.544786
0.731945
0.674725
0.552535
0.632405
0.759959
0.850558
0.856519
0.853539
0.787973
0.835657
0.874996
0.935793
0.725985
0.839829
0.869632
0.913739
0.964999
0.933409
1.045465
2.253652
7.531643
28.816462
61.324835
134.155750
212.684870
330.661535
408.203006
475.530624
482.282639
426.854491
357.185006
245.907903
164.772868
83.927512
##END
