##TITLE=D7-5
##FORMAT=SPECTACLE-ASCII V-1.2
##DATA TYPE=ULTRAVIOLET SPECTRUM
##SECOND TYPE=ULTRAVIOLET SPECTRUM
##DATE=01/24/18
##TIME=12:38:53
##SPECTROMETER/DATA SYSTEM=SPECTACLE
##XUNITS=NM EM
##YUNITS=ENERGY
##YFACTOR=1
##FIRSTX=220
##LASTX=410
##NPOINTS=96
##3DDATA=Equidistant
##ZUNITS=NM EX
##FIRSTZ=210
##LASTZ=400
##ZPOINTS=39
##XYDATA=(Y..Y)
##ZVALUE=210
14.200807
14.485717
13.877749
11.613965
11.271834
10.528564
9.485483
8.820891
7.214546
6.233454
3.788471
3.651977
2.766848
2.275705
2.243519
2.765656
2.785921
2.390742
2.799630
2.710819
2.448559
2.585649
3.449917
3.516674
3.660917
4.883409
4.130602
5.116463
6.033778
6.112456
7.710457
6.973743
7.867813
8.807778
8.282661
7.701516
8.062720
7.929802
7.864833
7.663965
7.027984
7.634759
7.251501
6.926656
6.528497
7.823706
6.592870
6.949902
6.321669
7.099509
6.732941
6.793737
6.218553
6.291866
7.460713
7.067919
5.988479
6.941557
6.799698
6.417632
6.679893
6.037951
6.307960
6.150603
6.441474
5.746484
6.326437
6.704926
6.455779
7.955432
7.452965
7.970929
9.574890
9.956956
10.744929
10.191798
11.102557
9.854436
10.509491
9.724498
9.013414
7.304549
7.323623
5.784631
5.010962
4.819632
4.893541
5.251765
4.893541
6.230474
8.284450
11.296868
15.749931
18.799901
22.905469
29.329658
##ZVALUE=215
37.896633
34.727454
32.674670
23.752451
21.527410
18.950701
15.846491
15.744567
15.810728
14.568567
11.948943
9.824634
6.812811
5.247593
3.523827
2.820492
2.632737
3.278852
2.828836
2.402663
3.247857
2.978444
2.561808
3.945827
4.374981
5.398989
5.587935
6.066561
7.108450
7.347465
8.003712
8.943677
9.599924
9.364486
10.296702
11.544824
10.399818
9.224415
9.492636
9.507537
9.448528
8.868575
8.438826
8.288622
8.551478
8.293986
7.268786
9.062886
7.906556
8.180737
8.275509
9.100437
8.172989
8.356571
9.325743
8.076429
8.501410
9.248853
8.856654
8.005500
7.994771
8.285642
7.970929
8.222461
7.205606
8.291602
7.167459
6.755590
8.073449
7.579923
8.647442
8.546710
9.567738
9.776950
10.829568
10.564923
9.715557
9.418726
8.948445
9.385943
8.636713
7.128716
7.069707
5.586743
6.089807
5.625486
5.020499
4.816651
3.811717
3.963709
4.092455
4.574656
4.518628
6.056428
5.935431
9.469986
##ZVALUE=220
75.854659
74.500442
74.478984
67.272782
60.703754
43.652654
36.606789
30.679703
27.695894
25.185943
25.958419
27.485490
23.918748
18.237829
14.278889
11.901855
7.175803
6.249547
3.413558
2.922416
3.204942
3.010631
4.307628
3.718734
4.529953
5.562901
6.158948
7.051826
8.215904
9.911656
9.406805
10.642409
10.422468
10.885596
12.000799
10.794997
11.239648
11.464953
10.980964
10.869503
11.908412
10.361671
10.116696
10.092854
10.487437
10.371804
9.345412
10.313988
10.113716
9.537935
10.570884
11.167526
11.570454
11.284947
12.546778
11.380911
12.957454
11.938810
10.556579
11.106730
11.214614
11.898875
11.105537
10.715723
9.581447
10.309815
9.280443
8.951426
9.075999
9.851456
10.344982
10.807514
10.385513
10.515451
10.229945
11.000633
11.013746
10.021925
10.429621
9.848475
7.978678
8.698702
7.858872
7.325411
6.385446
6.844997
5.515814
5.467534
4.699826
4.641414
4.474521
4.362464
3.908873
4.121661
4.124641
3.952980
##ZVALUE=225
91.299415
93.252659
112.219453
123.392940
125.849843
119.208694
103.213787
81.290603
63.273907
52.572489
40.825605
39.900541
43.225884
41.047931
40.381551
35.431981
26.470423
20.232797
16.454458
10.628700
6.992817
5.467534
3.702641
4.507899
4.336834
4.941821
5.488992
6.110668
6.655455
7.760525
7.540584
9.688735
8.916855
8.643866
10.283589
10.236502
10.605454
10.232925
11.841655
11.589527
11.255741
10.957718
10.455847
11.765957
11.309981
10.005832
10.121465
11.619925
12.542605
12.458563
12.527704
12.501478
12.284517
13.727546
14.205575
13.586879
14.095902
13.284683
13.671517
14.431477
13.163686
12.961626
12.893677
11.681914
10.835528
11.362433
10.624528
11.131763
11.302829
11.662841
10.806918
10.874867
11.916757
11.684895
10.477901
11.253953
11.698604
9.742975
9.813905
9.181499
8.289814
8.064508
7.054806
7.560849
7.274747
6.000996
6.061792
4.533529
5.198717
5.553961
4.766583
4.653931
5.292892
4.916787
4.891753
4.414916
##ZVALUE=230
56.214929
61.361790
91.097951
144.940615
179.390907
206.781626
222.170949
205.768943
184.277892
138.462782
104.321837
73.756576
63.201785
56.542754
59.331656
65.196753
64.911842
60.668588
53.088665
42.215586
28.708577
21.870732
12.148619
8.193851
5.429983
5.118847
5.317926
6.017685
5.751848
5.587935
6.466508
7.076859
7.130504
7.534623
8.423924
9.344816
8.738637
9.023547
10.163784
10.269880
10.710955
10.752678
9.967685
11.066794
10.712743
10.909438
10.228753
10.885596
11.976957
12.017488
12.583733
12.751818
12.589693
12.761950
13.246536
12.214780
11.925697
13.297796
13.194680
12.688637
12.985468
13.507605
11.853576
12.649894
11.559725
12.093782
11.841655
10.939837
10.797977
11.477470
12.842417
11.826754
11.557937
12.535453
12.991428
10.885000
11.032820
11.271834
10.775924
11.075735
9.182692
9.817481
8.045435
8.525848
8.229613
6.498694
6.745458
6.993413
6.360412
6.252527
6.047487
5.773902
6.174445
5.396605
5.696416
5.333424
##ZVALUE=235
15.160441
17.846823
36.260486
83.980560
129.307508
197.567940
249.736905
314.343572
341.245532
341.797471
295.873880
234.439969
161.151886
124.209523
95.728636
83.284974
85.267425
94.439983
104.134679
97.876787
89.568496
75.546503
56.268573
38.528442
25.307536
16.517639
10.404587
7.678866
6.937981
7.724762
5.934834
6.527901
5.792975
7.260442
6.763935
7.670522
8.587837
8.973479
8.740425
9.411573
9.593964
9.556413
9.822845
9.981990
10.737777
10.743737
11.347532
11.117458
9.999871
10.454655
10.249615
10.850430
12.377501
11.241436
12.494922
11.926889
11.239648
11.946559
12.339950
11.692643
11.133552
11.892915
11.918545
10.498762
11.175871
11.230707
9.951591
12.099743
11.807680
12.773871
12.413859
12.757778
12.101531
12.324452
12.102723
13.214946
12.976527
12.377501
11.954904
10.698438
12.139678
9.803772
8.370876
8.617640
8.841753
7.840991
6.997585
7.409453
7.157922
7.032752
6.431937
7.390976
7.138848
6.430745
6.762743
6.027818
##ZVALUE=240
2.038479
2.102852
5.840659
17.172694
38.957000
86.105466
138.513446
236.488581
329.579711
422.927737
468.863845
455.777645
424.328446
330.489874
267.156959
190.676451
130.475760
107.968450
101.416707
108.744502
122.368932
123.690963
118.144751
108.001828
86.302757
68.511963
51.800609
31.438470
23.396611
13.741851
10.740757
8.118749
8.232594
7.236600
8.385777
8.470416
7.998943
8.188486
8.720756
9.368658
9.740591
8.871555
8.936524
9.939671
9.617805
9.954572
9.877682
9.330511
10.046959
9.944439
9.847879
10.325909
10.876656
11.018515
10.506511
10.854602
10.081530
10.860562
10.732412
10.738969
10.666847
10.011792
11.520982
11.383891
11.358857
11.009574
11.228919
11.940598
10.757446
11.633635
11.299849
12.087822
12.312531
13.179779
13.429523
12.389421
12.419820
13.027787
12.469888
11.891723
11.793971
10.335445
9.904504
10.051727
9.125471
8.208752
8.480549
8.204579
8.283854
8.094907
7.321835
7.913709
6.872416
6.738901
6.605983
7.261634
##ZVALUE=245
1.616478
1.403689
1.565814
1.571774
4.138947
10.398626
32.251477
66.369772
144.676566
224.453807
350.694656
437.652469
506.318808
541.364551
519.472957
434.505939
353.847742
247.227550
175.788999
118.205547
105.397701
103.418827
122.844577
133.299828
140.632987
134.196877
118.352771
96.764565
76.145530
56.793690
39.299726
23.494959
17.277598
11.849999
9.598732
8.839965
8.244514
8.574724
9.291768
9.270906
8.984804
8.682609
9.942651
9.440780
10.628700
10.163784
9.624958
9.385943
10.025501
10.108948
10.000467
10.005832
9.856820
10.023713
9.995699
9.763837
9.510517
9.110570
10.703802
9.960532
10.638833
8.779764
10.256767
9.529591
9.112954
11.125803
10.091662
9.720922
9.613633
10.157824
9.941459
10.337830
10.956526
10.736585
10.890961
11.743903
10.523796
10.093451
10.618567
9.584427
9.254813
8.737445
8.144975
8.328557
7.736683
7.225871
7.621646
7.022619
7.712841
6.189942
6.399751
6.418824
6.865859
6.645918
6.029606
6.467700
##ZVALUE=250
1.540780
1.530647
1.541972
1.706481
1.628995
1.484752
2.147555
6.295443
23.207664
51.424503
122.264624
210.360885
305.844545
446.964502
534.522533
613.594651
615.208745
543.655753
462.442636
322.863460
222.249627
150.443912
105.680823
95.799565
111.544728
130.180717
144.553781
144.214630
144.382715
131.575465
111.012459
85.502863
64.313412
37.798882
27.512908
15.936494
12.319684
10.428429
9.616613
8.700490
9.029508
8.840561
9.484887
9.947419
9.716749
9.461641
8.468628
9.989738
10.180473
9.885430
9.398460
10.193586
10.304451
9.811521
9.046793
9.843707
9.533763
9.873509
9.533763
8.421540
9.067655
9.336472
8.500814
9.018779
8.417964
7.768869
8.919835
8.084774
8.830428
8.039474
8.735657
9.076595
8.534789
9.246469
9.948611
8.978844
9.381771
8.231997
8.781552
8.142591
8.075833
7.143617
6.815791
6.969571
6.048679
5.658865
5.789995
6.136894
5.294681
5.801916
5.360842
5.538464
5.102754
4.805923
4.528761
4.831553
##ZVALUE=255
1.290441
1.416802
1.372695
1.515746
1.406670
1.343489
1.466870
1.521707
1.791716
3.732443
15.203953
37.625432
78.182817
171.476603
271.085501
426.092744
532.419682
643.710494
670.408607
632.218719
550.038815
443.335772
282.205939
187.621713
112.386942
90.837479
92.184544
107.816458
129.645467
142.937899
153.390765
149.398446
135.985613
107.723475
86.586475
58.523417
41.494966
24.164915
16.735792
12.007952
10.881424
10.123849
10.436773
8.855462
10.163784
9.639859
10.100603
10.480881
9.823442
10.049939
10.588765
9.858608
10.488629
10.060668
9.053946
10.402799
9.354949
9.936690
9.322762
8.901954
8.295774
8.609891
7.791519
8.429885
8.696914
7.788539
8.063912
8.532405
7.507801
7.991791
7.762909
7.991791
7.411838
8.640885
8.375645
7.202625
7.118583
7.057786
6.163716
6.304979
5.847812
5.979538
6.217957
5.289912
4.839897
5.031824
4.497766
4.522800
4.975796
4.668832
4.386902
4.800558
4.194975
4.162788
4.222989
4.600883
##ZVALUE=260
1.481771
1.368523
1.257658
1.342893
1.395941
1.204610
1.401901
1.463890
1.381636
1.673698
1.875758
2.438426
6.038547
23.895502
54.837465
131.685734
222.362876
374.364853
495.530963
654.131770
720.020533
729.285479
647.588968
533.888936
362.581611
251.697898
148.681998
100.776553
79.778433
84.442496
112.088919
131.790638
148.095489
156.830549
153.875947
134.284496
116.030574
85.180998
64.069629
40.497780
27.910471
17.686486
12.916923
11.330843
11.025667
11.151433
10.822415
9.628534
10.719895
10.775924
10.989904
10.702610
10.493994
10.687709
10.075569
9.643435
10.617971
10.147691
10.054708
9.324551
9.385943
8.854866
8.467436
9.162426
8.551478
8.284450
8.975863
7.176995
7.403493
7.933974
7.841587
7.512569
7.305741
7.824898
7.027984
6.481409
6.619692
7.471442
6.253719
6.010532
5.609989
5.095601
5.229712
5.022883
4.904866
4.677773
4.572868
4.418492
4.720688
4.169941
4.151464
4.235506
4.022717
3.879666
3.790855
4.027486
##ZVALUE=265
0.951886
1.041889
0.981688
1.264811
1.239777
1.092553
1.182556
1.060963
1.280904
1.268983
1.468658
1.297593
1.610518
1.792908
3.592968
15.294552
39.320588
99.615455
180.501938
343.975425
485.064983
617.055893
758.326650
790.974498
727.756023
626.876950
459.348559
325.791836
187.412500
117.463470
79.354644
68.469644
82.909465
114.476681
136.601925
157.197714
162.316561
153.276920
139.767528
111.594796
90.028644
61.978698
43.214560
26.109815
19.168854
13.977885
12.168884
11.415482
11.162758
11.116862
11.719465
11.380911
11.439919
11.400580
11.322498
11.435747
10.911822
10.552406
10.446906
10.244846
9.528995
9.420514
9.106994
8.843541
8.899570
8.217692
8.637905
7.842779
7.915497
7.897615
7.569790
7.874966
7.673502
7.795691
7.495880
6.838441
6.513000
6.618500
6.633997
5.687475
5.335808
5.395412
4.836917
4.587770
4.676580
4.477501
4.263520
4.035830
4.194975
4.439950
4.021525
3.700852
3.686547
4.008412
3.869534
3.440976
##ZVALUE=270
1.222491
1.070499
1.162887
1.314878
1.196861
1.204610
1.165867
1.071692
1.176000
1.200438
1.208782
1.248717
1.273751
1.331568
1.551509
1.498461
2.113581
7.409453
21.480918
70.512891
140.599608
244.255662
438.897014
593.833923
751.118660
821.341872
806.324482
729.122758
573.969483
426.729918
293.718576
156.883597
95.374584
60.406923
64.019561
88.709593
112.463832
143.832564
158.015490
163.937807
158.098936
137.246847
119.066834
88.590980
65.239668
41.911602
29.130578
20.785928
15.863776
13.740659
12.793541
13.175607
13.103485
12.576580
13.561845
12.589693
12.508631
11.628866
11.404753
11.505485
10.311604
10.084510
10.336637
9.597540
9.276867
8.825660
8.914471
8.617640
7.727742
8.435845
8.246899
8.300543
8.284450
7.783771
7.020831
6.580949
6.900430
6.427765
6.730556
5.686879
5.478859
5.172491
4.745722
4.751682
4.683733
4.521608
4.578829
4.469752
4.342794
4.113913
3.933907
3.764629
3.467798
3.634691
3.810525
3.911853
##ZVALUE=275
0.852942
0.975728
0.814795
0.948906
1.003742
0.953674
1.063943
1.020432
0.941753
0.980496
1.090765
1.129508
1.181960
1.328588
1.285672
1.442432
1.523495
1.596808
1.780987
2.812743
14.539957
40.184855
117.068887
214.744806
387.109518
534.570813
668.381453
808.084607
841.922760
790.174603
689.898729
501.716733
362.563729
200.001001
119.920969
61.833858
50.648451
63.682795
84.605813
115.305781
136.117935
156.795979
161.075592
154.416561
142.274499
111.307502
91.004968
63.924789
47.179461
29.257536
22.632480
16.684532
14.170408
13.787746
13.422966
11.953712
12.565851
11.963844
11.954904
11.620522
11.097789
11.171699
10.372996
9.984970
9.531975
9.700656
9.071827
8.693933
8.682609
8.372664
8.390546
8.584857
7.752776
7.898808
7.417798
7.264614
7.425547
6.958842
7.005930
6.087422
5.586743
5.945563
5.079508
4.906654
4.979968
4.497766
4.188418
4.280806
4.348755
4.210472
3.944635
3.830791
3.654957
3.538728
3.650784
3.763437
##ZVALUE=280
0.832677
0.736713
0.796914
0.976920
0.862479
0.690818
0.793934
0.983477
1.004934
1.121759
1.109838
1.058578
1.148582
1.015663
1.322627
1.128912
1.248717
1.340508
1.424551
1.411438
1.519918
1.749992
8.316636
26.472807
85.321665
157.642961
299.481750
437.783003
634.035468
750.973821
825.839639
829.543471
749.666691
575.828552
428.892970
247.758627
149.293542
70.078969
47.519803
46.076775
58.577657
87.133646
108.442903
135.251880
150.643587
156.951547
150.303841
133.384466
115.485787
84.687471
65.071583
41.681528
31.549931
19.532442
15.915632
12.364984
11.986494
11.264682
11.083484
10.718703
10.960698
10.231733
10.129809
9.477735
9.773970
9.691715
8.905530
9.080768
8.836985
8.257627
8.231997
7.971525
8.232594
7.983446
7.471442
7.260442
6.852746
6.363988
6.400943
6.005764
5.508661
5.559921
5.180836
5.038977
4.855990
4.651546
4.144907
4.346967
4.487634
3.813505
4.311800
3.966689
3.932714
3.787875
3.639460
3.705621
##ZVALUE=285
0.821948
0.949502
0.887513
0.959635
0.965595
0.741482
0.882745
0.969768
1.061559
0.867844
0.912547
0.917912
0.903606
1.020432
0.885725
0.994802
1.049638
1.086593
1.132488
1.146793
1.345873
1.323819
1.477599
1.867414
4.411936
13.255477
46.569705
98.977685
212.636590
340.896845
486.998558
684.389472
787.501931
849.769711
802.344680
659.465790
518.621802
320.760012
202.633739
97.554922
54.230690
32.983422
36.922693
55.931807
76.631904
106.769800
124.890804
143.322945
151.171684
145.543814
134.503841
110.358596
87.979436
61.987638
43.113828
28.209686
18.853545
12.706518
11.129975
9.862781
8.901954
9.526610
9.119511
8.548498
8.531809
8.256435
8.124709
8.024573
8.263588
8.001924
7.730722
7.937551
7.528663
7.148981
7.226467
7.540584
6.689429
6.445646
6.249547
6.004572
5.583763
5.221963
5.235672
5.210638
4.857779
4.579425
4.536510
4.353523
4.479885
3.890991
3.945827
4.106760
4.167557
3.769994
3.756881
3.677607
##ZVALUE=290
0.878572
0.717640
0.939965
0.849962
0.795722
0.617504
0.588894
0.718832
0.846982
0.917912
0.869632
0.899434
0.938773
0.882745
0.994802
0.945926
1.047850
1.005530
1.095533
1.137853
1.056790
1.147985
1.161695
1.243949
1.518726
1.647472
1.997948
7.244945
22.528768
69.199800
133.806467
276.927948
421.233773
618.631840
747.926831
850.031972
842.411518
726.065636
595.541000
398.243666
262.064934
130.802989
70.406795
31.711459
24.006963
33.687949
48.967600
73.351860
94.466805
118.681788
133.935809
141.579509
141.566992
125.303864
108.637810
80.323815
60.995817
39.757490
27.326941
16.786456
11.498928
8.933544
7.845759
7.663965
7.407665
7.367730
7.018447
7.155538
6.872416
6.956458
7.023811
7.272959
7.124543
7.285476
6.947517
6.385446
6.361604
6.422997
5.827546
5.759597
5.260706
5.216599
5.082488
5.131960
4.771948
4.789829
4.660487
4.093647
4.366636
4.211664
4.150867
3.862977
3.909469
3.991723
3.757477
3.974438
##ZVALUE=295
0.616908
0.666976
0.642538
0.751615
0.572801
0.640750
0.797510
0.685453
0.727773
0.705719
0.669956
0.635982
0.635982
0.591874
0.705719
0.808835
0.687838
0.814795
0.812411
1.025796
0.737906
0.881553
0.875592
1.008511
0.910759
1.126528
1.102686
1.290441
1.535416
2.536774
12.677908
36.850572
84.976554
206.108689
329.110026
528.800488
669.036508
801.569819
833.048820
769.895911
661.428571
472.619534
322.991610
169.440508
92.422962
37.463903
21.276474
20.413995
28.354526
46.502948
63.219666
89.713931
109.621882
128.853917
135.802627
131.952763
121.114850
100.134611
79.800487
55.349469
39.536953
23.755431
16.477704
9.954572
7.533431
6.295443
6.041527
5.567670
5.876422
6.044507
6.361604
6.005764
6.074905
5.977750
5.863905
5.985498
5.806684
5.510449
5.236864
5.422831
4.962683
4.845858
4.879832
4.635453
4.371405
4.156828
4.088879
4.229546
3.981590
3.992915
3.955960
3.804564
3.756881
3.728867
3.740788
3.640652
##ZVALUE=300
0.565648
0.677705
0.621676
0.760555
0.763535
0.865459
0.619888
0.836849
0.868440
0.826716
0.717640
0.687838
0.828505
0.770688
0.782609
1.017451
0.784993
0.985861
1.051426
1.015663
1.041889
0.945926
1.114607
0.900626
1.004934
1.127720
1.072884
1.262426
1.376867
1.261830
1.503825
1.571774
5.607605
19.640923
66.764951
132.351518
273.141861
413.987637
615.031719
730.128884
817.945004
808.491707
697.257519
573.949814
379.391909
248.511434
123.371482
68.209767
27.408600
16.079545
17.802715
24.786592
41.036606
56.496859
82.032681
101.394653
120.875835
128.055811
124.850869
116.428733
95.610619
78.088641
55.173635
39.183497
23.978949
15.796423
9.682775
7.345676
6.306767
6.134510
5.546808
5.278587
5.730987
5.521774
5.669594
5.551577
5.339980
5.254745
5.178452
5.102754
4.676580
4.833937
4.413724
4.479885
4.569888
4.197955
4.341602
4.409552
3.912449
4.221797
3.932714
3.725886
3.756881
3.752708
3.492832
3.801584
##ZVALUE=305
0.835657
0.796914
0.823736
0.581741
0.678897
0.686646
0.739694
0.684857
0.660419
0.730753
0.855923
0.738502
0.819564
0.872612
0.761747
0.812411
0.875592
0.817776
0.792742
0.719428
0.740886
0.773668
1.016855
0.906587
0.948906
0.781417
1.049638
1.116991
1.113415
1.128912
1.210570
1.354814
1.477599
1.629591
2.485514
13.234615
36.361814
105.101466
191.740990
359.002948
504.466891
685.656667
782.386661
811.877847
755.200982
601.213574
467.782617
290.703773
181.565881
84.518790
42.326450
16.559958
12.225509
16.198754
22.897720
38.775802
56.206584
78.249574
96.617937
114.348531
121.627450
119.483471
110.253692
92.934966
73.906779
51.043630
36.314726
22.375584
15.046000
8.728504
7.066727
5.729795
5.330443
5.232692
4.705787
5.072951
4.864931
4.712939
4.600883
4.260540
4.366636
4.489422
4.183650
4.230738
4.084706
4.181862
3.940463
3.802776
3.889799
3.786683
3.531575
3.351569
3.435612
3.722906
3.525615
3.543496
##ZVALUE=310
0.737906
0.595450
0.712872
0.598431
0.793934
0.557899
0.579953
0.533462
0.728965
0.672936
0.644922
0.639558
0.631809
0.903606
0.638962
0.730753
0.772476
0.804663
0.742674
0.666976
0.690818
0.779629
0.997782
0.961423
0.927448
0.730753
0.881553
0.919700
0.995994
0.987649
1.019835
1.183748
1.073480
1.102686
1.454949
1.419783
1.712441
4.368424
22.716522
54.567456
137.539506
238.154531
415.619016
556.288958
711.558461
782.066584
771.243572
694.308877
536.063910
394.132733
227.243900
135.544538
59.523582
28.197765
12.408495
10.171533
14.206767
20.614862
33.432841
46.959519
68.960786
85.399747
103.507638
110.636950
112.408996
106.412768
89.046955
73.484778
50.417781
36.047697
20.987988
14.496446
9.049773
6.727576
5.172491
4.672408
4.349947
4.014969
3.926754
3.731847
3.834963
3.500581
3.719926
3.678799
3.445745
3.522635
3.710985
3.124475
3.702641
3.174543
3.399849
3.114939
3.355742
3.267527
3.164411
3.288984
##ZVALUE=315
0.748634
0.666976
0.656843
0.554919
0.686646
0.595450
0.650883
0.780821
0.758767
0.779629
0.765920
0.749826
0.680685
0.686646
0.627637
0.648499
0.726581
0.709891
0.783801
0.815988
0.588894
0.899434
0.756979
0.828505
0.890493
0.894666
1.090765
0.855923
1.071692
1.109838
1.086593
1.232624
0.988841
1.103878
1.181960
1.155734
1.182556
1.297593
1.554489
2.678633
9.519458
38.367510
87.118745
201.013684
319.736600
512.616634
640.465021
762.149692
789.899826
724.121928
624.154806
446.680784
318.792462
168.621540
91.384649
34.855604
16.359687
8.689761
9.090900
12.801886
18.546581
30.845404
43.802857
63.907504
79.582930
96.872449
104.814768
105.641484
99.073648
82.936883
68.024993
48.043728
33.669472
19.297600
13.430715
7.820725
5.691648
4.232526
3.722906
3.504753
3.678799
3.376603
3.180504
3.033876
3.097653
2.944469
3.066659
3.023744
2.980828
3.088713
2.847910
2.868772
2.961755
2.878904
3.021955
2.760887
##ZVALUE=320
0.708699
0.819564
0.963807
0.674725
0.681877
0.843406
0.747442
1.013875
0.862479
0.972748
0.828505
0.902414
0.728965
0.689626
0.845790
0.662804
0.660419
0.702739
0.907779
0.704527
0.922680
0.710487
0.698566
0.882745
0.901818
0.862479
0.887513
0.923872
0.991821
0.911951
0.988841
0.942945
1.065731
1.136661
1.075864
1.313686
1.150966
1.160502
1.131892
1.416802
1.478791
1.671910
5.490780
17.658472
61.827898
125.738978
258.047581
383.688807
564.642549
684.249997
770.790577
767.900944
664.152503
545.134544
365.536809
238.001943
110.543966
58.285594
21.559596
10.726452
7.483959
7.964969
11.040568
15.952587
27.457476
38.936734
57.498813
72.946548
90.842843
98.358989
99.396706
94.140768
80.065727
65.419674
44.888854
32.378435
20.050406
13.192892
7.171631
5.262494
3.517866
3.156662
3.102422
2.958775
2.866983
2.615452
2.689958
2.687573
2.590418
2.743602
2.627969
2.592802
2.578497
2.754927
2.681613
2.759695
##ZVALUE=325
0.569820
0.561476
0.642538
0.711679
0.655651
0.598431
0.658631
0.540614
0.590682
0.455976
0.632405
0.436902
0.608563
0.648499
0.642538
0.776649
0.593662
0.558496
0.665784
0.559688
0.666976
0.694990
0.786781
0.843406
0.880957
0.727773
0.686646
0.687838
0.624657
0.690818
0.893474
0.682473
0.770688
0.980496
0.852942
0.872612
0.914931
0.881553
0.945926
1.022816
1.114607
1.241565
1.283884
1.363754
2.427697
14.115572
36.776662
98.420978
179.277658
335.290432
470.793843
635.216832
722.360015
743.500590
693.590641
549.840927
416.070819
256.143808
156.954527
69.506764
33.670664
11.856556
7.350445
6.699562
7.156730
9.848475
15.205741
26.316643
37.672520
55.268407
69.290996
84.276795
91.712475
92.163682
86.757541
72.508454
58.973432
41.470528
29.963851
17.385483
11.118650
5.913973
4.215837
3.131628
2.856851
2.453923
2.388954
2.057552
2.313852
2.144575
2.234578
2.022982
2.282858
2.340674
2.232790
2.375841
##ZVALUE=330
0.587702
0.589490
0.674725
0.473857
0.406504
0.657439
0.679493
0.638962
0.602603
0.553727
0.599623
0.487566
0.593662
0.652671
0.508428
0.551939
0.641942
0.760555
0.586510
0.646710
0.688434
0.665784
0.839829
0.657439
0.783801
0.724792
0.803471
0.663996
0.720620
0.776649
0.827909
0.786781
0.811815
0.709891
0.811815
0.802875
0.746846
0.843406
0.910759
0.883937
0.985861
1.141429
1.034737
0.973940
1.477599
1.517534
1.595616
6.204844
19.842982
65.390468
126.184821
253.412724
377.599597
548.670888
655.309558
731.459856
710.505843
596.168637
477.268696
312.682986
200.932622
94.347000
48.259497
17.703772
8.594990
5.738735
5.763769
6.136894
8.637905
14.885664
22.008419
35.216808
48.202872
66.451430
76.512694
86.363554
85.757971
79.561472
69.281459
53.190589
40.265918
25.378466
17.421842
10.454655
6.972551
3.982782
3.141761
2.566576
2.300739
2.245903
2.161860
2.107620
2.140999
2.146959
2.085567
2.213717
##ZVALUE=335
0.480413
0.466704
0.584722
0.641942
0.604987
0.582933
0.521541
0.514984
0.563860
0.514984
0.579953
0.604987
0.695586
0.629425
0.588894
0.516772
0.515580
0.630617
0.512600
0.533462
0.668764
0.739694
0.737906
0.563860
0.901818
0.709891
0.593662
0.723600
0.584722
0.718832
0.741482
0.657439
0.721812
0.780821
0.627637
0.743866
0.830889
0.906587
0.880957
1.047850
0.899434
0.960827
0.784993
0.914931
0.935793
1.126528
1.149774
1.101494
1.275539
2.741814
10.368824
39.986968
83.935857
187.740922
300.176740
474.418998
591.788888
687.286854
702.591538
630.873442
528.289676
361.780524
245.702863
129.253864
68.721771
24.721622
10.731816
5.862713
5.273819
5.683899
6.107688
8.590817
12.761950
22.397637
32.660961
48.283935
60.559511
72.730780
78.433752
80.042481
74.251890
62.262416
51.768422
36.475658
27.450919
16.789436
11.162758
6.671548
4.412532
3.010631
2.581477
2.409816
2.066493
2.137423
2.056956
2.101660
##ZVALUE=340
0.548959
0.597835
0.382662
0.616908
0.507832
0.554919
0.407696
0.669956
0.475645
0.588894
0.622869
0.580549
0.741482
0.500679
0.710487
0.522733
0.413656
0.540614
0.535846
0.537634
0.534654
0.381470
0.503659
0.628829
0.553727
0.687838
0.592470
0.566840
0.676513
0.717640
0.724792
0.855923
0.584722
0.681877
0.708699
0.744462
0.740886
0.725985
0.626445
0.552535
0.755787
0.712872
0.749826
0.909567
0.931621
0.958443
1.017451
1.083612
1.122952
1.286864
1.312494
1.732707
4.998446
23.816824
59.465766
144.884586
244.913697
401.540995
516.088605
634.949803
674.349666
640.537739
557.083488
416.674018
294.183493
155.910850
87.707639
35.314560
15.151501
6.051660
5.185604
4.962683
4.792809
5.614758
7.728934
13.240576
20.022988
31.742454
42.642951
58.081746
67.451596
74.166656
74.873567
69.626570
61.373711
49.044490
38.860440
25.834441
18.293858
10.751486
6.981492
4.241467
3.115535
2.533793
2.260804
2.139807
##ZVALUE=345
0.527501
0.476837
0.579953
0.464916
0.593662
0.375509
0.512600
0.643730
0.623465
0.587702
0.543594
0.497699
0.524521
0.516772
0.632405
0.492930
0.516772
0.749826
0.682473
0.530481
0.532866
0.549555
0.667572
0.599623
0.521541
0.606775
0.606775
0.592470
0.610948
0.560880
0.790954
0.652671
0.622869
0.693798
0.785589
0.786781
0.698566
0.696778
0.659823
0.803471
0.662804
0.633597
0.724792
0.884533
0.777841
0.848770
0.949502
0.826716
0.998974
1.083612
1.022816
1.054406
1.202822
1.159906
2.468824
13.089776
36.594868
97.470880
174.025893
317.713618
434.418917
574.200749
641.361475
649.210811
597.399473
458.084941
340.606570
204.098821
116.110444
47.012568
21.391511
8.056760
5.683899
4.769564
4.389882
4.535913
4.787445
7.074475
10.790825
18.618703
27.370453
39.999485
50.584674
61.866641
67.013502
68.413615
66.511631
57.013631
49.153566
36.747456
26.963949
17.368793
11.671782
7.064939
4.642606
3.458858
##ZVALUE=350
0.518560
0.516772
0.603795
0.620484
0.586510
0.602603
0.630617
0.608563
0.482798
0.466704
0.555515
0.490546
0.675917
0.325441
0.631809
0.560880
0.578761
0.450611
0.520945
0.625849
0.608563
0.566840
0.584722
0.575781
0.631809
0.569820
0.571609
0.433922
0.575781
0.658631
0.605583
0.660419
0.770688
0.708699
0.574589
0.659823
0.784993
0.569820
0.564456
0.784993
0.725985
0.622869
0.759959
0.754595
0.793934
0.919700
0.853539
0.865459
0.729561
0.897646
0.675917
0.956655
0.978708
1.082420
1.036525
1.232624
1.459718
6.274581
19.708872
63.112974
121.141672
241.508484
351.925492
493.920445
584.522486
637.595654
605.747700
504.551530
387.141705
231.021643
143.589973
68.111420
31.999946
10.027885
5.580783
4.612803
4.281998
4.160404
4.001856
4.700422
6.539822
11.103749
15.942454
24.897456
33.256412
45.237541
53.957701
61.210990
63.076615
60.300827
55.305958
44.451952
35.745502
24.338961
17.947555
11.302829
##ZVALUE=355
0.510812
0.480413
0.565648
0.637770
0.612736
0.594854
0.597835
0.627637
0.483990
0.562668
0.508428
0.515580
0.626445
0.516772
0.595450
0.629425
0.749826
0.582933
0.643730
0.661612
0.533462
0.465512
0.656843
0.521541
0.573993
0.605583
0.597835
0.625849
0.506639
0.638962
0.565648
0.553727
0.628829
0.722408
0.656843
0.741482
0.797510
0.789762
0.677705
0.624657
0.690818
0.626445
0.559688
0.677705
0.791550
0.782609
0.823736
0.686646
0.699759
0.722408
0.821948
0.965595
0.848770
1.006722
0.856519
0.966787
1.058578
1.241565
1.332760
3.295541
10.624528
41.789412
86.704493
179.882646
284.817815
437.294841
535.365939
610.189438
612.959862
521.797538
420.788527
271.333456
170.384645
76.421499
38.179755
13.908744
6.551743
4.409552
4.318953
3.677607
3.519654
3.684759
4.058480
5.599856
8.266568
13.830662
20.443797
30.058622
38.313866
48.157573
54.042935
57.649612
55.970550
49.694777
42.623878
33.340454
##ZVALUE=360
0.599623
0.437498
0.423789
0.482798
0.593662
0.453591
0.549555
0.488758
0.521541
0.525713
0.434518
0.700951
0.537634
0.443459
0.681877
0.567436
0.551939
0.651479
0.540614
0.498891
0.488758
0.523925
0.518560
0.491738
0.637770
0.544786
0.523925
0.537634
0.565648
0.675917
0.610948
0.654459
0.500679
0.528693
0.601411
0.711679
0.619888
0.512600
0.642538
0.763535
0.762939
0.565648
0.756979
0.701547
0.746846
0.750422
0.815988
0.808835
0.954866
0.840425
1.025796
0.841618
0.779629
0.725985
0.776649
0.867844
0.861883
0.979900
1.084805
1.138449
1.259446
1.701713
4.869699
21.894574
53.080916
131.477714
216.473937
351.946950
463.495851
569.657683
594.828725
556.162596
470.408797
324.162841
215.358734
105.717778
55.995584
20.855665
8.995533
4.687905
4.088879
3.657937
3.411770
3.249645
3.128648
3.632903
4.416704
7.060766
10.697842
16.893744
23.872852
33.944845
41.100979
48.705935
51.265955
50.834417
##ZVALUE=365
0.429749
0.449419
0.560880
0.410676
0.556707
0.491738
0.525713
0.656843
0.498891
0.393987
0.500679
0.561476
0.576973
0.509620
0.534654
0.637770
0.528693
0.495911
0.495911
0.651479
0.692606
0.571609
0.681877
0.567436
0.419617
0.790954
0.716448
0.612736
0.571609
0.589490
0.759959
0.562668
0.464916
0.641942
0.746846
0.597835
0.745654
0.780821
0.612736
0.553727
0.544786
0.675917
0.674725
0.716448
0.784993
0.599623
0.670552
0.745654
0.691414
0.742674
0.815988
0.709891
0.671744
0.767708
0.686646
0.838637
0.910759
0.895858
0.930429
0.975728
1.077652
1.023412
1.087785
1.352429
2.407432
12.151599
32.287836
86.221695
161.189437
295.329690
399.091840
516.084433
571.053624
559.683442
490.741730
359.488726
256.503820
143.437982
78.050494
28.782487
12.200475
4.721880
4.194975
3.777742
3.440976
3.339648
2.987981
3.073812
3.167987
3.837943
5.427599
9.285808
13.443828
21.063685
27.574897
36.401749
##ZVALUE=370
0.442863
0.588894
0.595450
0.617504
0.557899
0.513792
0.573993
0.572801
0.557899
0.430942
0.443459
0.572801
0.521541
0.580549
0.520945
0.480413
0.501871
0.711679
0.509620
0.404716
0.544786
0.510812
0.450611
0.572801
0.589490
0.458956
0.577569
0.480413
0.549555
0.518560
0.612736
0.569820
0.540614
0.391603
0.546575
0.545979
0.530481
0.678897
0.625849
0.676513
0.556707
0.725985
0.700951
0.561476
0.645518
0.729561
0.644922
0.612736
0.689626
0.776649
0.639558
0.656843
0.684857
0.679493
0.692606
0.704527
0.746846
0.753999
0.779629
0.861883
0.821948
0.964999
0.902414
1.082420
1.079440
1.223683
1.679659
6.251931
19.701719
64.301491
119.992495
227.909684
334.423780
474.769473
544.064641
563.161969
522.382855
410.506725
307.980776
175.728798
101.558566
41.403770
18.640757
6.470680
4.132986
3.388524
3.300905
3.101826
2.838969
2.781749
2.767444
2.874732
3.406405
4.905462
7.031560
11.703968
##ZVALUE=375
0.450611
0.568628
0.571609
0.589490
0.475645
0.362992
0.450611
0.494719
0.633597
0.602603
0.493526
0.637770
0.454783
0.409484
0.551939
0.493526
0.596642
0.471473
0.482798
0.464916
0.341535
0.624657
0.590682
0.671744
0.562668
0.559688
0.511408
0.690818
0.658631
0.640750
0.534654
0.695586
0.628829
0.584722
0.526905
0.496507
0.616908
0.523925
0.583529
0.720620
0.671744
0.591874
0.618696
0.540614
0.548959
0.463724
0.549555
0.526905
0.567436
0.596642
0.685453
0.636578
0.763535
0.647902
0.703931
0.769496
0.712872
0.803471
0.767708
0.755787
0.743866
0.764728
0.799894
0.818968
0.895858
0.892878
0.959635
1.037717
1.266599
3.254414
10.569692
37.455559
81.026554
182.446837
284.630656
430.203676
518.770814
574.291945
558.371544
457.889438
354.128480
214.592814
135.224462
67.766905
34.408569
11.432767
5.308986
3.639460
3.259778
3.128648
2.989769
2.699494
2.623796
2.541542
2.624989
3.098845
##ZVALUE=380
0.436902
0.403523
0.409484
0.532866
0.583529
0.587702
0.411868
0.468493
0.522733
0.555515
0.647902
0.581741
0.486970
0.370741
0.424981
0.388622
0.582933
0.462532
0.576973
0.501871
0.503659
0.504851
0.497699
0.596642
0.821948
0.667572
0.643730
0.585914
0.593662
0.622869
0.646710
0.579953
0.614524
0.555515
0.566840
0.589490
0.613928
0.775456
0.668764
0.607967
0.648499
0.478625
0.772476
0.683665
0.646710
0.667572
0.583529
0.594854
0.610948
0.531673
0.581741
0.687838
0.664592
0.634789
0.728965
0.708699
0.596642
0.715852
0.740886
0.631809
0.800490
0.765920
0.765920
0.705719
0.852942
0.636578
0.973940
1.118779
1.004934
1.036525
1.265407
1.656413
5.892515
26.319623
61.239600
144.266486
234.044790
369.327664
468.259454
551.106930
560.354590
489.359498
403.460860
280.618668
188.347697
92.401505
48.790574
17.095804
7.696748
4.005432
3.329515
3.039837
2.891421
2.702475
2.660751
2.544522
##ZVALUE=385
0.455976
0.415444
0.406504
0.395775
0.401735
0.457764
0.403523
0.486970
0.382662
0.327826
0.417829
0.579953
0.350475
0.526905
0.341535
0.302792
0.370741
0.336766
0.386834
0.497699
0.375509
0.486970
0.342727
0.482798
0.538826
0.461936
0.346899
0.643730
0.732541
0.537634
0.567436
0.646710
0.664592
0.912547
0.647902
0.765920
0.627637
0.528693
0.491738
0.672936
0.682473
0.549555
0.536442
0.721812
0.609756
0.619888
0.680685
0.622869
0.622869
0.560880
0.514984
0.494719
0.486970
0.745654
0.572801
0.642538
0.617504
0.492930
0.502467
0.510812
0.629425
0.621676
0.485778
0.505447
0.656843
0.667572
0.730753
0.851750
0.768900
0.871420
0.999570
1.001954
1.030564
1.511574
2.688766
14.556646
37.664771
96.040964
169.583559
302.988887
404.075980
503.409505
536.647439
516.043901
453.614593
332.823992
235.587955
129.689574
73.846579
30.888915
13.261437
4.660487
3.265738
2.785921
2.803802
2.641678
##ZVALUE=390
0.386834
0.408888
0.288486
0.411868
0.246763
0.422597
0.336766
0.303984
0.369549
0.527501
0.481606
0.370741
0.473857
0.444651
0.385642
0.289679
0.352859
0.493526
0.428557
0.361800
0.308752
0.417829
0.471473
0.476837
0.410676
0.348687
0.429749
0.577569
0.664592
0.654459
0.702739
0.653863
0.721812
0.785589
0.851750
0.715852
0.811815
0.733733
0.719428
0.584722
0.718832
0.666976
0.573993
0.706911
0.628829
0.622869
0.679493
0.540614
0.638962
0.535846
0.593662
0.456572
0.544786
0.396967
0.607967
0.478625
0.530481
0.503659
0.542998
0.547767
0.627637
0.559688
0.557899
0.637770
0.626445
0.615716
0.614524
0.790954
0.672936
0.805855
0.854731
0.959635
1.035929
0.936985
0.926852
0.948906
1.635551
7.413626
23.384690
73.097944
137.600899
258.448720
354.101658
460.587740
518.575907
539.906621
494.448543
392.591953
299.816728
181.679726
106.807947
44.414997
20.629764
6.185770
3.559589
3.001690
##ZVALUE=395
0.287890
0.387430
0.356436
0.370741
0.455976
0.349879
0.357628
0.504851
0.449419
0.392795
0.443459
0.448823
0.395775
0.234842
0.402927
0.471473
0.523925
0.560880
0.475645
0.405908
0.405908
0.721812
0.489950
0.473857
0.413656
0.466704
0.557899
0.606775
0.541806
0.700951
0.682473
0.659823
0.791550
0.737906
0.648499
0.730753
0.662804
0.812411
0.852942
0.727773
0.814795
0.792742
0.848770
0.812411
0.950694
0.644922
0.757575
0.584722
0.776649
0.572801
0.826716
0.656843
0.730753
0.773668
0.589490
0.470877
0.554919
0.540614
0.680685
0.675917
0.605583
0.607967
0.684857
0.639558
0.870824
0.842810
0.734925
0.673532
0.762939
0.870824
0.864863
0.986457
0.933409
0.991821
0.877976
0.786781
0.863671
0.961423
1.264811
3.429651
17.990470
43.346882
105.137825
175.334811
301.390886
400.502682
508.001447
546.745658
526.364446
461.935997
344.821811
241.373777
127.619505
69.038868
26.707649
12.047887
##ZVALUE=400
0.561476
0.589490
0.611544
0.440478
0.551939
0.578761
0.367761
0.513792
0.472665
0.525713
0.456572
0.507832
0.492930
0.426769
0.456572
0.412464
0.528693
0.489950
0.442863
0.410676
0.547767
0.544786
0.626445
0.635982
0.470877
0.617504
0.667572
0.648499
0.605583
0.740886
0.661612
0.661612
0.799894
0.744462
0.797510
0.776649
0.667572
0.877976
0.803471
0.831485
0.767708
0.723600
0.676513
0.809431
0.749826
0.771880
0.723600
0.705719
0.845790
0.806451
0.793934
0.563860
0.510812
0.602603
0.873804
0.619888
0.590682
0.757575
0.753999
0.617504
0.649691
0.780821
0.694990
0.613928
0.721812
0.627637
0.714660
0.604987
0.695586
1.005530
0.956655
0.790954
0.933409
0.920892
0.880957
0.820756
0.746846
0.865459
0.927448
1.142621
1.338720
2.612472
8.301735
28.943419
62.818527
146.385431
233.976841
363.558531
447.527766
521.384478
533.488989
474.239588
390.500426
261.693597
172.141790
88.263750
##END
