##TITLE=D8-2
##FORMAT=SPECTACLE-ASCII V-1.2
##DATA TYPE=ULTRAVIOLET SPECTRUM
##SECOND TYPE=ULTRAVIOLET SPECTRUM
##DATE=01/24/18
##TIME=12:10:40
##SPECTROMETER/DATA SYSTEM=SPECTACLE
##XUNITS=NM EM
##YUNITS=ENERGY
##YFACTOR=1
##FIRSTX=220
##LASTX=410
##NPOINTS=96
##3DDATA=Equidistant
##ZUNITS=NM EX
##FIRSTZ=210
##LASTZ=400
##ZPOINTS=39
##XYDATA=(Y..Y)
##ZVALUE=210
14.983416
14.192462
14.453530
12.667775
10.371804
9.978414
9.218454
8.214712
6.607771
5.924702
4.463792
2.790689
2.106428
2.383590
1.970530
2.061725
2.708435
2.714992
2.286434
3.016591
2.530813
2.901554
3.357530
3.459454
3.363490
4.577637
5.416870
5.442500
6.434917
7.086992
6.849766
7.203817
7.713437
9.033680
8.955598
7.941723
8.417964
7.882714
8.532405
7.619858
7.929802
6.514788
6.989837
7.649660
7.316470
7.360578
7.445812
6.469488
6.586909
6.773472
6.752610
7.281899
7.282495
6.995797
7.125735
6.487966
6.124973
6.382465
6.776452
5.635619
6.146431
5.917549
6.495714
5.645752
6.095767
6.916523
6.420612
6.191730
7.346869
7.691979
8.904934
11.651516
11.649728
13.216734
13.577938
13.226867
13.290644
13.496876
13.440847
12.014508
10.641813
10.602474
9.087920
8.510947
6.994605
6.460547
6.518960
5.706549
6.088614
6.334782
8.743405
11.993647
16.909838
20.098686
26.947856
30.317903
##ZVALUE=215
41.171908
36.603808
33.767819
26.458502
21.081567
18.739700
16.735792
16.121864
14.630556
14.901757
11.707544
10.327697
6.220937
5.187988
3.497601
2.445579
2.848506
2.820492
2.662539
2.270937
2.903938
3.589988
3.601909
3.473759
3.645420
5.141497
5.763769
7.196665
6.983876
7.969737
8.566976
9.493828
9.283423
10.227561
9.975433
9.823442
8.751750
10.255575
10.724664
8.959770
8.882880
8.897781
8.704662
8.449554
9.186864
8.865595
8.315444
7.361770
7.853508
7.496476
7.449985
8.219481
8.670688
8.263588
8.400679
8.385777
7.409453
7.174611
8.200407
7.966757
7.054806
7.931590
6.291866
7.249713
6.753802
7.413626
7.719994
6.850958
7.231832
7.977486
9.211898
9.934902
9.996891
10.492802
11.375546
10.769963
10.461807
10.989904
9.710789
10.246634
7.697940
8.794665
7.397532
6.793737
6.894469
6.019473
5.529523
5.337596
4.418492
4.084706
3.694892
4.148483
4.385710
5.294681
8.614659
9.453893
##ZVALUE=220
73.736906
79.157948
76.720715
67.206621
56.623816
48.380494
40.811896
31.479597
26.831627
29.015541
26.897788
26.615858
21.643639
20.789504
14.601946
12.128949
7.323623
5.971789
3.726482
2.956986
3.377795
2.550483
3.018975
3.998876
4.406571
5.728602
5.409718
7.266998
8.056760
8.155704
9.386539
10.055900
9.915829
9.886622
10.999441
10.039806
9.564757
11.299849
11.741519
9.695888
11.063814
8.984804
9.880662
8.830428
9.145737
9.476542
9.205937
8.537769
9.133816
8.331537
9.754896
9.091496
10.766983
9.401441
10.585785
10.990500
9.491444
10.561943
10.553598
10.108948
8.430481
10.130405
8.978844
9.274483
9.827614
8.886456
8.185506
7.771850
7.872581
9.253621
9.463429
9.203553
10.164976
10.463595
10.275841
11.013746
9.944439
10.028481
11.188984
9.000897
8.543730
9.110570
7.223487
6.914735
6.424785
5.408525
4.046559
4.803538
3.981590
3.955960
4.818439
3.642440
3.767610
4.243851
4.201531
3.234744
##ZVALUE=225
90.119839
98.837614
114.956498
127.150416
132.705569
125.244856
106.183887
82.429647
61.861873
49.415827
42.528510
39.149523
42.153001
42.247772
38.319826
35.246611
25.679469
20.948648
17.188787
9.981990
6.454587
4.963875
4.477501
3.348589
4.104972
5.421638
5.012751
6.258488
6.964803
7.098913
8.419752
8.278489
9.207726
10.176897
9.912848
10.120869
10.543466
11.210442
9.336472
10.277629
10.269880
9.489655
8.639693
9.619594
8.970499
9.360909
9.548664
9.740591
9.566545
9.922981
11.404753
10.344982
10.790825
13.235807
12.584925
11.984706
13.069510
11.570454
12.870431
12.689829
12.926459
11.184812
10.967851
10.272861
11.008978
9.390712
9.580851
8.960962
10.252595
9.660721
10.482669
10.753870
11.058450
11.098981
11.929870
10.729432
10.290742
9.284616
8.270741
9.164810
7.726550
7.731915
7.028580
6.978512
5.629659
6.307960
5.409718
4.666448
4.771948
5.092621
4.606843
4.175901
3.966689
5.120635
4.196763
5.238652
##ZVALUE=230
59.115887
59.388876
93.150735
140.966773
178.265572
205.977559
219.828486
212.783813
184.850693
145.180821
105.898976
79.437494
61.575770
59.767962
62.944889
68.832636
65.153837
62.538981
53.921938
43.561459
30.974746
22.192597
11.833906
8.215904
6.777644
4.625916
4.557967
5.028844
5.000830
5.395412
6.263852
6.205440
5.895495
6.886721
6.825924
8.229613
7.925630
8.414984
8.965731
8.627772
8.496642
8.858442
9.829998
9.158850
8.871555
8.161664
8.265972
8.900762
9.184480
9.721518
10.508895
11.799932
11.315942
10.953546
11.713505
12.397766
12.516975
11.700988
11.483431
12.736917
11.705756
11.582971
12.170672
10.928512
10.758638
11.506677
9.647608
8.990765
11.218786
11.511445
10.551810
10.919571
12.015700
12.209415
11.367798
12.240410
11.613965
11.487603
9.540915
9.109974
8.996725
8.258820
6.862879
7.712841
7.017851
6.744862
6.163716
5.635619
5.465746
5.907416
5.292892
5.135536
5.125999
4.880428
5.111694
4.527569
##ZVALUE=235
14.557838
17.781854
35.506487
80.637932
126.477480
195.637941
249.444842
310.575962
336.219668
340.269804
298.370719
247.729421
174.446702
127.606988
95.027685
88.469982
88.394880
96.615553
97.518563
95.648766
88.602901
73.872805
58.439970
36.849976
26.165843
14.619827
11.071563
6.624460
6.290674
5.224943
5.710721
5.424619
5.345941
6.410480
6.632805
7.297993
6.651878
7.024407
7.491708
7.880926
8.215904
8.265972
8.330941
8.835793
8.821487
8.512735
9.968877
9.994507
9.751916
9.631515
10.554790
10.109544
10.149479
10.637641
11.358857
10.087490
10.803938
9.458661
10.087490
10.685921
9.592772
10.454655
10.278821
10.668635
9.998679
10.825992
10.768771
11.530519
11.166930
11.077523
11.555552
11.025667
11.870861
13.277531
12.378693
13.156533
12.095571
10.266900
10.196567
10.164976
11.324883
8.372664
8.816719
8.697510
8.004904
6.909966
7.198453
7.436872
6.622672
6.246567
6.020665
6.765723
6.301999
5.520582
5.500913
5.663633
##ZVALUE=240
1.780987
1.805425
5.170703
13.020635
35.879612
71.069598
141.922832
211.265683
322.971940
390.985012
438.314676
445.688963
417.656898
332.219005
263.607502
172.199607
129.649639
102.346539
96.799731
108.831525
116.118789
120.645761
113.996863
106.353760
81.077814
65.079927
45.885444
32.702684
18.917918
12.631416
9.612441
8.457899
7.105470
6.742477
6.364584
6.618500
8.170605
7.888675
7.766485
7.355809
7.707477
7.521510
7.197857
8.561611
8.337498
7.498860
7.941723
9.504557
8.632541
8.201599
9.802580
7.917881
8.888841
8.780956
7.698536
8.438826
9.192824
9.630919
8.621812
9.663701
8.912683
8.991957
9.653568
8.652806
8.993745
10.157824
9.620786
9.325743
9.498000
9.955764
10.341406
11.040568
10.482669
11.102557
11.415482
10.702610
11.083484
11.060834
10.391474
9.662509
9.887815
9.365678
8.387566
7.726550
7.540584
7.354617
6.801486
7.186532
6.514788
6.794930
6.477833
5.907416
5.414486
6.084442
5.369782
5.554557
##ZVALUE=245
1.411438
1.303554
1.642704
1.357794
3.145933
8.560419
28.459430
59.180856
130.645633
210.886002
325.477719
407.891870
478.093624
519.945621
506.597757
425.149798
350.287557
244.807601
176.633596
118.366480
99.231601
98.508000
113.222599
123.687983
133.328438
127.733946
111.131668
99.169612
68.935752
52.634478
37.506819
23.164749
14.977455
9.316802
8.905530
8.100867
8.008480
8.457899
8.124709
8.142591
8.523464
7.731915
8.425713
7.739663
9.129643
9.073615
8.772612
8.951426
8.738637
9.463429
8.278489
8.750558
8.760691
9.485483
9.244680
7.973909
8.207560
8.895993
8.770823
8.456707
8.596778
8.341670
8.813739
8.418560
8.106828
8.452535
7.981658
8.270741
8.684993
8.355975
9.524822
9.042621
9.713769
9.650588
9.787679
10.251999
8.700490
8.673668
9.912848
7.740855
8.569956
6.989837
6.972551
7.319450
7.074475
6.563663
6.128550
6.125569
5.991459
5.669594
5.848408
5.638599
5.302429
5.784631
5.116463
5.161762
##ZVALUE=250
1.127720
1.117587
1.140833
1.244545
1.350641
1.313686
1.909733
5.561709
20.266771
45.222640
112.989545
188.605785
271.055698
409.838557
495.178699
559.091568
574.809909
513.902903
444.933772
317.094922
223.375559
150.973797
104.821920
93.639493
105.831623
122.412443
136.649609
143.260956
134.351850
120.427608
106.228590
78.983903
58.955550
36.080480
23.845434
15.175939
10.873675
9.156466
8.561611
8.543730
7.837415
8.523464
8.335710
8.887649
9.094477
8.772612
8.364916
8.585453
9.395480
8.868575
8.898973
9.121895
9.280443
9.856820
8.302927
7.906556
7.684827
8.749962
8.085966
8.235574
7.878542
7.851720
7.048845
7.696748
7.864833
7.270575
7.373691
6.967783
7.768869
7.564425
8.507967
7.504821
7.948875
7.798672
7.635951
8.421540
7.782578
7.633567
6.957650
6.731749
6.386638
6.230474
6.002784
5.753636
5.486608
5.350709
5.973577
5.093813
5.024672
5.078912
5.005598
4.572868
4.864931
4.688501
4.196763
3.807545
##ZVALUE=255
0.950694
1.101494
1.037717
0.947714
1.026988
1.059771
1.128912
1.211762
1.543760
4.094839
11.111498
37.808418
74.862838
163.514614
254.475474
392.233729
495.442748
599.322915
627.569556
602.667928
530.854464
399.448872
282.755494
187.491775
109.645724
89.981556
90.999603
104.964972
126.303434
137.446523
147.751570
141.486526
127.453804
106.156468
76.500773
57.147741
36.773682
23.404956
14.839768
11.667609
9.821653
9.125471
8.929968
8.872747
8.887649
8.555651
8.571744
9.657741
9.455681
8.836985
8.863807
8.532405
8.756518
8.546710
9.301901
8.313656
8.436441
7.571578
7.632971
7.690787
8.360744
6.630421
6.978512
7.623434
6.923676
7.534623
7.107854
6.749630
6.170869
6.776452
7.376671
6.722808
7.310510
6.773472
7.021427
6.551743
6.740689
5.907416
6.216764
5.684495
5.003810
5.396605
4.816651
4.613996
4.185438
4.621744
4.159808
3.805757
3.839731
3.433824
3.663898
3.833771
3.880858
3.425479
3.596544
3.703833
##ZVALUE=260
0.999570
1.094937
0.885725
1.001954
1.073480
1.131892
1.094937
1.231432
1.104474
1.156926
1.753569
1.854897
7.399917
19.933581
55.862665
107.045770
222.261548
328.054428
479.858518
591.224432
679.029822
680.536628
597.888827
500.304699
345.956683
241.175890
142.019987
96.998811
75.940490
82.605481
103.752613
127.101541
143.311620
149.492621
144.297481
133.093596
108.365417
84.765553
58.033466
39.778948
24.985671
16.398430
11.502504
9.767413
9.474754
8.511543
9.063482
9.125471
9.180903
9.202957
8.757710
8.839965
8.224845
8.699894
9.519458
8.911490
8.194447
8.096695
8.500814
7.967949
7.161498
7.595420
6.901622
7.165670
6.654859
6.080866
6.209612
5.725622
5.883574
6.223917
5.877614
6.171465
6.633997
5.966425
6.430745
5.962849
5.529523
5.681515
5.427599
4.667640
4.339814
4.463792
4.380941
3.916621
3.651977
3.905892
3.831983
3.810525
3.583431
3.732443
3.338456
3.083944
3.076792
3.203750
3.264546
3.111959
##ZVALUE=265
1.053810
0.917912
0.952482
0.893474
0.898838
1.041889
1.023412
1.236796
1.093745
1.081824
1.092553
1.291633
1.365542
1.543760
3.199577
14.455914
37.235618
94.508529
168.897510
314.806700
441.058874
534.984469
694.872737
731.413960
678.699017
591.311455
442.657471
312.938690
177.297592
114.617944
71.554780
67.234635
83.685517
106.331706
131.987929
147.910714
154.614449
147.880912
129.351616
113.312602
82.010627
61.657429
38.443804
26.627779
17.347932
12.611747
10.182858
10.021925
9.340644
10.465980
9.878874
9.884834
10.338426
10.289550
10.045767
9.685755
8.979440
9.324551
8.666515
8.576512
7.941723
8.752942
7.628798
7.455945
7.372499
6.923676
6.224513
6.545782
6.165504
6.143451
6.739497
6.653666
5.737543
5.946755
6.218553
6.113648
5.654693
5.083680
5.059838
4.342794
4.404783
4.094839
3.792644
3.788471
3.970861
3.247857
3.554821
3.533959
3.411770
3.051758
3.508925
3.406405
3.170967
3.049970
3.183484
2.837777
##ZVALUE=270
1.160502
0.827909
0.856519
0.954866
0.873804
0.875592
0.935793
0.925660
1.042485
1.181960
1.156926
1.234412
1.113415
1.352429
1.228452
1.342893
1.898408
6.452799
19.169450
63.855648
125.165582
255.762935
390.659571
535.101891
689.260960
750.900507
738.714933
674.517751
536.424518
402.578712
249.298811
158.386827
82.859993
60.711503
63.901544
81.080794
109.655857
130.510926
149.199963
157.426000
148.062706
135.708451
110.015869
88.287592
58.745742
42.496920
26.100874
18.765926
13.966560
11.880994
10.698438
10.842681
10.833740
11.079907
10.847449
10.746717
10.437965
9.558797
9.753704
9.514689
8.972883
8.643866
8.366704
7.975698
7.747412
7.503629
7.236600
7.167459
7.249713
6.669760
6.502867
6.427765
6.870627
6.630421
6.328821
5.953908
5.667806
5.407929
4.631877
4.709959
4.751682
4.212856
4.310608
4.081726
3.897548
3.618598
3.707409
3.214478
3.239512
3.380775
3.130436
3.182888
3.153682
2.957582
3.063679
2.777576
##ZVALUE=275
0.881553
0.700951
0.713468
0.828505
0.766516
0.800490
0.860691
0.760555
0.833869
0.972748
0.845790
0.992417
0.867844
0.978708
1.183748
1.229644
1.106858
1.295805
1.570582
2.976656
11.801720
32.566786
96.432567
181.517005
343.931913
476.304889
631.515980
732.508898
774.348974
740.714669
656.170845
487.678647
352.500677
190.882683
114.404559
59.364438
47.741532
60.803890
79.223514
109.885931
130.394697
147.701502
153.160691
147.624612
135.197639
106.447935
86.662769
60.956478
43.814778
27.460456
19.754767
14.399886
12.230873
11.186600
10.894537
10.524988
10.685921
10.786653
9.654760
9.558797
9.560585
9.060502
8.995533
8.436441
8.400679
7.888675
7.430911
7.657409
7.440448
6.954670
6.871819
6.944537
6.837845
6.235838
5.994439
5.908608
5.928874
5.859733
5.540848
4.926920
4.859567
4.457831
4.055500
4.047751
3.976822
4.049540
3.655553
3.781915
3.404617
3.178716
3.275871
3.260970
2.942681
3.215671
3.091693
3.010631
##ZVALUE=280
0.847578
0.713468
0.600815
0.808835
0.909567
0.978708
0.815988
0.898838
0.897646
0.818968
0.842810
0.985861
1.080632
0.786781
0.906587
0.993609
0.992417
1.086593
1.234412
1.396537
1.536608
1.775622
7.442832
22.997856
74.311495
138.390660
267.724991
396.665931
569.814444
689.121485
762.024522
769.050717
701.138973
540.104508
401.954651
234.653950
141.032934
68.457723
44.428706
41.961670
56.459904
82.657933
102.751851
129.054785
143.253803
148.401856
145.289898
125.757456
108.837485
80.586672
61.212778
39.510727
28.225780
17.773509
13.504624
10.647774
10.201931
9.363890
9.412766
9.320974
8.826852
8.593798
8.437634
8.251667
8.614659
7.773638
7.762909
7.600784
7.003546
7.403493
7.456541
6.537437
6.617904
6.534457
5.962849
6.091595
5.558729
5.505681
5.532503
5.187988
5.021691
4.443526
4.561543
4.254580
3.958941
3.700852
3.849864
3.731847
3.801584
3.520846
3.499985
3.180504
3.196597
3.514886
2.721548
3.029704
##ZVALUE=285
0.524521
0.543594
0.706911
0.666976
0.713468
0.505447
0.701547
0.653863
0.581741
0.688434
0.695586
0.719428
0.705719
0.867844
0.911951
0.990629
0.878572
0.882745
1.013875
1.092553
1.055598
1.264811
1.284480
1.384616
3.255606
11.277795
40.136576
87.555647
192.662477
302.195549
431.553721
613.524914
721.098781
775.473714
738.800764
610.494018
482.472777
300.604701
193.764567
95.312595
52.048564
32.060742
34.479499
53.130984
71.407557
101.211667
118.964911
134.849548
141.147971
137.298703
125.584602
103.188753
84.057450
57.781935
41.529536
25.006533
17.356873
11.712909
9.322762
8.080602
7.651448
7.277727
7.599592
7.265806
7.550716
6.962419
7.034540
6.642938
7.159710
6.501675
6.229877
6.473660
6.395578
6.240606
6.335974
5.671978
5.648732
5.491972
4.753470
4.659891
4.409552
4.558563
4.466772
4.271865
3.862977
4.080534
3.791451
3.520846
3.478527
3.457665
3.571510
3.435612
3.235936
3.259778
3.119707
2.835989
##ZVALUE=290
0.653863
0.741482
0.578761
0.735521
0.730753
0.669956
0.665784
0.665784
0.708699
0.697970
0.736713
0.628829
0.728965
0.750422
0.790954
0.750422
0.925660
0.857711
0.977516
0.938773
1.035929
1.137853
1.107454
1.022816
1.296997
1.527667
1.680851
6.605983
19.035935
60.768723
117.772818
246.871710
374.226570
558.701754
673.465729
765.463710
765.048862
662.362576
547.032952
371.635556
246.168971
123.851895
67.200661
29.338598
23.065805
31.932592
46.096444
69.338679
89.768767
113.776922
128.019452
137.172937
134.791732
119.207501
102.901459
76.136589
56.849718
36.284924
25.286674
15.619993
10.721684
7.829666
6.787777
6.292462
6.032586
5.742908
5.588531
5.629659
5.684495
5.857944
6.012917
5.664825
5.881786
6.203651
5.654693
5.810857
5.432963
5.244613
5.034804
4.845858
4.629493
4.372597
4.053712
3.752708
3.985763
3.785491
3.656745
3.793836
3.619790
3.545880
3.287792
3.329515
3.141761
3.111959
3.043413
3.068447
##ZVALUE=295
0.613928
0.527501
0.429749
0.681877
0.754595
0.682473
0.746846
0.527501
0.640750
0.651479
0.778437
0.703931
0.901818
0.864863
0.887513
0.767708
0.604987
0.966787
0.820756
0.757575
0.826716
1.024604
0.873804
0.896454
1.150966
1.231432
1.273751
1.384616
1.425743
2.348423
11.004806
30.927658
89.316964
168.354511
324.679613
457.702875
627.760887
729.253888
763.625503
721.255541
588.769913
459.069610
286.207795
178.943872
82.047582
41.134953
19.708872
17.946959
28.318763
40.924549
63.155890
82.703829
106.372833
119.992495
129.787922
128.235817
111.889839
95.213652
72.287917
55.633783
35.460591
23.749471
13.960600
9.485483
6.341934
5.458593
4.986525
5.024672
5.045533
5.339980
4.992485
5.045533
5.240440
5.296469
4.969835
5.120635
4.709959
4.925728
4.729629
4.305840
4.449487
4.102588
3.946424
3.824830
3.811717
3.534555
3.749728
3.590584
3.388524
3.429651
3.156662
2.949834
3.186464
3.151894
3.001690
3.033876
##ZVALUE=300
0.674725
0.775456
0.646710
0.584722
0.544786
0.610948
0.403523
0.515580
0.676513
0.673532
0.859499
0.664592
0.667572
0.688434
0.640750
0.708699
0.565648
0.688434
0.749826
0.693798
0.793934
0.905991
0.860691
1.025796
1.010895
0.968575
1.032948
1.029968
1.100898
1.206994
1.554489
1.294613
4.498959
16.285777
56.938529
114.138722
242.627859
369.525552
549.205542
664.318800
736.337900
737.327933
669.115782
512.208939
376.655459
211.097002
127.717853
58.402419
28.874874
15.768409
15.615821
23.000836
38.335919
53.508878
78.765750
95.692873
111.554861
120.630860
118.475556
110.609531
91.781616
74.924827
51.740408
36.244988
21.536946
14.191866
7.999539
6.256700
4.885793
4.565716
4.512668
4.794598
4.889965
4.341602
4.596710
4.639626
4.535913
4.246831
4.175901
4.113913
3.975630
3.922582
3.723502
3.889799
3.495812
3.582835
3.420711
3.295541
3.266931
3.346801
2.986789
3.097653
3.023744
2.876520
2.882481
2.770424
##ZVALUE=305
0.578761
0.491738
0.501871
0.446439
0.545979
0.539422
0.629425
0.562668
0.455976
0.600815
0.533462
0.513792
0.662804
0.717640
0.621676
0.641942
0.595450
0.586510
0.699759
0.627637
0.658631
0.746846
0.733733
0.828505
0.802875
0.776649
0.957847
0.859499
1.001954
1.155734
1.063943
1.180768
1.353621
1.326799
2.152920
10.899901
31.074882
90.925694
168.848634
312.958956
446.607471
610.093474
697.257519
731.788874
686.453581
549.376011
427.255630
271.271467
172.431469
79.228878
39.450526
15.773773
11.242628
14.909506
21.927953
37.494898
52.284002
74.616671
90.401769
107.567906
114.899874
112.833977
104.290843
87.291002
69.856644
47.729611
34.136772
21.070838
13.393760
7.745624
5.817413
4.807711
4.460812
4.353523
3.996491
4.018545
3.766418
3.801584
3.762841
3.679991
3.610849
3.291965
3.509521
3.517866
3.132820
3.169775
3.042817
3.149509
3.099442
2.925992
2.800822
2.826452
2.756715
2.714992
2.586842
2.604723
##ZVALUE=310
0.670552
0.659823
0.699759
0.629425
0.575781
0.759959
0.646710
0.533462
0.673532
0.756979
0.836849
0.781417
0.798702
0.675917
0.747442
0.744462
0.640750
0.617504
0.730753
0.743866
0.745654
0.739694
0.704527
0.890493
0.894666
0.808835
0.886917
0.941753
0.991821
1.045465
1.099706
0.989437
1.169443
1.139641
1.326799
1.390576
1.554489
4.895926
16.176701
54.718852
107.869506
229.833722
356.833935
531.392694
641.703010
722.171664
713.500977
623.817444
513.579845
349.159837
235.526562
119.024515
64.118505
24.753809
12.102723
9.908676
12.423992
20.611882
29.820800
47.465563
62.918663
84.762573
96.110702
107.057691
107.853413
99.507570
88.086724
66.731572
51.189661
32.439828
22.201538
13.389587
8.858442
5.711913
4.498959
3.822446
3.643632
3.364682
3.574491
3.220439
3.245473
3.226995
3.195405
3.074408
2.834797
3.236532
2.931952
3.050566
2.967715
2.885461
2.783537
2.782941
2.751946
2.778769
2.658963
2.572536
##ZVALUE=315
0.594854
0.642538
0.548959
0.546575
0.461936
0.606775
0.591874
0.429749
0.576973
0.636578
0.476837
0.524521
0.599623
0.796914
0.542998
0.617504
0.788569
0.706911
0.672936
0.704527
0.595450
0.670552
0.637770
0.587702
0.625849
0.540614
0.827909
0.882745
0.941753
0.966787
0.742674
0.801682
0.986457
0.866652
1.008511
1.076460
1.192689
1.114607
1.373887
2.540946
8.477569
34.525990
76.109767
174.242854
281.997919
455.051661
574.719906
683.305860
713.101029
658.981800
567.342639
411.461592
292.573571
155.248642
85.803866
33.058524
14.860630
8.259416
8.588433
11.828542
16.825795
29.372573
41.214824
59.098601
74.854493
91.868639
99.391937
101.241469
94.267726
78.964829
64.419508
45.649409
32.926798
18.792748
12.289882
6.510615
4.679561
3.547668
3.029704
2.731681
2.779961
2.620816
2.590418
2.435446
2.359748
2.437830
2.502799
2.335906
2.398491
2.484918
2.345443
2.299547
2.421737
2.192855
2.442598
2.284646
##ZVALUE=320
0.599623
0.432730
0.495911
0.523925
0.648499
0.636578
0.584722
0.588894
0.563860
0.600815
0.711679
0.689626
0.688434
0.556707
0.531673
0.624657
0.658631
0.744462
0.616908
0.637770
0.793934
0.694990
0.677705
0.739694
0.640750
0.644922
0.685453
0.696778
0.787973
0.742674
0.802875
0.892878
0.967979
0.973940
1.050830
0.985861
0.864863
0.889897
0.938773
1.167655
1.261830
1.439452
4.878640
15.068650
53.639412
109.483004
227.256417
339.905620
505.188704
617.842674
704.013705
703.524947
616.170764
503.707528
339.303017
218.200684
103.666782
55.369735
21.133423
10.229945
7.053614
7.568598
10.371804
14.879704
26.079416
36.136508
54.689646
68.630576
86.009502
93.778968
94.862580
87.767839
74.353814
60.746670
43.543577
31.616688
19.083619
11.906624
6.403923
4.183650
2.880692
2.408624
2.302527
2.338886
2.139807
2.237558
2.017617
2.044439
2.131462
1.988411
1.937747
1.860857
1.967549
2.012849
2.034903
2.232790
##ZVALUE=325
0.607967
0.330806
0.447631
0.537634
0.543594
0.453591
0.505447
0.492930
0.560880
0.517964
0.581741
0.642538
0.579953
0.583529
0.549555
0.592470
0.525713
0.523925
0.454783
0.600815
0.578761
0.661612
0.694990
0.475645
0.824928
0.591874
0.717640
0.748634
0.532866
0.757575
0.551939
0.745654
0.703931
0.708699
0.783801
0.940561
0.948906
0.906587
0.905991
1.021624
1.169443
1.117587
1.212955
1.412630
2.324581
11.976957
32.457709
86.580515
159.404874
306.259990
433.983803
588.195920
672.562718
703.802705
661.394000
523.309708
398.720503
245.882869
150.487423
67.152977
32.812953
12.176633
6.812811
6.183982
6.435513
9.623766
13.971925
24.530888
35.408735
52.477717
66.220760
80.292821
86.400509
87.484717
82.801580
68.162680
56.094527
39.026737
27.819872
15.998483
10.240674
5.817413
3.798604
2.660751
2.409816
2.109408
1.912713
2.056956
1.813769
1.775622
2.002716
1.812577
1.984835
1.846552
1.935959
1.855493
##ZVALUE=330
0.388622
0.495911
0.379682
0.505447
0.580549
0.544786
0.585914
0.575781
0.496507
0.542998
0.502467
0.452995
0.621676
0.536442
0.562668
0.408888
0.528693
0.651479
0.501871
0.645518
0.545979
0.591874
0.542998
0.605583
0.673532
0.667572
0.632405
0.527501
0.706911
0.729561
0.700951
0.710487
0.724792
0.565648
0.636578
0.791550
0.766516
0.836849
0.739694
0.831485
0.878572
0.821948
1.122952
1.093745
1.142621
1.202822
1.600981
5.369782
16.567707
57.128668
112.334490
230.482817
345.275998
512.778759
621.304512
698.266029
678.640604
582.311749
473.401546
314.388871
203.917623
95.587969
48.806667
17.395616
8.269548
5.435944
5.514622
6.056428
8.240938
14.202595
20.950437
33.688545
46.261549
62.898993
73.680878
81.873536
82.433820
75.850487
66.481829
50.305724
38.210750
24.335980
16.661882
9.852648
6.500483
3.732443
2.865791
2.256632
1.944900
1.999736
1.805425
1.733899
1.626611
1.558661
1.791716
1.681447
##ZVALUE=335
0.582933
0.529885
0.512600
0.383854
0.241995
0.472665
0.402927
0.368953
0.500679
0.666976
0.471473
0.372529
0.311732
0.534654
0.432730
0.492930
0.575781
0.614524
0.529885
0.447631
0.381470
0.325441
0.396967
0.478625
0.473857
0.477433
0.422597
0.409484
0.505447
0.670552
0.727773
0.520945
0.667572
0.742674
0.641942
0.677705
0.809431
0.858903
0.727773
0.728965
0.718832
0.801682
0.868440
0.910759
0.977516
0.866652
1.016855
1.266599
1.366735
2.780557
8.682609
34.988523
74.380636
170.047879
274.547935
442.305803
555.414557
654.439926
670.781732
609.653592
512.632728
359.253883
245.989561
127.883554
67.372918
23.769736
10.581613
5.714893
5.281568
4.751682
5.515814
7.924438
12.095571
21.473765
30.763745
45.592785
57.404637
69.032907
75.176954
75.904727
71.781874
59.602857
49.207807
35.418868
26.089549
16.346574
10.539889
6.195903
4.295707
2.572536
2.216697
1.982450
1.781583
1.719594
1.517534
1.765490
##ZVALUE=340
0.502467
0.424981
0.428557
0.440478
0.660419
0.502467
0.468493
0.520945
0.437498
0.441670
0.456572
0.548959
0.458956
0.688434
0.521541
0.534654
0.456572
0.572801
0.447631
0.483990
0.426769
0.536442
0.687838
0.358820
0.467896
0.608563
0.567436
0.471473
0.481606
0.658631
0.567436
0.524521
0.474453
0.450611
0.502467
0.508428
0.609756
0.680685
0.564456
0.589490
0.628829
0.623465
0.827909
0.725985
0.840425
0.844598
0.783801
0.947714
0.702739
0.939965
1.242757
1.476407
3.995895
20.985603
52.262545
134.571791
231.703520
397.577882
518.305898
644.647479
692.946911
671.852827
596.068501
441.178679
307.697654
158.794522
87.119937
34.753680
15.014410
6.286502
4.913807
4.526973
4.668832
5.583763
7.130504
12.550950
18.651485
29.811859
40.546656
55.454969
64.251423
70.414543
71.009994
66.062808
58.944821
46.601892
36.575794
24.765730
17.381907
10.190606
6.608963
3.634691
2.623796
1.889467
1.806617
1.731515
##ZVALUE=345
0.620484
0.388622
0.400543
0.481606
0.525713
0.488758
0.460744
0.458956
0.629425
0.366569
0.416636
0.482798
0.555515
0.478625
0.583529
0.415444
0.562668
0.397563
0.477433
0.548959
0.474453
0.527501
0.471473
0.513792
0.408888
0.527501
0.602603
0.583529
0.543594
0.544786
0.480413
0.597835
0.541806
0.609756
0.692606
0.628829
0.638962
0.677705
0.678897
0.714660
0.609756
0.578761
0.756979
0.637770
0.670552
0.740886
0.778437
0.817776
1.036525
0.913739
0.867844
1.014471
1.249909
1.298785
2.609491
9.095669
37.742853
78.834891
172.192454
273.756981
434.070826
549.256802
638.751984
653.221607
588.477850
486.354828
330.249667
216.358900
100.557804
50.053000
17.575622
8.429885
5.080700
4.508495
4.245639
4.439950
4.736781
6.499887
11.002421
16.803741
27.600527
36.663413
48.645735
56.630969
63.524842
65.732002
62.992573
56.480765
45.082569
35.822988
24.803877
17.360449
10.213852
6.581545
3.999472
3.099442
##ZVALUE=350
0.373721
0.580549
0.451803
0.456572
0.477433
0.397563
0.457764
0.393987
0.474453
0.439882
0.413656
0.403523
0.562668
0.576973
0.453591
0.558496
0.414848
0.463724
0.438690
0.354648
0.436902
0.322461
0.521541
0.487566
0.536442
0.570416
0.538826
0.404716
0.423789
0.427961
0.550747
0.556707
0.455976
0.627637
0.560880
0.697970
0.604987
0.629425
0.698566
0.537634
0.476837
0.683665
0.533462
0.602603
0.532866
0.697970
0.689626
0.762939
0.718832
0.842810
0.828505
0.925660
0.945926
0.871420
0.997782
1.234412
1.474619
5.713701
18.311739
58.529973
111.982822
230.163932
340.197682
485.477448
580.792427
631.285906
604.825616
500.432849
386.115909
230.134726
143.033862
66.196918
31.390786
9.691715
5.569458
4.523993
4.144907
3.635883
3.795624
4.324913
5.889535
10.187626
15.056729
23.194551
31.202435
42.810440
50.350428
57.911873
59.971809
57.930946
52.336454
42.410493
33.993721
23.111701
16.616583
10.264516
##ZVALUE=355
0.541806
0.456572
0.454783
0.459552
0.467896
0.603795
0.362992
0.463724
0.508428
0.493526
0.504851
0.542998
0.495911
0.431538
0.518560
0.548959
0.492930
0.523925
0.506639
0.453591
0.452995
0.524521
0.419617
0.507832
0.578761
0.501871
0.432730
0.389814
0.645518
0.539422
0.536442
0.437498
0.529885
0.469685
0.544786
0.510812
0.557899
0.541806
0.671744
0.606775
0.580549
0.588894
0.617504
0.517964
0.762939
0.662804
0.697970
0.643730
0.677705
0.689626
0.769496
0.800490
0.730753
0.960827
0.923872
1.047850
1.082420
1.084805
1.154542
2.681613
9.408593
37.409663
77.202916
168.109536
271.774530
430.820584
533.705950
615.891814
621.797442
534.704924
428.453684
274.950862
170.736909
74.591637
36.997795
13.726950
6.403923
4.120469
3.861785
3.636479
3.397465
3.549457
3.794432
5.257726
7.567406
13.130903
19.160509
28.174520
36.164522
45.275688
51.905513
54.517984
53.394437
47.201514
40.844679
31.484962
##ZVALUE=360
0.384450
0.413656
0.490546
0.409484
0.416636
0.427961
0.377893
0.565648
0.396967
0.467896
0.458956
0.509620
0.459552
0.537634
0.475645
0.545979
0.433922
0.537634
0.353456
0.506639
0.519753
0.572801
0.573993
0.478625
0.497699
0.591874
0.699759
0.559688
0.517964
0.552535
0.641942
0.609756
0.548959
0.549555
0.679493
0.589490
0.619888
0.601411
0.586510
0.779629
0.644922
0.592470
0.571609
0.685453
0.672936
0.517964
0.767708
0.597835
0.780821
0.714660
0.747442
0.761747
0.669956
0.690818
0.707507
0.813603
0.634789
0.871420
0.921488
1.131892
1.186728
1.561642
4.316568
19.258857
47.636628
121.862888
203.399658
342.623591
458.097458
570.915937
601.227880
563.644767
474.703908
324.407816
215.828419
104.377866
53.973794
20.519495
8.890629
4.499555
3.915429
3.532767
3.375411
3.122687
3.106594
3.276467
4.344583
6.650686
9.888411
15.688539
22.398829
32.492876
38.744807
45.311451
49.075484
49.129725
##ZVALUE=365
0.410676
0.442863
0.566840
0.459552
0.477433
0.599623
0.478625
0.491738
0.546575
0.396967
0.537634
0.497699
0.416636
0.351667
0.434518
0.459552
0.487566
0.481606
0.600815
0.591874
0.349879
0.499487
0.493526
0.541806
0.546575
0.600815
0.554919
0.578761
0.804663
0.495911
0.539422
0.539422
0.565648
0.617504
0.490546
0.615716
0.583529
0.527501
0.601411
0.539422
0.673532
0.647902
0.572801
0.616908
0.402927
0.659823
0.647902
0.504851
0.699759
0.714660
0.649691
1.010895
0.643730
0.667572
0.740886
0.539422
0.671744
0.939965
0.845790
0.986457
0.959635
0.881553
1.141429
1.407862
2.214909
10.979772
30.463934
81.627965
151.214600
281.678438
381.815434
492.622852
546.140671
540.170670
479.400754
349.384546
247.563720
135.835409
73.086619
27.633905
11.550784
4.678965
3.834963
3.773570
3.220439
3.111959
2.752542
2.709627
2.940893
3.690720
5.103946
8.286834
12.740493
20.294785
26.117563
34.467578
##ZVALUE=370
0.479817
0.427961
0.409484
0.462532
0.436902
0.638962
0.361800
0.455976
0.445843
0.414848
0.379682
0.422597
0.546575
0.570416
0.457764
0.431538
0.388622
0.469685
0.428557
0.491738
0.498891
0.572801
0.422597
0.525713
0.542998
0.433922
0.530481
0.367761
0.576973
0.622869
0.602603
0.603795
0.447631
0.642538
0.462532
0.432730
0.512600
0.538826
0.450611
0.509620
0.621676
0.655651
0.424981
0.702739
0.677705
0.732541
0.616908
0.643730
0.782609
0.668764
0.703931
0.584722
0.602603
0.654459
0.534654
0.651479
0.714660
0.760555
0.823736
0.831485
0.759959
0.850558
0.829697
0.948906
0.942945
1.093745
1.404881
5.343556
17.823577
57.872534
111.173987
216.735005
326.926708
472.912788
547.632575
568.938851
523.723960
411.774516
303.907990
170.199871
94.893575
37.570596
17.453432
6.843805
4.162788
3.306866
3.149509
3.052950
2.667904
2.669692
2.378821
2.631545
2.962947
4.577637
6.802678
11.394620
##ZVALUE=375
0.587702
0.571609
0.555515
0.713468
0.458956
0.412464
0.600815
0.473857
0.472665
0.624657
0.491738
0.612736
0.615716
0.547767
0.597835
0.461936
0.495911
0.696778
0.621676
0.605583
0.650883
0.521541
0.555515
0.694990
0.619888
0.627637
0.660419
0.800490
0.722408
0.612736
0.748634
0.572801
0.683665
0.694990
0.744462
0.765920
0.769496
0.698566
0.672936
0.715852
0.629425
0.729561
0.720620
0.909567
0.627637
0.680685
0.778437
0.778437
0.695586
0.918508
0.654459
0.688434
0.670552
0.760555
0.819564
0.794530
0.861883
0.747442
0.848770
0.882745
0.990629
0.886917
1.018643
0.921488
0.868440
0.895858
1.021624
1.232624
1.338720
2.874732
9.327531
33.729672
74.431896
169.788599
268.823504
412.216783
496.319532
547.136664
544.791818
447.624922
356.853604
214.074850
134.192705
64.954758
32.839775
11.296868
5.215406
3.486872
3.482699
3.137589
2.756715
2.672672
2.447963
2.428889
2.351999
2.937913
##ZVALUE=380
0.456572
0.470877
0.490546
0.562668
0.613928
0.699759
0.629425
0.597835
0.465512
0.612736
0.612736
0.599623
0.470877
0.713468
0.519753
0.444651
0.543594
0.480413
0.617504
0.533462
0.461936
0.391603
0.594854
0.604987
0.506639
0.609756
0.520945
0.537634
0.591874
0.634789
0.617504
0.691414
0.809431
0.620484
0.632405
0.745654
0.641942
0.635982
0.501871
0.564456
0.795722
0.637770
0.664592
0.755787
0.653863
0.605583
0.634789
0.683665
0.659823
0.649691
0.665784
0.557899
0.596642
0.825524
0.606775
0.726581
0.726581
0.685453
0.626445
0.732541
0.669956
0.767708
0.715852
0.810623
0.741482
0.870824
0.691414
0.982881
0.952482
1.023412
1.246929
1.862645
5.435944
24.492741
56.601763
134.386420
223.252773
357.826948
452.875495
541.646481
552.016497
479.539633
393.096805
271.388888
182.087421
89.623928
46.667457
16.828775
7.336736
3.795624
3.236532
2.862811
2.800822
2.632737
2.485514
2.366900
##ZVALUE=385
0.402927
0.392795
0.503659
0.387430
0.324845
0.443459
0.397563
0.421405
0.475645
0.503659
0.469685
0.481606
0.394583
0.562668
0.461936
0.382662
0.604987
0.433922
0.477433
0.522733
0.586510
0.517964
0.516772
0.563860
0.577569
0.645518
0.547767
0.749826
0.580549
0.654459
0.720620
0.894666
0.671744
0.637770
0.748634
0.727773
0.724792
0.679493
0.516772
0.682473
0.710487
0.809431
0.632405
0.654459
0.702739
0.604987
0.761747
0.718832
0.706911
0.678897
0.795722
0.640750
0.571609
0.615716
0.593662
0.507832
0.529885
0.524521
0.645518
0.539422
0.608563
0.650883
0.610948
0.666976
0.750422
0.921488
0.821948
0.748634
0.828505
0.834465
1.007915
1.026988
1.042485
1.312494
2.588630
13.959408
35.939813
92.180967
164.826512
296.773911
398.567915
500.371456
535.717607
513.018966
449.102521
327.299833
230.622888
126.024485
71.692467
29.430985
12.572408
4.245639
3.347993
2.790689
2.806783
2.660751
##ZVALUE=390
0.511408
0.578761
0.453591
0.595450
0.533462
0.648499
0.542998
0.607967
0.614524
0.554919
0.648499
0.523925
0.679493
0.594854
0.476837
0.396967
0.607967
0.726581
0.678897
0.538826
0.601411
0.504851
0.617504
0.576973
0.660419
0.641942
0.587702
0.721812
0.670552
0.718832
0.923872
0.854731
0.956655
1.023412
0.931621
0.891685
0.992417
0.942945
0.957847
0.882745
0.859499
0.817776
0.759959
0.802875
0.681877
0.763535
0.783801
0.742674
0.808835
0.845790
0.720620
0.827909
0.766516
0.883937
0.700951
0.783801
0.694990
0.716448
0.611544
0.757575
0.665784
0.773668
0.813603
0.762939
0.937581
0.690818
0.836849
0.817776
1.061559
0.978708
1.009703
1.139641
1.197457
0.999570
1.177788
1.293421
1.852512
7.509589
23.880601
75.919628
144.429803
274.989605
381.419659
502.309799
576.377511
594.809651
553.226471
432.754755
324.543715
193.021894
109.575987
43.756962
19.916892
6.443858
3.563762
3.123879
##ZVALUE=395
0.584722
0.605583
0.398755
0.394583
0.355840
0.358820
0.461936
0.371933
0.409484
0.349879
0.288486
0.388622
0.358820
0.420809
0.456572
0.360608
0.533462
0.319481
0.390410
0.559688
0.545979
0.491738
0.543594
0.560880
0.648499
0.411868
0.601411
0.480413
0.683665
0.495911
0.673532
0.706911
0.623465
0.740886
0.710487
0.674725
0.826716
0.789762
0.779629
0.635982
0.687838
0.640750
0.655651
0.641942
0.669956
0.704527
0.500679
0.732541
0.525713
0.640750
0.657439
0.539422
0.663996
0.545979
0.533462
0.504851
0.653863
0.659823
0.531673
0.379682
0.504851
0.510812
0.509620
0.579953
0.694990
0.671744
0.668764
0.688434
0.829697
0.878572
0.783801
0.791550
0.785589
0.851750
0.812411
0.970960
0.685453
1.015663
1.234412
3.965497
14.488697
50.114989
98.323822
191.209912
289.360881
431.599617
518.007874
570.902824
557.428002
469.192863
367.736816
226.507783
139.215589
60.858727
29.227734
9.913445
##ZVALUE=400
0.475645
0.556707
0.364780
0.304580
0.469685
0.302792
0.321865
0.482798
0.421405
0.387430
0.294447
0.422597
0.314713
0.248551
0.412464
0.407696
0.357628
0.258684
0.413656
0.350475
0.321865
0.348687
0.395775
0.358820
0.527501
0.473857
0.507832
0.356436
0.401735
0.578761
0.586510
0.611544
0.647902
0.625849
0.621676
0.576973
0.607967
0.524521
0.582933
0.532866
0.597835
0.625849
0.610948
0.560880
0.623465
0.658631
0.695586
0.676513
0.613928
0.649691
0.521541
0.737906
0.616908
0.558496
0.554919
0.685453
0.566840
0.469685
0.607967
0.445843
0.540614
0.522733
0.521541
0.614524
0.542998
0.709891
0.654459
0.754595
0.755787
0.888705
0.711679
0.710487
0.638962
0.819564
0.835657
0.779629
0.756979
0.718832
0.997782
0.955462
1.149774
2.303720
7.404685
27.690530
62.284470
146.451592
241.836905
384.852886
486.660600
569.571853
583.152771
518.281460
425.361991
276.604891
178.913474
87.436438
##END
