##TITLE=WAT1
##FORMAT=SPECTACLE-ASCII V-1.2
##DATA TYPE=ULTRAVIOLET SPECTRUM
##SECOND TYPE=ULTRAVIOLET SPECTRUM
##DATE=01/24/18
##TIME=11:49:48
##SPECTROMETER/DATA SYSTEM=SPECTACLE
##XUNITS=NM EM
##YUNITS=ENERGY
##YFACTOR=1
##FIRSTX=220
##LASTX=410
##NPOINTS=96
##3DDATA=Equidistant
##ZUNITS=NM EX
##FIRSTZ=210
##LASTZ=400
##ZPOINTS=39
##XYDATA=(Y..Y)
##ZVALUE=210
15.867949
14.948845
12.098551
10.754466
8.984804
9.481907
8.908510
7.694960
5.696416
4.334450
2.799630
2.673864
1.883507
1.467466
1.305938
1.773834
1.738667
1.623631
1.913905
1.660585
1.787543
2.348423
2.675653
2.388954
2.202988
2.322793
3.575683
3.563762
3.684759
4.739761
4.630685
4.749894
5.475879
5.685687
6.680489
8.082986
7.337928
7.803440
8.770823
9.365678
9.046793
9.157658
9.420514
9.925961
9.583831
9.609461
9.036660
10.021925
8.345842
9.382963
9.330511
8.945465
8.961558
8.032918
7.958412
8.070469
7.601976
7.805824
7.045865
6.968975
7.310510
6.084442
6.271601
5.831718
6.192923
6.265640
6.266832
6.490946
6.656647
7.392764
7.972717
9.488463
10.007620
10.662675
12.399554
10.819435
10.201931
9.691715
8.998513
9.187460
8.069873
7.567406
6.595850
5.290508
4.807711
4.960895
3.819466
4.539490
5.067587
5.595684
6.949902
11.821985
14.544725
18.832684
24.432540
30.088425
##ZVALUE=215
37.248731
34.318566
29.663444
25.308728
20.805597
18.130541
15.260577
15.035868
15.570521
12.239814
8.989573
8.536577
6.165504
4.285574
3.029704
2.147555
2.222657
2.568960
1.943707
1.863837
1.714826
2.130866
2.735853
3.078580
3.142953
3.397465
4.150867
4.339814
4.467964
4.096627
4.593730
5.376935
4.956722
6.894469
6.719828
7.198453
7.593632
8.124709
8.901954
8.466840
9.002686
9.995699
10.117888
9.194613
8.627772
8.164644
8.596778
9.086728
8.013844
9.424686
7.957816
8.878708
8.520484
7.846951
8.647442
7.247925
7.181764
7.222891
7.512569
6.376505
5.427599
6.058812
5.565882
5.942583
4.926920
6.090999
5.344748
5.125999
5.826950
5.711913
6.680489
8.017421
7.717609
10.013580
8.986592
9.241700
9.181499
9.210706
9.670854
7.359982
7.224679
7.051826
5.238652
5.496740
5.749464
4.482865
3.516674
3.523827
3.064871
2.965927
3.444552
3.910661
3.937483
5.092621
8.003712
9.694695
##ZVALUE=220
73.303580
73.473454
76.001883
67.783594
60.704947
44.247508
36.354661
28.802752
25.295615
23.356676
23.858547
21.348000
20.601749
15.671849
12.999773
8.111596
6.091595
3.962517
2.634525
2.494454
2.337694
2.520680
2.326965
2.440810
2.963543
2.695918
3.663898
4.157424
4.936457
4.901886
5.857944
5.425811
6.126761
6.337762
7.145405
7.281899
8.429885
9.023547
9.736419
9.410977
9.704828
9.927750
10.955930
10.159612
9.947419
10.110736
10.905862
9.582639
9.264946
8.754730
9.644628
9.449720
8.834600
9.175539
7.998943
8.563995
7.879734
9.487867
8.242726
7.651448
7.116795
7.884502
7.601976
7.208586
6.560683
6.083846
5.645752
6.376505
6.037951
7.277727
7.884502
7.699728
9.272695
9.455681
10.098815
10.238886
9.604692
8.822680
8.865595
8.222461
8.337498
6.899834
6.384850
6.102920
4.690886
4.294515
3.684759
4.643798
3.546476
3.858805
3.792644
4.030466
3.758669
3.095865
3.901720
4.255772
##ZVALUE=225
89.476705
91.591477
112.581849
129.534602
137.923956
121.914744
112.226605
82.223415
62.254667
38.450956
39.998889
37.417412
38.290620
37.346482
36.517978
32.015443
25.306940
17.237663
14.232993
7.384419
5.931854
3.460646
3.139973
3.409982
3.682971
3.623962
3.806949
4.055500
4.224777
4.747510
4.353523
5.054474
6.788969
7.278919
7.644892
8.359551
10.554790
11.267662
11.425614
14.015436
13.342500
14.091730
13.712645
13.703704
15.874505
12.791753
13.000965
13.376474
13.145804
12.706518
12.739897
12.228489
14.299750
11.697412
12.031794
11.991858
10.548830
11.700988
13.095737
11.064410
10.846853
10.290742
8.041859
9.422898
8.045435
8.346438
7.772446
8.100867
7.594824
7.580519
8.200407
8.356571
9.061694
9.252429
9.102821
9.908676
10.332465
9.319782
7.669926
7.917881
7.214546
7.086992
5.878806
5.372763
5.167723
4.874468
4.625916
4.438758
4.487634
4.002452
3.864765
3.829598
3.989935
3.896952
3.549457
4.271865
##ZVALUE=230
54.591894
59.768558
93.745589
146.408677
180.241466
214.608908
229.439735
219.711661
194.915533
115.765929
114.540458
81.729889
66.382885
60.055852
58.706999
63.121915
63.318610
54.373741
48.123598
37.209988
28.020740
19.177794
11.617541
6.885529
5.312562
4.212856
3.796816
4.198551
4.339814
4.431605
4.095435
4.607439
6.641746
7.026792
10.633469
12.796521
14.911890
16.742945
18.793941
19.779801
19.798875
23.301840
23.100972
22.042990
21.555424
21.879673
21.036863
20.942688
20.579696
20.513535
20.117760
19.256473
18.087626
17.055869
16.525984
17.682910
15.695691
14.577508
13.382435
14.482737
12.497902
11.386871
12.833476
12.344718
10.104775
10.178685
10.013580
9.923577
10.366440
9.814501
10.140538
9.482503
11.240840
10.538697
10.570884
11.059642
10.520816
10.730624
7.864833
8.849502
7.540584
6.912947
6.445646
6.181598
6.087422
4.770756
4.658699
5.475879
4.907846
4.885793
4.835725
4.297495
3.826618
4.516840
4.538894
4.346967
##ZVALUE=235
13.526678
16.823411
33.492446
83.999634
131.098628
207.765698
270.093679
335.068703
361.377597
364.378691
318.006873
260.019898
182.810426
137.498975
95.440745
83.713531
80.545545
84.721446
90.882778
88.723898
81.586838
67.038536
52.433610
34.604669
23.262501
13.928413
8.379817
6.661415
5.357862
5.389452
6.104708
6.081462
8.656979
11.155605
13.826489
19.343495
22.742748
26.835799
28.421879
30.930638
35.699606
36.062598
36.970973
38.069487
36.841631
37.779808
35.088658
34.858584
32.012463
30.499697
30.992627
29.221773
29.968619
26.327968
23.549795
23.266673
21.188855
20.787716
18.340945
16.255975
17.126799
15.437603
15.003681
13.261437
11.998415
11.426806
10.654926
12.487769
10.138750
11.400580
10.625720
12.220740
12.710690
12.145638
12.150407
12.090802
11.163950
9.830594
11.271834
8.940697
9.284616
7.765889
7.535815
5.978942
6.175637
5.908608
5.934834
6.075501
5.819798
5.795956
5.286932
5.230904
5.734563
5.726814
5.038977
4.621744
##ZVALUE=240
1.789927
1.448989
5.162954
13.813972
38.754940
76.264739
157.367587
234.381557
357.708931
435.109735
495.751500
505.370498
465.486646
374.154449
292.517543
191.756487
136.610866
103.128552
98.250508
106.399655
110.558867
118.657947
108.029842
99.912882
83.605647
61.996579
43.520927
29.440522
17.611980
12.420416
9.768605
9.293556
10.761619
14.745593
20.867586
26.815534
32.201409
38.322806
42.238832
45.161843
50.943494
52.163601
53.500533
54.135919
56.778789
54.048896
51.222444
48.848987
46.391487
45.059919
41.180849
41.587949
39.245486
34.635663
32.339692
28.317571
27.756691
25.803447
23.448467
21.222830
20.274520
18.206835
17.234683
16.137958
13.941526
13.777614
12.418628
13.060570
11.865497
11.173487
11.857748
12.104511
13.006926
11.993647
11.737943
12.120605
10.771751
9.681582
10.474920
8.864999
7.742643
8.324981
7.035732
6.874800
5.569458
6.543994
5.655885
6.507635
6.482601
4.943609
4.696846
5.041957
5.428791
5.391836
5.470514
5.183816
##ZVALUE=245
0.912547
1.058578
0.927448
1.044869
2.680421
9.067655
29.903650
66.963434
147.741437
233.229995
373.632908
471.554995
542.249680
582.919717
555.219650
473.985672
385.462642
264.801979
183.533430
120.377541
100.392699
97.596645
112.994909
120.080709
125.705600
123.037696
108.235478
90.815425
67.451596
49.807429
32.668710
21.384954
18.807650
20.046830
23.642778
31.263828
36.782622
44.168830
47.776699
54.037571
55.656433
60.933828
62.187910
63.943863
62.844753
60.485601
60.588717
56.092739
54.952502
52.396655
49.744844
43.793917
45.037866
39.355755
35.550594
34.335852
29.851794
26.472807
24.829507
22.422671
21.712780
18.479824
16.836524
15.234947
14.755726
13.819933
12.173653
11.531711
12.162924
12.111664
11.077523
10.958910
10.374784
11.441708
11.359453
10.920763
9.787679
9.480715
9.148717
7.444620
6.937981
6.229877
5.444884
6.274581
5.552769
5.647540
5.010962
5.334616
5.303621
5.119443
4.849434
5.138516
4.891753
5.013943
4.582405
4.918575
##ZVALUE=250
0.783801
1.153946
1.004934
0.729561
1.259446
1.118779
1.738667
5.717874
22.409558
52.019954
126.859546
216.712952
317.601562
471.903682
575.792789
655.898452
653.885603
587.924719
502.778888
349.330902
245.907903
159.011483
102.310777
89.095831
101.977587
115.808845
128.900409
129.672885
125.666857
115.589499
99.998713
75.934529
59.017539
43.083429
39.071441
38.144588
39.434433
43.577552
48.911572
52.358508
56.125522
59.898496
61.678886
61.513782
61.566830
60.018897
60.246587
56.225657
51.891804
50.119758
48.041940
44.554472
44.317842
38.305521
36.802888
31.132698
29.596686
26.244521
24.767518
21.408796
20.975471
18.220544
16.298890
15.145540
13.585687
12.856722
11.817813
12.020469
10.811687
10.232925
10.147691
9.622574
9.847879
9.643435
9.260774
8.162856
7.852912
7.934570
7.476807
6.964803
6.393790
5.920529
5.643964
4.887581
4.743934
4.528761
4.060864
4.737973
4.124641
4.555583
4.246831
4.259944
4.286766
4.541874
4.212856
4.181862
##ZVALUE=255
0.787973
0.666976
0.663996
0.850558
0.831485
1.097918
1.079440
0.986457
1.362562
3.635883
11.318922
40.310621
87.856650
187.002420
290.529728
455.383658
565.248728
687.319636
721.964836
683.300495
593.798757
480.894446
310.194492
199.416876
111.697912
88.995695
86.053610
98.077655
121.204853
133.485794
139.125586
136.817694
126.847625
106.514692
89.556575
70.651770
60.555935
49.007535
48.097968
46.615601
48.629642
49.066544
50.836802
53.281784
54.180622
52.735806
50.411820
46.353936
45.173764
42.890906
40.897727
38.025975
35.368800
31.633973
28.725863
26.829839
25.093555
22.285581
21.357536
18.734932
17.554760
15.839934
14.788508
12.027621
11.944771
10.966659
10.231733
9.600520
9.009838
8.803606
8.499622
8.065701
8.639693
7.837415
7.736683
7.080436
6.782413
7.068515
6.613731
5.511642
5.719662
4.857779
5.154610
4.178882
4.156828
4.429817
4.205704
3.377795
3.735423
3.846884
3.591776
3.109574
3.508925
3.587604
3.446937
3.889799
##ZVALUE=260
0.735521
0.825524
0.949502
1.103878
0.891685
1.097918
0.930429
0.995994
1.163483
0.913739
1.342893
1.751781
5.094409
24.836659
54.677725
138.348937
232.272744
389.962792
530.048013
698.112845
779.223442
794.968009
711.264014
583.053827
389.219522
266.856551
152.911544
99.711418
73.975921
77.648759
95.523596
122.333765
139.712691
148.457885
149.013996
134.867430
119.912624
95.273852
77.184439
60.754418
49.980879
42.437911
38.619637
39.120913
37.848949
37.547946
36.129951
34.428835
32.552481
31.427741
28.915405
28.081536
26.262999
25.376678
22.497773
19.730926
18.940568
16.874671
16.263723
14.710426
13.366938
12.167692
11.057854
10.617971
9.288788
9.324551
8.212924
8.092523
7.409453
7.401705
6.903410
7.244945
6.724596
7.076859
7.116795
6.673932
6.105900
6.381869
5.540848
4.868507
4.969835
4.429817
3.843904
3.509521
4.045963
3.712773
3.810525
3.562570
3.126860
3.558993
3.715754
3.538728
3.665686
3.512502
3.411770
3.554821
##ZVALUE=265
0.655651
0.532866
0.732541
0.714660
0.631809
0.661612
0.707507
0.648499
0.808835
0.799894
0.932813
1.060963
1.229644
1.258850
2.783537
15.772581
39.779544
101.507902
185.846686
354.851484
512.081981
664.009452
810.560584
854.021907
782.908797
682.683587
500.745773
355.478525
200.319886
122.824907
79.962611
66.525936
77.305436
107.505918
127.595663
147.627592
154.858828
148.516893
137.020946
111.727715
92.394948
66.473484
52.758455
38.722754
30.637980
26.494861
23.647547
23.732781
21.777749
21.801591
20.024776
18.640757
17.798543
16.710758
15.501976
14.922619
13.020635
12.983680
12.195706
10.991693
10.443926
9.819865
9.240508
8.778572
7.889867
7.378459
6.811619
6.780624
6.513000
6.135702
6.403923
5.794764
6.220937
6.589890
6.058812
5.635619
5.363822
5.071759
4.760623
4.178882
4.106760
3.764629
3.535748
3.490448
3.349781
3.055930
3.269911
3.330708
3.427863
3.168583
3.143549
3.020763
3.272891
3.248453
3.462434
3.240705
##ZVALUE=270
0.688434
0.651479
0.837445
0.639558
0.984669
0.621676
0.702739
0.778437
0.677705
0.678897
0.905991
0.757575
0.910759
0.777841
1.069903
1.176596
1.527667
7.297993
22.515655
74.629784
143.490434
250.540972
454.831719
626.363754
810.154676
883.907676
878.316760
793.899894
612.775683
464.413762
278.803706
171.328783
101.541877
57.443976
61.057806
82.827806
105.107427
133.700967
148.680806
153.253675
149.732828
133.300424
111.988783
84.520578
65.059662
43.831468
32.763481
23.611784
20.158887
16.503930
16.014576
14.801621
14.281869
12.906790
12.895465
12.376904
11.604428
11.198521
11.012554
9.951591
9.640455
8.518696
8.285642
7.380843
7.357597
6.772876
6.347895
6.265640
6.307960
6.194711
5.948544
6.123781
6.062984
6.200671
5.496740
5.486608
4.971623
4.475713
4.093647
4.124641
4.168749
3.642440
3.443956
3.283620
3.376603
3.125668
3.021955
3.020763
2.885461
2.984405
3.400445
3.080964
2.989769
2.782941
3.060699
2.826452
##ZVALUE=275
0.412464
0.394583
0.524521
0.496507
0.578761
0.607967
0.481606
0.538826
0.744462
0.724792
0.866652
0.827909
0.595450
0.852942
0.739694
0.867844
0.850558
1.211762
1.299977
3.194809
13.072491
37.574768
111.543536
212.934017
408.748984
561.624765
752.187967
864.518881
921.652913
870.218873
772.275925
573.961735
408.926010
217.401981
129.682422
65.443516
51.611662
63.043833
80.442429
109.739900
127.844810
146.489739
153.088570
145.547986
132.988691
106.221437
88.571906
62.462687
46.529770
30.228496
22.827983
17.536879
15.498996
13.644695
13.461709
11.662841
11.553764
10.587573
9.967685
10.409951
9.446740
8.975863
8.317828
8.348823
7.211566
7.468462
6.813407
6.747842
6.089807
6.321669
6.313920
5.934834
5.611777
5.333424
5.308986
5.672574
5.258918
4.391670
4.397631
4.446507
3.911853
3.694892
3.594756
3.457665
3.343821
3.304482
2.820492
3.025532
3.096461
2.926588
2.875924
3.051758
2.980828
2.931952
3.146529
2.941489
##ZVALUE=280
0.576973
0.353456
0.509620
0.609756
0.571609
0.600815
0.643730
0.480413
0.601411
0.478625
0.742674
0.644922
0.692606
0.501871
0.608563
0.606775
0.761747
0.945926
1.006722
1.131892
1.094937
1.472831
7.794499
27.961731
90.115666
167.159438
319.492817
472.537875
683.591962
824.214816
907.279849
916.575789
830.331445
640.100837
470.288992
269.363523
163.444877
78.177452
50.720572
46.301484
59.679747
83.433986
104.822516
127.631426
142.494440
145.269632
141.259432
125.219822
105.812550
78.584552
60.307980
41.092634
29.380918
19.033551
14.456511
12.557507
11.264682
10.347962
9.912848
9.598732
8.979440
8.524656
8.254647
7.822514
7.352829
7.038713
6.836653
6.312728
6.303787
5.775690
5.768538
5.368590
5.496740
6.068945
5.439520
4.882812
4.821420
4.529953
4.392862
4.312992
3.897548
3.435612
3.053546
3.344417
3.242493
2.946854
2.916455
3.142953
3.075600
2.963543
3.024936
2.825856
2.767444
3.037453
2.675653
3.012419
##ZVALUE=285
0.444651
0.457764
0.445843
0.418425
0.462532
0.447631
0.576973
0.556707
0.363588
0.622869
0.622869
0.713468
0.616908
0.676513
0.622869
0.716448
0.720620
0.738502
0.807643
0.994802
1.092553
1.350641
1.149774
1.657605
3.348589
18.699765
47.579408
99.008679
219.615698
359.516740
572.395921
730.512738
889.276862
938.473940
880.537629
765.453577
556.094646
386.924744
208.171606
121.458769
57.477951
37.349463
39.439797
52.583814
76.393485
94.990730
118.435621
131.743550
137.899518
135.506988
120.448470
102.580786
79.371929
59.476495
38.341880
26.912689
16.724467
12.210608
10.110736
8.663535
8.379817
7.871985
7.561445
6.727576
6.608963
6.623864
6.376505
6.042719
5.709529
5.784631
5.776882
5.462766
5.290508
5.405545
5.032420
4.997849
4.548430
4.453659
3.830791
4.058480
3.819466
3.435612
3.412962
3.443956
3.040433
3.254414
2.962947
2.961755
2.898574
2.653599
2.937913
3.027916
2.699494
2.983809
2.768636
3.101826
##ZVALUE=290
0.474453
0.530481
0.404716
0.633597
0.418425
0.446439
0.551939
0.494719
0.472665
0.489950
0.472665
0.517964
0.467896
0.573993
0.561476
0.714660
0.690818
0.734925
0.698566
0.621676
0.797510
0.777841
0.736713
1.068711
1.016855
1.185536
1.768470
5.892515
27.191639
66.703558
133.044720
283.618569
439.558625
675.132871
822.708011
940.502882
940.033793
815.609694
667.835474
450.009704
299.335718
149.202943
80.476999
35.373569
25.834441
34.076571
46.555996
68.007708
85.906982
109.213591
122.039914
129.668713
126.188993
114.281774
98.235607
72.063804
54.750443
34.948587
24.157763
14.478564
10.741949
8.182526
6.915927
6.250739
6.118417
5.788803
5.769730
5.391836
5.503893
5.602837
5.517602
5.055666
4.864931
5.065799
4.591942
4.874468
4.113913
4.220605
3.784895
3.538728
3.309846
3.244877
3.470778
3.244877
3.380775
3.062487
3.164411
2.949834
2.902746
3.065467
2.998710
2.794862
3.002882
3.029704
2.932549
2.772808
##ZVALUE=295
0.364780
0.457764
0.232458
0.437498
0.274777
0.102520
0.379682
0.546575
0.461936
0.540614
0.493526
0.579953
0.473857
0.582933
0.422597
0.519753
0.517964
0.709891
0.600815
0.615716
0.674725
0.787973
0.825524
0.858903
0.879765
1.060963
1.060963
1.117587
1.360774
2.491474
13.512969
38.992763
112.169981
209.102631
399.860740
564.442873
779.689550
904.867649
952.769518
781.330466
764.806867
562.960505
396.048427
211.237669
116.387606
44.377446
23.568869
19.997954
27.245879
43.334961
59.113503
83.269477
99.828839
117.645860
124.265552
119.081736
110.119581
88.759661
73.021650
49.366951
36.001801
21.575689
14.664531
9.296536
6.951690
6.139874
5.625486
4.990697
5.110502
4.872680
4.904866
5.178452
4.984736
4.860759
4.731417
4.787445
4.424453
4.253983
3.672838
3.753901
3.429651
3.030896
3.230572
3.198981
3.084540
3.128648
3.013611
2.814531
2.913475
2.787709
3.022552
2.813935
2.906919
2.805591
2.807975
2.857447
##ZVALUE=300
0.362992
0.353456
0.243783
0.348687
0.507832
0.411868
0.396967
0.357628
0.406504
0.485778
0.441670
0.366569
0.508428
0.458956
0.669956
0.461936
0.515580
0.428557
0.520945
0.397563
0.452995
0.515580
0.491738
0.555515
0.696778
0.732541
0.822544
0.977516
0.858903
1.051426
1.235604
1.539588
5.709529
20.628572
72.251558
141.353607
298.562646
458.458662
683.218837
821.483731
937.677026
936.138034
813.364983
669.976473
445.863008
294.128656
148.714781
79.726577
29.184818
15.785694
16.770959
23.622513
37.568808
52.461624
74.595809
91.476440
111.198425
116.980672
114.343762
106.375813
86.465478
71.882606
50.267577
36.236644
21.364689
14.712811
8.778572
6.745458
5.163550
5.012751
4.557967
4.576445
4.585981
4.452467
4.357696
4.215837
3.887415
3.816485
3.665686
3.651977
3.442764
3.152490
3.187656
3.162622
3.067851
3.010631
3.099442
2.851486
2.920628
2.535582
2.720952
2.733469
2.717972
2.733469
2.532601
2.741814
##ZVALUE=305
0.310540
0.418425
0.325441
0.241995
0.324845
0.343919
0.379682
0.276566
0.402927
0.342727
0.363588
0.310540
0.425577
0.363588
0.648499
0.330806
0.508428
0.344515
0.453591
0.430942
0.439882
0.543594
0.483990
0.629425
0.525713
0.724792
0.760555
0.768900
0.856519
0.835657
0.918508
1.149774
1.216531
1.330972
2.830625
10.739565
45.552850
101.054907
231.297612
367.543697
587.435961
747.138858
898.811817
937.983990
860.813856
729.186535
520.152450
364.080667
189.450979
105.757713
42.129755
19.869804
12.142658
15.084743
23.695827
34.442544
53.422451
68.863630
88.530779
100.176930
109.629631
108.344555
97.426772
85.640550
63.928962
48.589706
31.074882
21.618605
11.988878
7.894635
5.782843
4.989505
4.464984
4.198551
4.114509
4.031658
3.752708
3.682971
3.492832
3.389716
3.206730
3.326535
3.001690
3.084540
2.864599
2.783537
2.624989
2.718568
2.615452
2.465844
2.828836
2.683997
2.474785
2.740622
2.725720
2.486706
##ZVALUE=310
0.364780
0.377893
0.441670
0.380874
0.168681
0.366569
0.363588
0.377893
0.294447
0.465512
0.339746
0.378489
0.274777
0.357628
0.224710
0.395775
0.510812
0.466704
0.397563
0.337958
0.378489
0.356436
0.464916
0.468493
0.592470
0.482798
0.423789
0.767708
0.743866
0.849962
0.688434
0.823736
0.949502
1.009703
1.008511
1.390576
1.530647
4.498959
23.939610
59.436560
150.352716
262.333751
468.153954
633.882880
832.550526
920.341015
917.624831
835.060477
643.211603
480.530858
280.374885
167.293549
72.021484
33.737421
12.883544
10.043979
13.795495
19.202828
30.659437
43.286681
63.097477
76.710582
93.770623
102.254748
101.673603
96.037984
80.494881
66.307783
45.816898
32.183528
19.301772
13.017654
7.862449
5.693436
4.344583
3.729463
3.474951
3.137589
2.989769
2.794862
2.870560
2.823472
2.858639
2.784729
2.619624
2.644658
2.728701
2.622604
2.687573
2.491474
2.563000
2.612472
2.575517
2.341866
2.585649
2.464652
##ZVALUE=315
0.241995
0.349879
0.222921
0.128746
0.335574
0.352859
0.362992
0.225902
0.265837
0.305772
0.219941
0.327826
0.362992
0.285506
0.394583
0.479817
0.450611
0.539422
0.366569
0.294447
0.352859
0.477433
0.449419
0.388622
0.683665
0.527501
0.754595
0.658631
0.719428
0.703931
0.819564
0.662804
0.842810
0.834465
0.736713
0.930429
1.004934
1.341701
1.311898
2.251863
12.472868
36.948919
107.736588
199.907422
384.926796
552.209616
758.768916
875.453949
943.814516
907.997489
763.545036
606.379509
385.703444
244.213939
111.739635
50.323606
15.598536
9.520650
9.299517
11.584759
18.747449
26.699901
41.557550
55.476427
75.004697
86.636543
95.472932
95.340610
87.224841
75.832605
57.082772
44.556856
29.124618
19.835830
11.221766
7.684827
4.509687
3.854632
3.061891
2.873540
2.285838
2.607703
2.499819
2.609491
2.672672
2.447963
2.491474
2.267957
2.481937
2.331734
2.243519
2.345443
2.419949
2.542734
2.596974
2.372861
##ZVALUE=320
0.349879
0.209808
0.423789
0.492930
0.324845
0.327826
0.267625
0.412464
0.431538
0.350475
0.374913
0.273585
0.287890
0.354648
0.295639
0.529885
0.436902
0.409484
0.290871
0.339746
0.342727
0.395775
0.440478
0.365973
0.445843
0.401735
0.676513
0.550747
0.478625
0.610948
0.543594
0.639558
0.693798
0.516772
0.813603
0.825524
0.942945
1.021624
0.905991
0.945926
1.319647
1.409650
4.144907
23.434758
60.889721
159.375668
268.428922
456.200838
619.723797
810.906887
895.199776
900.615454
819.091797
628.597736
457.936525
255.311728
147.417784
63.773990
29.089451
10.249615
7.469654
7.986426
9.794831
15.609860
23.167729
36.901832
51.318407
69.255829
80.489516
88.842511
89.436769
83.979964
72.715878
55.717826
42.463541
26.679635
18.008947
10.535717
6.893873
4.284978
3.137589
2.752542
2.398491
2.305508
2.268553
2.068877
2.098680
1.855493
2.189875
2.004504
2.173781
2.146959
2.387762
2.484918
2.308488
2.191663
##ZVALUE=325
0.311732
0.259876
0.310540
0.223517
0.173450
0.282526
0.184774
0.331998
0.394583
0.192523
0.226498
0.222921
0.334978
0.405908
0.360608
0.330806
0.454783
0.307560
0.385642
0.377893
0.339746
0.277758
0.403523
0.423789
0.309944
0.422597
0.466704
0.408888
0.432730
0.315905
0.548959
0.484586
0.635982
0.553727
0.644922
0.663996
0.618696
0.794530
0.720620
1.009703
1.086593
0.905991
1.238585
1.147985
2.629757
14.705658
39.680600
108.940601
199.959874
379.145741
541.556478
752.241611
870.790482
928.610563
881.920457
698.910952
527.331829
312.893987
190.432668
84.078908
40.007830
13.139844
7.378459
6.023645
6.531477
9.503961
13.547540
22.926927
33.651590
50.294995
63.283443
75.560808
83.167553
83.249807
77.240467
64.276457
52.235723
37.659407
26.231408
15.171766
9.608865
5.342960
3.936887
2.882481
2.322793
2.100468
2.034903
1.860857
1.990795
1.924634
1.994967
2.020597
2.089739
1.923442
2.127886
2.128482
##ZVALUE=330
0.219941
0.311732
0.317693
0.138879
0.429749
0.166893
0.237823
0.188947
0.224710
0.223517
0.229478
0.187755
0.310540
0.241995
0.274777
0.397563
0.458956
0.370741
0.342727
0.368953
0.231862
0.262856
0.390410
0.354648
0.453591
0.338554
0.419617
0.424981
0.334978
0.418425
0.356436
0.589490
0.622869
0.689626
0.487566
0.795722
0.683665
0.639558
0.543594
0.754595
0.654459
0.850558
0.882745
0.955462
1.281500
1.181960
1.320839
6.152987
19.862652
70.025921
136.652589
283.828974
429.139733
649.963021
797.820687
912.416577
905.023813
770.381689
612.316728
394.663811
254.107714
117.301941
59.098601
20.897985
9.032488
5.422831
5.230904
5.999804
7.936954
13.928413
20.125508
31.789541
43.754578
60.625672
70.186853
77.947974
77.896714
71.203709
62.250495
46.323538
35.605431
22.886992
15.403628
9.411573
6.296635
3.633499
2.813935
2.254844
2.025962
1.991987
1.748800
1.806617
1.954436
1.972914
1.899600
1.888871
##ZVALUE=335
0.195503
0.303984
0.250936
0.276566
0.236630
0.167489
0.229478
0.149608
0.139475
0.269413
0.193715
0.339746
0.257492
0.466704
0.227690
0.348687
0.208616
0.404716
0.433922
0.364780
0.453591
0.397563
0.365973
0.408888
0.189543
0.333786
0.335574
0.348687
0.371933
0.549555
0.337958
0.322461
0.594854
0.585914
0.582933
0.478625
0.507832
0.467896
0.623465
0.654459
0.589490
0.593662
0.647902
0.760555
0.920892
0.976920
1.014471
1.206994
1.229644
2.729893
9.972453
42.262673
90.731978
208.188891
344.099998
561.101437
713.110566
853.770971
890.895724
814.761519
693.850517
470.101833
319.797993
164.454579
84.473491
28.443933
11.834502
5.696416
5.019903
4.692674
5.481839
7.927418
11.637807
20.379424
29.111505
43.030977
54.509640
65.326691
71.963668
71.488619
66.651702
55.772662
46.744943
34.074783
24.726987
15.660524
10.111928
5.881786
4.081726
2.723932
2.295971
2.200603
1.944900
1.980662
1.840591
1.971722
##ZVALUE=340
0.232458
0.305772
0.177622
0.067949
0.305772
0.120997
0.273585
0.362992
0.371933
0.198483
0.242591
0.261664
0.294447
0.225902
0.386834
0.208616
0.216961
0.309944
0.379682
0.351667
0.345707
0.453591
0.401735
0.371933
0.267625
0.225902
0.605583
0.470877
0.340939
0.428557
0.364780
0.437498
0.386834
0.448823
0.482798
0.526905
0.445843
0.526905
0.521541
0.631809
0.679493
0.536442
0.567436
0.720620
0.695586
0.743866
0.776649
0.820756
0.911951
1.019835
1.104474
1.543760
4.941821
24.134517
61.831474
158.251524
274.229646
474.929810
631.442666
800.009966
870.018005
843.359828
742.660761
550.349951
384.480953
199.066997
108.680725
42.703748
17.378926
6.038547
5.045533
4.595518
4.526973
5.400777
7.259846
12.305975
17.852783
28.624535
38.589835
52.835941
60.547590
67.409873
66.911578
62.571764
56.062937
44.017434
34.312606
23.154616
16.118884
9.505749
6.058812
3.792644
2.800822
2.491474
1.992583
1.888871
##ZVALUE=345
0.311732
0.177622
0.193715
0.205636
0.195503
0.264645
0.157952
0.299811
0.297427
0.211596
0.119805
0.161529
0.114441
0.248551
0.144839
0.156760
0.316501
0.304580
0.280738
0.308752
0.179410
0.184774
0.304580
0.279546
0.207424
0.358820
0.367761
0.366569
0.312924
0.383854
0.419617
0.419617
0.342727
0.358820
0.401735
0.459552
0.386834
0.474453
0.461936
0.329614
0.403523
0.518560
0.401735
0.568628
0.448823
0.569820
0.721812
0.786781
0.602603
0.640750
0.816584
0.939965
1.031756
1.158714
2.234578
13.524890
38.445592
106.914639
195.364952
368.451476
521.838665
720.478892
821.396708
857.246518
794.430971
615.227818
458.666682
266.801715
149.178505
58.047771
26.031733
8.798838
5.352497
4.716516
4.176497
4.267693
4.444718
6.289482
9.938478
16.911626
24.875998
37.334561
45.883656
56.261420
60.461760
62.253475
59.285760
52.190423
44.305921
33.320785
24.514794
15.398860
10.145903
5.831718
4.194975
2.956986
##ZVALUE=350
0.296831
0.260472
0.163913
0.133514
0.336766
0.233650
0.375509
0.370741
0.280738
0.245571
0.201464
0.220537
0.298619
0.307560
0.352859
0.141859
0.211596
0.195503
0.303984
0.335574
0.337958
0.152588
0.257492
0.260472
0.298619
0.344515
0.245571
0.325441
0.307560
0.356436
0.491738
0.265837
0.409484
0.216961
0.330806
0.355840
0.525713
0.247955
0.410676
0.397563
0.333786
0.394583
0.462532
0.459552
0.482798
0.504851
0.548959
0.627637
0.426769
0.747442
0.827909
0.841618
0.878572
0.698566
0.763535
0.999570
1.401901
6.498694
21.377802
71.483850
139.794946
285.490751
425.338745
618.580580
745.835900
836.060643
812.760592
671.447515
518.551469
315.330625
187.819004
82.866549
37.588477
10.818839
5.527735
4.355907
3.940463
3.651977
3.659725
4.245639
5.622506
9.704828
14.378428
23.177862
30.586720
41.374564
48.783422
55.012703
57.072639
54.826736
49.326420
39.767623
32.759905
22.643805
16.299486
10.357499
##ZVALUE=355
0.320673
0.250936
0.247955
0.202656
0.276566
0.189543
0.233650
0.127554
0.275970
0.240803
0.139475
0.419617
0.160933
0.325441
0.290871
0.294447
0.187755
0.431538
0.269413
0.341535
0.307560
0.332594
0.355840
0.302792
0.266433
0.257492
0.436902
0.376701
0.428557
0.352859
0.288486
0.324845
0.302792
0.448823
0.365973
0.376701
0.409484
0.562668
0.492930
0.407696
0.389814
0.375509
0.432730
0.277758
0.420809
0.477433
0.464916
0.632405
0.607967
0.740886
0.701547
0.720620
0.819564
0.671744
0.589490
0.881553
0.897646
0.842810
1.208782
3.173947
11.507869
45.292974
94.982982
208.087564
339.000821
545.578003
686.334968
807.328820
824.787617
715.866685
583.184958
386.184454
241.105556
104.035735
48.570633
14.939904
6.571412
4.358888
3.925562
3.474951
3.416538
3.361702
3.955960
5.119443
7.519722
12.768507
18.629432
27.585626
33.915639
43.394566
48.707724
52.046776
50.898790
46.079755
39.899945
30.696988
##ZVALUE=360
0.220537
0.216961
0.159740
0.130534
0.216961
0.275970
0.237823
0.351667
0.214577
0.369549
0.217557
0.296831
0.234842
0.204444
0.319481
0.228882
0.441670
0.162721
0.350475
0.306964
0.187755
0.481606
0.350475
0.257492
0.324845
0.308752
0.253916
0.338554
0.353456
0.368953
0.739694
0.424981
0.371933
0.390410
0.337958
0.407696
0.410676
0.410676
0.391603
0.527501
0.475645
0.441670
0.441670
0.624657
0.477433
0.419617
0.575781
0.540614
0.494719
0.757575
0.512600
0.646710
0.634789
0.508428
0.764728
0.762939
0.874996
0.820756
0.930429
0.990629
1.150966
1.734495
5.069971
23.484826
58.484674
150.945783
257.497430
437.282920
595.059991
753.256679
806.118846
766.260624
655.784607
448.501706
297.451019
142.139792
72.081685
25.662780
10.077953
4.644990
3.954768
3.541708
3.437996
3.309846
3.157854
3.043413
4.181862
6.182790
9.502769
15.529990
21.425486
30.875802
37.412643
44.387579
46.809912
46.901703
##ZVALUE=365
0.206828
0.144839
0.324845
0.078678
0.288486
0.298619
0.354648
0.312924
0.200868
0.195503
0.337958
0.135899
0.358820
0.208616
0.313520
0.397563
0.228882
0.352859
0.311732
0.317693
0.393987
0.350475
0.289679
0.290871
0.072718
0.352859
0.339746
0.444651
0.306964
0.318885
0.505447
0.480413
0.430942
0.331998
0.320673
0.392795
0.212789
0.389814
0.404716
0.512600
0.372529
0.425577
0.492930
0.460744
0.585914
0.419617
0.584722
0.413656
0.393987
0.534654
0.517964
0.525713
0.616908
0.622869
0.559688
0.661612
0.584722
0.707507
0.675917
0.922680
0.848770
0.992417
1.042485
1.325607
2.405643
13.041496
36.723614
100.505948
189.481974
363.649726
504.941940
673.561692
767.700672
777.669549
694.374442
510.331988
360.537767
195.775628
104.577541
37.027597
14.557838
5.326867
3.944635
3.680587
3.512502
3.078580
2.924800
2.838969
2.722740
3.458858
4.979968
8.554459
12.496710
19.410849
25.848746
33.276677
##ZVALUE=370
0.162721
0.118613
0.203848
0.216961
0.255704
0.186563
0.410676
0.349879
0.311732
0.308752
0.306964
0.063777
0.240803
0.258684
0.277758
0.252724
0.257492
0.218749
0.357628
0.285506
0.333786
0.315905
0.220537
0.197887
0.259876
0.211596
0.359416
0.264645
0.414848
0.321865
0.321865
0.251532
0.278950
0.457764
0.440478
0.314713
0.307560
0.306964
0.416636
0.559688
0.462532
0.366569
0.367761
0.352859
0.469685
0.539422
0.551939
0.455976
0.322461
0.498891
0.540614
0.644922
0.533462
0.499487
0.539422
0.484586
0.641942
0.619888
0.606775
0.583529
0.712872
0.781417
0.836849
0.896454
0.917912
1.056790
1.737475
5.553961
29.242635
71.431994
171.082020
278.131962
462.856889
610.197783
755.407810
796.383023
735.389590
609.007478
400.842428
258.466601
118.251443
59.120655
21.669865
8.989573
4.210472
3.281832
3.169775
2.837777
2.629757
2.611876
2.492666
2.569556
3.250837
4.360676
6.982684
10.338426
##ZVALUE=375
0.120997
0.311732
0.318885
0.369549
0.159740
0.290871
0.100732
0.205636
0.114441
0.257492
0.092983
0.176430
0.299811
0.368953
0.212789
0.272989
0.320673
0.371933
0.273585
0.355840
0.276566
0.385642
0.147820
0.272989
0.407696
0.314713
0.321865
0.298619
0.270605
0.365973
0.323653
0.325441
0.400543
0.308752
0.364780
0.208616
0.474453
0.399947
0.340939
0.326633
0.467896
0.365973
0.396967
0.378489
0.295639
0.475645
0.369549
0.590682
0.304580
0.578761
0.537634
0.406504
0.386834
0.473857
0.482798
0.513792
0.476837
0.495911
0.553727
0.536442
0.643730
0.589490
0.768900
0.644922
0.687838
0.779629
0.862479
1.081824
1.004934
3.563762
12.307763
44.851899
98.360777
225.544572
357.086658
555.026531
681.865811
774.628520
770.323873
653.481483
514.353514
315.781832
193.643570
87.137818
42.256713
13.289452
5.534887
3.235936
3.199577
2.704859
2.933741
2.300739
2.383590
2.395511
2.377629
2.788901
##ZVALUE=380
0.131726
0.117421
0.275970
0.228882
0.229478
0.348687
0.049472
0.369549
0.204444
0.004768
0.260472
0.235438
0.115633
0.071526
0.200868
0.361800
0.229478
0.412464
0.322461
0.320673
0.204444
0.193715
0.293851
0.181794
0.193715
0.264645
0.209808
0.285506
0.360608
0.222921
0.354648
0.389814
0.296831
0.311732
0.295639
0.260472
0.396967
0.281930
0.419617
0.507832
0.369549
0.462532
0.366569
0.344515
0.327826
0.321865
0.245571
0.344515
0.291467
0.379682
0.338554
0.459552
0.418425
0.466704
0.427961
0.445843
0.422597
0.400543
0.481606
0.375509
0.514984
0.452995
0.445843
0.434518
0.528693
0.567436
0.614524
0.854731
0.919700
0.949502
1.236796
1.858473
6.194711
30.411482
73.052645
174.254775
287.982821
474.838614
624.185801
764.423013
788.412690
699.959993
574.079752
401.223898
268.271565
128.876567
63.924789
21.703839
8.646846
3.666878
3.148913
2.811551
2.646446
2.596974
2.470613
2.360940
##ZVALUE=385
0.177622
0.290871
0.231862
0.059605
0.277758
0.278950
0.195503
0.168681
0.181794
0.198483
0.277758
0.218749
0.318885
0.408888
0.189543
0.070930
0.206828
0.207424
0.117421
0.279546
-0.011921
0.342727
0.315905
0.131726
0.323653
0.197887
0.188947
0.174642
0.357628
0.433922
0.335574
0.426769
0.487566
0.447631
0.328422
0.404716
0.325441
0.360608
0.305772
0.422597
0.481606
0.385642
0.498891
0.358820
0.395775
0.419617
0.472665
0.455976
0.444651
0.473857
0.456572
0.352859
0.335574
0.344515
0.304580
0.459552
0.490546
0.489950
0.582933
0.498891
0.602603
0.433922
0.394583
0.480413
0.530481
0.577569
0.487566
0.770688
0.790954
0.853539
1.014471
0.951886
1.152754
1.393557
3.074408
17.336607
45.675635
118.158460
216.074586
398.421884
553.084612
719.586611
781.281590
767.681003
682.650805
500.216484
352.435708
190.259814
104.159713
40.874481
15.935898
4.798770
3.171563
2.756715
2.673864
2.949834
##ZVALUE=390
0.177622
0.254512
0.322461
0.143647
0.228882
0.158548
0.237823
0.362992
0.207424
0.149608
0.169873
0.271797
0.204444
0.164509
0.398755
0.196695
0.294447
0.357628
0.283718
0.253916
0.151992
0.170469
0.160933
0.159740
0.179410
0.320673
0.283718
0.295639
0.587702
0.375509
0.293851
0.403523
0.367761
0.473857
0.471473
0.498891
0.424981
0.515580
0.598431
0.442863
0.492930
0.609756
0.585914
0.554919
0.476837
0.616908
0.542998
0.517964
0.506639
0.493526
0.397563
0.496507
0.464916
0.382662
0.405908
0.483990
0.371933
0.523925
0.465512
0.393987
0.461936
0.505447
0.412464
0.431538
0.617504
0.576973
0.506639
0.660419
0.908971
0.682473
0.858903
0.851750
0.858903
0.936985
1.003742
1.117587
1.940727
6.943941
33.611655
77.354908
183.695555
299.729705
475.138426
613.199472
752.453804
792.330503
728.718638
616.529584
422.585011
283.160806
140.902996
70.379972
23.352504
8.986592
3.328919
2.886653
##ZVALUE=395
0.260472
0.127554
0.224710
0.254512
0.160933
0.224710
0.200868
0.315905
0.075698
0.182986
0.230670
0.107884
0.264645
0.129938
0.166893
0.235438
0.269413
0.063777
0.275970
0.235438
0.192523
0.285506
0.268817
0.289679
0.296831
0.256896
0.218749
0.341535
0.362992
0.280738
0.463724
0.349879
0.312924
0.442863
0.575781
0.471473
0.504851
0.543594
0.476837
0.603795
0.669956
0.653863
0.587702
0.495911
0.519753
0.683665
0.559688
0.424981
0.478625
0.504851
0.541806
0.540614
0.477433
0.482798
0.621676
0.516772
0.341535
0.518560
0.414848
0.378489
0.489950
0.599623
0.483990
0.452995
0.529885
0.644922
0.642538
0.640750
0.703931
0.681877
0.725985
0.887513
0.792742
0.839829
0.745654
0.930429
0.875592
0.920892
1.334548
3.631711
20.582676
51.887631
127.197504
219.021440
389.266610
534.494519
699.346662
773.488879
768.000484
683.064461
503.275990
353.111625
184.969902
97.628832
34.954548
14.819503
##ZVALUE=400
0.279546
0.412464
0.243783
0.278950
0.188947
0.397563
0.267625
0.115633
0.159740
0.097752
0.158548
0.166893
0.131726
0.081658
0.220537
0.283718
0.164509
0.261664
0.307560
0.092983
0.269413
0.254512
0.337958
0.157952
0.168681
0.233650
0.444651
0.266433
0.389814
0.186563
0.379682
0.289679
0.234842
0.395775
0.405908
0.358820
0.581741
0.557899
0.575781
0.583529
0.657439
0.589490
0.670552
0.546575
0.745654
0.717640
0.508428
0.590682
0.533462
0.426769
0.530481
0.419617
0.457764
0.458956
0.660419
0.541806
0.404716
0.526905
0.607967
0.505447
0.320673
0.537634
0.446439
0.364780
0.520945
0.629425
0.637770
0.456572
0.679493
0.784993
0.828505
0.774860
0.809431
0.802875
0.804663
0.759959
0.770688
0.638962
0.818968
1.016855
1.053810
1.901984
10.126829
29.296875
84.916949
160.477757
308.542848
446.836948
633.230805
732.621551
774.020553
719.481707
562.413931
413.358808
233.946443
137.063861
##END
