##TITLE=WAT3
##FORMAT=SPECTACLE-ASCII V-1.2
##DATA TYPE=ULTRAVIOLET SPECTRUM
##SECOND TYPE=ULTRAVIOLET SPECTRUM
##DATE=01/24/18
##TIME=11:57:06
##SPECTROMETER/DATA SYSTEM=SPECTACLE
##XUNITS=NM EM
##YUNITS=ENERGY
##YFACTOR=1
##FIRSTX=220
##LASTX=410
##NPOINTS=96
##3DDATA=Equidistant
##ZUNITS=NM EX
##FIRSTZ=210
##LASTZ=400
##ZPOINTS=39
##XYDATA=(Y..Y)
##ZVALUE=210
17.016530
14.256835
12.490749
11.046529
10.936856
8.778572
9.145737
7.685423
5.790591
5.332828
3.516674
2.974868
2.028942
2.298951
2.046824
2.505779
2.399683
1.936555
2.454519
2.537966
2.551675
2.472997
2.622604
3.696680
4.276633
4.465580
4.200935
5.876422
6.480813
6.717443
8.128881
7.726550
8.796453
8.316636
7.662773
8.453727
8.476973
7.907748
7.806420
7.504821
8.438826
7.958412
7.085800
7.528663
7.151961
6.396770
6.815791
6.751418
6.646514
5.661845
5.993843
6.707907
5.931854
6.499887
5.935431
6.142855
7.076859
5.907416
6.031990
7.022619
5.791783
5.694628
5.168915
6.076694
6.095767
5.579591
5.914569
7.930994
7.886887
8.455515
8.797646
10.562539
10.748506
11.926889
13.626814
14.767647
14.630556
16.632676
14.487505
13.059974
11.880994
10.026693
8.837581
6.793737
6.671548
5.966425
5.075932
5.854964
6.287694
5.995631
8.675456
11.437535
15.702844
18.097758
22.516847
29.105544
##ZVALUE=215
38.790703
38.699508
33.069849
24.421811
20.371675
18.419623
17.565489
16.789436
15.271902
14.469624
11.833906
8.655787
6.020665
4.708767
3.419518
2.921820
2.343655
2.165437
2.141595
2.835989
2.815723
3.164411
3.246665
4.042983
3.460646
4.954934
5.014539
6.635785
6.825924
8.418560
8.854866
9.768605
10.165572
10.230541
9.741783
9.541512
10.435581
9.198785
9.326935
9.145737
9.138584
8.687973
8.226633
7.463694
8.286834
7.543564
8.158684
7.482767
7.125735
7.490516
7.504821
7.212758
8.252859
7.349849
7.288456
7.855892
7.301569
8.109808
7.892847
6.568432
7.191896
6.612539
6.229877
6.671548
6.943941
6.980896
6.510615
7.044673
7.473826
8.383989
8.272529
9.531975
10.931492
11.159778
12.319684
12.350678
12.049675
12.428761
10.783672
9.778738
10.086894
7.843971
7.876754
6.001592
5.637407
4.988909
5.124807
4.117489
4.188418
4.181862
3.282428
4.383922
4.913807
5.566478
7.130504
9.320974
##ZVALUE=220
80.818534
84.561706
82.083941
73.475838
61.171651
46.159625
38.153529
30.574799
28.842688
27.265549
25.076866
24.602413
23.448467
18.955469
14.835596
10.314584
6.762743
4.658699
3.572702
2.544522
2.875924
2.770424
3.283620
4.315972
4.650950
6.238818
6.344914
7.385612
8.424520
9.422898
9.170771
10.683537
10.456443
11.004806
11.304617
10.109544
10.835528
10.319948
10.504723
10.347962
10.537505
9.478927
9.381771
8.354783
8.364916
7.787943
8.748770
10.063648
8.877516
9.766817
8.993745
10.141730
9.875894
9.711981
10.397434
8.103848
10.386705
9.050965
9.064674
9.731650
9.071827
8.217692
8.247495
8.143783
8.687973
7.289648
7.626414
7.883906
7.507801
8.274913
9.302497
9.241700
10.177493
11.358857
12.114644
11.944771
11.173487
10.057688
9.607673
9.707808
9.800792
8.210540
7.734895
6.760955
5.842447
5.280972
5.228519
4.319549
4.302859
3.737807
4.373789
4.333854
4.455447
4.287958
3.907681
3.708601
##ZVALUE=225
94.289780
99.849701
116.073489
135.329962
136.112571
121.583939
113.077760
86.453557
66.597462
53.326488
43.329000
40.830970
40.344596
42.483807
38.542747
35.184622
28.612614
20.767450
15.966892
8.325577
6.017685
3.560781
3.919601
4.187822
4.548430
4.782677
4.704595
6.930828
7.120967
7.244945
6.872416
8.746982
8.834600
9.043813
11.137724
9.440780
9.540915
9.963512
9.413958
8.752942
9.308457
9.595752
9.466410
8.772612
9.481907
8.980632
9.651780
8.858442
8.652806
9.955764
11.015534
10.270476
11.604428
11.397600
9.897947
12.174845
10.923743
10.823607
11.317730
10.391474
10.777712
9.934902
11.308789
10.271668
8.924603
10.761619
9.673834
9.389520
8.870959
9.409785
9.578466
9.833574
10.483861
10.987520
10.106564
12.283921
11.149645
10.255575
9.458661
8.674860
8.420944
7.739663
7.364750
6.096959
5.648732
5.346537
5.195737
4.975796
4.887581
4.816651
4.875660
4.707575
4.071593
4.127622
4.577637
4.455447
##ZVALUE=230
59.531927
65.164566
97.512603
151.216984
189.190507
227.883458
237.929821
228.766799
202.975869
163.923502
110.367537
86.745620
65.245628
62.583685
64.593554
68.424940
66.464543
58.159828
51.662922
40.262938
30.791759
18.897653
13.449788
9.151697
5.255938
4.726648
5.219579
5.009770
5.520582
5.939603
4.766583
6.211996
6.710887
6.250739
7.080436
7.358789
8.563995
8.476973
8.407831
7.601976
8.623600
8.652806
8.301735
10.247827
9.086728
8.395910
9.562969
8.346438
8.971691
10.045767
9.656549
10.609627
11.494756
11.683702
11.343956
11.000633
10.753870
11.260509
10.995865
11.250973
11.552572
10.150671
10.865927
10.753870
11.244416
8.519888
9.689927
10.283589
9.551644
10.735989
10.556579
11.239648
12.838840
10.929704
11.354685
11.754632
11.423826
11.559725
9.853840
8.320808
9.214878
7.547736
7.563829
7.023811
6.509423
5.893707
5.413890
5.505681
5.389452
5.472898
5.065799
5.547404
5.791783
4.655719
5.083680
4.735589
##ZVALUE=235
15.505552
18.289685
44.516921
77.609420
144.879818
200.682878
277.890563
342.147946
366.601944
366.516709
310.410857
257.428885
197.247863
132.632852
103.179812
84.102750
83.955526
90.695620
96.189976
97.855926
87.350607
75.463653
53.190589
38.998723
24.407506
17.297864
10.115504
8.254647
7.083416
6.857514
7.345676
6.412864
6.644726
6.250739
6.561875
7.020831
8.072853
7.536411
7.880926
8.497834
8.964539
7.804632
9.176731
8.540750
7.932782
8.705854
9.991527
8.072853
9.085536
8.983612
9.888411
10.372996
10.579824
10.744929
9.607673
11.157990
11.224747
11.515617
10.396838
9.548664
10.520816
9.837747
9.851456
9.629726
10.919571
8.825660
9.837747
10.389686
9.834766
10.441542
10.551810
11.986494
12.084842
13.179779
12.432933
12.882948
11.550784
10.434985
10.554790
10.322928
9.049773
8.860826
8.326769
8.294582
6.768703
7.066727
7.755756
6.508827
6.134510
6.546974
5.516410
6.217957
6.006956
5.806684
6.626844
6.215572
##ZVALUE=240
1.466870
1.693964
5.923510
13.354421
38.936734
72.559714
148.711801
218.671560
329.645872
402.108431
459.468961
461.397767
426.712632
341.227651
273.709893
178.942680
132.288933
102.297664
95.724463
106.321573
112.064481
114.302635
115.638971
103.648901
80.760717
60.803890
43.611526
31.153560
20.471811
14.025569
10.136962
7.964969
7.771850
7.712841
8.244514
7.151961
7.978678
8.161664
8.066893
6.847978
8.378625
8.041859
8.536577
8.451939
8.430481
9.979606
9.906888
9.294748
9.188652
9.969473
9.189844
9.112954
9.184480
9.270906
10.023713
9.710789
9.228587
9.232759
8.637905
8.873940
8.827448
9.171963
9.067655
8.446574
9.495616
9.071827
9.189844
8.981824
10.330677
9.520650
10.557771
11.606812
11.834502
10.859966
12.551546
11.692643
10.667443
10.543466
9.967685
9.097457
10.617971
8.564591
8.191466
7.470846
7.244945
6.850958
6.686449
6.456971
6.332994
6.156564
6.742477
6.383657
5.862713
5.567670
5.157590
5.833507
##ZVALUE=245
1.129508
1.240969
1.136661
1.267791
3.474951
10.003448
30.287504
60.335398
137.722492
218.866467
344.143510
433.396697
497.857928
545.849800
515.600443
444.082618
357.347727
247.441530
176.841617
116.022825
94.457865
98.312497
114.777684
121.653676
128.811002
120.254755
110.542774
92.197657
68.592429
53.555965
37.746429
22.283792
15.860796
11.236668
9.207726
9.259582
8.994937
8.706450
7.914901
9.159446
8.500814
8.723736
9.494424
8.817911
9.114742
8.611679
9.221435
9.115934
8.689761
8.425713
9.600520
9.167790
9.087920
8.540750
7.299781
8.158684
8.029938
7.875562
9.129643
8.830428
8.106828
8.009672
7.930994
8.030534
8.813739
7.590652
8.005500
8.020997
7.900596
8.279681
8.124709
8.760691
10.213852
10.389686
9.945631
10.907650
8.960962
9.498596
9.535551
8.133650
7.683635
7.036924
7.015467
6.067753
6.322861
6.248951
5.569458
5.418658
5.706549
5.698800
5.233884
5.247593
4.742742
4.976988
4.950762
5.535483
##ZVALUE=250
1.072884
0.880957
1.302958
0.919700
1.296997
1.608729
2.183914
5.296469
20.836592
49.329996
120.146871
201.221704
301.234722
435.274839
522.233844
603.581667
604.362488
537.803769
461.327434
326.461792
229.278803
152.429938
101.915598
92.288852
102.359653
116.823912
132.750869
138.212442
131.710768
121.192932
102.291703
77.886581
57.813525
35.286546
24.907589
14.790893
11.521578
9.895563
8.832812
9.334683
9.354949
9.418726
8.678436
9.186864
8.854866
8.350611
9.396672
8.873940
8.338690
8.841753
8.377433
9.178519
9.204745
8.261800
8.451939
7.991791
7.884502
7.647872
7.624626
7.477999
7.154942
7.097721
7.561445
7.335544
7.322431
7.104874
6.513596
6.888509
7.260442
7.818937
7.095933
7.898808
7.973909
8.294582
8.582473
8.198619
7.892847
7.305741
7.318854
6.690621
6.352663
5.826950
5.425811
5.029440
5.062819
4.893541
5.454421
4.961491
4.636645
4.991889
4.455447
4.109740
4.378557
4.347563
4.551411
4.540682
##ZVALUE=255
1.085997
0.822544
0.961423
0.966787
0.878572
0.860691
1.124740
0.920892
1.349449
3.077984
14.119744
35.426617
76.886415
166.041851
258.162618
410.322547
520.677567
626.073480
667.959452
636.973977
555.828810
447.557569
285.543799
189.812779
112.366676
86.662769
86.488724
101.811886
124.939680
133.482814
143.359900
139.170885
129.222870
98.574758
79.122782
53.972602
38.957000
22.388697
16.420484
11.484623
9.385943
9.194613
9.058714
8.785725
8.979440
8.336902
8.894801
8.808970
8.386970
8.015633
8.059740
8.340478
8.516908
8.583665
8.556843
7.960796
7.644892
7.463694
7.876754
7.069707
7.103682
7.237792
6.432533
6.379485
6.599426
5.740523
5.879998
6.119609
6.175637
6.167889
6.461740
6.750822
6.680489
7.358789
6.932616
7.069707
6.226897
6.007552
6.127954
5.250573
5.522966
4.618764
4.253983
4.376769
4.473925
3.878474
3.601909
3.540516
3.938675
3.816485
3.664494
3.452897
3.333688
3.610849
3.588796
3.494620
##ZVALUE=260
0.777841
0.739694
0.830889
0.896454
0.994802
0.966787
0.904799
0.928640
1.295805
1.164675
1.236796
1.873970
4.904866
21.911860
52.922964
126.723647
213.002563
362.511873
483.583808
636.176467
715.906620
727.194548
647.401810
537.787676
362.429619
251.417756
148.147941
98.497868
73.291659
78.780651
96.101761
121.197701
135.126710
146.461725
142.326951
126.261711
107.567906
78.342557
59.435964
36.060810
25.205612
16.049743
11.738539
9.411573
8.714795
8.576512
9.065866
8.523464
8.356571
8.818507
7.977486
8.646846
8.593798
8.717775
8.195639
7.767677
7.578731
7.273555
7.015467
7.405877
7.232428
6.450415
6.145835
6.190538
5.597472
5.532503
5.958676
5.489588
5.357862
5.524755
5.402565
5.648732
5.879998
5.653501
5.625486
5.557537
5.828738
5.167723
4.851818
4.244447
4.299879
4.170537
4.085898
3.477931
3.611445
3.491640
3.073812
3.400445
2.870560
3.198981
3.200769
3.317595
3.291965
2.965927
2.845526
3.002882
##ZVALUE=265
0.672936
0.750422
0.750422
0.893474
0.967979
0.892878
1.199841
0.957847
0.882745
1.081824
0.982881
1.351833
1.135468
1.303554
2.933741
14.936924
36.855936
98.521709
176.140666
334.880948
466.539860
596.037507
741.624832
779.599547
728.515983
623.948574
470.182896
330.699682
185.688734
119.549632
74.108839
64.725876
77.003837
106.349587
123.704672
142.206550
149.031878
142.636895
127.574801
102.927685
81.380606
55.416822
38.821697
22.872686
16.600490
11.297464
9.818673
9.436607
9.794831
9.451509
9.837747
9.032488
8.988976
8.612871
8.161664
9.056926
8.056760
8.163452
8.026958
7.146597
7.564425
7.156730
6.673932
6.111860
5.903840
5.352497
5.123615
4.959702
5.289912
5.316734
5.466938
5.941987
5.539656
5.341768
5.350709
5.295873
5.067587
4.829764
4.563928
4.068613
4.272461
3.867745
3.206730
3.123879
3.126860
3.046989
3.419518
2.673864
2.889633
2.816916
3.108978
2.855659
2.953410
2.919436
2.752542
2.757907
##ZVALUE=270
0.809431
0.578761
0.811815
0.831485
0.654459
0.717640
0.661612
0.869632
0.896454
0.744462
1.068711
1.073480
0.883937
1.155734
1.143813
1.432896
1.708865
6.477833
19.710660
64.382553
132.036805
239.904523
426.239967
581.915975
747.396946
808.230639
808.628798
741.508007
585.463643
442.013741
305.301547
162.622929
97.150803
58.007836
58.163404
80.615878
102.277994
127.980709
141.313672
149.311423
144.760609
126.011968
106.725693
79.881549
60.852766
35.867691
25.853515
17.619729
13.304949
10.340810
10.225773
9.727478
10.005832
9.790659
8.869767
9.149909
9.499788
8.495450
8.484721
7.911921
8.010864
6.820560
6.961823
6.780624
6.380677
5.799532
5.738735
5.204678
5.592704
5.674958
5.397797
5.666614
5.324483
5.237460
5.308986
5.444884
4.570484
4.567504
4.162788
4.090667
3.931522
3.467798
3.433824
3.319979
3.358722
2.824664
2.910495
2.937913
2.700686
2.492666
2.471805
2.760887
2.814531
2.422929
2.900958
2.745986
##ZVALUE=275
0.679493
0.787973
0.793934
0.737906
0.711679
0.704527
0.757575
0.826716
0.696778
0.698566
0.697970
0.878572
0.950694
0.944734
1.023412
0.970960
1.258850
1.252890
1.374483
3.234744
11.472702
34.363866
103.192925
197.848678
376.629829
517.222881
690.114498
794.912577
844.633579
799.176693
707.925558
526.765585
378.795862
204.014778
120.752454
60.304999
47.946572
57.516694
76.079965
102.990866
123.849511
143.738985
147.730708
140.000582
126.786828
101.551414
81.886649
56.808591
41.093826
25.463700
18.852949
12.631416
10.760427
10.009408
9.585619
9.749532
8.629560
8.236766
8.260608
8.519888
7.932782
7.552505
7.449985
6.843805
6.771684
6.632805
6.233454
6.010532
5.705953
5.596876
5.219579
5.297661
5.706549
5.394816
5.530715
5.070567
4.721880
4.439950
4.161596
3.924966
4.000664
3.406405
3.477931
3.358722
3.062487
3.113747
3.383756
3.126860
3.327727
2.977848
2.824664
2.697706
2.733469
2.656579
2.578497
2.422929
##ZVALUE=280
0.658631
0.604987
0.639558
0.622869
0.723600
0.619888
0.725985
0.541806
0.725985
0.908971
0.840425
0.779629
0.862479
0.795722
0.927448
0.753999
0.936985
0.936985
0.983477
1.231432
1.361966
1.630783
6.910563
24.429560
80.888867
150.585771
291.690826
434.670448
640.141964
765.628815
800.534487
864.159465
790.801644
611.360669
457.051992
263.317823
157.714486
73.591471
43.740869
41.455626
53.171515
77.295899
99.284649
124.058723
137.296915
142.272711
138.510466
120.828748
102.574825
78.193545
58.794618
37.783980
26.253462
17.114878
12.141466
9.472966
8.915663
8.188486
7.766485
7.543564
7.308722
6.940961
6.643534
6.682873
6.502867
6.255507
5.942583
5.566478
5.501509
5.571842
5.474687
5.450845
5.517602
5.248785
5.233884
5.030632
4.757643
4.715919
4.283786
3.893971
3.831983
3.737807
3.223419
3.359914
3.367662
3.294945
3.096461
2.738833
2.921820
2.931952
2.829432
2.993941
2.429485
2.625585
2.803802
2.673864
##ZVALUE=285
0.550747
0.524521
0.594854
0.514984
0.397563
0.590682
0.476837
0.612736
0.575781
0.661612
0.625849
0.632405
0.616908
0.749826
0.585914
0.947714
0.941753
0.995994
0.935793
0.895858
1.212955
1.123548
1.296997
1.461506
3.751516
12.758970
45.561790
93.853474
208.868980
331.104994
527.669787
675.255656
832.716823
890.128016
849.198699
746.418834
544.208884
382.554531
207.929611
120.462775
53.506494
32.991767
34.889579
47.252774
71.479678
91.449618
115.156770
128.249526
136.986971
136.091709
119.258761
104.257464
76.032877
57.679415
37.999749
25.779605
14.680624
11.045933
7.898808
7.338524
6.365776
6.221533
6.255507
5.742908
5.778670
5.411506
5.330443
5.581975
5.193949
5.474687
5.398989
5.469918
5.143881
4.908442
4.929900
4.997849
4.502535
4.515648
4.097819
3.868937
3.792644
3.680587
3.647804
3.540516
3.256798
3.231764
3.045797
2.950430
3.001690
2.819896
2.892613
2.895594
2.808571
2.849698
2.712607
2.886653
##ZVALUE=290
0.733733
0.633597
0.504851
0.462532
0.528693
0.542998
0.485778
0.694990
0.533462
0.560880
0.643730
0.563860
0.654459
0.606775
0.624657
0.772476
0.618696
0.897646
0.781417
0.756979
0.769496
1.023412
1.181960
1.099706
1.212955
1.492500
1.716614
4.929900
23.433566
59.493780
117.543936
256.413817
399.928689
615.000725
751.841664
864.077806
865.066648
763.159990
634.421706
433.077812
286.520720
143.576860
78.206658
32.213926
23.080707
30.700564
44.170618
64.753890
85.263848
109.226704
123.696923
130.839944
130.009651
116.605759
99.014640
73.767900
54.019690
34.732819
22.907853
14.224648
9.332895
6.513596
6.020665
5.111694
5.079508
5.061626
4.993677
5.024672
5.155802
5.097985
5.338788
5.240440
5.250573
4.844666
4.984736
4.825592
4.621744
4.070997
3.960729
3.965497
3.625751
3.566742
3.372431
3.255606
3.187656
3.430843
3.322959
3.243685
3.097653
3.027916
2.862811
2.653599
2.733469
2.880692
2.699494
2.843738
##ZVALUE=295
0.545979
0.336766
0.591874
0.641942
0.654459
0.461936
0.521541
0.643730
0.557899
0.711679
0.482798
0.563860
0.471473
0.654459
0.694990
0.695586
0.667572
0.783801
0.676513
0.599623
0.767708
0.707507
0.988841
0.941753
1.124740
1.189709
1.310706
1.397729
1.599789
2.368689
12.097955
34.505725
99.742413
187.837481
361.536741
514.466763
709.169507
811.337829
867.316723
821.419954
671.963692
530.871749
334.007740
204.258561
95.846653
46.979785
20.619631
17.712712
27.530789
39.681792
62.176585
79.666972
101.952553
115.031004
122.855902
121.934414
107.618570
93.622804
71.354508
53.388476
33.929944
22.589564
13.909936
9.123683
5.734563
4.991889
4.315972
4.292727
4.624724
4.514456
4.488826
4.618764
4.495978
4.704595
4.810691
4.682541
4.290938
4.180670
4.132986
3.947616
3.553629
3.481507
3.498793
3.349781
3.675818
3.116727
3.285408
3.185868
3.038645
3.128648
3.077984
2.867579
2.949834
2.811551
2.771616
2.599955
##ZVALUE=300
0.512600
0.470877
0.634789
0.540614
0.525713
0.551939
0.476837
0.660419
0.656843
0.591874
0.464916
0.751615
0.470877
0.721812
0.528693
0.710487
0.652671
0.555515
0.596642
0.682473
0.611544
0.719428
0.866652
0.722408
0.802875
0.916719
1.036525
0.978708
1.213551
1.091957
1.419783
1.579523
5.218983
18.852949
65.044761
128.336549
269.854665
417.093039
618.454814
747.034550
854.537487
852.823853
741.720796
612.258911
408.066511
266.065001
134.739876
72.942972
28.302670
14.896989
15.616417
22.515655
37.257671
52.039623
74.774623
92.079639
108.955503
116.094947
114.690661
107.170939
87.151527
71.582794
50.059557
36.044717
20.635724
13.946891
8.231997
5.636811
4.692674
4.604459
4.561543
4.387498
4.485846
4.494786
4.200935
4.082918
4.242659
4.162788
3.925562
3.751516
3.529787
3.309846
3.241897
3.386736
3.120899
3.317595
2.885461
2.992749
2.886653
2.876520
2.776980
2.813935
2.851486
2.680421
2.683997
2.829432
##ZVALUE=305
0.398755
0.273585
0.341535
0.365973
0.371933
0.329614
0.433922
0.576973
0.626445
0.713468
0.573993
0.551939
0.654459
0.471473
0.548959
0.475645
0.589490
0.579953
0.642538
0.500679
0.534654
0.638962
0.606775
0.741482
0.782609
0.819564
0.780821
0.795722
0.933409
0.955462
1.013875
1.049638
1.313686
1.397729
2.047420
12.182593
35.296679
103.387833
191.086531
357.365012
510.738492
701.557994
809.803009
852.472782
799.043775
638.479590
498.430729
319.333673
200.181603
90.725422
45.216680
16.476512
11.196733
14.666915
21.684766
36.095977
50.575733
71.334839
87.896585
103.825927
109.910965
109.265447
101.041794
84.372759
68.125725
46.301484
33.752918
20.300746
12.511611
7.688999
5.564690
4.746914
4.266500
4.185438
3.857613
3.655553
3.876686
3.503561
3.651977
3.334880
3.437996
3.168583
3.310442
3.169775
3.131628
2.681613
2.789497
3.065467
2.712607
2.882481
2.657771
2.608895
2.474785
2.630949
2.371669
2.609491
##ZVALUE=310
0.399947
0.415444
0.351667
0.407696
0.365973
0.348687
0.525713
0.567436
0.630617
0.410676
0.345707
0.499487
0.606775
0.560880
0.513792
0.506639
0.664592
0.585914
0.622869
0.714660
0.485778
0.545979
0.576973
0.694990
0.785589
0.802875
0.691414
0.745654
0.786781
0.950694
0.986457
0.904799
1.066923
1.088977
1.134872
1.194477
1.574755
3.952980
22.080541
54.543614
139.429569
242.588520
437.230468
588.931441
766.395926
841.848850
835.753679
750.722885
576.916933
424.849987
249.235630
148.027539
64.122677
30.411482
12.034774
9.348989
12.878776
18.193722
29.961467
42.734742
62.146783
76.880455
93.622804
102.909803
103.018880
97.293854
81.607699
66.590905
45.942664
31.742454
18.887520
12.581944
7.828474
5.574822
4.044771
3.747940
3.174543
2.989769
2.976656
2.739429
2.792478
2.748966
2.744794
2.636909
2.664924
2.712607
2.626777
2.707839
2.530813
2.520680
2.313852
2.247691
2.310872
2.219677
2.345443
2.327561
##ZVALUE=315
0.444651
0.429749
0.382662
0.484586
0.416636
0.479817
0.384450
0.504851
0.347495
0.453591
0.539422
0.558496
0.419617
0.515580
0.572801
0.459552
0.470877
0.530481
0.484586
0.542998
0.509620
0.416636
0.372529
0.515580
0.642538
0.483990
0.646710
0.665784
0.739694
0.802875
0.789762
0.743866
0.837445
0.846982
1.090765
1.135468
1.166463
1.144409
1.392961
2.146959
10.625720
32.183528
96.653700
179.436803
346.929431
499.708652
685.904622
788.193941
828.395486
781.978965
641.217828
501.680970
310.588479
195.291638
90.813637
43.739676
14.134645
8.132458
8.231997
10.698438
17.539859
25.797486
41.672587
54.714680
74.431896
87.168813
96.134543
96.715689
88.061690
77.040792
59.029460
45.984983
29.479861
19.611716
11.410713
7.721782
4.507899
3.739595
2.809763
2.676845
2.742410
2.390742
2.169609
2.224445
1.967549
2.138615
2.222657
2.114773
2.285838
2.325773
2.264977
2.169609
2.285838
1.855493
2.019405
1.917481
##ZVALUE=320
0.365973
0.342727
0.383854
0.404716
0.509620
0.376701
0.466704
0.416636
0.327826
0.525713
0.482798
0.433922
0.518560
0.383854
0.388622
0.594854
0.372529
0.518560
0.532866
0.617504
0.596642
0.500679
0.501871
0.558496
0.498891
0.430942
0.652671
0.723600
0.665784
0.765920
0.719428
0.629425
0.557899
0.769496
0.790954
0.866652
0.993609
1.032948
1.067519
1.181960
1.276731
1.509786
4.052520
20.345449
54.405928
143.672824
245.451927
418.890715
565.199852
734.597445
806.519985
802.936554
727.615952
558.818579
409.194827
228.070617
131.433010
56.072474
25.574565
9.521842
6.811619
7.610917
9.478927
15.605688
23.375750
37.580729
50.996542
68.517923
80.901980
90.837479
91.410875
84.798932
74.833632
57.079792
43.273568
27.456880
18.844604
10.463595
6.709695
3.914833
2.942681
2.480745
2.155900
1.943707
2.131462
1.957417
1.898408
2.086759
1.844764
1.930594
1.934767
1.857877
2.029538
1.758933
1.836419
1.868606
##ZVALUE=325
0.232458
0.143647
0.290871
0.294447
0.260472
0.203848
0.204444
0.201464
0.060797
0.184774
0.352859
0.233650
0.403523
0.328422
0.165701
0.288486
0.338554
0.362992
0.395775
0.292659
0.195503
0.290871
0.346899
0.412464
0.305772
0.469685
0.386834
0.397563
0.381470
0.531673
0.506639
0.597835
0.530481
0.530481
0.531673
0.629425
0.694990
0.789762
0.760555
0.869632
0.810623
0.948906
1.001954
1.277924
2.042651
12.830496
34.600496
98.352432
178.594589
338.122845
479.851961
659.856796
754.470825
794.034004
750.671625
599.409938
453.839898
273.144841
167.298913
76.507926
37.078857
11.789799
6.709695
5.942583
6.423593
9.698868
13.364553
22.633672
34.042597
50.548911
62.436461
76.195598
82.380772
84.502697
77.766776
65.792799
53.155422
38.104653
26.929975
15.382767
9.902716
5.239844
3.336668
2.328753
2.128482
1.710653
1.700521
1.589656
1.601577
1.519918
1.353621
1.584888
1.500845
1.540780
1.417994
1.659989
##ZVALUE=330
0.259876
0.203848
0.393987
0.538826
0.487566
0.535846
0.339746
0.539422
0.466704
0.350475
0.254512
0.353456
0.302792
0.385642
0.390410
0.382662
0.436902
0.556707
0.459552
0.386834
0.311732
0.419617
0.460744
0.344515
0.526905
0.639558
0.563860
0.490546
0.583529
0.619888
0.590682
0.489950
0.582933
0.676513
0.557899
0.585914
0.836849
0.726581
0.871420
0.634789
0.719428
0.904799
0.897646
1.166463
1.043677
1.219511
1.561642
6.301999
19.908547
64.444542
126.815438
260.952711
390.082598
578.500628
704.243779
794.476867
781.221986
667.937994
543.669462
357.621908
229.982734
106.964707
55.097938
19.553900
8.443594
5.462766
5.282760
5.832911
7.918477
13.451576
20.344853
32.474995
43.688416
61.295629
71.215630
79.114437
78.550577
73.524714
63.990951
48.021674
37.223697
23.016930
16.239882
9.499788
6.283522
3.583431
2.551675
2.230406
1.872778
1.835823
1.669526
1.452565
1.583695
1.515746
1.461506
1.591444
##ZVALUE=335
0.431538
0.394583
0.345707
0.383854
0.299811
0.344515
0.222921
0.405908
0.331998
0.513792
0.317693
0.425577
0.442863
0.292659
0.451803
0.383854
0.400543
0.327826
0.691414
0.501871
0.474453
0.449419
0.541806
0.311732
0.313520
0.364780
0.442863
0.444651
0.400543
0.549555
0.502467
0.670552
0.518560
0.662804
0.531673
0.700951
0.595450
0.685453
0.847578
0.694990
0.743866
0.718832
0.757575
0.780821
0.852942
0.818968
0.958443
1.235604
1.551509
2.930760
9.442568
38.671494
83.712935
192.137957
313.711762
502.794981
635.212660
748.893619
775.616765
704.963803
596.095920
408.836007
277.783871
147.276521
77.935457
28.046966
11.609793
5.302429
4.800558
4.972816
5.416870
8.098483
11.650920
20.198822
29.673576
44.367909
56.390762
66.972971
72.562695
74.238777
69.097877
57.559609
47.676563
33.981800
25.547743
15.462637
10.587573
6.072521
3.979802
2.513528
1.908541
1.732707
1.675487
1.543760
1.510978
1.557469
##ZVALUE=340
0.318885
0.410676
0.258684
0.419617
0.328422
0.371933
0.317693
0.336766
0.435710
0.271797
0.350475
0.316501
0.595450
0.358820
0.392795
0.474453
0.387430
0.402927
0.408888
0.425577
0.415444
0.576973
0.594854
0.584722
0.572801
0.445843
0.519753
0.523925
0.580549
0.476837
0.575781
0.584722
0.492930
0.662804
0.623465
0.603795
0.583529
0.654459
0.536442
0.634789
0.546575
0.732541
0.617504
0.691414
0.637770
0.717640
0.864863
0.845790
0.969768
0.917912
1.132488
1.522899
4.359484
22.817850
56.996942
145.219564
248.435736
417.804718
547.780991
688.031912
739.845634
712.911487
628.398657
471.751690
332.430005
174.773932
97.297430
38.721561
15.654564
6.032586
4.836917
4.569888
4.671812
5.412698
7.011890
12.004972
17.883778
28.135777
39.043427
53.688884
62.083602
67.529678
68.204999
63.932538
56.550503
44.284463
35.015941
23.691654
16.246438
10.131598
6.490946
3.649592
2.566576
1.920462
1.758933
1.540780
##ZVALUE=345
0.390410
0.361800
0.367761
0.447631
0.295639
0.307560
0.235438
0.273585
0.428557
0.404716
0.494719
0.508428
0.290871
0.400543
0.369549
0.409484
0.316501
0.597835
0.425577
0.405908
0.386834
0.495911
0.418425
0.583529
0.376701
0.532866
0.470877
0.511408
0.477433
0.396967
0.396967
0.480413
0.605583
0.530481
0.407696
0.440478
0.594854
0.333786
0.595450
0.577569
0.562668
0.599623
0.651479
0.690818
0.639558
0.761747
0.801682
0.570416
0.851750
0.973940
0.870824
0.935793
0.970960
1.299977
2.210736
12.769699
35.552979
97.758770
176.789761
325.797796
452.134013
610.795617
689.672828
710.523725
655.620694
512.537956
383.665562
228.536725
131.961703
53.312778
24.172664
8.692741
5.183816
4.272461
4.244447
4.100800
4.746914
6.685853
9.829998
16.626716
24.259686
37.168860
46.303868
56.407452
61.755776
63.114762
60.344934
52.821636
44.864416
33.663511
25.090575
15.371442
10.522604
6.189942
4.423857
2.683997
##ZVALUE=350
0.402927
0.313520
0.191927
0.312924
0.223517
0.339746
0.297427
0.287890
0.456572
0.491738
0.394583
0.467896
0.417829
0.379682
0.436902
0.339746
0.336766
0.431538
0.376701
0.263453
0.210404
0.345707
0.491738
0.444651
0.311732
0.441670
0.418425
0.450611
0.522733
0.477433
0.644922
0.395775
0.453591
0.259876
0.407696
0.330806
0.452995
0.574589
0.304580
0.456572
0.559688
0.636578
0.555515
0.757575
0.543594
0.673532
0.841618
0.774860
0.755787
0.760555
0.793934
0.787973
0.874996
0.814795
1.008511
1.223683
1.555681
6.322861
19.968748
64.085722
124.189854
254.874825
375.549793
535.627007
637.651682
698.177814
674.031973
566.913486
439.084768
264.940858
160.598755
69.966912
31.637549
10.077953
5.575418
4.463792
4.063845
3.693700
3.740788
4.262924
5.958676
9.824634
14.240742
22.439957
30.127764
41.347742
49.144626
56.017637
58.703423
55.503845
51.246881
41.043758
33.091903
22.383928
16.411543
9.848475
##ZVALUE=355
0.319481
0.322461
0.377893
0.189543
0.270605
0.556707
0.435710
0.474453
0.340939
0.363588
0.339746
0.447631
0.435710
0.359416
0.542998
0.225902
0.393987
0.459552
0.390410
0.457764
0.398755
0.343919
0.399947
0.471473
0.484586
0.458956
0.443459
0.420809
0.475645
0.400543
0.394583
0.564456
0.421405
0.512600
0.609756
0.537634
0.582933
0.557899
0.466704
0.503659
0.512600
0.605583
0.507832
0.564456
0.570416
0.415444
0.631809
0.569820
0.572801
0.618696
0.560880
0.689626
0.610948
0.638962
0.746846
0.686646
0.916719
1.176596
1.147985
3.052950
10.451674
41.331649
87.692738
189.806819
304.715633
475.846529
586.336851
670.256615
675.839782
582.737923
474.784970
322.539806
204.079747
91.369748
44.569969
14.242530
6.232858
4.237890
3.734827
3.430843
3.318787
3.155470
3.738999
5.065799
7.428527
12.912750
18.542409
27.529597
34.363866
43.990612
49.536824
52.616596
51.608682
46.467781
39.855838
30.920506
##ZVALUE=360
0.344515
0.417829
0.393987
0.406504
0.026822
0.367761
0.368953
0.386834
0.341535
0.399947
0.408888
0.404716
0.215769
0.385642
0.429749
0.524521
0.549555
0.391603
0.303984
0.361800
0.328422
0.198483
0.460744
0.317693
0.373721
0.420809
0.471473
0.421405
0.417829
0.492930
0.372529
0.382662
0.501871
0.484586
0.469685
0.387430
0.494719
0.384450
0.368953
0.520945
0.470877
0.528693
0.464916
0.558496
0.572801
0.505447
0.483990
0.629425
0.613928
0.659823
0.677705
0.561476
0.665784
0.609756
0.783801
0.728965
0.746846
0.862479
0.877976
1.038909
1.111627
1.693964
4.794002
21.456480
53.438544
135.728717
229.717493
379.517674
505.808592
631.033778
665.673018
623.513460
531.754494
368.780494
248.131752
122.265816
64.673424
23.459792
9.600520
4.318953
3.683567
3.523827
3.415942
3.084540
3.065467
3.185868
4.163980
6.219745
9.427667
15.224814
21.403432
31.049848
37.576556
44.176579
47.763586
47.842860
##ZVALUE=365
0.269413
0.411868
0.332594
0.403523
0.422597
0.315905
0.440478
0.362992
0.223517
0.341535
0.291467
0.360608
0.307560
0.357628
0.398755
0.611544
0.529885
0.289679
0.396967
0.525713
0.422597
0.439882
0.279546
0.371933
0.448823
0.397563
0.480413
0.459552
0.473857
0.383854
0.515580
0.473857
0.426769
0.487566
0.496507
0.374913
0.415444
0.617504
0.411868
0.434518
0.431538
0.527501
0.531673
0.538826
0.607967
0.548959
0.669956
0.559688
0.571609
0.600815
0.520945
0.584722
0.713468
0.584722
0.626445
0.633597
0.722408
0.779629
0.586510
0.838637
0.909567
1.070499
1.028776
1.197457
2.220869
12.289882
34.518838
94.297528
174.031854
322.325826
434.810519
563.820601
626.126528
625.094771
554.663539
412.249565
295.121670
165.494680
90.627670
33.302903
13.647676
4.806519
3.766418
3.379583
3.292561
3.077984
2.849698
2.616644
2.654791
3.482699
4.982948
8.700490
12.337565
19.332767
25.708675
33.040643
##ZVALUE=370
0.344515
0.252724
0.306964
0.366569
0.170469
0.386834
0.241995
0.360608
0.450611
0.322461
0.312924
0.430942
0.402927
0.257492
0.391603
0.416636
0.349879
0.425577
0.313520
0.296831
0.237823
0.253916
0.231862
0.246763
0.346899
0.436902
0.420809
0.313520
0.284910
0.474453
0.389814
0.290871
0.386834
0.474453
0.413656
0.389814
0.373721
0.310540
0.373721
0.588894
0.487566
0.371933
0.246763
0.389814
0.416636
0.499487
0.615716
0.407696
0.376701
0.507832
0.566840
0.560880
0.721812
0.721812
0.692606
0.568628
0.624657
0.711679
0.632405
0.704527
0.742674
0.739694
0.882745
0.847578
0.892878
1.067519
1.339912
6.067753
20.463467
67.788959
127.522945
244.099498
364.051461
517.851710
597.031713
622.155666
576.516986
460.037589
342.999697
196.035504
111.435652
45.223832
21.051764
7.160902
4.193783
3.273487
3.093481
2.785921
2.682805
2.573729
2.362728
2.578497
3.063679
4.347563
6.468892
10.582805
##ZVALUE=375
0.317693
0.357628
0.249743
0.284910
0.149608
0.337958
0.325441
0.294447
0.287890
0.339746
0.212789
0.306964
0.438690
0.289679
0.177622
0.357628
0.318885
0.437498
0.387430
0.365973
0.218749
0.322461
0.450611
0.374913
0.383854
0.371933
0.444651
0.305772
0.357628
0.417829
0.284910
0.357628
0.387430
0.379682
0.317693
0.369549
0.287890
0.444651
0.516772
0.424981
0.418425
0.517964
0.509620
0.386834
0.463724
0.432730
0.500679
0.432730
0.442863
0.378489
0.543594
0.389814
0.407696
0.503659
0.569820
0.574589
0.595450
0.652671
0.594854
0.563860
0.578761
0.682473
0.784993
0.714660
0.839829
0.803471
0.980496
0.909567
1.171827
3.078580
10.375977
38.214922
84.804893
191.849470
303.130746
457.387567
550.333858
613.819957
602.838993
505.206585
396.086574
247.051716
158.437490
78.751445
39.880872
12.823939
5.372763
3.379583
3.273487
2.768636
2.663732
2.495646
2.431870
2.213717
2.339482
2.731681
##ZVALUE=380
0.331998
0.371933
0.235438
0.308752
0.372529
0.249743
0.244975
0.268817
0.283718
0.278950
0.264645
0.201464
0.202656
0.241995
0.367761
0.264645
0.238419
0.216961
0.228882
0.352859
0.331998
0.200868
0.384450
0.181794
0.476837
0.391603
0.425577
0.400543
0.433922
0.415444
0.388622
0.433922
0.299811
0.434518
0.394583
0.361800
0.386834
0.354648
0.481606
0.472665
0.496507
0.436902
0.560880
0.416636
0.400543
0.261664
0.465512
0.368953
0.554919
0.415444
0.465512
0.491738
0.374913
0.510812
0.480413
0.356436
0.496507
0.404716
0.488758
0.621676
0.504851
0.493526
0.551939
0.587702
0.582933
0.642538
0.743866
0.696778
0.882745
0.832677
1.011491
1.776814
6.333590
28.638840
65.561533
148.977637
247.574449
401.700735
510.997772
603.726506
610.971451
533.822775
444.042683
312.507749
213.705897
105.918646
55.005550
19.583702
8.140802
3.592968
2.952814
2.752542
2.468824
2.552867
2.442598
2.319813
##ZVALUE=385
0.329614
0.258684
0.336766
0.396967
0.414848
0.288486
0.352859
0.406504
0.165701
0.322461
0.303984
0.435710
0.349879
0.355840
0.345707
0.259876
0.204444
0.340939
0.289679
0.398755
0.350475
0.426769
0.376701
0.392795
0.383854
0.392795
0.493526
0.548959
0.460744
0.572801
0.573993
0.667572
0.429749
0.625849
0.617504
0.646710
0.588894
0.561476
0.597835
0.575781
0.598431
0.567436
0.688434
0.441670
0.414848
0.480413
0.347495
0.432730
0.612736
0.492930
0.437498
0.488758
0.536442
0.427961
0.541806
0.444651
0.544786
0.579953
0.580549
0.620484
0.556707
0.616908
0.663996
0.613928
0.678897
0.711679
0.634789
0.653863
0.737906
0.950694
0.837445
0.922680
1.070499
1.264811
2.794862
14.961958
39.571524
103.816986
190.305710
342.230797
461.586714
577.786565
609.325767
580.985546
513.744950
380.270481
270.971656
149.324536
85.342526
35.192966
14.681816
4.429817
3.029704
2.863407
2.604723
2.654791
##ZVALUE=390
0.285506
0.267625
0.285506
0.283718
0.229478
0.181794
0.349879
0.323653
0.232458
0.229478
0.345707
0.293851
0.126958
0.259876
0.252724
0.347495
0.415444
0.342727
0.456572
0.370741
0.295639
0.247955
0.496507
0.453591
0.267625
0.475645
0.378489
0.456572
0.471473
0.537634
0.600815
0.521541
0.553727
0.678897
0.618696
0.717640
0.683665
0.629425
0.658631
0.623465
0.711679
0.668764
0.631809
0.439882
0.521541
0.543594
0.698566
0.521541
0.464916
0.504851
0.511408
0.500679
0.527501
0.536442
0.538826
0.512600
0.431538
0.582933
0.556707
0.539422
0.504851
0.513792
0.450611
0.643730
0.611544
0.606775
0.679493
0.815988
0.770688
0.761747
0.873804
0.839829
0.753999
0.950694
1.073480
1.204610
1.764894
7.640719
23.986697
74.136853
142.600536
279.494524
391.258001
522.467494
591.795444
608.566999
560.261607
443.527699
339.640975
210.597515
124.179721
52.219629
24.737716
8.020997
3.658533
2.768636
##ZVALUE=395
0.399947
0.265837
0.335574
0.432730
0.360608
0.408888
0.329614
0.108480
0.351667
0.428557
0.322461
0.399947
0.326633
0.411868
0.400543
0.326633
0.398755
0.320673
0.474453
0.360608
0.210404
0.166893
0.474453
0.335574
0.345707
0.357628
0.482798
0.375509
0.507832
0.502467
0.605583
0.509620
0.434518
0.634789
0.538826
0.527501
0.650883
0.333786
0.504851
0.724792
0.586510
0.615716
0.589490
0.631809
0.626445
0.557899
0.611544
0.492930
0.668764
0.452995
0.459552
0.432730
0.554919
0.307560
0.447631
0.463724
0.568628
0.563860
0.467896
0.491738
0.564456
0.511408
0.743866
0.560880
0.632405
0.632405
0.643730
0.788569
0.787973
0.718832
0.821948
0.905991
0.934601
0.854731
0.790954
0.775456
0.866652
0.916719
0.978708
4.229546
15.619993
54.177642
104.093552
201.511979
306.462646
459.728837
559.516549
610.227585
605.960488
518.615842
408.389568
258.876681
162.494779
73.353648
35.197735
11.912584
##ZVALUE=400
0.432730
0.461936
0.366569
0.252724
0.278950
0.421405
0.322461
0.260472
0.367761
0.362992
0.365973
0.396967
0.417829
0.371933
0.358820
0.299811
0.306964
0.384450
0.395775
0.302792
0.392795
0.306964
0.414848
0.360608
0.401735
0.399947
0.381470
0.521541
0.409484
0.413656
0.568628
0.547767
0.669956
0.736713
0.767708
0.651479
0.599623
0.646710
0.554919
0.671744
0.571609
0.680685
0.693798
0.427961
0.677705
0.635982
0.427961
0.554919
0.516772
0.656843
0.576973
0.553727
0.568628
0.605583
0.561476
0.617504
0.522733
0.459552
0.520945
0.545979
0.572801
0.660419
0.793934
0.717640
0.618696
0.699759
0.719428
0.712872
0.630617
0.640750
0.805855
0.743866
0.810623
0.672936
0.992417
0.841618
0.785589
0.663996
0.971556
0.965595
1.171827
2.602935
8.232594
31.250715
68.154931
154.717565
250.524879
396.733880
496.539474
588.828921
605.520010
542.823672
450.612903
304.110646
202.612877
103.072524
##END
