##TITLE=WAT4
##FORMAT=SPECTACLE-ASCII V-1.2
##DATA TYPE=ULTRAVIOLET SPECTRUM
##SECOND TYPE=ULTRAVIOLET SPECTRUM
##DATE=01/24/18
##TIME=12:00:22
##SPECTROMETER/DATA SYSTEM=SPECTACLE
##XUNITS=NM EM
##YUNITS=ENERGY
##YFACTOR=1
##FIRSTX=220
##LASTX=410
##NPOINTS=96
##3DDATA=Equidistant
##ZUNITS=NM EX
##FIRSTZ=210
##LASTZ=400
##ZPOINTS=39
##XYDATA=(Y..Y)
##ZVALUE=210
14.879704
16.732812
14.532804
12.542605
12.220740
9.858608
8.575916
7.300973
7.051826
5.445480
3.050566
2.726912
1.910925
2.744794
1.950860
1.862645
2.157688
2.049804
2.711415
2.218485
2.542734
2.410412
3.011823
3.342628
3.126860
4.322529
4.940629
5.871654
5.904436
6.464720
6.729960
7.197857
7.113814
7.636547
7.742643
7.323623
7.094741
7.881522
8.355975
7.964969
7.258654
6.816983
7.969737
7.392764
7.230639
7.049441
6.651878
5.826950
6.128550
6.010532
6.273985
6.893873
6.444454
6.384850
6.969571
6.648898
6.179810
6.442666
6.118417
6.469488
5.643964
6.691813
6.018877
5.763769
5.910993
5.693436
6.467700
7.326603
7.001758
6.709695
9.338856
10.033846
10.809898
11.649728
10.509491
12.755990
12.481809
12.268424
10.748506
10.872483
9.731650
8.396506
7.822514
6.315708
5.974770
5.055666
3.958941
4.900694
4.900694
6.487966
7.670522
9.843707
14.909506
19.996762
23.677945
27.220845
##ZVALUE=215
36.545992
39.397478
32.745600
25.878549
19.826889
17.820597
17.752647
17.249584
15.170574
13.654828
12.699962
9.573698
6.258488
4.802942
2.945662
2.633929
2.062917
2.644658
1.972914
2.569556
2.434850
2.722740
3.142953
3.206730
4.083514
4.758835
5.606413
7.235408
7.381439
7.860661
8.021593
9.252429
9.159446
9.288788
10.881424
9.936690
9.906888
10.195971
9.821653
8.879900
8.319616
9.561777
8.810759
7.811785
7.784963
7.760525
8.450747
7.700920
7.580519
7.449985
8.057952
8.108616
8.147955
7.780790
8.070469
7.491708
8.082986
8.080602
7.629991
8.203983
7.882714
6.920695
7.890463
6.771684
6.019473
6.644726
6.331801
6.697774
7.940531
8.244514
9.652972
9.477735
10.034442
11.299849
10.977983
12.248755
11.660457
10.578632
10.576844
9.480715
9.268522
8.169413
7.524490
5.985498
5.868673
5.553961
4.905462
4.268885
4.504919
4.893541
3.961921
3.842711
4.022717
5.657673
7.159710
9.446740
##ZVALUE=220
80.963969
78.415871
77.732801
70.737600
63.869953
46.271682
39.197803
30.850768
27.837753
27.532578
25.498867
26.079416
23.241639
19.885898
13.730526
9.551644
6.996989
4.575849
4.100800
2.771616
3.214478
3.373623
3.283620
3.825426
4.099607
5.418658
6.236434
6.477833
8.489490
8.371472
9.373426
10.256767
10.116696
11.024475
10.246634
10.991693
10.437965
11.021495
10.455847
10.165572
9.580851
9.539723
9.717941
10.099411
9.780526
9.288788
8.846521
9.035468
9.935498
8.825660
10.020733
10.175705
10.726452
11.248589
10.547638
10.508895
9.702444
10.920763
10.200739
10.497570
10.186434
10.058880
8.881688
8.587837
8.874536
7.804632
8.051991
7.394552
8.045435
8.914471
9.631515
10.836720
11.495948
12.340546
11.578798
11.409521
11.637807
11.144876
10.954738
10.430813
8.808970
8.158684
6.925464
7.159710
6.515980
5.698800
5.034804
5.155802
4.506707
4.710555
4.779696
5.292892
4.108548
3.573895
4.027486
5.137920
##ZVALUE=225
94.954967
95.862746
118.112564
137.158632
141.410828
125.713944
113.321543
84.957480
65.006614
53.081512
41.599870
41.997433
42.476654
41.140914
41.875839
33.533573
27.224422
22.662878
13.484955
10.041595
6.548762
4.609823
4.194975
4.523993
4.401803
5.298853
5.850792
5.940795
6.622672
7.628798
8.136630
9.253621
9.202957
9.547472
9.448528
11.060834
9.837747
9.705424
9.552836
10.113716
10.498762
10.581613
10.157824
10.068417
9.803772
9.655952
9.757876
9.689927
9.506941
9.265542
11.494756
11.354685
11.198521
12.880564
12.877584
12.226701
11.943579
11.417866
11.968613
12.134910
10.750890
11.288524
10.448694
12.086630
10.512471
9.493828
9.756684
9.982586
9.840727
10.451674
10.945797
11.389852
10.601878
11.185408
11.115670
10.226965
10.424852
11.703968
9.895563
9.443760
9.540915
7.734895
7.236600
6.474853
7.033944
5.474687
5.718470
5.359650
5.096793
4.451871
5.029440
5.215406
4.717708
4.272461
4.170537
5.068779
##ZVALUE=230
57.738423
68.232417
98.876953
151.330829
191.166997
222.993493
239.610672
221.681595
196.064711
164.518952
113.195777
86.880922
66.779852
63.552856
64.269900
65.570474
63.712597
59.006810
54.893494
41.097999
30.393600
18.470883
13.409853
7.748604
5.715489
5.312562
4.831553
5.275607
5.097985
5.432963
6.420612
7.428527
6.728768
7.364750
7.142425
8.308887
8.698702
8.028746
8.359551
9.132624
8.644462
9.923577
9.549856
9.208918
11.039972
9.593964
9.305477
9.775758
9.796619
10.147691
10.743737
11.177659
11.744499
11.667609
12.693405
12.505651
13.018847
11.557937
13.034940
11.950731
10.946989
10.894537
11.296868
11.862516
11.576414
9.169579
11.482835
11.422634
10.121465
11.536479
12.176633
11.642575
12.695789
13.609529
12.165904
12.661815
11.121631
11.606812
12.503862
10.692477
9.688735
8.993745
8.174777
8.014441
6.728768
5.719662
6.751418
6.194711
5.140901
6.247759
5.433559
6.050467
5.068779
4.996657
5.455613
5.564690
##ZVALUE=235
16.167760
18.249750
36.106706
88.635683
136.565566
219.663978
275.999904
346.384645
370.785594
366.752744
321.194530
261.685848
184.601545
136.644840
98.400712
89.747906
85.914731
92.414618
102.662444
98.654628
88.869929
68.138838
56.183934
38.727522
26.350617
14.290810
11.111498
7.468462
6.159544
5.739927
5.735755
6.798506
7.131696
7.693768
7.944703
7.105470
8.291602
8.271933
9.076595
7.572770
7.826686
9.359717
9.002686
9.100437
9.068847
10.424852
9.796619
9.671450
9.820461
10.882616
10.904670
11.037588
11.092424
10.918975
10.602474
10.991693
11.184812
10.671616
11.703968
10.604858
10.869503
10.764599
11.695623
10.477901
9.561777
10.070801
10.310411
11.508465
11.827946
12.295842
12.015700
12.732744
14.303923
13.571978
12.975931
13.402700
13.126731
11.630654
13.392568
10.555983
10.101795
10.231733
8.515716
8.013844
7.626414
8.195639
7.733703
7.806420
7.083416
6.828904
6.658435
7.170439
6.181598
5.728602
6.651878
6.130934
##ZVALUE=240
1.616478
2.103448
4.462600
13.596416
40.921569
80.498457
152.301788
229.909420
339.163542
407.673717
480.426550
476.518869
439.689755
351.702571
280.221701
179.297924
132.550597
99.864602
95.958710
103.896856
112.657547
120.603442
111.479759
103.861690
83.128810
66.586733
42.575002
32.153726
19.707680
12.972951
10.270476
7.334948
7.851720
7.953644
7.857680
8.077621
8.639693
8.193851
9.433627
8.672476
7.227659
8.842945
10.216832
8.921623
8.947849
9.280443
8.594990
10.047555
9.091496
9.827614
10.790825
10.030866
9.952784
10.407567
9.692907
10.619760
10.400414
11.127591
10.705590
10.912418
10.055900
9.854436
10.122657
9.859800
10.320544
10.184646
9.716749
10.732412
10.631680
11.081696
11.572838
11.496544
11.715889
12.943745
12.687445
12.841821
13.109446
11.448860
11.811852
11.235476
10.369420
10.103583
9.411573
8.379817
7.843971
7.948875
7.539988
6.114841
6.125569
6.798506
6.065965
5.917549
5.923510
5.605817
6.022453
6.451607
##ZVALUE=245
1.194477
1.036525
1.489520
1.636744
2.929568
11.262894
26.602745
72.563887
134.601593
213.195682
343.588591
445.648432
530.501008
552.972555
521.104932
458.825827
339.453816
259.396434
186.293721
117.834806
99.695921
100.317001
109.679699
125.856996
130.422711
126.757622
113.923550
88.256598
72.968602
51.721931
36.154985
22.648573
15.751719
11.435747
9.926558
9.353757
9.940863
10.627508
8.249879
9.293556
9.778738
9.050965
9.414554
10.225773
9.235740
10.002851
8.883476
9.421706
10.101795
10.074973
10.477901
10.231733
9.846687
9.109974
9.774566
9.987950
9.974837
9.819865
9.599924
9.377599
8.680820
8.898973
9.704828
8.741617
8.943677
8.984804
9.219646
9.609461
10.005832
10.735989
9.992719
10.515451
10.024905
11.114478
11.362433
11.166930
11.501908
10.493994
9.073615
10.644794
8.623600
8.043647
8.184910
8.029938
7.111430
6.858706
7.320642
6.258488
6.304979
5.441904
6.085634
6.055832
5.560517
5.713701
5.899668
6.789565
##ZVALUE=250
0.966787
1.393557
1.160502
1.180768
1.248717
1.312494
2.072453
7.314682
20.021796
56.152940
108.508468
217.944980
322.349668
459.639430
547.562838
617.746711
613.083839
548.662543
468.140841
326.575637
230.063796
157.379508
102.218986
90.935826
106.167793
119.937658
133.363605
136.728883
131.953955
118.939877
98.066926
77.641606
57.307482
36.795735
25.283694
15.350580
12.575984
10.566711
10.826588
9.163618
10.565519
9.623766
8.994937
9.348989
8.702874
9.057522
9.471774
9.658933
10.025501
8.830428
8.787513
9.801984
9.836555
8.872747
9.512901
8.765459
8.435845
9.205937
9.246469
8.715987
8.025765
8.796453
8.939505
8.740425
7.365942
7.415414
7.188916
8.548498
8.484721
8.085966
8.427501
8.996725
9.121895
9.242892
9.529591
8.839965
8.446574
8.315444
8.688569
7.527471
7.186532
7.069707
6.320477
6.597638
5.632639
5.145669
5.697608
4.779696
5.692840
5.269647
5.406737
4.389882
4.886985
5.139709
4.192591
4.587770
##ZVALUE=255
0.841618
0.977516
0.932813
0.887513
1.075864
1.139641
1.106858
1.468658
1.457930
3.172755
14.883876
38.248897
79.672933
175.638795
279.439688
429.891944
539.202690
647.185445
689.846873
653.066635
572.170615
454.105735
293.445587
192.155838
110.510588
87.203979
89.755654
101.571679
126.666427
135.399699
146.011710
138.211846
126.760602
101.384521
80.823898
54.180622
37.186742
23.411512
15.733838
11.498928
10.883808
9.218454
9.207726
8.848906
9.547472
9.258986
9.721518
8.725524
9.057522
9.087920
9.600520
9.266734
9.464622
9.135604
8.981824
9.136796
8.873940
9.108782
8.531809
8.021593
8.037686
8.349419
7.941723
7.162690
7.381439
7.861853
7.612705
7.186532
7.436872
7.672906
7.229447
7.927418
7.927418
7.694960
7.353425
7.292628
7.274747
6.505847
6.993413
6.783605
6.143451
6.161928
5.511642
5.373955
4.821420
4.234910
4.726648
4.188418
4.439950
4.321933
4.399419
4.139543
4.369617
4.125834
3.603697
4.211664
##ZVALUE=260
0.803471
0.918508
0.901818
0.762939
0.745654
0.982881
0.929832
1.143813
1.200438
1.128912
1.369715
2.059937
7.590652
22.629499
61.684847
123.047829
251.885653
366.621614
486.675501
658.720732
742.336512
751.407743
681.707859
531.726480
392.702818
235.188007
154.899955
91.874003
77.498555
83.804727
99.172592
125.150681
138.222575
145.883560
140.894651
127.137899
107.831955
79.175830
59.744716
36.640763
25.480986
16.081929
11.598468
10.215640
10.160804
9.917617
9.615421
9.102821
9.422898
10.343790
10.025501
9.314418
9.643435
9.217858
8.596778
8.451939
8.707643
8.623600
8.471608
8.128881
8.327961
7.647872
7.249713
7.277727
6.805658
7.027984
7.072687
7.152557
6.838441
6.324649
6.931424
6.969571
6.819963
7.062554
6.895661
7.608533
6.172657
6.088614
5.558729
5.620718
5.156994
4.289746
4.298687
4.659891
4.493594
3.865957
3.541708
4.238486
4.109740
3.737807
4.038811
3.582835
3.215671
3.177524
3.221631
3.795624
##ZVALUE=265
0.789762
0.891685
0.894666
0.968575
1.042485
0.978708
1.000762
1.026988
0.976920
1.101494
1.062751
1.187921
1.265407
1.519918
3.356934
17.204881
41.360855
107.108951
188.301802
351.698995
491.289496
625.308752
769.277811
810.347795
740.594864
644.180775
478.044748
342.091918
189.339519
121.333599
74.559450
65.592527
79.115629
107.267499
124.867558
145.493746
150.375962
142.219663
130.177736
104.653835
83.793998
58.306456
39.475560
25.162697
17.026663
12.232661
10.796785
10.590553
10.467768
9.980798
10.302663
10.307431
10.293722
10.091662
9.692907
9.525418
8.691549
9.293556
8.816719
8.753538
8.141994
8.517504
8.108616
7.239580
7.170439
6.797910
6.737709
6.256700
6.269813
6.457567
7.023811
5.926490
6.603599
6.763935
6.240606
6.434917
6.039739
5.695820
5.443692
4.929900
4.610419
4.045963
4.222989
4.115701
4.055500
3.973842
3.524423
3.402829
3.511906
3.348589
3.130436
3.324747
3.295541
3.241897
2.751946
3.198981
##ZVALUE=270
0.874996
0.730753
0.872612
0.677705
0.951886
0.935793
0.811815
1.070499
0.804663
0.907779
1.085997
0.944734
1.112819
1.020432
1.286864
1.466870
1.810789
7.115602
22.175908
72.309971
144.053698
255.344510
444.917679
601.953864
770.179629
834.784508
826.043487
751.784444
592.100024
446.425676
310.991406
166.239738
99.161863
57.854652
59.295893
80.369711
103.748441
130.707622
145.239830
152.936578
148.030519
127.898455
111.545920
81.670880
60.627460
39.447546
27.780533
18.320680
14.507771
12.068748
11.523962
11.072755
11.376739
10.485649
10.766983
10.141730
9.938478
9.902716
10.265708
9.212494
9.085536
8.360744
8.010864
8.049607
7.840991
7.035732
7.353425
7.459521
7.034540
6.970763
6.613731
6.832480
6.487966
6.381869
6.738901
5.924702
5.847812
5.291700
4.805923
4.769564
4.582405
4.510880
4.047751
3.833771
3.871918
3.591776
3.583431
3.752708
3.239512
3.373623
3.284812
2.991557
2.901554
3.184676
2.897978
2.956986
##ZVALUE=275
0.483990
0.538826
0.668764
0.589490
0.651479
0.769496
0.822544
0.765920
0.745654
0.737906
0.793934
0.748634
0.810623
0.850558
0.858903
0.914931
1.116991
1.317859
1.545548
3.230572
12.295842
35.362840
108.685493
204.774737
382.013917
533.179641
707.020760
812.469721
858.812928
818.361640
681.969523
544.037819
347.957611
218.461752
109.585524
66.841841
48.012733
56.166649
82.396865
101.184845
127.628446
142.478943
150.996447
146.262646
128.385425
109.182596
81.431866
61.583519
41.639805
28.533936
18.797517
13.998747
11.966825
11.135936
10.845661
10.686517
10.793805
9.872913
9.422898
9.558797
9.141564
9.158850
8.034706
8.111596
7.463694
7.705688
7.445812
7.038713
6.638765
6.836653
6.673932
6.981492
6.322861
6.555915
6.454587
6.147623
6.005764
5.576611
5.360842
5.419850
4.638433
4.308820
4.307628
3.993511
3.952980
3.776550
3.450513
3.555417
3.121495
3.058910
2.835989
2.967715
2.791882
3.097653
3.177524
2.737641
##ZVALUE=280
0.957847
0.870824
0.867844
0.815988
0.884533
0.893474
0.678897
0.843406
0.808835
0.979900
1.025796
0.865459
1.059771
0.994802
0.880957
1.071692
1.081824
1.230836
1.446605
1.329780
1.382828
1.572967
7.749796
25.806427
83.464980
157.996416
304.096937
452.521443
657.191873
781.973600
871.101022
867.771506
785.352588
607.437491
445.372462
254.928470
155.487657
73.771477
44.979453
41.865706
53.451657
78.504682
101.678967
125.094652
139.221549
143.983960
139.781833
123.291612
105.781555
79.124570
58.453679
38.215518
28.103590
17.470717
13.478994
10.893941
10.108948
9.720922
9.304881
9.058714
8.810759
8.832812
8.434653
7.949471
8.454919
7.673502
7.611513
6.995797
7.062554
7.151961
6.953478
7.104874
7.072687
6.697774
6.563663
6.125569
6.043911
5.556941
5.330443
4.850626
4.807711
4.504919
4.377961
4.147887
4.027486
3.836751
3.455877
3.557801
3.669858
3.623962
3.503561
3.434420
3.532767
3.276467
3.296733
3.152490
##ZVALUE=285
0.775456
0.684857
0.657439
0.581741
0.808835
0.772476
0.794530
0.888705
0.883937
0.768900
0.893474
0.786781
1.096725
1.060963
1.041889
1.067519
0.846982
0.964999
1.195669
1.228452
1.308918
1.408458
1.514554
1.732707
3.777742
13.414621
46.494007
97.702742
216.976404
354.574919
505.848527
712.535977
832.988620
897.066593
849.793553
699.442029
549.370646
341.725945
216.741562
105.742812
57.318807
32.223463
34.236908
51.628947
69.942474
97.732544
116.059780
132.409930
137.710571
134.282708
123.374462
102.407932
82.186460
57.356954
41.232705
24.113655
17.389655
11.641979
9.104609
8.504987
7.933974
7.584691
7.577538
7.102489
7.169843
6.965995
7.178783
6.695986
7.057786
6.937981
6.690621
6.968975
6.483793
6.421804
6.486773
5.988479
5.736947
5.493760
5.379915
4.959702
5.128980
4.634857
4.607439
4.411936
4.039407
3.921986
3.965497
3.936887
3.701448
3.674626
3.608465
3.303885
3.381968
3.467798
3.554821
3.293753
##ZVALUE=290
0.555515
0.610948
0.659823
0.810623
0.629425
0.526905
0.661612
0.598431
0.668764
0.636578
0.698566
0.683665
0.775456
0.576973
0.721812
0.750422
0.647902
0.798702
0.578761
0.930429
0.857711
0.859499
1.042485
1.089573
1.298785
1.762509
1.817942
6.950498
21.470785
69.397688
135.835409
285.124779
435.627699
654.879808
789.607763
898.557901
893.697739
770.002604
629.068017
422.604680
279.677510
140.021443
76.498985
32.317638
23.032427
31.024814
44.175982
67.603588
86.155534
111.495852
123.678446
132.061839
130.082965
116.061568
99.260807
73.063970
55.818558
35.372972
24.442673
15.201569
10.818839
7.772446
6.721616
6.191730
6.142855
5.777478
5.788803
5.765557
5.854964
6.141663
6.107688
5.748868
5.993843
6.260872
5.745888
5.630851
5.547404
5.371571
4.927516
4.635453
4.403591
4.241467
3.927946
4.038811
3.858805
3.599524
3.719926
3.599524
3.644824
3.276467
3.364682
3.331900
3.036857
3.332496
3.244877
3.434420
##ZVALUE=295
0.518560
0.638962
0.624657
0.589490
0.538826
0.541806
0.649691
0.538826
0.595450
0.656843
0.642538
0.749826
0.672936
0.694990
0.662804
0.651479
0.816584
0.706911
0.685453
0.737906
0.777841
0.837445
0.877976
0.903606
1.096725
1.108646
1.261830
1.347661
1.563430
2.667904
12.469888
36.954880
85.998774
210.157633
342.210531
560.394526
714.359879
865.902901
905.209780
840.314627
723.639727
518.854856
358.343720
185.700655
104.093552
40.865541
21.744967
19.122958
25.919676
42.459965
59.071779
83.817840
100.399852
118.057728
126.097798
122.215748
110.772848
90.407729
73.315501
52.167773
36.775470
22.228956
14.902949
9.212494
6.701946
5.750656
5.360842
5.449653
5.268455
5.034804
5.143881
5.266666
5.620718
5.206466
5.490780
5.366802
4.986525
4.868507
4.660487
4.525781
4.467964
4.211664
3.930926
3.725886
3.631711
3.892779
3.525615
3.562570
3.528595
3.406405
3.306866
3.112555
3.414750
3.292561
3.223419
3.341436
##ZVALUE=300
0.598431
0.572801
0.556707
0.644922
0.562668
0.589490
0.562668
0.518560
0.588894
0.539422
0.655651
0.466704
0.610948
0.471473
0.545979
0.621676
0.748634
0.763535
0.867844
0.886917
0.593662
0.697970
0.760555
0.786781
0.945926
0.892878
1.024604
1.234412
1.174808
1.362562
1.321435
1.460910
5.270839
18.849969
66.698790
132.551789
281.921625
431.434512
646.457672
782.564878
885.351896
887.780786
775.768757
638.078451
421.793461
275.855660
137.175918
72.324872
26.880503
15.633702
16.049743
23.345947
37.837625
52.625537
75.773597
94.124675
111.420751
116.729736
116.978884
109.076500
89.867711
72.599649
49.724579
36.191940
21.688938
14.534593
8.864999
6.362796
5.572438
5.164742
5.002618
4.659891
4.877448
4.982948
4.734993
4.800558
4.620552
4.586577
4.324913
4.393458
3.820658
4.283786
3.792644
3.710985
3.963709
3.520846
3.435612
3.303885
3.354549
3.182888
3.349781
3.131628
3.054738
3.021955
3.059506
2.958775
##ZVALUE=305
0.488758
0.558496
0.588894
0.477433
0.447631
0.514984
0.654459
0.545979
0.543594
0.547767
0.561476
0.531673
0.575781
0.615716
0.571609
0.594854
0.845790
0.608563
0.661612
0.676513
0.641942
0.728965
0.601411
0.744462
0.838637
0.762939
0.949502
0.908971
0.983477
0.798702
1.057982
1.328588
1.420975
1.486540
2.227426
12.506843
37.391782
106.577873
196.205974
373.883843
533.716679
733.621716
849.668980
898.268819
848.048925
680.781007
534.765720
337.294936
211.844444
95.361471
47.009587
18.217564
11.978745
14.833808
21.598935
36.314726
51.574707
72.011948
86.597800
105.210543
110.612512
108.968616
101.523995
84.990859
69.668889
47.072768
34.117699
20.909905
13.052821
7.978678
6.323457
5.055666
4.894733
4.655719
4.356503
4.457831
4.214644
3.837943
3.763437
3.966689
3.834963
3.612638
3.779531
3.734827
3.337860
3.549457
3.127456
3.511906
3.153682
3.006458
3.123879
2.878904
2.803802
2.887845
2.750754
2.910495
##ZVALUE=310
0.475645
0.454783
0.663996
0.624657
0.553727
0.444651
0.455976
0.595450
0.373721
0.572801
0.657439
0.548959
0.488758
0.513792
0.529885
0.578761
0.566840
0.661612
0.534654
0.702739
0.639558
0.572801
0.558496
0.733733
0.852942
0.705719
0.912547
0.759959
0.685453
0.901818
0.852942
0.870824
1.176000
1.033545
1.324415
1.365542
1.557469
4.371405
22.565722
54.960847
142.638683
248.948932
442.279577
600.437522
790.732503
879.051685
878.454447
807.780623
635.066628
472.988486
274.709463
164.664984
69.595575
32.283664
12.338758
9.524822
13.210773
18.764734
30.596852
43.073893
63.430667
78.647733
95.679760
103.164911
103.094578
97.882748
83.163977
68.280697
45.982599
32.398701
19.473433
13.362765
8.176565
6.015897
4.301667
4.224777
3.974438
3.658533
3.440976
3.475547
3.124475
3.093481
3.229976
3.094673
2.931952
2.967715
2.584457
2.922416
2.976656
2.740622
2.657771
2.789497
2.743602
2.537966
2.579689
2.733469
##ZVALUE=315
0.526905
0.517964
0.440478
0.519753
0.491738
0.604987
0.499487
0.498891
0.618696
0.478625
0.478625
0.490546
0.649691
0.467896
0.383854
0.485778
0.580549
0.378489
0.599623
0.623465
0.645518
0.547767
0.674725
0.711679
0.673532
0.514984
0.668764
0.709891
0.715852
0.665784
1.041889
0.795722
0.847578
0.793934
0.913739
1.080632
1.171827
1.291633
1.442432
2.664924
9.299517
40.333867
88.381767
202.812552
332.261920
539.980531
676.945448
810.668468
856.959820
806.600451
707.848668
523.999929
376.444459
204.235911
112.310648
40.911436
17.948747
8.428693
8.787513
12.196898
17.042756
28.310418
40.504932
58.503747
72.699785
90.274811
96.927881
97.972751
91.818571
76.266527
63.543916
45.548677
32.084584
18.786788
12.134910
6.928444
5.015731
3.773570
3.360510
2.835989
2.589822
2.608895
2.683997
2.540946
2.489686
2.602935
2.439618
2.554655
2.382994
2.325773
2.675653
2.750754
2.582669
2.435446
2.492666
2.688766
##ZVALUE=320
0.567436
0.465512
0.492930
0.506639
0.637770
0.420809
0.449419
0.376701
0.597835
0.434518
0.653863
0.560880
0.483990
0.557899
0.373721
0.467896
0.638962
0.525713
0.549555
0.517964
0.608563
0.754595
0.590682
0.711679
0.626445
0.673532
0.775456
0.629425
0.745654
0.688434
0.728965
0.770688
0.594854
0.894666
0.833869
0.956655
0.975728
1.207590
1.187921
1.166463
1.277924
1.791716
4.390478
22.088885
57.550669
151.392817
252.854824
428.764820
573.343635
743.637681
817.990899
824.536681
754.649639
595.372915
445.665717
257.172585
149.453878
64.933896
29.128790
9.613633
6.844997
7.766485
10.020733
15.956759
23.391843
38.803816
52.454472
69.042444
81.197619
90.950727
92.466474
85.803866
76.120496
58.161616
44.042468
28.046966
19.001961
11.008978
6.737709
4.272461
3.138781
2.862811
2.450943
2.406836
2.313852
2.196431
1.997948
2.064705
2.288818
2.171993
2.178550
2.174973
2.026558
2.237558
2.112985
2.117753
##ZVALUE=325
0.510812
0.387430
0.497699
0.322461
0.348687
0.374913
0.546575
0.538826
0.514984
0.371933
0.452995
0.589490
0.451803
0.487566
0.531673
0.502467
0.469685
0.480413
0.685453
0.493526
0.458956
0.518560
0.588894
0.581741
0.458956
0.623465
0.438690
0.555515
0.545979
0.592470
0.527501
0.607967
0.790954
0.749826
0.857711
0.853539
0.775456
0.860691
0.881553
0.955462
0.914931
1.198649
1.252890
1.577735
2.360940
13.773441
37.492514
101.581812
184.447765
353.655815
494.865775
674.792528
774.768591
817.121863
774.378777
628.200769
492.931604
314.626694
199.190974
91.051459
44.004917
13.925433
7.055998
6.054640
6.715655
9.621978
14.040470
23.847818
34.772754
52.464604
64.341426
77.672601
84.846616
86.064935
80.332756
67.011714
54.835677
38.876534
27.564764
16.338825
10.426641
5.556941
3.710985
2.512932
2.616644
2.238750
1.996756
1.925826
1.999736
2.053976
1.876950
1.947880
2.034903
1.945496
1.823902
1.869798
##ZVALUE=330
0.461936
0.497699
0.432730
0.461936
0.416636
0.238419
0.492930
0.491738
0.386834
0.485778
0.351667
0.390410
0.517964
0.467896
0.521541
0.448823
0.534654
0.459552
0.593662
0.410676
0.484586
0.470877
0.617504
0.562668
0.475645
0.528693
0.556707
0.617504
0.709891
0.685453
0.496507
0.562668
0.669956
0.482798
0.646710
0.757575
0.717640
0.716448
0.760555
0.836849
0.771880
0.905991
0.821948
1.012683
1.097918
1.062751
1.457930
6.130934
20.312667
70.177913
135.095716
275.372863
409.406424
600.502491
722.146034
806.030631
790.652037
680.626631
559.042692
380.022526
253.784657
125.484467
66.661835
23.904443
9.690523
5.482435
5.471706
6.325841
8.329749
13.875961
20.481944
33.152699
45.118928
62.415600
72.442889
79.294443
80.299973
74.186921
64.094663
50.120950
37.348866
24.051666
16.195774
9.855628
6.129742
3.827810
2.802610
2.113581
1.973510
1.995564
1.938939
1.613498
1.720786
1.702905
1.769662
1.765490
##ZVALUE=335
0.452995
0.353456
0.623465
0.489950
0.466704
0.540614
0.542998
0.472665
0.480413
0.468493
0.438690
0.291467
0.444651
0.339746
0.460744
0.393987
0.425577
0.499487
0.536442
0.503659
0.470877
0.388622
0.493526
0.505447
0.546575
0.524521
0.518560
0.518560
0.389814
0.513792
0.669956
0.682473
0.574589
0.515580
0.644922
0.575781
0.609756
0.520945
0.735521
0.790954
0.663996
0.820756
0.878572
0.977516
0.960827
0.901818
1.225471
1.220703
1.259446
3.043413
10.868907
43.414831
91.378689
204.267502
329.787731
523.687005
657.477975
771.100521
787.885785
714.905858
601.449013
416.908860
283.783674
148.394704
78.873634
27.754903
12.082458
5.695820
5.054474
5.142689
5.516410
7.712841
11.943579
20.417571
29.710531
44.375658
56.238770
67.552924
72.536469
73.481798
68.791509
57.803988
48.264861
35.608411
25.895834
15.391707
10.577440
5.941987
4.140735
2.711415
2.244711
2.080798
1.796484
1.720786
1.620650
1.742840
##ZVALUE=340
0.470877
0.413656
0.515580
0.561476
0.361800
0.442863
0.409484
0.356436
0.519753
0.468493
0.389814
0.454783
0.399947
0.482798
0.464916
0.474453
0.390410
0.293851
0.516772
0.437498
0.476837
0.467896
0.588894
0.326633
0.419617
0.478625
0.425577
0.445843
0.555515
0.553727
0.405908
0.639558
0.579953
0.608563
0.680685
0.577569
0.660419
0.671744
0.591874
0.680685
0.720620
0.522733
0.765920
0.792742
0.787973
0.871420
0.711679
0.885725
0.900626
1.088977
1.092553
1.579523
5.308986
26.816726
65.013766
158.348680
265.016556
437.263846
570.904613
709.925890
756.181479
720.098615
629.084706
467.003584
328.895450
172.630548
96.032619
38.094521
15.781522
6.040931
4.832745
4.558563
4.526973
5.451441
7.317662
12.217760
18.269420
29.471517
39.812922
53.821802
62.361956
69.422722
69.397688
64.018965
57.482719
45.311451
35.586953
23.662448
16.689897
9.957552
6.628633
3.784895
2.753735
2.082586
1.962781
1.706481
##ZVALUE=345
0.419617
0.571609
0.236630
0.410676
0.433922
0.574589
0.485778
0.400543
0.450611
0.416636
0.450611
0.371933
0.384450
0.464916
0.378489
0.441670
0.383854
0.450611
0.501871
0.398755
0.439882
0.563860
0.641942
0.632405
0.611544
0.528693
0.500679
0.617504
0.448823
0.422597
0.571609
0.395775
0.500679
0.561476
0.590682
0.600815
0.481606
0.634789
0.638962
0.649691
0.531673
0.512600
0.658631
0.539422
0.710487
0.688434
0.756979
0.665784
0.838637
0.952482
0.836849
0.965595
1.020432
1.133680
2.237558
14.162660
39.519668
105.794668
190.606713
346.904993
478.100777
636.016726
712.161660
729.129910
674.805641
531.530976
392.765999
224.322677
128.413439
53.943992
23.889542
8.206964
5.180836
4.677773
4.263520
4.133582
4.623532
6.642938
10.084510
16.907454
25.393963
37.844777
47.058463
57.236552
62.287450
64.312816
61.511993
52.943826
45.392513
34.018755
25.197864
15.744567
10.774732
6.276965
4.149675
2.666712
##ZVALUE=350
0.302792
0.265837
0.456572
0.479817
0.390410
0.430942
0.310540
0.301600
0.287890
0.238419
0.231862
0.354648
0.371933
0.248551
0.329614
0.399947
0.309944
0.410676
0.412464
0.314713
0.280738
0.560880
0.432730
0.311732
0.486970
0.461936
0.589490
0.504851
0.508428
0.495911
0.445843
0.291467
0.520945
0.435710
0.360608
0.417829
0.502467
0.655651
0.610948
0.657439
0.634789
0.582933
0.523925
0.663996
0.507832
0.678897
0.689626
0.758767
0.682473
0.756979
0.848770
0.969768
0.868440
0.975728
0.990629
1.005530
1.448989
5.266666
25.058985
59.205890
143.374801
242.510438
410.242677
531.253815
662.050843
707.287788
668.546557
576.992631
403.174758
275.727510
146.069527
80.062747
27.830601
11.287928
5.355477
4.261732
4.002452
3.672838
3.579855
4.128814
6.131530
9.387732
15.015602
21.713972
32.195449
40.824413
50.418973
56.025982
58.109760
56.870580
50.319433
42.378902
32.007694
23.604631
15.398860
10.606647
##ZVALUE=355
0.443459
0.360608
0.490546
0.244975
0.440478
0.387430
0.410676
0.450611
0.429749
0.543594
0.276566
0.459552
0.330806
0.391603
0.406504
0.492930
0.343919
0.445843
0.387430
0.467896
0.383854
0.226498
0.397563
0.304580
0.377893
0.527501
0.477433
0.549555
0.578761
0.499487
0.403523
0.451803
0.498891
0.590682
0.590682
0.666976
0.583529
0.386834
0.638962
0.539422
0.581741
0.566840
0.562668
0.707507
0.730753
0.521541
0.616908
0.596642
0.779629
0.835657
0.773668
0.862479
0.771880
0.891685
0.861883
0.982881
0.917912
0.946522
1.217723
3.137589
11.484623
45.317411
93.397498
200.170875
316.632986
491.781831
601.040721
686.900020
686.106682
589.901805
477.663875
318.048000
199.882984
89.700818
43.409467
13.911724
6.530881
4.216433
3.845692
3.623962
3.357530
3.434420
3.737807
5.357862
7.694960
13.124943
18.685460
27.935505
35.405755
44.405460
50.166845
52.741766
52.760839
46.709776
40.040612
31.132698
##ZVALUE=360
0.349879
0.392795
0.213981
0.394583
0.460744
0.380874
0.587702
0.343919
0.455976
0.384450
0.508428
0.417829
0.394583
0.325441
0.401735
0.375509
0.467896
0.528693
0.275970
0.491738
0.426769
0.409484
0.531673
0.482798
0.476837
0.469685
0.440478
0.315905
0.426769
0.521541
0.633597
0.557899
0.603795
0.512600
0.485778
0.546575
0.583529
0.673532
0.518560
0.613928
0.678897
0.532866
0.589490
0.691414
0.547767
0.626445
0.681877
0.614524
0.692606
0.616908
0.598431
0.651479
0.674725
0.708699
0.956655
0.940561
0.861883
0.933409
0.921488
1.206994
1.281500
1.643896
4.704595
22.930503
57.144761
143.180490
241.504908
399.516821
528.701544
649.679899
679.165721
631.746650
532.819629
366.289616
242.629647
120.195746
62.644482
23.294687
9.494424
4.633665
4.115701
3.510714
3.330708
3.093481
3.108978
3.247857
4.010797
6.288886
9.957552
15.655756
21.633506
31.401515
37.663579
45.011640
48.014522
48.167706
##ZVALUE=365
0.356436
0.483990
0.468493
0.327826
0.411868
0.436902
0.548959
0.374913
0.568628
0.382662
0.489950
0.147820
0.376701
0.355840
0.411868
0.385642
0.450611
0.471473
0.538826
0.482798
0.414848
0.338554
0.518560
0.668764
0.521541
0.564456
0.613928
0.567436
0.475645
0.660419
0.276566
0.493526
0.519753
0.520945
0.490546
0.564456
0.532866
0.535846
0.587702
0.545979
0.606775
0.482798
0.587702
0.527501
0.538826
0.519753
0.401735
0.747442
0.638962
0.741482
0.563860
0.733733
0.718832
0.749826
0.748634
0.749826
0.748634
0.802875
0.844598
0.812411
0.998974
0.917912
1.183748
1.249909
2.330542
12.392402
34.359694
93.606710
174.295902
329.951644
449.392796
584.626794
653.395653
649.426579
577.448606
430.784822
310.561657
174.177885
94.905496
34.435987
14.039874
4.984736
4.046559
3.411770
3.328919
3.294945
2.871752
2.700686
3.006458
3.603697
4.799962
8.681417
12.466908
19.559860
25.853515
33.765435
##ZVALUE=370
0.462532
0.465512
0.386834
0.335574
0.259876
0.359416
0.432730
0.358820
0.434518
0.423789
0.367761
0.438690
0.413656
0.349879
0.345707
0.280738
0.387430
0.377893
0.355840
0.385642
0.306964
0.396967
0.441670
0.353456
0.450611
0.538826
0.471473
0.481606
0.471473
0.523925
0.493526
0.586510
0.426769
0.552535
0.462532
0.514984
0.468493
0.590682
0.440478
0.452995
0.498891
0.523925
0.386834
0.613928
0.482798
0.630617
0.658631
0.502467
0.442863
0.485778
0.549555
0.636578
0.598431
0.598431
0.608563
0.616908
0.644922
0.738502
0.752807
0.820756
0.750422
0.964999
1.008511
0.928640
0.996590
1.112819
1.545548
6.039739
20.248890
69.003701
130.983591
253.280997
377.410650
540.772676
623.925924
648.506880
597.358942
473.919511
351.930857
200.185776
113.894939
46.029687
21.457672
7.648468
4.051924
3.396869
3.176928
3.084540
2.734661
2.476573
2.453923
2.593994
3.124475
4.681945
6.655455
11.053681
##ZVALUE=375
0.417829
0.274777
0.320673
0.249743
0.237823
0.324845
0.421405
0.348687
0.364780
0.356436
0.261664
0.293851
0.254512
0.200868
0.343919
0.511408
0.538826
0.538826
0.374913
0.498891
0.552535
0.365973
0.441670
0.361800
0.419617
0.409484
0.440478
0.532866
0.453591
0.409484
0.413656
0.450611
0.369549
0.588894
0.558496
0.439882
0.463724
0.596642
0.505447
0.553727
0.431538
0.328422
0.469685
0.435710
0.386834
0.433922
0.612736
0.361800
0.358820
0.498891
0.556707
0.465512
0.539422
0.609756
0.577569
0.490546
0.592470
0.490546
0.735521
0.525713
0.603795
0.615716
0.756979
0.718832
0.723600
0.730753
0.910759
1.122952
1.126528
3.101826
10.859966
39.890409
88.519454
200.117826
311.453938
474.079847
572.800636
641.402006
626.748800
524.290800
406.134725
251.337886
159.636736
78.509450
39.065480
12.572408
5.381703
3.362894
3.015995
2.999902
2.816916
2.377629
2.329946
2.330542
2.256632
2.777576
##ZVALUE=380
0.296831
0.414848
0.236630
0.211596
0.290871
0.249743
0.212789
0.209808
0.368953
0.207424
0.209808
0.332594
0.307560
0.358820
0.382662
0.322461
0.248551
0.351667
0.321865
0.370741
0.345707
0.427961
0.314713
0.349879
0.326633
0.223517
0.395775
0.390410
0.464916
0.427961
0.472665
0.535846
0.602603
0.384450
0.479817
0.456572
0.417829
0.481606
0.406504
0.452995
0.455976
0.404716
0.414848
0.415444
0.349879
0.535846
0.543594
0.333786
0.517964
0.419617
0.622869
0.527501
0.413656
0.417829
0.489950
0.409484
0.635982
0.429749
0.519753
0.631809
0.493526
0.352859
0.483990
0.569820
0.786781
0.699759
0.789762
0.836849
0.863671
1.037717
0.979900
1.589656
6.091595
28.699636
67.259669
159.060955
259.437561
414.441824
528.477430
627.799034
636.909008
555.970669
460.900664
324.138999
218.394399
108.037591
55.472851
19.234419
8.271933
3.728867
3.136992
2.902746
2.683997
2.537966
2.415776
2.376437
##ZVALUE=385
0.294447
0.365973
0.188947
0.211596
0.360608
0.251532
0.325441
0.338554
0.385642
0.414848
0.315905
0.403523
0.339746
0.268817
0.242591
0.191927
0.279546
0.333786
0.483990
0.378489
0.265837
0.234842
0.417829
0.452995
0.437498
0.538826
0.359416
0.475645
0.528693
0.537634
0.478625
0.560880
0.574589
0.597835
0.521541
0.675917
0.509620
0.728965
0.463724
0.568628
0.589490
0.625849
0.601411
0.615716
0.439882
0.513792
0.660419
0.524521
0.425577
0.544786
0.490546
0.583529
0.527501
0.544786
0.475645
0.416636
0.502467
0.519753
0.474453
0.549555
0.546575
0.604987
0.589490
0.528693
0.638962
0.639558
0.623465
0.707507
0.745654
0.883937
0.987649
0.975728
1.088977
1.291633
2.943873
16.417503
42.304993
108.326674
195.088983
344.487429
461.004972
583.364964
618.456006
597.614646
528.518558
390.929580
279.071927
153.872967
88.105798
36.435723
14.599562
4.475713
3.262758
2.977848
2.653599
2.636909
##ZVALUE=390
0.287890
0.388622
0.245571
0.362992
0.288486
0.284910
0.122786
0.296831
0.236630
0.300407
0.426769
0.335574
0.239611
0.368953
0.263453
0.421405
0.318885
0.147820
0.271797
0.308752
0.370741
0.428557
0.560880
0.415444
0.422597
0.555515
0.426769
0.344515
0.498891
0.601411
0.532866
0.650883
0.676513
0.673532
0.721812
0.751615
0.739694
0.737906
0.668764
0.715852
0.536442
0.694990
0.552535
0.735521
0.696778
0.599623
0.574589
0.481606
0.506639
0.704527
0.363588
0.455976
0.462532
0.625849
0.579953
0.677705
0.636578
0.483990
0.650883
0.570416
0.589490
0.667572
0.609756
0.612736
0.602603
0.682473
0.793934
0.723600
0.798702
0.803471
1.034737
0.961423
0.917912
0.895858
1.076460
1.176596
1.742840
8.864999
27.349591
84.903836
158.997774
300.135612
411.741734
535.064936
603.019595
624.714494
576.869845
457.494855
351.526737
216.081738
126.100779
52.077770
23.821592
7.018447
3.728867
2.886653
##ZVALUE=395
0.281930
0.307560
0.366569
0.161529
0.252724
0.240803
0.219941
0.239611
0.341535
0.307560
0.329614
0.313520
0.418425
0.176430
0.157952
0.156760
0.266433
0.095963
0.240803
0.420809
0.255704
0.272989
0.270605
0.351667
0.403523
0.264645
0.387430
0.466704
0.439882
0.476837
0.335574
0.587702
0.473857
0.518560
0.629425
0.603795
0.611544
0.514984
0.428557
0.559688
0.511408
0.570416
0.461936
0.648499
0.588894
0.601411
0.588894
0.545979
0.721812
0.514984
0.614524
0.568628
0.347495
0.348687
0.439882
0.521541
0.451803
0.607967
0.477433
0.451803
0.536442
0.466704
0.517964
0.500679
0.478625
0.530481
0.533462
0.628829
0.613928
0.624657
0.727773
0.824928
0.723600
0.813603
0.756979
0.857711
0.765920
0.785589
1.048446
4.543662
17.013550
61.346889
122.399926
240.697861
350.623727
504.819751
593.841672
647.222996
627.864003
535.745025
421.929955
264.004469
165.125728
73.149800
35.092831
11.595488
##ZVALUE=400
0.407696
0.604987
0.374913
0.466704
0.419617
0.495911
0.422597
0.397563
0.262856
0.298619
0.281930
0.336766
0.426769
0.260472
0.472665
0.356436
0.366569
0.416636
0.492930
0.442863
0.326633
0.380874
0.285506
0.341535
0.285506
0.328422
0.412464
0.297427
0.535846
0.535846
0.583529
0.686646
0.610948
0.525713
0.572801
0.625849
0.677705
0.728965
0.625849
0.626445
0.610948
0.733733
0.731945
0.679493
0.640750
0.587702
0.667572
0.844598
0.738502
0.675917
0.674725
0.797510
0.490546
0.615716
0.497699
0.559688
0.576973
0.632405
0.549555
0.740886
0.567436
0.515580
0.558496
0.554919
0.625849
0.589490
0.731945
0.596642
0.640750
0.694990
0.861883
0.921488
0.923872
0.896454
0.920892
0.860691
0.926852
1.026988
0.921488
1.072884
1.308918
2.727509
9.799600
37.494898
81.816912
184.330940
294.005871
456.865430
559.368730
643.931627
655.301809
571.276546
468.916893
312.958956
207.845569
105.421543
##END
