##TITLE=WAT5
##FORMAT=SPECTACLE-ASCII V-1.2
##DATA TYPE=ULTRAVIOLET SPECTRUM
##SECOND TYPE=ULTRAVIOLET SPECTRUM
##DATE=01/24/18
##TIME=12:03:31
##SPECTROMETER/DATA SYSTEM=SPECTACLE
##XUNITS=NM EM
##YUNITS=ENERGY
##YFACTOR=1
##FIRSTX=220
##LASTX=410
##NPOINTS=96
##3DDATA=Equidistant
##ZUNITS=NM EX
##FIRSTZ=210
##LASTZ=400
##ZPOINTS=39
##XYDATA=(Y..Y)
##ZVALUE=210
19.099712
18.968582
15.059710
13.769865
12.622476
12.317896
12.229681
9.066463
8.153915
5.889535
4.190803
3.257990
2.741814
1.884699
1.925826
2.737641
2.199411
2.434850
3.034472
2.921820
3.260970
3.374815
3.395677
3.395677
4.424453
4.971623
5.244613
7.793903
7.561445
8.546710
9.447932
9.513497
9.368658
9.875894
9.611845
10.452867
9.815693
9.812713
10.087490
10.363460
9.466410
9.440780
9.628534
9.472966
9.440780
7.608533
9.674430
9.793639
8.240938
8.355975
8.983612
8.965731
8.960962
9.224415
9.057522
9.791851
8.383989
7.774830
8.512735
8.101463
9.674430
8.482933
8.061528
8.558631
8.062720
8.668900
8.789897
9.242892
10.481477
10.653734
11.522770
13.269782
13.654828
16.087890
16.311407
15.509725
16.784668
15.320778
14.613867
13.089776
12.522936
11.769533
9.770989
8.782744
7.819533
6.820560
7.212758
7.492900
7.510781
10.974407
13.857484
19.295812
25.286674
33.681989
41.373968
52.922964
##ZVALUE=215
55.563450
52.281618
43.653846
33.875704
24.535656
20.701885
20.967722
18.392801
18.154979
17.015934
13.105869
10.201931
6.886721
6.539822
3.694892
3.088713
2.943873
3.103614
2.792478
2.322793
3.125668
3.897548
3.475547
4.523993
5.373955
5.518794
6.929636
8.044839
9.579659
10.792613
10.027885
12.014508
12.163520
12.211800
11.719465
12.053847
11.991858
11.584759
11.753440
12.427568
11.440516
12.906790
11.629462
11.343956
10.732412
11.433959
10.305643
10.469556
11.332631
11.193752
10.484457
11.229515
12.329817
11.450648
10.721684
10.913610
11.137724
11.711717
11.490583
11.570454
10.540485
10.771751
10.958910
10.047555
10.730624
11.173487
9.603500
11.424422
11.745691
10.415912
12.223721
13.320446
14.649630
15.812516
15.361905
15.399456
15.525818
16.159415
15.281439
13.843775
13.580918
11.570454
11.441708
9.978414
8.070469
5.730987
6.624460
6.452799
5.566478
6.393790
6.526709
5.983710
7.461905
8.482933
10.158420
17.105937
##ZVALUE=220
122.724771
120.393634
119.600892
100.036860
82.495809
62.848926
51.276684
34.592748
29.822588
30.661821
28.158426
27.592778
24.232864
18.848777
15.362501
12.119412
8.010864
5.380511
4.614592
3.458858
3.483891
4.115701
4.012585
5.260706
5.112886
6.080866
7.508993
9.725690
10.623932
10.565519
12.317896
12.269616
13.772845
13.692975
14.342666
15.677810
14.895797
14.893413
14.780760
15.596747
14.293790
15.880466
14.260411
13.749599
13.155937
14.385581
14.134645
14.013648
14.070868
14.431477
13.528466
14.121532
15.443563
15.135407
15.395880
14.959574
14.858842
15.676618
14.945865
14.720559
15.344620
14.792681
13.284683
13.781786
14.430881
12.652874
12.645721
13.292432
14.001727
14.796853
14.802814
16.900897
14.985800
18.062592
17.460585
18.256903
16.698837
14.870763
16.400814
15.798807
13.450980
13.007522
11.357665
9.644628
8.239746
9.079576
6.520748
7.546544
7.623434
6.716847
6.389618
7.514954
7.033944
6.505847
6.528497
7.145405
##ZVALUE=225
155.837536
168.699622
192.874670
208.876729
207.707882
184.846520
157.085657
117.281675
84.740520
65.810680
49.604774
46.209693
45.677423
46.695471
44.482946
38.217902
28.407574
23.883581
15.614629
10.051727
7.270575
4.562736
4.773736
5.319715
4.858971
5.517602
6.172657
7.740855
8.488894
9.978414
10.652542
11.756420
11.330843
11.809468
13.331771
14.443994
14.645457
15.523434
15.627742
17.108917
16.099811
15.043616
15.865564
16.570687
16.496778
14.879704
16.385913
16.671419
15.920997
16.689897
17.002821
16.508698
17.535686
18.386841
17.522573
18.722415
18.049479
18.230677
19.346476
18.762946
19.089580
17.583966
18.977523
16.164780
15.746951
15.985966
16.142726
16.703606
15.246868
16.070604
16.477704
16.804934
17.730594
18.163919
18.365979
18.374920
15.779734
14.071465
15.612841
14.064908
13.515949
12.295842
10.451674
10.132790
9.521842
8.493662
8.580685
8.544922
8.514524
7.352829
8.137822
7.510781
6.430745
8.298755
7.519722
7.217526
##ZVALUE=230
103.849769
114.087462
167.979598
249.905586
295.660496
344.368815
342.327952
315.248966
274.153948
215.121508
146.875978
105.495453
77.533722
68.233609
70.772767
73.596835
71.769953
66.782832
59.516430
45.379996
33.289790
20.708442
13.947487
10.139942
6.347895
6.129742
5.803704
5.869865
7.050633
7.647872
7.356405
9.388924
8.862615
10.449886
10.871887
11.692643
12.983680
13.027787
13.892651
13.587475
13.141632
14.997721
15.466809
14.572740
14.710426
15.104413
15.759468
15.202761
16.032457
16.931891
17.514825
15.896559
16.770959
18.025637
17.679930
17.711520
19.124746
19.663572
18.268824
17.665625
19.042492
18.897653
16.898513
17.506480
17.175674
15.787482
17.552972
14.900565
16.309619
17.141700
18.855929
17.570853
18.747449
18.678904
19.989610
19.245744
18.225908
15.286803
16.423464
15.199780
14.200807
11.314750
12.891889
11.185408
10.607839
9.210706
10.146499
9.292960
9.907484
8.752942
8.872747
8.682609
7.639527
8.275509
7.641912
8.475780
##ZVALUE=235
26.840568
31.608939
76.383948
132.611990
208.224654
322.359800
415.532589
502.258539
527.085662
503.431559
445.120931
320.057869
238.529444
155.214667
117.596984
94.724894
91.131926
100.222826
104.749799
104.877949
93.486905
80.384612
61.827898
42.808652
25.544763
19.719601
12.260675
9.488463
8.477569
8.698702
8.282661
9.125471
9.742975
9.778738
10.150671
10.719895
12.231469
11.320710
12.781620
13.103485
14.224648
13.389587
13.578534
12.865663
14.875531
14.740825
14.325976
13.504624
15.147924
16.313791
16.368628
15.277863
17.099977
15.273690
17.091632
16.393661
16.549826
17.614961
17.605424
16.980767
17.416477
18.463731
17.170906
17.003417
15.574694
16.777515
15.344620
17.828941
17.629862
18.265843
17.357469
18.221736
19.084811
19.310713
20.138621
19.131899
19.597411
17.815828
17.570853
16.039610
15.436411
13.649464
14.203787
13.699532
11.870861
10.857582
10.456443
10.600686
10.427833
9.644628
9.241700
9.850860
9.382963
9.852648
10.293722
10.375977
##ZVALUE=240
2.197623
2.482533
7.814765
29.783845
63.971877
137.982965
229.344964
376.362801
494.289994
600.304604
664.747953
677.393675
581.991673
494.138598
353.718996
246.402621
155.426860
119.795799
107.259750
117.047429
122.883916
130.331516
123.064518
111.114979
91.901422
68.573952
52.609444
33.177733
23.448467
16.287565
13.815761
11.644959
11.333823
10.748506
11.131763
11.639595
11.634827
11.149645
11.860728
12.259483
12.587905
12.423992
12.079477
12.544990
12.256503
12.535453
12.441874
12.846589
12.622476
13.041496
13.558865
13.477802
13.669729
13.383627
13.584495
15.069842
15.342832
13.434887
14.331937
14.320612
13.801455
14.877915
14.234781
13.475418
13.819933
14.998913
15.348792
15.866756
15.958548
17.102957
16.608834
18.801689
18.716455
17.308593
17.222762
18.251538
19.252896
16.291738
15.238523
14.750957
14.144778
13.099909
12.779832
12.142658
10.852814
10.899901
9.741783
10.123849
10.090470
9.258986
10.317564
10.091662
9.661913
9.563565
10.000467
10.716915
##ZVALUE=245
1.531839
1.422763
1.705885
1.882911
4.019737
17.466545
43.517947
118.209720
200.235844
358.010530
494.742990
667.828918
750.835538
780.363679
736.528635
613.482594
486.924648
315.181613
223.541856
139.205456
112.683773
107.477903
124.100447
136.947632
143.011808
137.207508
120.851994
100.217462
79.098940
60.940981
38.978457
28.596520
22.333860
15.717745
14.155507
13.256669
13.661981
12.455583
12.883544
13.266802
11.938810
11.323690
12.481809
12.137890
11.939406
11.629462
11.684895
12.135506
12.934804
12.318492
13.943911
12.484789
11.945963
13.883710
12.777448
12.852550
13.928413
12.801886
12.257695
12.569427
12.740493
13.957620
13.426542
12.674928
13.485551
12.321472
12.790561
13.011694
13.716817
13.593435
15.094876
15.004873
17.262697
17.142892
16.630888
15.867949
16.997457
14.451742
14.553666
12.801886
13.045669
11.915565
11.765957
11.639595
11.048913
10.463595
10.728836
10.075569
9.164810
9.851456
9.712577
10.270476
8.510947
10.308623
9.555817
10.253787
##ZVALUE=250
1.126528
1.299977
1.439452
1.569986
1.985431
1.580715
2.771616
9.234548
36.808848
78.485608
189.162493
310.613513
457.484722
659.026504
788.899660
874.065757
860.373974
759.990811
638.110638
429.049730
292.546749
187.552571
119.282603
101.643801
116.130710
131.651759
147.599578
153.422952
141.849518
131.069422
105.457902
83.575845
64.636469
40.926933
30.565858
19.655824
16.395450
14.679432
13.800859
12.976527
13.085604
12.217760
12.026429
12.991428
12.815595
12.268424
12.790561
12.105703
12.778640
12.875795
12.426972
12.494922
13.313890
12.829900
13.131499
12.006760
13.096929
12.828708
13.429523
13.219714
12.410879
12.627840
12.239814
12.320876
12.701750
11.459589
12.136698
12.391806
12.682676
13.279915
13.147593
13.333559
13.681650
14.811754
13.939738
14.509559
13.552904
13.109446
12.782812
11.264682
10.807514
10.803938
10.433793
9.864569
9.944439
8.303523
8.327961
7.987618
9.125471
8.362532
7.625818
7.885695
8.552670
8.370876
7.786751
9.274483
##ZVALUE=255
1.021624
1.095533
1.060963
1.384616
1.305938
1.440644
1.570582
1.455545
1.701713
5.025864
24.424791
59.035420
123.482943
269.590616
423.160791
651.601553
810.850859
946.393013
990.041494
911.114812
777.943730
604.983568
376.649499
237.486959
131.796598
100.267529
97.716451
113.374591
137.256980
146.974921
154.685974
152.745843
137.593746
111.898780
88.619590
60.409904
43.229461
26.574731
20.073652
15.135407
13.478994
12.643933
13.054609
12.308955
12.905598
12.139678
12.555718
12.145638
13.081431
13.165474
13.569593
13.217926
13.304949
13.232827
12.402534
12.051463
13.011694
12.536645
12.719631
12.459755
12.401938
12.157559
12.642741
11.687875
11.520982
12.080669
11.101961
10.741949
12.281537
12.027621
13.055801
13.250709
12.660623
12.666583
12.788773
13.155937
12.692809
11.756420
10.625720
10.182858
9.550452
9.017587
8.710623
8.413792
8.496642
7.575750
7.710457
6.763935
6.951690
7.447600
7.648468
7.863641
8.127689
8.000731
7.418990
8.342862
##ZVALUE=260
1.096725
1.060963
1.057982
1.165867
1.020432
1.174808
0.975728
1.072884
1.381636
1.387596
1.824498
2.762675
8.327961
36.303401
87.872744
223.853588
369.261503
611.881614
806.034803
1007.106900
1015.589833
1015.589833
936.262012
741.173625
478.060842
322.266817
184.786916
116.513968
85.156560
87.636709
104.023814
130.282640
147.790909
156.806707
154.069662
135.431886
114.931464
85.905790
64.228773
44.012666
30.665994
20.415783
17.089844
14.024973
14.789701
14.099479
13.665557
13.622642
14.408827
14.088750
13.978481
14.020801
14.849901
14.321804
14.095902
14.185905
13.905764
12.840629
12.406707
13.295412
13.660789
13.634562
12.675524
11.968613
12.297630
12.310743
11.760592
12.039542
12.140870
12.203455
12.528896
12.641549
13.160706
13.467669
11.911988
12.814999
11.699796
11.061430
10.676980
9.861588
9.304881
9.451509
8.917451
8.244514
7.464886
7.662773
6.737709
7.331967
7.139444
6.948709
7.276535
7.441640
7.254481
7.579923
8.317828
8.195639
##ZVALUE=265
0.959635
1.181960
1.239777
1.064539
1.121759
1.215935
1.322627
1.320839
1.231432
1.289845
1.392961
1.925826
1.482964
2.066493
4.855990
24.574995
66.015720
183.073878
331.588984
619.231462
857.350826
1015.589833
1015.589833
1015.589833
1015.589833
874.554515
620.013475
435.101986
242.902637
146.150589
93.268752
74.697733
87.567568
115.252733
136.746764
159.369707
159.973502
152.866840
139.584541
111.675858
89.277625
60.817599
45.622587
29.975772
23.081899
17.237663
16.368628
15.268922
15.179515
15.532970
16.020536
15.024543
15.701652
15.106797
14.929771
15.670657
15.458465
15.303493
15.343428
14.633536
14.307499
13.966560
13.921857
12.788773
13.179779
13.088584
13.054609
12.929440
13.262630
13.239980
13.542771
13.938546
13.411641
13.490915
13.210773
12.149811
12.298822
10.726452
10.411739
10.043979
9.605885
9.570718
8.282661
8.409619
7.554889
7.456541
7.229447
7.160902
7.524490
7.451773
7.687807
7.964969
7.254481
7.928610
8.015633
8.417964
##ZVALUE=270
1.024604
0.985861
0.849962
0.881553
1.056790
1.285672
1.346469
1.097918
1.213551
1.159906
1.285672
1.247525
1.336932
1.664758
1.678467
1.661777
2.759695
10.950565
34.619570
140.514970
293.523669
508.192778
856.868029
1015.594602
1015.594602
1015.594602
1015.594602
1015.594602
777.250528
570.333004
394.340754
203.458667
117.754936
66.233873
66.369772
91.178417
112.957954
143.201947
155.619979
162.361860
161.802769
140.476823
119.148493
90.749860
69.131851
44.878721
34.699440
23.883581
20.307899
17.866492
17.499924
17.703772
17.023683
17.876625
16.697645
16.556978
16.230941
16.455650
16.721487
16.097426
15.596747
15.677810
15.545487
14.766455
14.705658
14.148951
14.957786
14.200807
13.932586
14.171600
14.240742
14.282465
13.750792
13.864636
13.466477
13.062954
12.077689
11.083484
10.931492
10.586977
9.406805
8.905530
8.563995
8.230805
8.303523
7.893443
7.590652
7.606745
7.478595
7.513762
7.579923
7.551908
7.218719
8.044839
8.137822
8.099675
##ZVALUE=275
0.868440
1.034737
1.100898
0.865459
0.981688
0.965595
1.158714
1.074672
1.009703
1.063943
1.133680
1.242757
1.093745
1.342893
1.386404
1.392961
1.625419
1.761913
1.815557
5.365610
20.690560
71.718693
246.417522
445.722938
785.652995
1004.606485
1015.589833
1015.589833
1015.589833
1015.589833
926.840901
709.401965
499.487519
262.758732
151.328444
72.598457
55.249929
66.173673
87.979436
116.012692
136.393905
156.409740
163.345933
149.865746
140.874982
116.026998
92.687607
65.831542
50.244927
37.741661
25.579929
21.560788
18.341541
17.728806
17.802715
17.992854
17.072558
16.826987
16.924739
16.602874
16.222000
15.592575
15.367866
15.511513
15.040636
14.960766
13.945699
14.307499
14.660954
14.625788
14.064908
14.234781
14.355779
13.234615
13.527870
12.713671
12.433529
11.265874
11.491776
10.440946
9.959936
9.073615
8.641481
7.591844
7.397532
7.523894
7.526875
7.038713
7.136464
7.182956
7.280707
7.393956
7.434487
7.493496
7.562637
7.731915
##ZVALUE=280
0.828505
0.848770
0.781417
0.752807
0.954866
0.870824
0.903606
0.753999
0.996590
1.035929
0.969768
1.099706
0.827909
1.098514
1.220703
0.988841
1.261830
1.295805
1.462698
1.682639
1.842976
2.858639
14.225841
55.695772
191.634893
345.411897
604.656935
841.465592
1015.589833
1015.589833
1015.589833
1015.589833
996.604562
815.364718
537.118912
355.762839
175.998807
96.621513
51.374435
60.113668
63.331723
88.212490
110.532641
136.485696
150.897503
156.185627
150.727630
132.957697
113.756657
86.312890
66.262484
45.448542
33.488870
20.042658
19.972920
16.914606
16.314983
15.597939
15.920997
16.066432
14.802814
14.958978
14.714599
14.401674
14.052987
13.840795
14.194846
13.068914
13.358593
13.604760
13.579726
13.407469
12.425780
13.408661
12.353659
12.616515
11.304617
11.027455
10.839701
9.396672
9.459853
8.746982
8.553863
8.002520
7.145405
7.313490
7.127523
7.060766
6.791949
7.015467
6.868839
6.767511
6.559491
6.841421
7.289648
6.852746
##ZVALUE=285
0.781417
0.869632
0.666976
0.670552
0.739694
0.808835
0.821948
0.824928
0.763535
0.891685
0.846982
0.943542
0.938773
0.946522
1.097918
0.957847
0.997782
1.109838
1.186728
1.389980
1.387596
1.383424
1.758933
2.014637
5.489588
22.965670
93.435645
201.273561
417.436361
621.049404
902.615786
1015.589833
1015.589833
1015.589833
1015.589833
921.715498
652.514696
450.552702
239.397883
139.089823
62.830448
38.925409
41.189790
54.067969
78.695416
101.362467
126.248598
139.890909
147.393942
144.747496
129.910707
112.637877
85.662603
66.953897
44.730902
31.952858
21.659732
15.680790
14.389753
13.613701
12.929440
13.375878
13.128519
12.360811
12.709498
12.549758
12.485981
12.110472
12.389421
12.116432
11.977553
11.711717
11.451840
11.349916
11.090636
10.828972
10.286570
9.789467
9.346604
9.054542
8.643866
7.925630
7.768869
7.484555
7.422566
7.074475
6.666780
6.382465
6.537437
6.382465
6.487966
6.915927
6.473660
6.681681
6.655455
6.914735
##ZVALUE=290
0.486970
0.648499
0.695586
0.727773
0.761747
0.961423
0.738502
0.747442
0.672936
0.743866
0.830889
0.679493
0.802875
0.764728
0.801682
0.837445
0.984669
0.997782
1.017451
1.089573
1.188517
1.252890
1.111627
1.190901
1.466870
1.894832
2.685785
9.496808
50.834417
117.175579
267.982483
437.738895
717.408657
917.633772
1015.589833
1015.589833
1015.589833
1001.275778
756.326914
562.929511
320.680737
189.039707
81.430674
42.068958
26.348829
32.520890
51.156878
68.216920
94.814897
115.212798
134.723783
140.859485
135.844946
127.328634
103.845000
83.988905
57.684779
42.005777
28.069615
19.631982
14.212728
12.700558
10.751486
10.442734
10.294914
10.208488
10.490417
9.857416
10.315776
10.399818
10.031462
10.178685
9.818673
9.550452
9.909868
9.202957
8.560419
8.405447
8.164644
8.281469
7.552505
7.349849
7.036924
6.667972
6.729960
6.611943
6.347895
6.027818
6.235838
6.115437
6.003976
6.171465
6.375909
6.308556
6.526709
6.695986
##ZVALUE=295
0.678897
0.808835
0.528693
0.730753
0.765920
0.752807
0.764728
0.702739
0.763535
0.730753
0.861883
0.578761
0.840425
0.917912
0.835657
0.967979
0.803471
0.929832
0.897646
1.041889
0.940561
0.868440
1.098514
1.212955
1.138449
1.440644
1.483560
1.629591
1.802444
3.317595
21.905899
62.549710
173.344612
477.778912
538.797975
732.290745
985.834599
1015.589833
1015.589833
1015.589833
790.391564
654.370785
423.090458
255.404711
112.003684
54.255724
23.833513
20.380616
31.385422
44.234991
67.257881
85.644722
109.801888
123.559833
132.998824
130.816698
116.277933
99.271536
75.720549
59.446692
38.283467
26.949644
16.946793
12.482405
9.758472
8.663535
8.087754
7.859468
7.854700
8.009672
8.124709
8.484721
8.112788
8.286834
7.984638
7.492900
7.651448
7.402897
6.717443
6.879568
6.551743
6.189942
6.257892
5.948544
5.440712
5.611777
5.504489
5.648732
5.229712
5.325675
5.573630
5.612969
5.361438
5.602837
5.575418
5.597472
##ZVALUE=300
0.633597
0.674725
0.786781
0.716448
0.591874
0.614524
0.637770
0.584722
0.584722
0.702739
0.726581
0.707507
0.653863
0.705719
0.790954
0.745654
0.749826
0.742674
0.868440
0.782609
0.792742
0.670552
0.815988
1.010895
0.951886
1.143813
1.154542
1.398921
1.488924
1.456738
1.826882
2.025962
9.222627
32.212734
109.601617
207.471848
410.816669
610.471964
874.430537
1013.212800
1015.589833
1015.589833
960.028768
777.805448
512.350798
329.788923
163.397789
87.567568
31.824708
17.748475
18.395782
26.094913
41.798949
58.041811
80.832839
98.248720
117.107630
124.187469
123.124719
114.262700
94.558597
76.547861
53.287745
39.843917
24.032593
16.494989
10.489821
8.242726
7.194877
6.859899
7.136464
6.627440
7.114410
7.163882
6.789565
6.653666
6.521940
6.173849
6.116629
6.021857
5.661845
5.539656
5.394816
5.135536
4.934669
5.003810
4.933476
4.784465
5.172491
4.868507
4.787445
5.082488
4.991889
4.783869
4.744530
4.951954
##ZVALUE=305
0.692606
0.791550
0.580549
0.735521
0.823736
0.758767
0.626445
0.817776
0.683665
0.659823
0.668764
0.558496
0.996590
0.807643
1.039505
0.807643
0.882745
0.811815
0.926852
0.810623
0.871420
1.002550
0.968575
1.017451
1.094937
1.103878
1.120567
1.109838
1.087785
1.467466
1.188517
1.473427
1.682639
2.072453
3.440976
20.477772
56.804419
155.626535
277.032852
506.685972
703.303814
950.838923
1015.667915
1015.667915
1013.976932
810.621977
621.626973
386.414528
239.216685
106.513500
53.062439
19.437671
12.722611
16.615987
23.432970
38.712621
54.052472
75.758696
93.198419
110.707879
115.529895
114.366412
105.569959
88.535547
71.489811
49.972534
35.831928
22.120476
14.887452
9.485483
7.756948
6.545782
6.128550
6.103516
6.209612
5.737543
5.542636
5.352497
5.394816
5.063415
5.007982
5.066991
4.730821
4.765987
4.810691
4.954934
4.897714
4.840493
4.718900
4.648566
4.491806
4.387498
4.152656
4.273653
4.469752
4.357696
##ZVALUE=310
0.418425
0.509620
0.575781
0.598431
0.439882
0.620484
0.642538
0.597835
0.613928
0.715852
0.703931
0.635982
0.724792
0.707507
0.761747
0.588894
0.644922
0.589490
0.809431
0.740886
0.840425
0.823736
0.832677
0.811815
0.924468
0.721812
0.912547
1.000762
0.980496
1.115799
1.082420
1.094937
1.195669
1.341701
1.407862
1.647472
2.028942
6.315708
32.918453
80.119967
200.670958
344.915986
599.944592
800.009966
1010.952592
1015.589833
1015.589833
987.547636
685.563684
359.939933
340.395570
92.587471
77.764988
37.053823
13.745427
10.599494
14.431477
20.081997
32.724738
46.863556
67.915916
83.874464
100.564957
108.009577
108.996630
102.428794
85.453987
70.456862
47.762990
34.561753
21.430850
14.427900
9.458661
7.106662
5.710721
5.365610
4.912615
4.750490
4.398823
4.365444
4.332662
4.204512
4.158616
3.973842
3.883839
4.062653
4.060864
4.094839
4.283786
3.931522
4.251599
3.908873
4.090667
3.805757
3.660917
3.809929
##ZVALUE=315
0.565648
0.624657
0.535846
0.528693
0.563860
0.437498
0.469685
0.658631
0.607967
0.617504
0.538826
0.493526
0.547767
0.715852
0.580549
0.720620
0.719428
0.639558
0.596642
0.591874
0.818968
0.804663
0.759959
0.815988
0.665784
0.745654
0.851750
0.836849
0.802875
0.907779
1.045465
1.022816
1.069903
1.090765
1.157522
1.349449
1.379848
1.432896
1.741648
3.099442
11.968613
94.139576
134.987831
283.229947
457.159877
731.410980
907.126665
1015.589833
1015.589833
996.454954
857.556462
613.725781
431.166887
229.593515
125.302672
46.656728
19.757748
9.690523
9.523630
13.255477
18.384457
30.931830
43.900609
61.326623
78.340769
94.735622
101.411939
102.764964
94.946623
79.861879
65.454841
47.391653
34.142733
20.476580
13.454556
7.758737
5.930662
4.643798
4.384518
4.073977
3.876686
3.719926
3.568530
3.585815
3.505945
3.633499
3.561974
3.386736
3.654957
3.757477
3.612638
3.423691
3.563762
3.566742
3.491640
3.665686
##ZVALUE=320
0.589490
0.441670
0.578761
0.516772
0.655651
0.574589
0.640750
0.487566
0.767708
0.468493
0.556707
0.584722
0.587702
0.556707
0.640750
0.660419
0.548959
0.691414
0.702739
0.687838
0.646710
0.606775
0.647902
0.754595
0.809431
0.713468
0.656843
0.918508
0.858903
0.807643
0.773668
0.855923
0.929832
0.885725
1.014471
1.052618
0.979900
1.214743
1.357794
1.317859
1.558661
2.226830
6.016493
31.747818
80.882907
208.439827
348.575711
583.558679
767.602921
985.959768
1015.589833
1015.589833
952.488780
724.354982
527.471900
290.995836
134.379864
30.361414
12.565851
7.579923
8.467436
9.144545
11.082888
17.364621
25.498867
39.996505
54.189563
73.061585
84.394813
94.960928
95.965862
88.859797
78.427792
58.987737
44.999719
28.793812
19.745827
11.298656
7.706881
4.867911
4.111528
3.541708
3.170967
3.098845
3.212690
3.104806
2.958775
3.119707
3.356934
3.202558
3.331900
3.305674
3.162622
3.147721
3.260970
3.127456
##ZVALUE=325
0.560880
0.580549
0.661612
0.534654
0.619888
0.518560
0.529885
0.545979
0.542998
0.446439
0.593662
0.604987
0.640750
0.602603
0.570416
0.543594
0.633597
0.568628
0.544786
0.552535
0.608563
0.605583
0.610948
0.616908
0.862479
0.645518
0.754595
0.726581
0.736713
0.740886
0.773668
0.801682
0.791550
0.948906
0.903606
0.919700
1.053810
1.068711
1.191497
1.180768
0.939965
1.395941
1.400709
1.754761
3.412962
20.854473
54.628849
144.880414
262.497663
490.374565
684.405565
916.249752
1015.594006
1015.594006
1001.247764
793.528557
605.376959
371.549726
223.037004
96.708536
45.240521
14.728904
7.773638
6.717443
7.279515
10.408759
14.941692
25.246739
36.784410
55.066943
67.462921
81.382990
88.592768
88.297725
83.355904
68.861842
56.112409
39.540529
28.088689
17.133951
11.058450
6.474853
4.586577
3.625751
3.271699
3.070831
2.991557
2.663732
2.642870
2.901554
2.867579
2.891421
2.784729
2.961755
2.977848
3.176928
##ZVALUE=330
0.445843
0.490546
0.526905
0.483990
0.673532
0.587702
0.458956
0.448823
0.597835
0.519753
0.410676
0.543594
0.573993
0.482798
0.495911
0.487566
0.593662
0.477433
0.670552
0.675917
0.680685
0.700951
0.685453
0.549555
0.646710
0.577569
0.578761
0.731945
0.701547
0.598431
0.687838
0.762939
0.842810
0.775456
0.806451
0.853539
0.953674
0.951886
0.924468
0.929832
1.134872
1.104474
1.009703
1.169443
1.303554
1.596808
2.209544
9.327531
29.298663
97.270608
189.651847
379.569530
560.690761
813.098550
972.985029
1015.589833
1015.589833
877.258778
705.232620
454.651713
291.769505
135.592818
66.530704
23.344755
10.083914
6.141663
6.019473
7.068515
9.254813
15.364885
22.508502
35.067797
48.288703
65.024495
74.886680
82.886815
83.318949
75.745583
66.057444
50.644875
37.842989
24.617910
16.948581
10.649562
6.927848
4.608631
3.657937
2.917647
2.669692
2.687573
2.582669
2.589822
2.505779
2.563596
2.682805
2.873540
##ZVALUE=335
0.455976
0.559688
0.523925
0.423789
0.383854
0.456572
0.568628
0.571609
0.516772
0.533462
0.545979
0.426769
0.599623
0.437498
0.482798
0.558496
0.421405
0.523925
0.627637
0.477433
0.711679
0.686646
0.610948
0.620484
0.736713
0.690818
0.712872
0.670552
0.610948
0.688434
0.703931
0.687838
0.772476
0.843406
0.628829
0.710487
0.804663
0.835657
0.971556
0.846982
1.039505
1.031756
0.944734
0.934601
1.146793
1.211762
1.259446
1.414418
1.598597
4.077554
14.912486
60.458779
125.680566
282.037854
451.701880
706.447959
876.545906
1010.096669
1015.592813
918.499827
764.699578
520.694852
354.539752
183.023810
97.557902
34.381747
13.423562
6.444454
5.608797
5.792975
6.052852
9.130836
12.914538
22.387505
32.360554
47.020912
58.129430
70.334673
76.311827
76.472759
71.501732
60.321689
49.436688
35.696626
26.545525
16.579628
11.002421
6.649494
4.624724
3.664494
3.028512
2.748966
2.704859
2.686977
2.676845
2.609491
##ZVALUE=340
0.370741
0.468493
0.361800
0.301600
0.395775
0.397563
0.417829
0.462532
0.645518
0.613928
0.643730
0.476837
0.533462
0.570416
0.471473
0.536442
0.487566
0.576973
0.535846
0.554919
0.472665
0.535846
0.660419
0.541806
0.382662
0.432730
0.670552
0.638962
0.628829
0.691414
0.552535
0.725985
0.805855
0.700951
0.832677
0.637770
0.724792
0.746846
0.734925
0.775456
0.680685
0.873804
0.800490
0.885725
1.043677
1.054406
1.045465
1.004934
1.239777
1.161695
1.463890
2.166629
7.011890
35.881400
88.177919
220.759511
368.995667
606.126785
786.834955
973.075032
1015.589833
974.012613
841.144919
616.641641
431.321859
222.627521
122.814775
47.866702
19.053817
7.049441
5.626678
5.350709
5.385876
6.280541
8.076429
13.198853
19.612908
30.921698
42.864680
56.327581
65.051913
71.541667
72.045922
66.546798
59.372783
47.403574
36.783814
24.874806
17.579794
10.716915
6.985664
4.419684
3.506541
2.872944
2.804995
2.765656
##ZVALUE=345
0.328422
0.521541
0.511408
0.367761
0.464916
0.542998
0.436902
0.351667
0.497699
0.541806
0.550747
0.553727
0.574589
0.580549
0.606775
0.636578
0.453591
0.609756
0.558496
0.461936
0.556707
0.537634
0.464916
0.646710
0.575781
0.600815
0.545979
0.699759
0.685453
0.668764
0.620484
0.632405
0.558496
0.585914
0.710487
0.635982
0.755787
0.694990
0.676513
0.819564
0.762939
0.722408
0.703931
0.866652
0.773668
0.867844
0.896454
0.966787
0.996590
1.113415
1.227856
1.290441
1.379848
1.647472
3.133416
19.653440
58.508515
159.049630
276.015997
489.707589
666.743517
879.225731
971.997976
983.989835
894.317627
682.917833
506.023765
295.336843
167.599916
66.852570
29.705763
10.116696
5.950928
5.153418
5.146861
4.742742
5.350709
7.320642
10.814667
18.673539
26.939511
39.607882
49.371719
59.386492
64.770579
66.615939
63.393712
55.427551
46.941638
34.718513
26.086569
16.859770
11.433959
6.785989
4.792809
3.426671
##ZVALUE=350
0.394583
0.398755
0.337958
0.562668
0.450611
0.420809
0.439882
0.379682
0.444651
0.428557
0.562668
0.335574
0.490546
0.396967
0.345707
0.338554
0.466704
0.493526
0.502467
0.519753
0.556707
0.551939
0.677705
0.623465
0.467896
0.697970
0.503659
0.590682
0.626445
0.584722
0.619888
0.526905
0.668764
0.619888
0.573993
0.413656
0.568628
0.624657
0.668764
0.674725
0.693798
0.702739
0.671744
0.863671
0.872612
0.819564
0.761747
0.871420
0.924468
0.918508
0.875592
1.048446
1.117587
1.212955
1.317859
1.479983
2.051592
9.720922
31.805634
102.114677
193.943977
386.137962
558.014512
773.378015
906.187892
975.196958
925.460458
758.323669
577.789545
338.058472
205.920935
94.178915
42.428970
12.215972
6.168485
4.902482
4.689693
4.517436
4.130602
4.989505
6.397963
10.655522
15.744567
25.189519
33.156872
44.515729
52.251816
58.798790
60.316920
58.137774
53.106546
42.910576
34.452677
24.702549
17.837882
11.491776
##ZVALUE=355
0.325441
0.290871
0.318885
0.485778
0.526905
0.479817
0.402927
0.463724
0.674725
0.481606
0.530481
0.501871
0.528693
0.463724
0.624657
0.443459
0.401735
0.441670
0.740886
0.473857
0.529885
0.555515
0.625849
0.502467
0.532866
0.558496
0.740886
0.578761
0.624657
0.583529
0.557899
0.585914
0.599623
0.610948
0.459552
0.636578
0.537634
0.552535
0.628829
0.673532
0.763535
0.737906
0.646710
0.796914
0.945926
0.736713
0.667572
0.959635
0.829697
0.618696
0.721812
0.757575
0.816584
1.119971
1.167655
1.331568
1.237988
1.363754
1.605749
4.674792
18.564463
71.716905
147.233605
302.546024
463.413000
697.602630
848.861933
955.341458
939.131975
797.656775
635.417700
413.827896
260.378718
114.603639
54.466724
16.531944
7.186532
4.767776
4.542470
4.181862
3.870726
4.018545
4.294515
5.891919
8.671880
14.248490
19.964576
28.996468
36.893487
46.942830
52.451491
55.137873
54.257512
48.789978
42.376518
32.635927
##ZVALUE=360
0.541806
0.329614
0.401735
0.500679
0.470877
0.403523
0.290871
0.521541
0.376701
0.374913
0.439882
0.290871
0.513792
0.474453
0.455976
0.476837
0.492930
0.477433
0.557899
0.423789
0.424981
0.409484
0.492930
0.457764
0.515580
0.495911
0.466704
0.533462
0.523925
0.442863
0.579953
0.537634
0.669956
0.646710
0.574589
0.534654
0.587702
0.493526
0.705719
0.638962
0.610948
0.638962
0.559688
0.660419
0.661612
0.621676
0.737906
0.693798
0.780821
0.775456
0.912547
0.853539
0.780821
0.936985
1.001954
0.967979
0.981688
1.018643
1.153946
1.112819
1.522899
2.479553
8.506775
40.614605
95.196962
224.210024
361.692905
574.674010
735.999942
886.846781
915.140510
841.158032
710.258484
477.042794
314.355493
151.593685
78.040957
27.957559
10.833740
4.995465
4.274845
3.971457
3.781915
3.682971
3.499985
3.972650
4.648566
7.070899
10.363460
16.846657
23.635626
32.991767
40.094852
47.622919
50.283670
50.141811
##ZVALUE=365
0.515580
0.443459
0.514984
0.257492
0.422597
0.420809
0.411868
0.561476
0.495911
0.422597
0.492930
0.503659
0.382662
0.506639
0.340939
0.424981
0.575781
0.484586
0.459552
0.654459
0.464916
0.441670
0.573993
0.425577
0.515580
0.627637
0.634789
0.531673
0.563860
0.656843
0.692606
0.678897
0.651479
0.728965
0.664592
0.730753
0.747442
0.589490
0.635982
0.675917
0.692606
0.763535
0.547767
0.629425
0.625849
0.679493
0.792742
0.606775
0.692606
0.844598
0.882745
0.915527
0.707507
0.813603
0.972748
0.842810
0.953674
1.055598
1.007915
1.105666
1.271963
1.306534
1.429915
1.739860
3.423691
21.695495
61.780810
159.931779
278.455615
479.954481
637.228489
795.387626
867.370963
845.915675
739.428997
536.104441
377.934575
206.796527
112.379789
41.440725
16.652942
5.802512
4.484653
3.960729
3.864765
3.335476
3.462434
3.132820
3.266931
4.207492
5.770922
9.569526
13.540983
19.720793
26.616454
35.149455
##ZVALUE=370
0.372529
0.295639
0.360608
0.418425
0.371933
0.475645
0.494719
0.483990
0.439882
0.408888
0.393987
0.507832
0.427961
0.272989
0.429749
0.407696
0.310540
0.466704
0.448823
0.537634
0.572801
0.606775
0.416636
0.479817
0.351667
0.511408
0.489950
0.543594
0.537634
0.471473
0.562668
0.590682
0.630617
0.579953
0.613928
0.359416
0.482798
0.449419
0.535846
0.495911
0.551939
0.768900
0.530481
0.553727
0.580549
0.613928
0.530481
0.601411
0.682473
0.501871
0.696778
0.746846
0.717640
0.873804
0.770688
0.941753
0.920892
0.884533
0.736713
0.792742
0.909567
1.111627
1.100898
1.297593
1.160502
1.535416
2.021790
11.920929
41.669607
124.850869
219.611526
388.643742
553.221703
748.229027
838.181973
857.209563
783.563852
609.833002
446.991920
250.142813
139.391422
54.048896
24.258494
8.424520
4.794598
3.886819
3.647804
3.576875
3.237724
2.960563
2.935529
3.064871
3.641844
5.487800
7.737875
12.291670
##ZVALUE=375
0.609756
0.510812
0.356436
0.496507
0.518560
0.350475
0.394583
0.448823
0.520945
0.448823
0.594854
0.580549
0.575781
0.434518
0.572801
0.566840
0.530481
0.584722
0.431538
0.555515
0.496507
0.600815
0.589490
0.489950
0.588894
0.638962
0.707507
0.537634
0.652671
0.542998
0.567436
0.734925
0.538826
0.530481
0.718832
0.596642
0.595450
0.690818
0.737906
0.648499
0.622869
0.789762
0.803471
0.742674
0.763535
0.626445
0.675917
0.705719
0.665784
0.672936
0.590682
0.914931
0.733733
0.688434
0.730753
0.692606
0.733733
0.934601
0.913739
0.918508
0.928640
0.820756
0.928640
0.983477
1.105666
1.152754
1.292825
1.575947
1.747608
5.639791
23.508668
85.657835
167.642832
331.173539
485.408902
680.658817
794.464946
865.435004
835.835934
682.334900
525.781512
316.419601
199.513435
97.025633
48.690438
14.965534
6.233454
3.878474
3.535748
3.357530
3.316998
3.076792
3.146529
2.938509
3.038645
3.531575
##ZVALUE=380
0.396967
0.420809
0.397563
0.483990
0.320673
0.364780
0.404716
0.503659
0.534654
0.441670
0.561476
0.537634
0.336766
0.530481
0.312924
0.491738
0.381470
0.291467
0.447631
0.387430
0.402927
0.474453
0.536442
0.322461
0.419617
0.460744
0.403523
0.557899
0.398755
0.525713
0.493526
0.650883
0.662804
0.539422
0.601411
0.655651
0.671744
0.528693
0.683665
0.455976
0.691414
0.575781
0.464916
0.598431
0.621676
0.668764
0.790954
0.557899
0.598431
0.700951
0.747442
0.637770
0.688434
0.686646
0.735521
0.631809
0.560880
0.704527
0.719428
0.871420
0.756979
0.798702
0.845790
0.830889
0.940561
0.968575
0.873804
1.222491
1.196861
1.615882
1.817942
3.084540
12.784600
70.559978
150.330663
298.277736
438.487530
631.487966
759.298801
858.807564
856.945515
745.390654
607.311726
405.686498
268.866420
131.253004
69.144964
26.581883
10.348558
3.933907
3.423691
3.164411
3.263950
3.050566
2.864599
2.848506
##ZVALUE=385
0.375509
0.443459
0.446439
0.443459
0.354648
0.353456
0.371933
0.454783
0.390410
0.204444
0.402927
0.292659
0.519753
0.247955
0.355840
0.266433
0.377893
0.432730
0.431538
0.451803
0.552535
0.587702
0.415444
0.378489
0.616908
0.595450
0.248551
0.578761
0.517964
0.617504
0.755787
0.708699
0.856519
0.972748
0.829697
0.893474
0.827909
1.020432
0.855923
0.697970
0.765920
0.674725
0.852942
0.645518
0.856519
0.738502
0.787973
0.816584
0.625849
0.803471
0.615716
0.666976
0.612736
0.697970
0.613928
0.635982
0.624657
0.745654
0.693798
0.695586
0.716448
0.698566
0.808835
0.719428
0.794530
0.728965
0.830889
0.919700
1.136661
1.128912
1.256466
1.546741
1.626611
1.753569
4.963875
33.710599
88.484883
200.869441
327.436924
529.998541
674.463511
810.534954
846.292973
796.321630
694.139004
503.016710
353.359580
191.588998
107.678771
43.095946
17.427802
5.299449
3.538728
3.236532
3.256798
3.271699
##ZVALUE=390
0.363588
0.387430
0.304580
0.278950
0.355840
0.409484
0.335574
0.420809
0.430942
0.330806
0.359416
0.311732
0.356436
0.567436
0.417829
0.528693
0.413656
0.442863
0.440478
0.410676
0.508428
0.555515
0.356436
0.474453
0.509620
0.578761
0.603795
0.718832
0.588894
0.671744
0.764728
0.853539
0.686646
0.886917
0.852942
0.806451
0.716448
0.960827
1.026988
0.977516
0.921488
0.730753
0.693798
0.769496
0.806451
0.757575
0.738502
0.713468
0.660419
0.778437
0.624657
0.561476
0.718832
0.849962
0.625849
0.625849
0.668764
0.784993
0.659823
0.793934
0.690818
0.806451
0.764728
0.697970
0.747442
0.849962
0.745654
0.861883
0.988841
1.210570
1.240969
1.277924
1.166463
1.037717
1.341701
1.353621
2.511740
14.240742
47.266483
136.968493
244.151950
437.880754
584.064722
744.279623
826.579928
843.377709
775.418878
608.637929
462.885499
278.095603
162.002444
65.420866
29.212832
8.227825
4.187822
3.633499
##ZVALUE=395
0.429749
0.345707
0.463724
0.283718
0.455976
0.299811
0.481606
0.306964
0.401735
0.382662
0.417829
0.346899
0.301600
0.308752
0.343919
0.352859
0.431538
0.527501
0.324845
0.493526
0.431538
0.350475
0.418425
0.392795
0.654459
0.568628
0.404716
0.596642
0.493526
0.568628
0.702739
0.775456
0.676513
0.660419
0.755787
0.879765
0.952482
0.879765
0.802875
0.973940
0.826716
0.771880
0.940561
0.775456
0.946522
0.907779
0.736713
0.705719
0.763535
0.772476
0.573993
0.783801
0.862479
0.630617
0.867844
0.564456
0.741482
0.691414
0.713468
0.660419
0.736713
0.725985
0.736713
0.805855
0.725985
1.014471
0.868440
0.915527
0.964999
1.044869
1.077652
0.989437
0.920892
1.145601
1.043677
1.259446
1.159906
1.224875
1.718402
7.636547
26.678443
90.166926
167.799592
313.021541
458.679795
660.325885
780.095458
848.791599
822.405815
692.964792
538.252592
333.126783
205.441713
89.000463
42.577982
13.630986
##ZVALUE=400
0.653863
0.513792
0.459552
0.271797
0.287890
0.332594
0.388622
0.406504
0.527501
0.460744
0.343919
0.402927
0.501871
0.411868
0.576973
0.359416
0.325441
0.528693
0.362992
0.446439
0.336766
0.423789
0.391603
0.344515
0.577569
0.493526
0.690818
0.478625
0.568628
0.364780
0.630617
0.633597
0.677705
0.537634
0.756979
0.746846
0.699759
0.743866
0.776649
0.856519
0.902414
0.717640
0.726581
0.741482
0.674725
0.765920
0.812411
0.681877
0.709891
0.840425
0.811815
0.882745
0.875592
0.621676
0.797510
0.745654
0.731945
0.785589
0.764728
0.637770
0.578761
0.682473
0.794530
0.836849
0.778437
0.783801
0.810623
1.064539
0.935793
0.957847
1.089573
1.076460
1.106858
0.948906
1.084805
1.081824
1.135468
1.201630
1.287460
1.333952
1.482964
3.650784
13.337731
51.362514
108.426809
239.134431
376.537442
575.235486
710.382462
817.141533
826.403499
719.203949
588.758588
402.497649
264.714956
133.266449
##END
