##TITLE=FSH752
##FORMAT=SPECTACLE-ASCII V-1.2
##DATA TYPE=ULTRAVIOLET SPECTRUM
##SECOND TYPE=ULTRAVIOLET SPECTRUM
##DATE=03/27/18
##TIME=17:38:49
##SPECTROMETER/DATA SYSTEM=SPECTACLE
##XUNITS=NM EM
##YUNITS=ENERGY
##YFACTOR=1
##FIRSTX=220
##LASTX=410
##NPOINTS=96
##3DDATA=Equidistant
##ZUNITS=NM EX
##FIRSTZ=210
##LASTZ=400
##ZPOINTS=39
##XYDATA=(Y..Y)
##ZVALUE=210
13.017654
13.247728
10.481477
10.648966
9.425879
9.454489
7.669926
7.790923
7.252693
5.943775
4.656911
4.602671
3.707409
3.353953
3.626943
3.737807
4.040599
4.103780
3.522635
4.069805
4.197955
4.224777
5.290508
4.718900
6.606579
7.607937
9.928942
13.185740
14.527440
19.440651
20.935535
26.517510
27.709603
30.469894
31.436682
32.842755
31.930804
32.864809
31.472445
29.321909
28.705597
27.422905
26.601553
25.398731
23.477674
21.801591
21.559000
19.817948
19.839406
17.779469
17.021894
16.033649
16.503930
14.837980
12.817979
11.887550
13.416409
12.465715
11.694431
11.803508
10.586977
10.939837
10.900497
10.263920
10.549426
10.156631
10.474920
11.604428
13.796687
13.846755
15.653968
17.984509
20.391941
22.766590
23.247600
23.902655
23.701787
22.926927
22.095442
21.058917
20.287633
16.665459
15.385747
13.375878
12.022853
10.181665
8.895993
8.457899
9.256601
9.066463
10.606647
12.061000
14.905930
18.123984
21.609664
25.673509
##ZVALUE=215
43.431520
41.287541
33.390522
24.137497
20.454526
16.630888
15.251637
12.971759
13.936758
13.173819
12.495518
10.731816
7.900596
5.749464
5.089641
4.328489
4.575849
4.993677
4.628897
4.726648
4.522800
4.853606
5.508661
5.852580
6.817579
9.504557
12.229681
15.300512
19.577742
24.228692
26.754737
33.325553
33.892989
36.645532
40.626526
39.889812
40.890574
39.577484
36.806464
35.635829
34.678578
33.346415
32.963753
30.238628
28.557777
27.620792
24.711490
22.831559
24.405718
20.091534
19.421577
18.356442
17.037988
16.934872
16.226768
15.000701
15.063882
14.059544
14.187694
12.393594
12.502670
11.690855
12.116432
10.793805
10.611415
11.038780
11.824965
12.146831
12.137890
13.399720
15.687943
16.769767
19.260645
19.056797
21.075606
20.687580
21.411777
20.814538
20.391941
18.660426
15.739799
15.057921
13.291836
11.548996
10.309815
9.888411
9.667873
9.157658
8.243918
7.450581
7.574558
7.808805
8.132458
9.801984
9.792447
12.282729
##ZVALUE=220
102.952719
101.949573
96.321702
81.027746
68.615675
48.560500
37.799478
27.474761
23.553967
22.164583
24.630427
23.172498
22.104979
19.364953
15.088916
11.120439
8.391738
6.972551
5.257726
4.790425
5.683899
4.461408
5.478859
5.548596
7.191896
11.174679
13.114810
18.309951
23.825765
28.354526
33.479929
38.209558
41.858554
48.264861
49.607754
49.798489
49.232841
49.990416
47.277808
46.044588
42.462945
42.994618
40.160418
36.284924
34.856796
35.025477
32.416582
31.134486
26.537776
26.747584
24.257898
21.732450
19.738674
19.412637
19.525886
16.555786
16.659498
15.693903
14.967918
14.402866
13.595819
12.960434
14.115572
12.386441
13.167858
12.191534
12.933612
13.361573
13.551712
16.291738
15.382767
18.047690
18.669963
19.243956
19.145608
20.757914
19.958615
20.388961
20.992756
17.660856
17.747879
15.553832
14.347434
14.329553
11.664629
10.199547
9.705424
9.364486
8.177757
8.082986
8.023977
7.582903
7.449985
8.482933
8.650422
8.082986
##ZVALUE=225
143.116713
147.352815
176.853538
185.446739
176.604986
157.829523
137.818456
101.221800
72.228909
55.061579
40.160418
35.188794
39.158463
33.700466
34.064651
30.568838
27.255416
22.340417
15.002489
10.895729
7.408857
6.260872
6.086826
6.020665
8.406639
9.823442
13.318658
17.259717
22.355914
28.440952
29.881597
36.802888
42.266846
46.158433
43.971539
44.708848
45.848489
45.512915
47.519803
45.998693
42.489767
41.434765
36.003590
35.213828
32.031536
32.045841
30.134916
28.032660
25.445819
23.947954
24.001598
21.400452
22.254586
20.029545
21.064878
19.137859
17.874837
16.775727
15.902519
16.036630
16.370416
14.498830
14.134645
14.121532
14.138818
14.195442
13.367534
13.560653
13.617873
16.166568
16.769767
18.422604
18.495917
19.544959
20.464659
19.043684
19.412637
19.949675
18.423796
17.643571
15.409589
15.836954
14.225841
13.580918
12.252927
10.440946
9.687543
10.601878
10.247827
9.468794
9.761453
8.993745
8.511543
8.788705
9.417534
8.139610
##ZVALUE=230
110.639930
115.043521
166.088939
246.276855
288.224816
318.166018
321.056843
293.764472
251.477957
202.364922
131.415725
96.472502
67.593455
61.788559
58.893561
59.122443
60.818791
58.033466
51.605701
39.637685
32.064915
21.389723
15.053749
9.012818
9.425879
9.800792
11.979938
12.684464
16.118884
19.443631
22.010803
25.130510
25.886893
29.909611
32.560825
31.904578
33.333898
31.942725
32.660961
31.045675
29.965639
30.225515
28.780699
25.861859
27.611852
23.701787
22.063851
20.584464
21.201968
20.712614
20.842552
20.383000
20.169616
17.430782
19.212961
18.135905
17.075539
17.811656
16.088486
17.251968
15.930533
17.122626
15.937686
14.415979
16.259551
15.669465
16.122460
17.200708
15.715957
18.288493
19.126534
19.969940
21.963716
21.875501
22.450686
22.539496
21.994710
21.765828
21.642447
19.507408
18.408895
17.547607
16.550422
14.708638
15.254617
12.023449
12.137890
12.073517
10.952950
11.396408
12.062788
11.473894
10.756850
11.735559
11.223555
9.650588
##ZVALUE=235
31.247735
36.428571
84.982514
148.980618
252.896547
340.481997
440.955758
507.704616
530.178547
509.919524
414.282680
347.284675
251.928568
162.121654
123.305917
88.356733
84.810853
86.298585
88.664889
87.582469
83.392859
69.358945
52.782893
42.852759
26.925802
19.983649
14.157891
12.684464
12.613535
13.843775
13.914704
14.742613
15.964508
17.798543
19.555688
19.308925
20.102859
20.610690
18.867850
20.814538
20.605922
19.126534
18.423796
19.162893
18.266439
18.989444
18.044710
16.659498
16.049743
17.598867
15.770793
16.795993
16.205907
16.111732
15.387535
15.751719
15.480518
15.086532
16.043782
16.428828
15.658736
16.019940
15.226603
14.927983
16.234517
16.761422
15.316606
16.359687
17.463565
19.112825
18.134713
21.088719
22.473931
23.681521
24.678707
24.717450
25.753975
22.751689
23.360848
22.170544
19.792914
19.668937
19.312501
16.269684
16.270876
15.561581
13.759732
13.339520
13.030767
13.863444
13.254881
13.378859
12.161732
12.948513
11.302829
12.432933
##ZVALUE=240
3.058910
3.254414
9.756684
37.184954
80.050826
166.373849
264.696479
418.044925
550.794601
644.270778
703.277588
690.400600
593.637824
497.143865
355.430841
248.434544
153.358579
116.232634
98.343492
102.279782
112.620592
114.171505
110.059977
100.596547
84.026456
62.455535
48.162937
32.670498
23.517609
16.896725
13.661981
12.550950
14.391541
13.464689
13.724566
15.370846
15.167594
16.005635
15.937686
16.229749
16.110539
16.685724
17.290711
16.086698
16.387701
15.933514
17.035604
15.435815
15.039444
14.300942
15.050769
15.523434
15.027523
14.080405
15.327930
15.073419
14.786720
13.512969
14.912486
14.125705
15.042424
13.759732
13.647676
14.532804
14.109612
14.495850
15.443563
15.002489
15.432835
17.605424
18.639565
20.154715
20.042658
21.433830
20.599961
22.728443
22.218823
21.072626
20.131469
20.372868
20.028949
18.483996
16.718507
16.386509
15.694499
15.392900
13.777614
15.016794
14.036894
13.008714
13.653636
12.756586
12.330413
12.581944
13.064742
12.473464
##ZVALUE=245
2.501607
2.751946
2.699494
2.463460
7.079840
20.586848
64.805746
131.102800
275.138021
406.447649
607.091784
733.327866
805.527568
831.751823
765.765905
635.045767
510.956645
333.203673
227.217674
138.215423
110.576749
99.492669
112.296939
123.662949
128.238797
122.850537
108.722448
96.414685
72.883964
57.040453
41.471720
28.736591
21.825433
17.433763
15.029907
16.375780
16.246438
18.178821
17.375946
18.189549
16.817451
17.605424
17.024875
16.007423
17.258525
16.925931
15.349984
15.188456
16.546845
14.563799
14.784932
14.485717
14.532804
12.313724
13.007522
13.593435
13.125539
12.926459
12.582541
13.165474
13.516545
13.315678
13.088584
12.982488
12.564659
13.117790
13.061762
14.043450
13.269782
14.514923
16.060472
17.486811
19.624829
19.611716
19.166470
19.151568
20.560622
18.111467
17.847419
17.060637
16.072989
15.299916
15.109777
15.709996
13.786554
14.325976
12.939572
13.413429
12.438893
12.724996
12.423992
11.730790
12.038946
12.067556
12.885928
12.243986
##ZVALUE=250
2.005696
2.307892
2.094507
2.070665
2.491474
2.594590
3.618598
11.571646
50.080419
103.258491
237.448812
391.124487
546.692610
742.691755
859.589577
949.089527
928.604007
809.479952
669.568777
454.061627
307.775736
201.221704
119.434595
98.242760
105.197430
121.510625
136.718750
137.486458
129.067898
124.026537
103.273988
81.727505
68.722963
46.318769
35.305619
26.399493
23.622513
21.327734
21.331906
21.837950
20.996928
21.246672
21.284819
20.442605
19.710660
19.818544
18.274784
17.619729
17.224550
18.301606
17.232895
15.644431
14.950633
13.803840
13.930798
13.511777
12.549758
12.216568
13.074875
12.651682
11.500716
12.343526
11.210442
10.716915
11.930466
11.173487
11.946559
12.239814
11.576414
14.119744
13.299584
15.330911
15.510917
17.251968
17.297864
16.695857
17.117858
16.490817
16.087890
14.517903
14.332533
13.939738
13.154745
12.277961
11.891723
11.865497
11.862516
12.638569
12.129545
11.726618
11.768937
11.517406
10.949969
11.107922
11.006594
11.352897
##ZVALUE=255
2.123713
2.170801
2.006888
1.828671
2.225637
2.095699
2.445579
2.460480
3.005862
4.965663
28.740764
74.833632
186.100602
314.381719
527.959466
716.224909
941.406488
1015.605927
1015.605927
997.834802
856.177807
617.570877
436.099768
242.697001
149.622560
97.496510
92.601776
108.044744
127.584934
145.637989
153.893828
152.837634
141.120553
118.387938
101.658702
74.195862
57.755709
41.520596
34.103990
28.558969
28.636456
28.039813
25.815964
26.866794
24.735928
23.091435
22.200942
21.736622
20.514727
19.664764
18.648505
17.580986
17.127991
15.428662
15.262961
14.384985
14.059544
12.494922
13.156533
12.411475
11.488795
11.294484
10.814667
11.712909
10.808706
10.574460
10.553598
11.161566
11.231899
12.380481
12.802482
13.810992
13.610721
14.710426
14.540553
14.931560
14.470816
13.586879
13.232827
12.791753
12.426972
12.350678
12.682676
11.652708
10.711551
10.976791
10.839701
10.463595
10.555983
10.162592
10.231733
9.316802
9.548664
10.817647
10.437965
10.832548
##ZVALUE=260
1.700521
1.854897
1.927614
1.922846
2.082586
2.139807
2.266765
2.484918
2.281666
2.424717
2.662539
4.236698
12.345910
50.671697
114.720464
268.846750
430.178642
692.591667
894.073844
1015.670896
1015.670896
1015.670896
1000.460982
819.110870
544.441938
367.459655
213.691592
135.744810
94.345808
95.453858
114.213824
141.859651
162.772536
174.454451
174.675584
155.545473
137.320757
108.827949
87.085962
66.583753
52.236915
40.748715
36.606789
32.290816
31.336546
28.752685
27.709603
26.338696
24.553537
22.765994
22.659898
20.611882
19.638538
17.531514
17.461777
15.355945
14.977455
13.969541
13.629794
12.937784
12.151599
11.779666
10.716915
11.178851
11.736751
11.426806
10.495782
10.119677
10.791421
11.703968
11.995435
12.076497
13.180971
13.451576
13.110638
13.246536
12.403727
12.462735
12.277961
11.898875
12.017488
11.580586
10.167956
10.667443
9.828806
10.317564
9.705424
9.865761
10.067821
9.787679
9.591579
9.470582
9.623766
10.141730
9.320974
10.009408
##ZVALUE=265
1.739860
1.949668
1.566410
1.759529
2.036691
1.895428
1.946688
1.905560
2.016425
2.260804
2.211928
2.432466
2.525449
2.871752
8.121729
29.935837
101.383924
194.861889
334.131718
622.660518
870.450735
1015.605927
1015.605927
1015.605927
1015.605927
950.519443
746.472478
475.220680
316.190720
175.477862
119.112730
97.973943
110.354424
141.017437
161.808729
182.949901
188.430548
181.137919
167.216659
139.762759
116.702914
88.270903
70.098639
51.931739
43.086410
35.021901
31.139851
29.377937
27.945638
25.628805
23.310781
21.744967
21.509528
19.097924
18.358827
16.216636
15.997887
14.251471
14.291406
13.614893
13.294816
12.047887
11.393428
11.532903
10.964870
10.742545
10.190606
10.626912
10.698438
11.491776
11.922717
11.721849
11.812449
12.637973
12.583733
12.408495
11.985898
11.612773
10.733604
11.180639
10.812879
10.050535
10.088682
10.087490
9.318590
9.168983
9.357929
8.771420
9.158850
9.386539
9.160638
9.699464
9.118915
8.519888
9.076595
9.402633
##ZVALUE=270
1.817942
1.796484
1.744628
1.913905
1.778603
1.750588
2.115965
2.349615
2.276897
2.189875
2.271533
2.482533
2.506971
2.415776
2.774596
2.850890
3.715754
16.837716
49.609542
153.054595
293.794870
500.361919
836.178660
1015.840769
1015.840769
1015.840769
1015.840769
1015.840769
936.524868
701.960921
489.215851
268.904567
167.027712
103.878975
96.341968
118.327737
140.088797
166.036487
180.980563
186.798573
181.609988
160.553455
142.528415
110.247731
86.728930
61.110854
48.263669
37.118793
31.527877
27.256608
24.147630
22.434592
20.992756
19.429922
19.012690
17.252564
16.355515
15.719533
14.554858
13.546944
13.661981
12.540817
12.171865
11.520982
10.976791
11.165738
11.157990
11.006594
10.753870
11.009574
11.660457
11.350513
11.870861
12.241602
12.134910
11.626482
11.313558
10.806918
11.552572
10.371804
10.824800
10.036826
10.168552
9.663701
9.866953
9.631515
9.493828
8.629560
8.617640
8.920431
8.639693
8.949637
8.348823
9.053946
8.453727
8.427501
##ZVALUE=275
1.599789
1.529455
1.692772
1.579523
1.760721
1.610518
1.556873
1.850724
1.688600
1.708865
1.778603
1.833439
2.041459
2.019405
2.248883
2.218485
2.479553
2.597570
3.104806
7.089972
26.552677
102.610588
219.031572
467.460752
723.004937
1015.605927
1015.605927
1015.605927
1015.605927
1015.605927
1015.605927
842.579603
600.396395
335.647464
204.887986
109.937787
81.640482
87.669492
104.174614
131.524801
152.958632
168.899894
174.293518
164.676905
151.880980
122.877955
102.829933
73.633790
55.293441
38.912892
30.235648
23.150444
19.574761
17.381907
15.821457
14.872551
14.198422
13.541579
13.527870
12.909770
12.314916
10.946989
11.313558
10.624528
10.840893
10.326505
9.948611
10.238886
9.958744
10.318756
10.413527
10.816455
11.599660
10.971427
11.264682
10.802746
10.451674
10.148883
10.366440
9.840727
9.552836
8.994937
9.022951
8.636713
8.380413
8.654594
8.940697
8.881688
8.644462
8.649826
8.718967
7.848740
8.127689
8.062720
8.346438
8.512735
##ZVALUE=280
1.415610
1.603961
1.398921
1.360774
1.416802
1.525879
1.592636
1.609921
1.582503
1.718998
1.790524
1.877546
1.974702
1.918674
2.020597
2.112985
2.041459
2.176762
2.479553
2.614856
2.652407
3.809929
19.064546
61.685443
188.481808
336.923003
612.545609
861.073732
1015.605927
1015.605927
1015.605927
1015.605927
1015.605927
978.897810
730.798841
415.291786
251.692533
116.888881
68.894625
55.171847
65.788627
91.957450
113.487840
136.936903
152.179003
157.264471
153.309703
135.635734
116.603971
86.242557
67.021847
45.120716
31.601787
21.066666
15.728474
12.830496
12.172461
11.494756
11.324883
10.414720
10.449886
10.420680
9.601712
9.883642
9.710789
9.485483
9.029508
9.754896
9.592772
9.430647
9.522438
10.071993
10.214448
10.277629
10.370612
10.273457
9.938478
9.843707
9.463429
9.057522
9.238720
9.123683
8.591413
8.284450
8.440614
8.063912
7.794499
7.761717
7.431507
8.092523
7.794499
7.679462
7.912517
7.540584
8.045435
8.195639
##ZVALUE=285
1.406670
1.215935
1.634955
1.501441
1.362562
1.512766
1.534820
1.473427
1.430511
1.468658
1.512766
1.596808
1.570582
1.802444
1.786947
1.927614
1.987815
1.991987
2.005696
2.094507
2.229810
2.241731
2.650619
2.949834
9.582639
31.671524
108.220577
217.599869
448.507667
695.402622
957.332850
1015.605927
1015.605927
1015.605927
1015.605927
1015.605927
906.572938
557.415485
349.649787
162.357688
85.111856
41.876435
39.914846
56.650639
74.816942
104.956627
122.702718
140.441656
147.107840
142.932534
131.506920
107.680559
88.349581
61.792731
43.542981
27.295947
18.800497
12.861490
10.934472
10.031462
8.979440
8.601546
8.891821
9.387732
8.574724
8.958578
8.765459
8.563995
8.867979
9.495616
9.527802
9.257793
9.363890
9.889603
9.735823
9.858608
9.576678
9.017587
8.595586
8.618832
8.397698
8.667707
8.452535
7.979870
8.059740
7.790923
8.141994
7.844567
7.965565
7.757545
8.123517
7.929802
7.943511
7.660985
7.901788
7.755756
##ZVALUE=290
1.360774
1.247525
1.299977
1.364946
1.350641
1.548529
1.315475
1.332760
1.425743
1.556873
1.316667
1.525879
1.567602
1.458526
1.579523
1.631975
1.617670
1.705885
1.871586
1.932979
2.027750
1.965761
2.102852
2.518892
2.631545
3.011823
4.245639
12.946725
60.192943
140.920877
274.291635
553.130507
823.015571
1015.602946
1015.602946
1015.602946
1015.602946
1015.602946
1015.602946
704.755783
460.526943
229.157805
118.365884
46.667457
29.519796
36.789775
49.013495
72.434545
91.623664
117.244720
131.462812
140.897632
139.800906
124.428868
107.561946
79.974532
59.807897
39.578676
27.927756
17.088652
12.766719
9.553432
8.549690
8.634925
8.018613
7.834435
8.488894
8.646846
8.733869
8.806586
9.021759
9.002686
9.384751
9.678602
9.277463
9.284616
8.919835
8.955598
8.893609
8.745790
8.334517
8.305907
8.229613
8.072853
7.806420
7.695556
7.689595
7.889867
7.647872
7.258654
7.392764
7.779598
7.857680
7.266998
7.671714
7.156730
##ZVALUE=295
1.433492
1.273751
1.379848
1.470447
1.409650
1.439452
1.335740
1.365542
1.414418
1.325607
1.140833
1.245737
1.378655
1.309514
1.487732
1.468658
1.548529
1.560450
1.661777
1.762509
1.719594
1.636744
1.980662
1.996756
2.259612
2.248883
2.316833
2.880692
2.978444
5.966425
30.857921
87.029934
191.648602
441.930890
696.398020
1015.605927
1015.605927
1015.605927
1015.605927
1015.605927
1015.605927
861.060023
588.554740
302.117467
166.990757
62.973499
30.937791
23.529530
30.523539
46.351552
63.374639
90.334415
105.404854
126.220584
132.813454
130.604506
119.830966
98.659992
80.895424
57.214499
41.785836
25.609732
17.518997
11.471510
9.674430
8.328557
8.240938
7.612705
8.336902
8.330941
8.201599
8.583665
8.743405
9.189844
9.474754
8.626580
8.719563
8.106828
7.967949
8.075833
8.129478
7.755756
8.102655
7.793903
7.752776
7.634759
7.686615
7.486939
7.547736
7.181764
7.378459
7.115602
7.228851
7.182956
7.045865
7.076859
##ZVALUE=300
1.248717
1.149774
1.082420
1.300573
1.273751
1.243949
1.371503
1.275539
1.371503
1.166463
1.383424
1.317859
1.281500
1.161695
1.347661
1.542568
1.390576
1.505613
1.681447
1.612902
1.532435
1.602769
1.768470
1.677871
1.753569
1.998544
2.071857
2.352595
2.355576
2.500415
2.702475
3.419518
9.531975
53.443909
129.700899
320.516825
531.826615
888.465643
1015.605927
1015.605927
1015.605927
1015.605927
1015.605927
990.600586
737.398863
413.665771
243.818760
105.560422
48.666596
20.836592
19.158721
28.257966
40.681958
59.796572
78.131557
101.386905
116.527677
124.698877
125.658512
114.653707
98.829865
75.335503
58.492422
40.235519
27.240515
16.565919
11.895895
8.786917
8.194447
8.059740
7.780790
8.009672
8.238554
8.769631
8.203983
8.111596
8.241534
8.366704
8.020997
7.719994
7.736683
7.645488
7.749796
7.593632
7.358789
7.583499
7.248521
7.171631
7.345676
7.176995
7.042885
7.071495
7.069707
6.821752
7.167459
7.042885
##ZVALUE=305
1.163483
1.243949
1.192689
1.229644
1.127720
1.215935
1.067519
1.328588
1.245737
1.333952
1.182556
1.317859
1.314878
1.354814
1.330972
1.457930
1.383424
1.413822
1.312494
1.456738
1.488924
1.617670
1.532435
1.669526
1.846552
1.754761
1.823902
1.850724
2.150536
2.214909
2.240539
2.362728
2.662539
2.825856
5.148649
31.553507
85.490942
232.676864
411.343575
743.085742
998.657942
1015.606523
1015.606523
1015.606523
1015.606523
1015.606523
884.059668
547.076464
342.950821
154.153705
73.844790
25.318861
15.280843
18.158555
24.313927
39.682984
55.321455
79.508424
94.438791
112.021565
118.084550
118.102431
109.848976
92.417002
76.275468
52.418709
38.396716
24.645925
17.256737
11.389852
9.392500
8.140802
8.108616
8.169413
8.070469
7.761717
7.873774
7.421970
7.496476
7.434487
7.332563
7.338524
7.492900
7.257462
7.196665
7.337928
7.196665
7.195473
6.816983
7.438660
6.857514
6.852746
6.720424
6.807446
6.603599
6.837845
##ZVALUE=310
1.104474
1.069903
1.129508
1.059771
1.135468
1.163483
1.221895
1.250505
1.139641
1.146793
1.165867
1.172423
1.150966
1.273751
1.263618
1.372695
1.381636
1.378655
1.399517
1.500845
1.410842
1.300573
1.336932
1.502633
1.453757
1.509786
1.569986
1.858473
1.792908
1.861453
1.811981
2.099872
2.112985
2.289414
2.597570
2.659559
3.204942
13.653636
43.811798
142.080784
276.238918
557.347536
826.721787
1015.605927
1015.605927
1015.605927
1015.605927
1015.605927
1015.605927
722.130537
476.319790
234.091878
121.988654
42.526722
18.498898
12.149811
14.789701
23.114681
32.567978
49.819946
65.283775
87.956786
100.839734
109.483004
111.719966
103.450418
91.665983
72.514415
56.011677
36.877990
26.762486
17.296672
12.641549
9.442568
8.179545
7.728934
7.804632
7.326603
7.059574
6.879568
7.228851
7.336736
7.072687
6.960630
6.991625
7.027984
6.954670
7.164478
7.042885
6.767511
6.877780
6.952882
6.671548
6.389618
6.404519
6.579757
##ZVALUE=315
1.130700
1.116991
1.061559
1.059771
1.109838
1.044869
1.095533
1.085997
1.199841
1.142621
1.032948
1.150966
1.266599
1.201630
1.265407
1.311898
1.180768
1.341701
1.341701
1.426935
1.280904
1.414418
1.427531
1.269579
1.436472
1.657605
1.392961
1.583695
1.530647
1.699924
1.627803
1.867414
1.817942
1.950860
2.138615
2.346635
2.519488
2.549887
2.867579
4.880428
27.862787
76.550841
215.928555
391.127467
726.956725
993.604660
1015.595794
1015.595794
1015.595794
1015.595794
1015.595794
920.929909
566.348433
351.053476
158.239603
72.983503
21.523833
12.135506
11.278987
13.672709
20.788908
29.710531
45.326948
60.874820
81.038475
93.889832
104.647875
105.913877
98.348856
86.929798
66.830516
53.798556
36.094785
25.991797
16.234517
11.936426
8.996725
7.664561
6.986856
6.809831
6.551743
6.630421
6.319880
6.698966
6.614923
6.790757
6.904602
6.857514
6.787777
6.552935
6.640553
6.489754
6.495714
6.645918
6.325841
6.675720
##ZVALUE=320
1.160502
1.080632
1.073480
1.125932
0.989437
1.116991
1.246929
1.081824
1.092553
1.103878
0.982881
1.021624
1.154542
1.126528
1.071692
1.108646
1.166463
1.050830
1.227856
1.306534
1.231432
1.372695
1.287460
1.271963
1.465678
1.511574
1.540780
1.518726
1.605749
1.483560
1.541972
1.737475
1.767874
1.813769
1.970530
1.802444
1.993775
2.114773
2.337694
2.444983
2.550483
3.336668
9.321570
49.586892
125.364661
319.925547
523.978472
859.072804
1015.605927
1015.605927
1015.605927
1015.605927
1015.605927
1015.605927
713.887811
464.427471
223.097801
109.585524
36.569834
16.292930
9.960532
9.968877
12.632608
17.284751
27.957559
39.696693
57.723522
73.423982
90.350509
98.356605
99.680424
95.362663
80.699921
67.314506
48.886538
37.376881
23.848414
16.350746
10.808706
8.280873
7.286668
6.745458
6.822944
6.252527
6.416440
6.567836
6.321669
6.196499
6.385446
6.282926
6.466508
6.335974
6.274581
6.204844
6.220937
6.406903
##ZVALUE=325
1.025796
0.896454
0.940561
0.973940
1.003742
0.918508
0.943542
1.024604
1.038909
1.007915
0.929832
1.080632
0.821948
0.967979
0.923872
0.913739
1.055598
1.097918
1.172423
0.866652
1.093745
1.186728
1.116991
1.157522
1.146793
1.241565
1.299977
1.240969
1.243949
1.431704
1.346469
1.194477
1.311898
1.405478
1.482964
1.487732
1.466870
1.864433
1.874566
2.003908
2.006888
2.155900
2.248883
2.688766
5.382895
33.500791
85.592866
222.466588
395.000577
726.957917
989.089608
1015.478969
1015.478969
1015.478969
1015.478969
1015.478969
857.646465
518.272519
312.233567
134.164691
62.900782
19.348860
10.059476
8.333921
8.876920
12.281537
16.537905
27.226806
39.018989
56.821704
71.351528
85.588694
93.050003
93.115568
88.188648
74.651837
61.547756
45.134425
32.543540
20.751953
14.524460
9.862781
7.916689
6.693602
6.215572
6.391406
6.074905
5.929470
6.100535
5.801916
5.843639
5.863905
6.214976
5.855560
6.362796
6.074905
##ZVALUE=330
1.056790
0.936985
1.112819
1.135468
1.003742
1.060963
1.145601
1.180768
1.027584
1.291633
1.021624
1.060963
0.962615
1.089573
1.031756
1.139641
1.132488
1.136661
1.247525
1.145601
1.219511
1.172423
1.039505
1.229644
1.154542
1.283884
1.374483
1.294613
1.405478
1.196861
1.411438
1.328588
1.378655
1.444817
1.611710
1.509786
1.598597
1.426935
1.738667
1.723766
1.962781
1.924634
2.044439
2.267957
2.345443
2.582669
3.639460
11.457801
55.826902
131.912827
317.732692
523.518920
879.423022
1015.606523
1015.606523
1015.606523
1015.606523
1015.606523
961.343646
697.191954
384.193659
216.115713
86.340904
37.126541
11.838675
8.355975
7.897615
8.628964
11.404753
16.340613
26.824474
36.120415
52.328706
65.544844
79.766512
86.909533
88.281631
82.828999
70.603490
57.851672
41.688681
31.175613
21.407604
15.167594
10.355711
8.000731
6.464720
6.350875
6.104708
6.136894
5.784631
5.481839
5.655885
5.811453
5.530715
5.750656
##ZVALUE=335
1.032948
1.004934
1.005530
0.944734
0.949502
0.967979
0.999570
1.053810
0.947714
1.123548
1.073480
1.059771
1.093745
1.208782
1.184940
1.034737
0.892878
1.083612
0.884533
1.171827
1.151562
1.186728
1.127720
1.221895
1.211762
1.313686
1.150966
1.192689
1.291633
1.222491
1.210570
1.325607
1.176596
1.352429
1.380444
1.295805
1.395941
1.380444
1.564622
1.565814
1.575947
1.654625
1.810789
2.000928
1.734495
1.920462
2.218485
2.579689
2.671480
4.552007
25.369525
73.818564
210.514665
385.798812
717.461705
980.662704
1015.605927
1015.605927
1015.605927
1015.605927
1015.605927
818.589926
483.812690
287.952423
119.839907
53.229928
17.043948
9.012818
7.540584
7.369518
8.666515
10.736585
16.262531
23.056865
34.913421
46.342611
61.311722
72.836876
81.114769
82.008839
75.767636
67.829490
53.649545
43.103695
30.226707
21.936893
14.525652
10.820627
7.694960
6.854534
6.093979
5.991459
5.837679
5.526543
5.832911
5.822778
##ZVALUE=340
0.714660
0.807643
0.685453
0.760555
0.733733
0.811815
0.759959
0.768900
0.599623
0.693798
0.826716
0.854731
0.788569
0.974536
0.766516
0.994802
0.775456
1.000762
0.800490
0.872612
0.938773
0.994802
0.926852
0.922680
1.111627
0.925660
0.992417
0.910759
1.064539
1.099706
0.981688
1.056790
1.131892
1.129508
1.067519
0.968575
1.091957
1.060963
1.275539
1.329780
1.354814
1.439452
1.379848
1.495481
1.491904
1.647472
1.816750
1.691580
2.016425
2.101660
2.184510
3.382564
11.015534
55.653453
135.241747
333.206654
553.924441
900.964737
1015.418768
1015.418768
1015.418768
1015.418768
1015.418768
888.509750
619.433522
320.178866
175.823569
67.855716
26.272535
9.015799
7.555485
7.303953
7.399917
8.270741
9.786487
15.420914
21.760464
33.140779
43.943524
59.815645
68.803430
75.774789
76.298714
71.688890
64.874887
52.313805
41.799545
29.412508
21.416545
14.228821
10.375977
7.669926
6.171465
5.667806
5.403757
5.482435
##ZVALUE=345
0.964999
0.959635
0.834465
1.007915
0.796914
0.918508
0.909567
1.063943
0.833869
1.044869
1.021624
1.004934
1.011491
0.859499
1.107454
0.974536
0.854731
1.138449
0.966787
0.988841
1.100898
0.957847
1.127720
0.999570
1.099706
1.060963
0.984669
1.210570
1.180768
1.125932
1.177788
1.132488
1.159906
1.154542
1.191497
1.375675
1.162887
1.105666
1.398921
1.250505
1.393557
1.493692
1.455545
1.364946
1.444817
1.690984
1.678467
1.814961
1.802444
1.756549
2.110600
2.121925
2.335906
2.587438
5.208850
30.964613
88.256598
236.781836
409.270525
723.197460
980.909467
1015.605927
1015.605927
1015.605927
1015.605927
983.799696
736.973882
430.139899
240.652561
91.843605
40.429831
13.897419
8.258820
7.671714
7.112622
7.167459
7.406473
9.439588
12.968779
20.638704
29.418468
43.065548
51.962733
62.583685
67.336559
70.305467
67.367554
60.639977
52.311420
39.365888
30.338764
20.321608
15.099645
9.759665
7.896423
6.467700
##ZVALUE=350
0.996590
1.008511
1.011491
0.783801
0.931621
0.913739
0.975728
0.831485
0.931621
0.971556
0.977516
1.034737
1.185536
1.083612
1.037717
1.032948
1.059771
1.004934
1.003742
0.981688
1.034737
1.108646
1.036525
1.143813
1.105666
1.070499
1.121759
1.137853
1.153946
1.137853
1.046658
1.132488
1.259446
1.162887
1.106858
1.363754
1.173615
1.341701
1.158714
1.200438
1.298785
1.402497
1.335740
1.488924
1.289845
1.498461
1.374483
1.568794
1.599789
1.763701
1.674891
1.741648
1.961589
2.012849
2.106428
2.481937
3.284812
15.532970
49.398541
154.333711
291.587710
575.590730
828.083754
1015.609503
1015.609503
1015.609503
1015.609503
1015.609503
854.080915
504.969954
305.834413
138.999820
61.785579
17.476678
8.781552
7.219911
6.556511
6.367564
6.333590
6.983876
8.162856
12.597442
17.567873
26.582479
34.783483
47.032833
55.157542
61.930418
64.795613
62.562823
57.310462
47.403574
38.941503
28.692484
21.942854
14.446974
##ZVALUE=355
0.972748
0.988841
1.045465
1.049638
0.932813
0.888705
0.951886
0.883937
1.073480
1.091957
1.130700
1.009703
0.997782
1.036525
0.970960
1.141429
0.883937
1.031756
0.957847
1.054406
1.014471
0.948906
1.228452
1.059771
1.095533
1.071692
1.147985
1.104474
1.131892
1.132488
1.035929
0.978708
0.986457
0.963807
1.173615
1.346469
1.305938
1.344681
1.344681
1.241565
1.399517
1.280904
1.321435
1.367927
1.233816
1.393557
1.575947
1.397729
1.554489
1.657605
1.651645
1.638532
1.690984
1.748800
2.008677
1.967549
2.157688
2.337694
2.583861
7.935762
26.795864
102.745891
208.524466
435.369611
677.827001
1002.565622
1015.609503
1015.609503
1015.609503
1015.609503
945.187807
626.156926
389.758945
171.233416
80.650449
23.686886
10.576844
6.940961
6.477833
6.034970
6.003976
5.949736
6.365776
7.699728
10.022521
15.857816
21.826625
31.914711
39.937496
49.419999
55.472851
59.069991
57.982802
51.832795
45.785904
36.470890
##ZVALUE=360
0.977516
0.918508
1.033545
0.932813
0.850558
0.813603
1.005530
1.060963
1.009703
0.958443
0.974536
0.843406
0.742674
1.040697
1.050830
0.942945
1.024604
0.945926
0.991821
1.031756
0.934601
1.283884
1.119971
1.022816
1.005530
1.129508
1.151562
1.097918
1.121759
1.115799
1.106858
1.106858
1.225471
1.228452
1.126528
1.066923
1.010895
1.132488
1.262426
1.302958
1.348853
1.221895
1.236796
1.336932
1.373887
1.324415
1.495481
1.511574
1.527667
1.624823
1.620650
1.586676
1.579523
1.726747
1.745820
1.787543
1.976490
1.967549
2.106428
2.403855
2.439618
4.093647
11.949539
54.464936
130.384564
320.447683
523.141623
844.416618
1015.598774
1015.598774
1015.598774
1015.598774
1015.598774
726.267695
478.785634
230.799913
118.500590
42.151809
16.228557
7.187724
6.333590
5.967617
5.864501
5.461574
5.552769
5.651712
6.742477
8.935928
12.076497
17.921925
25.611520
34.735799
41.953921
49.047470
52.726865
52.627921
##ZVALUE=365
0.810623
0.831485
0.927448
0.957847
0.964999
0.984669
0.958443
1.005530
0.943542
0.959635
1.016855
0.973940
1.004934
0.985861
0.954866
0.822544
1.047850
1.026988
1.162887
1.053810
0.937581
1.153946
1.021624
0.972748
1.052618
1.010895
1.086593
1.221895
0.948906
1.118779
1.096725
1.128912
1.152754
1.233816
1.086593
1.096725
1.133680
1.256466
1.176000
1.258850
1.373887
1.238585
1.338720
1.303554
1.306534
1.224875
1.413822
1.182556
1.274943
1.410842
1.424551
1.491904
1.396537
1.502633
1.522899
1.686811
1.626611
1.743436
1.923442
1.951456
2.195835
2.171993
2.376437
2.827644
5.394816
29.055476
81.520677
223.994851
400.642753
706.256032
958.271623
1015.605927
1015.605927
1015.605927
1015.605927
830.881000
582.131743
315.397978
168.172717
61.543584
24.195910
7.968545
6.017685
5.897880
5.314946
5.369782
5.097985
5.006790
5.263686
6.050467
7.191896
11.007786
15.165806
21.988750
28.341413
37.368536
##ZVALUE=370
0.676513
0.709891
0.698566
0.766516
0.771880
0.828505
0.650883
0.705719
0.724792
0.710487
0.743866
0.736713
0.659823
0.687838
0.747442
0.835657
0.773668
0.718832
0.822544
0.737906
0.782609
0.945926
0.805855
0.754595
0.811815
0.761747
0.824928
0.820756
1.044869
0.918508
0.892878
0.941753
0.930429
0.943542
0.962615
0.899434
1.045465
0.975728
1.015663
1.037717
1.030564
1.106858
0.920892
1.005530
1.257658
1.106858
1.021624
1.173615
1.083612
1.108646
1.109838
1.172423
1.230836
1.409650
1.229644
1.305938
1.298785
1.238585
1.397729
1.469851
1.655817
1.557469
1.702905
1.815557
2.038479
2.364516
3.375411
15.331507
51.257610
163.425803
304.520726
570.490956
827.565789
1015.425920
1015.425920
1015.425920
1015.425920
941.687822
690.584779
381.667614
211.189985
81.931949
36.236644
12.081861
6.596446
5.211830
5.089641
4.786849
4.587770
4.284978
4.199743
4.487634
4.922748
6.638765
9.127855
13.585687
##ZVALUE=375
0.990629
0.990629
0.933409
0.981688
0.921488
0.931621
1.067519
0.994802
0.882745
0.877976
0.878572
0.767708
0.963807
0.754595
0.925660
0.870824
0.789762
0.917912
0.910759
0.898838
1.033545
0.996590
1.055598
1.019835
0.844598
0.970960
1.094937
1.016855
1.021624
1.045465
0.968575
1.033545
1.099706
1.062751
1.004934
1.015663
1.166463
1.120567
1.238585
1.102686
1.222491
1.122952
1.174808
1.124740
1.211762
1.123548
1.177788
1.072884
1.223683
1.074672
1.086593
1.032948
1.288652
1.205802
1.289845
1.311898
1.454949
1.381636
1.595616
1.416802
1.558661
1.601577
1.637936
1.680851
1.780987
1.942515
2.068877
2.371669
2.625585
8.051991
27.819872
97.815990
208.626986
455.693007
697.727799
1002.687812
1015.605927
1015.605927
1015.605927
1015.605927
810.917616
488.592982
304.307938
146.614909
71.824789
21.727681
9.095669
5.261898
5.214810
4.910827
4.573464
4.562736
4.262924
3.994703
4.139543
4.772544
##ZVALUE=380
0.838637
0.925660
0.927448
0.878572
0.851750
0.908971
0.894666
0.928640
0.894666
1.111627
0.805855
0.976920
0.867844
0.940561
0.906587
0.840425
0.883937
0.896454
0.875592
1.016855
0.978708
1.037717
1.018643
1.005530
1.024604
0.917912
0.943542
0.876784
1.043677
1.010895
1.113415
1.081824
1.200438
1.090765
0.956655
1.076460
1.176596
0.958443
1.229644
1.025796
1.072884
1.237988
1.261830
1.207590
1.039505
1.264811
1.088977
1.183748
1.224875
1.061559
1.167655
1.212955
1.096725
1.268983
1.236796
1.206994
1.292825
1.208782
1.386404
1.361966
1.391768
1.438856
1.447797
1.402497
1.592636
1.491904
1.684427
1.814961
2.174973
2.356768
2.617836
4.294515
14.646649
69.494843
159.671903
368.889570
588.212609
905.481577
1015.605927
1015.605927
1015.605927
1015.605927
930.849910
639.386773
422.554612
203.000903
102.350712
34.271479
13.456941
5.689859
4.939437
4.527569
4.479885
4.252791
4.061460
3.883839
##ZVALUE=385
0.871420
0.925660
0.825524
0.863671
0.865459
0.970960
0.876784
0.944734
0.840425
0.890493
0.906587
0.905991
1.005530
0.944734
0.985861
0.895858
1.032948
0.967979
0.967979
1.050830
1.038909
0.947714
0.876784
0.919700
1.054406
0.982881
1.103878
1.204610
1.197457
1.228452
1.305938
1.312494
1.348853
1.560450
1.413822
1.483560
1.382828
1.533628
1.576543
1.616478
1.508594
1.345873
1.442432
1.497865
1.311898
1.399517
1.257658
1.320839
1.331568
1.225471
1.176000
1.329780
1.221895
1.285672
1.231432
1.323819
1.260638
1.245737
1.425743
1.360774
1.229644
1.395941
1.330972
1.439452
1.516938
1.578927
1.789927
1.701713
1.860857
2.013445
2.083778
2.435446
2.379417
2.876520
7.202625
39.687753
101.135969
253.786445
446.402431
774.307847
1000.377536
1015.669703
1015.669703
1015.669703
1015.669703
782.407522
545.976758
293.576717
163.481832
65.172911
25.455952
7.528663
5.088449
4.633665
4.276633
4.135966
##ZVALUE=390
0.937581
0.815988
0.821948
0.825524
0.867844
0.966787
0.947714
0.849962
0.766516
0.825524
0.813603
0.841618
0.773668
0.933409
1.032948
0.907779
0.900626
0.873804
1.034737
0.825524
0.875592
0.831485
0.830889
0.864863
1.001954
1.114607
1.088977
1.111627
1.378655
1.396537
1.652837
1.688600
1.713634
1.921654
2.047420
1.849532
1.912713
1.899600
1.926422
1.876950
1.816750
1.761913
1.739860
1.765490
1.681447
1.693964
1.466870
1.526475
1.415610
1.427531
1.310706
1.164675
1.561642
1.417994
1.391768
1.283884
1.296997
1.230836
1.205802
1.298785
1.366735
1.414418
1.279712
1.192689
1.336932
1.488924
1.682639
1.700521
1.795888
1.826882
2.038479
1.947880
2.137423
2.230406
2.188683
2.471805
3.878474
20.465851
62.507987
188.174844
349.382758
648.317933
892.368555
1015.605927
1015.605927
1015.605927
1015.605927
933.167934
703.096986
421.389937
240.147710
94.401836
42.931437
13.262630
6.073713
4.605651
##ZVALUE=395
1.009703
0.823736
0.962615
0.964999
1.023412
0.925660
0.835657
0.908971
0.934601
0.897646
1.072884
0.910759
0.923872
1.100898
0.777841
0.891685
1.065731
0.906587
0.868440
1.022816
1.113415
1.167655
1.083612
1.071692
0.991821
1.112819
1.261830
1.417994
1.632571
2.150536
2.073646
2.265573
2.540946
2.603531
2.567768
2.522469
2.589822
2.635717
2.613664
2.563596
2.414584
2.356768
2.329946
2.233982
2.219677
2.022982
1.887679
1.817942
1.714826
1.779795
1.664758
1.574755
1.714826
1.537800
1.565814
1.335740
1.651645
1.488924
1.436472
1.449585
1.394749
1.354814
1.509786
1.542568
1.604557
1.421571
1.694560
1.650453
1.780987
1.955628
1.938939
2.134442
2.157688
2.105832
1.972914
2.123713
2.020597
2.288818
3.028512
11.554956
40.257573
137.637854
267.605782
521.329641
753.459930
1015.694737
1015.694737
1015.694737
1015.694737
1015.694737
839.339495
511.615872
321.059823
146.829486
68.446994
21.233559
##ZVALUE=400
0.895858
0.860691
0.821948
0.853539
0.701547
0.842810
0.751615
0.851750
0.885725
1.128912
0.821948
0.760555
0.715852
0.882745
0.862479
0.960827
0.992417
0.957847
0.812411
0.911951
0.749826
1.033545
0.838637
0.922680
0.994802
1.062751
1.236796
1.371503
1.679659
1.932979
2.074838
2.277493
2.519488
2.727509
2.725720
2.942681
2.695918
2.870560
2.963543
2.796650
2.526641
2.565980
2.487898
2.369881
2.271533
1.930594
1.991987
1.811981
1.896620
1.724958
1.852512
1.699924
1.704693
1.463890
1.533628
1.482964
1.556873
1.429915
1.303554
1.524687
1.270771
1.450777
1.333952
1.357794
1.412630
1.528859
1.474619
1.671910
1.675487
1.781583
1.747608
1.918674
1.947880
1.844764
1.837611
1.796484
1.913905
1.954436
2.011657
2.160668
2.460480
5.900860
22.106767
84.923506
179.203749
387.215614
598.691702
889.661908
1015.605927
1015.605927
1015.605927
1015.605927
930.717587
629.131794
411.979556
203.624964
##END
