##TITLE=FSH751
##FORMAT=SPECTACLE-ASCII V-1.2
##DATA TYPE=ULTRAVIOLET SPECTRUM
##SECOND TYPE=ULTRAVIOLET SPECTRUM
##DATE=03/27/18
##TIME=17:35:44
##SPECTROMETER/DATA SYSTEM=SPECTACLE
##XUNITS=NM EM
##YUNITS=ENERGY
##YFACTOR=1
##FIRSTX=220
##LASTX=410
##NPOINTS=96
##3DDATA=Equidistant
##ZUNITS=NM EX
##FIRSTZ=210
##LASTZ=400
##ZPOINTS=39
##XYDATA=(Y..Y)
##ZVALUE=210
17.379522
16.249418
13.169646
11.744499
10.177493
9.219646
9.770989
8.433461
7.803440
5.871654
6.479621
4.345775
3.886819
4.016757
4.569888
3.891587
5.446672
5.117655
5.144477
5.153418
5.600452
5.632639
7.105470
7.416606
7.953644
8.422732
8.776784
11.084676
11.418462
13.330579
15.442967
16.430616
16.307831
18.748641
18.580556
18.070936
18.319488
20.025969
19.229650
18.117428
18.427968
18.963814
17.219782
16.939640
15.643835
16.518831
15.490651
14.378428
14.620423
15.568733
14.702678
14.798641
14.791489
14.751554
13.285875
13.408661
13.217926
13.150573
12.199879
13.004541
13.705492
12.968779
13.434887
13.377666
13.811588
15.129447
14.482737
16.243458
18.619895
21.432638
23.756623
28.076768
34.520626
38.343668
41.573644
47.753453
49.218535
49.396753
49.969554
46.938658
44.212937
40.631890
36.894679
31.826496
24.917722
19.174814
16.456842
15.509725
15.012622
14.872551
16.331673
18.392801
23.083687
27.564764
32.261610
39.763451
##ZVALUE=215
56.635737
52.762628
42.240620
31.774640
23.111701
17.512441
15.769601
13.594627
13.938546
13.468862
13.203621
9.876490
8.204579
6.139874
5.952716
5.770922
5.334616
5.525947
5.980730
5.628467
6.227493
6.626844
7.441640
6.277561
8.079410
9.835958
10.278821
12.219548
13.504624
15.267730
17.593503
17.492771
19.115806
19.657612
21.796823
23.131967
22.223592
24.173856
23.417473
22.241473
21.655560
19.000769
20.815730
18.977523
18.434525
18.006563
16.676784
17.205477
16.966462
15.079975
15.533566
15.460849
16.285777
15.075803
14.957786
14.350414
13.810992
13.734698
13.484955
13.305545
13.472438
13.796687
12.893677
12.294650
12.706518
13.117790
14.599562
15.137792
16.899705
19.220710
22.545457
25.022626
28.764606
32.217503
35.369992
36.445856
38.108826
38.572550
38.241744
34.900904
31.216741
29.201508
26.292801
23.100972
19.727945
16.100407
16.033649
11.141896
11.819601
11.007786
11.244416
10.435581
11.293888
12.135506
15.765429
16.729832
##ZVALUE=220
131.506920
134.749413
133.459568
111.715794
94.992518
67.784786
50.226450
34.380555
27.618408
24.413466
22.909641
21.067858
20.357966
18.577576
15.382767
12.759566
9.479523
7.496476
6.496906
6.351471
6.082654
6.397963
6.738901
7.266998
8.971691
9.612441
10.971427
13.763905
15.576482
17.665625
20.117760
21.008849
24.550557
24.678707
25.707483
24.855733
26.069880
25.080442
26.452541
24.414659
24.231672
24.262667
21.831989
21.609664
20.223856
18.814802
20.990968
18.870831
18.563867
17.782450
15.926957
16.330481
15.998483
15.324950
15.595555
16.229749
14.905930
14.773607
13.428926
13.712645
13.636947
13.430715
13.564825
14.282465
15.351772
13.947487
14.364719
15.114546
16.226768
17.364621
21.066666
24.216771
25.702715
28.542876
32.322407
35.129786
32.544732
31.944513
31.262636
32.257438
28.165579
25.550723
21.362901
20.012856
18.550754
15.261769
13.202429
12.439489
10.505915
10.876656
11.400580
11.735559
10.510683
10.298491
10.442734
9.378791
##ZVALUE=225
179.537535
179.920793
214.894414
234.233737
233.817697
219.652653
177.853703
132.200718
93.134642
67.302585
46.884418
39.310455
36.527514
38.327575
38.034916
35.255551
26.127696
20.829439
15.130639
12.524724
10.116696
6.971955
6.547570
7.229447
8.326769
10.766983
10.680556
13.758540
14.941692
17.680526
20.628572
22.055507
22.732615
23.668408
24.885535
26.462674
26.371479
25.313497
26.092529
22.159815
25.132895
23.829937
21.467805
22.898912
20.113587
20.964742
19.243956
19.426942
18.532872
18.592477
18.394589
17.033815
16.637444
15.144944
15.564561
15.389919
16.509891
15.590787
16.773939
15.123487
15.705824
14.984608
14.162660
15.339851
14.190674
14.665723
14.564991
15.328526
17.141700
21.248460
22.395849
25.958419
27.091503
28.645992
33.091903
31.783581
32.998919
31.975508
28.313994
27.179718
25.611520
21.964908
21.565557
17.700791
16.963482
15.837550
13.960600
13.085604
13.061762
13.071895
12.987852
11.744499
11.608601
10.703802
10.871887
12.138486
##ZVALUE=230
130.857825
150.195956
212.244987
305.553675
381.366014
431.105494
444.923639
403.362513
358.462930
288.888812
187.110901
125.978589
79.333782
63.047409
62.326789
61.554909
63.584447
59.405565
52.822828
44.295788
33.725500
20.756721
15.250444
11.367798
10.861754
10.135770
12.474656
12.640953
14.343858
14.659762
17.630458
18.711686
20.243526
21.225810
21.862984
21.831989
21.640658
21.567941
21.057725
20.884871
20.510554
20.159483
19.148588
19.132495
18.590689
18.256903
18.433928
17.139912
18.158555
16.467571
16.900897
15.011430
16.776919
16.840696
16.707778
15.506744
16.625524
17.116666
16.230941
16.163588
17.527938
15.656948
17.959476
17.601848
16.824603
17.005801
16.592741
18.245578
19.540787
22.382736
21.742582
26.352406
27.816892
29.788613
30.340552
31.874776
30.215979
29.346943
29.303432
27.788877
26.687980
22.089481
21.492839
18.704534
18.194914
16.569495
14.402866
14.863610
13.333559
14.240742
13.553500
13.227463
13.672709
12.399554
12.242794
13.575554
##ZVALUE=235
35.291910
39.256811
100.872517
175.285935
317.933559
434.822440
582.410693
685.163736
742.501020
711.106658
601.647496
474.164486
364.183784
216.109753
146.659613
97.938776
84.400773
88.399649
89.796782
91.932416
84.708929
71.398616
55.067539
43.582916
26.572943
21.544695
14.727712
12.951493
13.861656
13.355613
14.389753
16.261935
15.832782
16.020536
16.322732
16.269684
17.414689
17.438531
17.929673
17.218590
17.256737
17.912984
17.169714
16.777515
17.096996
17.449856
18.303990
16.960502
16.654730
16.523600
16.808510
17.939806
15.604496
16.797781
16.533732
16.682744
16.955733
16.341805
17.548800
16.497970
17.884970
17.847419
17.713904
17.482638
17.796755
17.671585
17.385483
18.604994
20.828843
23.383498
25.314689
27.789474
29.668808
33.183694
33.431649
35.186410
33.760667
31.442642
31.154752
30.046701
27.366877
25.406480
22.761822
23.163557
18.965602
18.889904
18.064976
17.845631
17.472506
16.960502
15.597939
14.827847
14.472604
14.338493
15.281439
14.462471
##ZVALUE=240
3.310442
4.193783
11.336803
45.433640
96.669793
217.756629
359.307528
608.578920
809.292793
983.942747
1015.605927
1015.605927
989.022851
835.322738
594.300628
393.921733
214.352608
154.139996
110.491514
104.970932
108.852983
116.789937
112.668872
101.049542
88.389516
63.380599
50.417781
33.419728
24.908781
18.034577
15.769601
13.978481
13.517737
15.033484
15.500784
16.253591
16.675591
15.311837
16.225576
15.205741
17.853975
16.704798
17.383695
17.006993
17.605424
18.039942
16.818643
17.518997
16.946793
16.880631
18.505454
16.990900
17.256737
17.414689
18.800497
18.273592
18.226504
16.649961
18.195510
17.763972
19.207597
17.185807
18.625855
18.734932
18.888712
18.712878
20.500422
19.972920
22.946596
24.033785
27.734637
30.217767
31.781793
33.179522
35.895705
37.518740
37.838817
35.455823
35.056472
28.080940
29.282570
26.782751
24.418831
23.603439
22.466779
21.299720
20.906925
18.254519
17.932653
19.034743
16.410947
16.433597
16.535521
16.576648
16.200542
17.043948
##ZVALUE=245
2.530813
2.500415
2.516508
2.911687
8.141994
22.024512
78.480840
173.671842
395.052433
631.250739
1001.395583
1015.197635
1015.197635
1015.197635
1015.197635
1015.197635
1015.197635
724.060535
475.594997
245.184898
147.529840
113.023520
115.291476
127.351880
131.677985
125.634670
115.144849
92.893839
76.473951
56.899786
42.604804
28.891563
22.020936
17.653704
16.114712
14.688969
15.057921
15.642643
15.621781
16.104579
15.329719
16.076565
15.629530
16.457438
16.931891
16.152859
15.718937
15.599728
15.307665
15.960932
15.494823
16.765594
14.642477
15.058517
14.498830
15.877485
15.553832
15.027523
14.203787
14.642477
15.547872
15.747547
16.218424
15.013814
15.773773
16.591549
15.986562
17.399788
18.536448
21.579862
23.145676
25.160909
29.064417
31.490922
33.038855
32.194853
34.285784
31.229854
28.511882
27.728677
24.953485
22.744536
20.941496
19.950867
18.685460
16.777515
17.001629
15.412569
16.555786
15.918612
14.987588
14.962554
14.048815
14.102459
14.999509
14.086962
##ZVALUE=250
2.654791
2.593994
2.510548
2.699494
2.787709
3.157854
5.168915
12.180805
55.498481
122.460723
313.934684
523.039699
786.613822
1015.633941
1015.633941
1015.633941
1015.633941
1015.633941
1015.633941
808.762908
536.815524
334.774852
173.594952
115.838647
107.252598
116.821527
135.439634
140.331984
134.454966
121.241808
104.344487
80.786943
62.485933
42.115450
31.496882
21.319985
18.500686
16.240478
15.928745
16.819835
16.069412
16.807914
16.889572
16.374588
16.351938
16.082525
15.336871
15.209913
14.757514
15.169978
14.835000
14.542937
14.324784
14.188886
14.583468
12.701750
13.442636
12.500882
12.604594
12.846589
13.290644
12.008548
12.723804
12.659431
12.906790
13.010502
13.377666
14.438629
14.449954
16.108751
18.038750
21.869540
21.083951
24.322867
25.425553
23.572445
24.830699
24.112463
22.633672
21.503568
20.011663
17.504692
16.936660
17.411709
15.357733
14.897585
13.901591
13.694763
14.490485
12.940764
12.724996
12.310743
13.180971
13.703704
11.948943
12.378693
##ZVALUE=255
1.931787
2.174973
2.293587
2.395511
2.389550
2.591610
2.169609
2.973676
2.804399
6.797910
31.861663
83.890557
223.096609
388.317704
661.924481
933.586955
1015.605927
1015.605927
1015.605927
1015.605927
1015.605927
810.091496
559.817553
305.754542
185.773969
108.848810
97.596645
106.770992
123.423934
141.494870
146.027803
142.138600
130.280852
108.135939
86.691976
63.420534
46.309829
30.304790
22.803545
18.116832
17.840862
16.817451
16.615987
16.392469
15.737414
15.122890
15.585423
14.755726
14.874935
14.481544
14.400482
13.107657
12.251735
13.882518
12.676716
11.571646
11.514425
11.102557
11.358857
10.922551
10.835528
10.453463
10.078549
10.279417
9.907484
10.958910
10.634661
11.488795
11.173487
13.273954
14.051795
14.322996
16.445518
16.007423
18.356442
16.806722
16.873479
16.969442
16.751885
14.625788
15.116930
12.543797
13.407469
12.208819
11.963844
12.066960
12.047887
11.141896
11.017919
11.385679
11.407733
11.113882
11.113882
11.835694
10.635853
11.512637
##ZVALUE=260
1.696944
2.060533
2.055764
1.955628
1.923442
2.078414
2.172589
2.440810
2.590418
2.621412
3.266931
3.854632
13.690591
56.999922
130.362511
325.816870
528.937578
854.259729
1015.596986
1015.596986
1015.596986
1015.596986
1015.596986
981.175900
639.000535
432.601571
247.668624
154.416561
96.355677
91.874599
103.993416
132.254958
145.645738
158.672929
153.934956
138.290524
120.056868
90.097785
70.198774
46.718717
36.183000
24.200678
20.812750
17.497540
17.154813
16.520619
15.989542
14.973879
15.294552
13.811588
13.634562
12.855530
12.008548
11.495948
11.754632
11.134744
10.799766
9.977818
10.101795
9.525418
10.085702
10.025501
9.492636
9.527802
8.977652
9.384751
9.620786
9.776950
9.699464
11.610985
12.172461
12.576580
13.038516
13.231635
14.022589
14.224648
14.469624
13.932586
12.494922
12.071729
12.278557
11.429787
11.002421
10.523796
10.342598
10.052919
9.884834
10.086894
9.953976
9.421706
9.700656
10.115504
9.479523
9.964705
9.347796
9.790659
##ZVALUE=265
1.836419
1.965761
1.720786
1.646876
1.952648
1.913905
1.946688
2.031922
2.034903
2.165437
2.611876
2.644658
2.992749
3.463626
9.330511
31.959414
111.514926
223.264694
408.133864
789.090991
1015.605927
1015.605927
1015.605927
1015.605927
1015.605927
1015.605927
859.134793
514.457822
328.265429
167.986751
107.337832
82.484484
91.206431
121.942759
140.656829
157.442689
163.488984
156.455636
142.025948
115.627646
95.149875
67.036748
50.385594
33.735633
25.208592
19.392967
17.324686
15.789866
16.209483
14.189482
14.322996
13.281703
13.202429
12.618899
12.101531
11.016726
11.477470
9.970665
10.277629
9.454489
9.414554
9.292960
9.115934
9.220839
8.857846
9.434819
9.200573
9.828806
9.838939
10.009408
10.407567
11.630654
12.337565
12.612939
13.671517
13.340712
12.238622
12.031794
11.849999
11.503696
10.958910
10.388494
10.166764
8.896589
9.619594
9.045601
9.059906
8.782744
9.302497
9.031892
8.736849
8.789897
8.703470
9.360909
8.960962
8.967519
##ZVALUE=270
1.858473
1.748800
1.905560
2.263784
2.013445
1.773834
2.062917
2.253652
2.208948
2.283454
2.413988
2.495646
2.334714
2.864599
2.943873
3.030896
4.403591
18.680692
54.654479
169.240832
337.786674
597.827435
1012.488604
1015.719771
1015.719771
1015.719771
1015.719771
1015.719771
1015.719771
876.051784
576.092601
289.650559
157.013535
84.175467
76.007843
95.586777
117.400885
145.195723
159.066916
165.624619
158.549547
139.596462
121.046901
91.505647
68.201423
44.731498
33.820868
24.197698
18.343925
15.965700
13.862848
13.633966
12.814999
12.548566
11.677742
11.440516
11.145473
10.541677
10.293722
10.226965
9.003878
9.440780
8.802414
9.330511
8.501410
8.474588
8.851886
8.571744
9.047985
10.633469
10.016561
10.887980
11.502504
12.280941
11.558533
12.527704
11.530519
11.905432
10.909438
10.418892
10.146499
9.247661
9.350777
8.797646
9.165406
8.282661
8.715987
8.795857
8.727908
8.813739
8.752942
8.296967
8.337498
8.661747
8.688569
8.660555
##ZVALUE=275
1.559854
1.457930
1.683831
1.604557
1.706481
1.712441
1.652837
1.901984
1.708865
1.911521
1.711845
2.005696
2.031922
2.051592
2.165437
2.344847
2.589822
2.826452
3.300905
8.763671
31.732917
120.953918
248.785615
544.852614
860.584974
1015.605927
1015.605927
1015.605927
1015.605927
1015.605927
1015.605927
969.305634
682.781935
366.439819
210.164785
98.451972
65.101981
70.104599
86.398721
114.702582
132.797956
153.739452
159.633756
150.708556
137.831569
110.861659
87.776780
61.844587
45.426488
29.334426
21.160841
14.406443
12.328625
11.046529
10.478497
9.940863
9.702444
9.658933
8.938909
9.474754
9.087920
8.635521
8.662939
8.430481
8.293986
8.342862
7.958412
8.903742
8.609891
9.185672
9.302497
10.928512
10.918975
11.250973
11.260509
11.456609
11.261702
10.656714
10.579824
9.992719
9.750724
9.278655
8.701682
8.805990
8.383989
8.312464
8.167624
8.221865
8.031726
7.574558
7.589459
7.806420
7.358789
7.560849
7.682443
7.804632
##ZVALUE=280
1.512766
1.462698
1.478791
1.428723
1.631975
1.551509
1.730919
1.581907
1.707673
1.669526
1.707673
1.761913
1.862645
1.846552
1.989603
2.197623
2.223849
2.251863
2.379417
2.587438
3.259778
4.035830
24.884939
76.218843
218.203664
390.915871
714.711547
995.921493
1015.605927
1015.605927
1015.605927
1015.605927
1015.605927
1015.605927
781.656504
430.588722
249.732733
109.963417
61.003566
47.073960
57.035685
84.293485
104.335546
127.554536
142.859817
149.210691
145.353675
129.275918
109.404922
81.440806
61.080456
39.526820
27.067661
17.462969
12.855530
9.806752
8.878708
8.545518
8.318424
8.253455
8.042455
7.938743
7.932782
7.712841
7.809997
7.840991
7.848740
8.115768
8.313656
8.966923
8.912683
9.352565
9.390712
10.084510
10.193586
9.800792
10.176897
9.619594
9.672642
9.119511
8.761883
8.345842
7.805824
7.785559
8.116961
7.508993
7.444620
7.396936
7.464886
7.528663
7.090569
7.527471
7.359982
6.966591
7.462502
6.802678
##ZVALUE=285
1.308918
1.492500
1.450777
1.579523
1.366735
1.579523
1.769662
1.580715
1.529455
1.611710
1.740456
1.650453
1.475811
1.744628
1.669526
1.901984
2.008677
2.082586
2.300739
2.524853
2.605915
2.599955
2.953410
3.388524
13.479590
48.582554
153.265595
288.983583
563.798547
846.613646
1015.605927
1015.605927
1015.605927
1015.605927
1015.605927
1015.605927
1006.480455
625.775456
380.941629
171.699524
85.658431
40.607452
37.488937
54.395795
72.908998
102.351904
119.850636
136.415958
144.967437
138.714910
127.181411
106.133819
87.557435
58.485866
42.090416
25.385618
16.907454
11.077523
9.223819
8.099675
7.936954
7.765889
7.860661
7.515550
7.438660
7.579923
7.936954
7.882714
7.737875
8.344650
9.184480
9.007454
9.635687
9.394884
9.619594
9.547472
9.326935
9.837747
8.630753
8.635521
8.466840
8.177757
7.795691
7.853508
7.722974
7.544756
7.330775
7.268786
7.063746
7.037520
7.204413
7.057786
7.243752
7.173419
7.033944
7.176995
##ZVALUE=290
1.328588
1.419783
1.548529
1.456738
1.333952
1.496673
1.455545
1.376867
1.619458
1.484752
1.838803
1.798868
1.917481
1.661777
1.780987
1.487732
1.692772
2.018809
1.860857
1.991987
2.297759
2.296567
2.592802
2.621412
2.868772
2.884865
5.194545
20.148754
99.823475
225.334764
405.488610
748.010874
1011.437774
1015.605927
1015.605927
1015.605927
1015.605927
1015.605927
1015.605927
861.209035
559.366941
268.546939
134.225488
49.287677
29.279590
35.430789
48.027635
71.843863
90.428591
116.182566
130.646825
138.895512
136.931539
123.474598
106.415749
77.582598
59.416890
38.064718
25.875568
16.343594
11.207461
8.232594
7.671714
7.138848
7.130504
7.345676
7.281899
7.788539
8.134842
7.994771
8.452535
9.086728
9.356737
9.004474
9.007454
9.103417
8.914471
8.493662
7.855892
7.788539
7.838607
7.675886
7.715821
7.332563
6.981492
7.248521
6.859899
7.224679
7.319450
6.984472
7.068515
6.891489
6.944537
6.770492
6.792545
6.966591
##ZVALUE=295
1.451969
1.322627
1.296997
1.370907
1.513958
1.517534
1.562834
1.601577
1.542568
1.773834
1.664758
1.810789
1.694560
1.755953
1.642704
1.892447
1.634955
1.760721
1.785755
1.880527
2.030730
2.024770
2.133846
2.637506
2.756715
2.721548
3.004670
3.162622
3.737807
6.453991
36.690831
108.650923
247.169733
553.226471
851.755738
1015.821695
1015.821695
1015.821695
1015.821695
1015.821695
1015.821695
944.488645
645.481944
333.368778
184.925795
68.882704
33.817887
23.216605
30.441880
47.517419
64.594746
88.321567
107.290745
124.586821
132.171512
128.008723
119.038820
97.712874
78.323483
55.201650
40.125847
24.365783
17.170906
11.440516
9.107590
8.064508
7.269979
7.574558
7.461905
8.178949
7.794499
8.262992
8.769631
8.694530
8.678436
8.762479
8.112788
8.469820
8.222461
7.571578
7.965565
7.390976
7.496476
7.383823
7.097721
7.085800
6.970763
7.115602
6.891489
6.821752
6.755590
6.586909
6.453991
6.550550
7.090569
6.845593
##ZVALUE=300
1.207590
1.192689
1.252890
1.261830
1.320839
1.227856
1.304746
1.245737
1.225471
1.352429
1.405478
1.219511
1.317859
1.342893
1.321435
1.461506
1.494884
1.602769
1.496673
1.602769
1.792908
1.761913
1.754761
1.770854
1.769662
1.929998
2.123713
2.341866
2.423525
2.790689
2.620816
3.488660
9.259582
50.509572
127.530694
321.872830
547.911525
932.574868
1015.605927
1015.605927
1015.605927
1015.605927
1015.605927
1015.605927
787.931681
431.533456
251.152515
108.004808
49.546957
20.466447
18.637776
27.602911
38.298965
59.287548
77.330470
102.508664
114.863515
123.762488
123.422742
113.252997
98.752975
75.583458
57.186484
37.995577
26.528835
15.930533
11.207461
8.409619
7.375479
7.442832
7.681847
7.522702
7.886887
7.755756
7.949471
7.539988
7.585883
7.350445
7.354617
6.889701
7.203817
6.789565
6.915927
6.722808
6.523728
6.714463
6.610751
6.147623
6.474853
6.273985
6.254911
6.423593
6.144643
6.449819
6.348491
5.800724
##ZVALUE=305
1.171827
1.292825
1.108646
1.197457
1.207590
1.285672
1.158714
1.256466
1.137853
1.254678
1.230836
1.344681
1.461506
1.220703
1.251698
1.425743
1.210570
1.317859
1.295805
1.586676
1.557469
1.472831
1.556873
1.575947
1.512766
1.659989
1.892447
1.822710
1.861453
2.133846
2.293587
2.684593
2.867579
3.038645
6.669760
23.908615
94.705820
205.438733
459.029675
715.554953
1015.605927
1015.605927
1015.605927
1015.605927
1015.605927
1015.605927
903.344750
622.061491
323.572755
177.676678
67.349672
29.569864
14.929771
16.848445
25.462508
36.971569
58.037639
73.590875
96.632838
108.828545
118.322968
117.682815
107.538700
93.911886
70.632696
55.342913
35.435557
25.223494
15.054941
10.713935
8.958578
7.514954
7.751584
7.447600
7.547736
7.619858
7.486939
6.933808
7.047653
6.604791
6.783605
6.636977
6.908774
6.556511
6.480813
6.567836
6.388426
6.375909
6.357431
6.407499
6.006956
6.254911
6.077886
6.113648
5.941987
6.173849
##ZVALUE=310
1.163483
1.150966
1.164675
1.143813
1.063943
1.131892
1.132488
1.355410
1.170635
1.228452
1.073480
1.239777
1.254678
1.268983
1.269579
1.299977
1.308918
1.212955
1.187921
1.277924
1.292825
1.332760
1.486540
1.414418
1.726747
1.562834
1.818538
1.918674
1.905560
1.912713
1.954436
1.921654
2.248883
2.410412
2.390742
2.573729
3.563762
9.812713
50.639510
120.082498
297.458768
510.881543
893.971920
1015.605927
1015.605927
1015.605927
1015.605927
1015.605927
1015.605927
807.428956
456.276536
267.050862
112.371445
49.484968
17.305613
12.069941
15.411973
21.233559
33.419728
46.798587
67.641735
83.980560
101.755857
110.016465
110.463500
104.630589
89.463592
74.728727
51.347613
37.603974
23.062825
16.956925
11.411905
9.097457
7.777810
7.090569
6.793737
6.732941
6.353855
6.343722
5.958676
6.179810
6.356835
6.009936
6.382465
6.199479
5.940795
6.286502
5.945563
5.992651
6.132722
6.046891
5.794764
5.540848
5.869865
6.093979
##ZVALUE=315
1.084805
1.019835
0.916719
1.137853
0.989437
1.237988
1.087785
1.082420
1.121759
1.097918
1.137853
1.080632
1.203418
1.209974
1.145601
1.128912
1.123548
1.269579
1.330972
1.185536
1.248717
1.391768
1.294613
1.167655
1.387596
1.546741
1.553893
1.568794
1.477599
1.633763
1.505613
1.799464
1.911521
1.933575
2.091527
2.199411
2.498627
2.491474
2.868772
5.857944
21.268725
86.581707
188.570619
420.517921
681.318641
1015.608907
1015.608907
1015.608907
1015.608907
1015.608907
1015.608907
920.027494
636.605024
329.351425
175.549984
62.085986
25.357604
11.470914
11.168718
14.533997
19.221902
31.735897
43.721795
62.423944
79.015493
96.270442
103.681684
104.102492
99.616647
82.718730
69.699883
51.326752
37.297606
23.557544
15.987754
10.702610
8.433461
6.914735
6.311536
5.944967
5.843639
5.692840
6.090999
5.918741
6.078482
6.058812
6.066561
5.809665
5.840659
5.773902
5.656481
5.567670
5.591512
5.817413
5.757809
5.782843
##ZVALUE=320
1.052618
1.149774
1.052618
1.190901
1.105666
0.994802
1.129508
1.076460
1.222491
1.178980
1.071692
0.992417
0.979900
0.996590
1.226664
1.024604
1.176596
1.063943
1.239777
1.210570
1.186728
1.379848
1.336932
1.470447
1.471639
1.377463
1.251698
1.498461
1.469851
1.442432
1.578927
1.710653
1.808405
1.630783
1.839995
1.968741
1.924634
1.990795
2.199411
2.290606
2.410412
3.586411
9.967685
50.995946
123.758912
309.552550
513.402820
862.164497
1015.606523
1015.606523
1015.606523
1015.606523
1015.606523
1015.606523
797.103643
434.922576
241.008997
93.473792
41.559935
14.168620
9.585619
9.592772
11.935830
18.535852
26.191473
42.053461
55.852532
75.084567
87.794662
97.481608
99.011660
92.785954
82.685947
64.607859
49.752593
32.964945
22.849441
14.300942
10.259748
7.329583
6.289482
5.879998
5.704761
5.512834
5.590916
5.464554
5.637407
5.379915
5.524755
5.371571
5.671978
5.398989
5.622506
5.479455
5.554557
5.453825
##ZVALUE=325
0.990629
0.944734
1.009703
0.874996
0.926852
0.858903
0.873804
1.048446
0.920892
1.037717
1.039505
1.106858
0.950694
1.145601
1.064539
1.046658
1.185536
1.120567
1.128912
1.208782
1.340508
1.241565
1.223683
1.267791
1.379848
1.307726
1.423955
1.334548
1.679659
1.315475
1.482964
1.474619
1.649857
1.493692
1.549721
1.595616
1.761913
1.837611
2.042651
1.912713
1.990795
2.145767
2.225637
2.803802
5.292892
31.432509
81.080794
212.796926
380.830765
707.813501
979.076028
1015.605927
1015.605927
1015.605927
1015.605927
1015.605927
877.127051
526.043773
315.870643
136.604905
63.011646
19.346476
10.223985
8.105636
9.070635
11.931658
16.509891
26.310682
37.810802
56.662560
70.340633
84.555745
92.120767
92.946887
88.196993
73.186755
60.266852
43.614507
31.911731
19.614697
14.056563
9.026527
7.185936
6.000996
5.641580
5.244613
5.338788
5.161762
5.417466
5.279779
5.125999
5.212426
5.066991
5.368590
4.959702
5.083680
##ZVALUE=330
1.125932
0.909567
0.972748
0.942945
1.023412
0.963807
0.966787
0.972748
1.089573
1.141429
1.083612
1.127720
0.972748
0.964999
1.141429
1.063943
1.019835
1.051426
1.074672
1.007915
1.112819
1.060963
1.240969
1.270771
1.297593
1.341701
1.204610
1.264811
1.283884
1.374483
1.382828
1.436472
1.199841
1.559854
1.411438
1.671910
1.453757
1.469851
1.586676
1.701713
1.588464
1.843572
2.048612
2.155900
2.172589
2.548695
3.316998
13.113618
43.181777
144.063830
276.673436
559.423566
817.502737
1015.601754
1015.601754
1015.601754
1015.601754
1015.601754
981.675386
637.357831
407.669544
186.295509
92.730522
31.166673
13.244748
7.863641
7.596612
8.634925
10.681748
16.940832
24.574995
37.276745
49.613714
66.744685
77.968836
86.215734
86.217523
80.521703
70.504546
54.488778
42.721629
28.004646
20.181537
13.584495
10.045767
6.986856
6.104708
5.759597
5.151629
5.127788
5.008578
4.905462
4.853606
5.115867
4.906654
5.223751
##ZVALUE=335
1.096725
0.903606
0.918508
0.922680
0.961423
0.967979
1.027584
1.178980
0.986457
1.056790
1.018643
1.160502
1.086593
0.942945
1.077652
1.034737
1.083612
1.058578
0.987649
1.197457
1.144409
1.166463
1.178980
1.195669
1.189709
1.020432
1.087785
1.068711
1.310706
1.240969
1.400709
1.411438
1.234412
1.383424
1.320839
1.548529
1.489520
1.577735
1.547933
1.605749
1.610518
1.504421
1.557469
1.854897
1.869798
2.110600
2.260804
2.483726
2.564788
6.535649
22.038817
88.675618
186.977983
417.459011
666.419864
1001.579762
1015.605927
1015.605927
1015.605927
1015.605927
1015.605927
747.535825
504.215956
258.045793
133.935809
44.942498
18.079877
8.491874
7.533431
7.219911
7.954836
10.580420
14.580488
23.925900
33.369660
48.845410
60.717463
72.351694
78.705549
80.215931
75.630546
64.221621
53.839684
40.239692
30.149817
19.558668
13.930798
9.177923
7.077456
5.928874
5.224943
5.070567
4.982948
4.981756
4.727840
4.509687
##ZVALUE=340
0.973940
1.016855
0.957847
0.872612
0.939965
1.008511
1.023412
1.085997
1.011491
0.933409
0.989437
1.093745
0.979900
0.879765
0.928640
1.015663
1.007915
1.006722
0.969768
1.056790
1.056790
0.978708
1.136661
1.105666
1.046658
1.009703
1.113415
1.130700
1.127720
1.234412
1.002550
1.318455
1.261830
1.270771
1.294613
1.265407
1.354814
1.407862
1.470447
1.546741
1.561642
1.506805
1.514554
1.539588
1.613498
1.627803
1.905560
1.957417
2.206564
2.216697
2.473593
3.574491
10.713935
53.366423
128.941536
325.349569
541.254878
884.013772
1015.605927
1015.605927
1015.605927
1015.605927
1015.605927
879.014730
614.124537
313.977599
171.965957
66.819787
26.302934
9.221435
7.639527
7.330775
7.209778
8.072853
9.826422
14.944673
21.242499
32.424927
43.978691
58.379769
68.157911
75.800419
75.365901
70.619583
63.413978
50.666928
40.468574
28.104782
20.608902
13.571978
9.555817
6.928444
5.606413
4.928708
4.828572
4.688501
##ZVALUE=345
0.942945
0.964999
0.942945
0.928640
0.978708
1.023412
0.987649
0.800490
1.054406
0.934601
0.970960
1.056790
1.118779
1.087785
1.098514
0.967979
0.870824
0.935793
0.920892
1.037717
0.938773
1.179576
1.113415
1.037717
1.095533
1.211762
1.141429
1.029968
1.303554
1.192689
1.113415
0.945926
1.111627
1.176000
1.270771
1.248717
1.208782
1.374483
1.305938
1.355410
1.296997
1.362562
1.397729
1.500845
1.717806
1.632571
1.655817
1.704693
1.683831
1.846552
1.922846
2.094507
2.285838
2.494454
5.065799
28.665662
82.080960
221.642852
395.261049
706.806779
969.084501
1015.619636
1015.619636
1015.619636
1015.619636
980.435610
729.720592
426.760912
238.184929
92.764497
40.663481
13.343692
8.333921
7.102489
6.914735
6.680489
7.236600
9.143949
12.770891
20.745993
28.969646
42.316914
51.114559
61.690807
67.413449
70.203543
67.537427
59.504509
50.955415
38.645864
29.386878
19.435883
13.739467
9.093881
7.014871
5.764961
##ZVALUE=350
0.940561
0.848770
0.998974
0.925660
0.984669
0.953674
1.030564
0.805855
1.024604
1.032948
1.060963
0.917912
0.939965
1.076460
0.941753
0.948906
0.943542
0.975728
0.785589
1.060963
1.040697
1.042485
1.068711
0.914931
0.887513
1.022816
0.929832
0.948906
1.054406
0.993609
1.029968
1.029968
1.117587
1.095533
1.085997
1.235604
1.222491
1.132488
1.270771
1.456738
1.298785
1.317859
1.480579
1.295805
1.433492
1.307726
1.629591
1.538992
1.611710
1.679659
1.771450
1.839995
1.740456
2.148747
2.186894
2.337694
3.265738
15.229583
46.666861
145.807862
286.597610
572.786927
824.116468
1015.605927
1015.605927
1015.605927
1015.605927
1015.605927
830.300450
504.353642
301.193595
133.977532
61.100721
17.181635
8.619428
6.788969
6.350875
5.867481
6.180406
6.762743
8.297563
12.417436
17.306805
26.138425
34.353733
46.577454
54.251552
60.989857
64.015985
61.606765
55.552721
45.935512
37.541986
27.537942
20.386577
13.632774
##ZVALUE=355
0.838637
0.912547
0.859499
1.061559
0.948906
0.987649
0.979900
1.062751
1.091957
0.932813
0.854731
1.099706
0.903606
1.011491
0.967979
0.981688
0.949502
1.048446
1.039505
0.983477
0.936985
0.967979
1.011491
1.097918
0.865459
1.049638
1.066923
1.095533
1.024604
1.104474
1.156926
1.092553
1.105666
1.222491
1.067519
1.201630
1.123548
1.219511
1.206994
1.205802
1.297593
1.205802
1.434684
1.284480
1.413822
1.350641
1.349449
1.472831
1.417994
1.474619
1.501441
1.647472
1.585484
1.660585
1.862645
1.967549
2.069473
2.272725
2.705455
7.364750
25.689602
99.737644
204.486847
432.626605
678.938627
1001.707911
1015.626788
1015.626788
1015.626788
1015.626788
938.377976
616.688728
383.628011
168.470740
79.370737
23.715496
10.173917
6.600618
6.108880
5.803704
5.559921
5.731583
5.943775
7.450581
9.987950
15.235543
21.745563
31.180978
39.223433
48.811436
54.702759
58.366656
56.812763
50.928593
44.553876
34.804940
##ZVALUE=360
0.842810
0.849962
0.933409
0.990629
0.948906
0.964999
0.866652
0.765920
0.940561
1.035929
0.948906
0.939965
1.003742
0.969768
0.891685
1.006722
0.921488
0.979900
0.976920
1.038909
1.148582
1.224875
1.064539
1.154542
1.155734
1.057982
0.922680
0.979900
1.219511
1.153946
1.091957
1.042485
1.065731
1.166463
1.108646
1.136661
1.181960
1.430511
1.140833
1.162887
1.244545
1.111627
1.206994
1.238585
1.382828
1.299977
1.415610
1.394749
1.421571
1.572967
1.376867
1.454949
1.606941
1.752973
1.708865
1.671910
1.914501
1.940727
2.140999
2.402663
2.601743
3.798604
11.800528
52.453876
124.025941
308.720469
520.080924
857.791901
1015.605927
1015.605927
1015.605927
1015.605927
1015.605927
713.505745
471.408963
227.446556
117.252469
40.803552
15.962720
7.100701
6.183982
5.654693
5.539656
5.152822
5.057454
5.303621
6.264448
8.277893
11.880994
18.358827
25.269985
35.049915
41.727424
48.800707
51.979423
52.835941
##ZVALUE=365
1.000762
0.956655
0.937581
0.972748
1.003742
0.913739
1.019835
0.990629
1.067519
1.095533
0.905991
0.956655
0.790954
0.900626
0.877976
0.881553
0.843406
0.915527
0.888705
1.024604
1.015663
0.993609
0.911951
1.086593
1.010895
0.944734
0.961423
1.111627
1.083612
1.192689
1.113415
1.160502
1.104474
0.977516
1.111627
1.337528
1.133680
1.156926
1.176596
1.176000
1.200438
1.107454
1.211762
1.184940
1.262426
1.315475
1.279712
1.421571
1.385808
1.399517
1.430511
1.490712
1.612902
1.470447
1.585484
1.658797
1.649857
1.816750
1.888871
1.931787
2.185702
2.313852
2.466440
2.864599
5.474687
29.459000
79.838634
211.617947
390.601754
709.611773
957.278013
1015.605927
1015.605927
1015.605927
1015.605927
823.802948
581.214428
314.512849
167.735815
58.940649
23.204684
7.629991
5.903840
5.443692
5.085468
5.009770
4.806519
4.625916
4.722476
5.518794
6.930828
10.752678
14.912486
22.142529
29.023886
37.078857
##ZVALUE=370
0.983477
0.897646
0.923872
0.934601
0.809431
0.898838
0.881553
0.923872
0.909567
0.984669
0.948906
0.940561
0.685453
1.061559
1.003742
1.137853
0.923872
0.923872
1.024604
1.032948
0.917912
0.916719
1.066923
0.813603
0.968575
1.145601
0.953674
1.111627
0.953674
1.049638
1.008511
0.992417
1.018643
1.183748
1.099706
1.118779
1.064539
1.104474
1.174808
1.224875
1.174808
1.119971
1.066923
1.105666
1.108646
1.118779
1.321435
1.210570
1.143813
1.235604
1.117587
1.229644
1.374483
1.421571
1.307726
1.497865
1.506805
1.426935
1.731515
1.748800
1.691580
2.043843
2.136827
2.145767
2.269745
2.438426
3.342628
15.787482
50.506592
156.120658
299.794674
568.475723
824.820995
1015.594602
1015.594602
1015.594602
1015.594602
938.496590
689.835548
391.228795
219.616890
84.933639
37.417412
11.324883
6.167889
5.183816
5.052686
4.609823
4.363656
4.303455
4.087687
4.461408
4.870892
6.397963
8.353591
12.962818
##ZVALUE=375
0.904799
0.854731
0.951886
0.949502
0.809431
0.878572
0.802875
0.931621
0.973940
0.996590
0.851750
0.958443
0.882745
1.021624
0.913739
0.956655
0.918508
0.863671
0.953674
0.967979
0.921488
0.862479
0.861883
0.778437
0.997782
1.043677
0.995994
0.937581
0.896454
0.881553
0.917912
0.995994
1.103878
0.952482
1.009703
1.039505
1.033545
1.117587
0.996590
1.246929
1.162887
1.155734
1.097918
1.119971
1.202822
1.094937
1.297593
1.155734
1.174808
1.206994
1.311898
1.304746
1.223683
1.146793
1.227856
1.336932
1.428723
1.321435
1.257658
1.453757
1.518726
1.507998
1.673698
1.720786
1.724958
1.894832
2.035499
2.380610
2.599955
7.825494
26.827455
95.508695
205.882788
453.987718
698.179603
1002.788544
1015.605927
1015.605927
1015.605927
1015.510559
813.221931
488.172770
305.051804
147.508979
71.836710
21.835566
8.739829
5.206466
4.745722
4.576445
4.432797
4.126430
4.018545
3.763437
4.006624
4.287958
##ZVALUE=380
0.916719
0.946522
0.861883
0.962615
0.837445
1.033545
1.067519
1.047850
0.883937
0.872612
1.088977
0.932813
0.953674
0.954866
0.976920
0.957847
0.923872
0.995994
0.997782
1.025796
1.019835
1.033545
0.952482
0.992417
1.031756
0.984669
0.895858
0.993609
1.023412
1.006722
0.878572
1.070499
1.058578
0.914931
1.056790
1.124740
1.189709
1.199841
1.304746
1.105666
1.063943
1.182556
1.215935
1.039505
1.138449
1.212955
1.134872
1.152754
1.033545
1.117587
1.116991
1.161695
1.260638
1.161695
1.225471
1.237988
1.279712
1.432896
1.385808
1.320839
1.374483
1.339912
1.501441
1.615882
1.661777
1.631975
1.817942
2.068877
2.201796
2.667904
2.758503
4.380941
14.628768
67.726970
156.466961
364.269614
583.265424
903.812647
1015.650034
1015.650034
1015.650034
1015.650034
935.649872
644.120574
429.582000
208.005905
105.483532
35.703778
13.775826
5.745888
4.816651
4.576445
4.359484
4.145503
3.938675
3.643632
##ZVALUE=385
0.854731
0.806451
0.848770
0.757575
0.785589
0.806451
0.727773
0.731945
0.929832
0.757575
0.641942
0.711679
0.793934
0.801682
0.837445
0.916719
0.922680
0.836849
0.808835
0.777841
0.905991
1.014471
0.942945
0.919700
0.894666
0.969768
0.853539
1.035929
0.999570
1.107454
0.998974
1.097918
1.099706
1.112819
1.218915
1.133680
1.088977
1.124740
1.130700
1.066923
1.155734
1.276731
1.156926
1.288652
1.136661
1.166463
1.113415
1.199841
1.127720
1.070499
1.068711
1.173615
1.084805
1.201630
1.142621
1.286864
1.122952
1.267791
1.166463
1.148582
1.235604
1.462698
1.409650
1.437664
1.423955
1.576543
1.636744
1.618862
1.822710
2.000928
1.983643
2.313852
2.560616
2.962947
7.269979
38.922429
99.814534
254.497528
442.072749
764.092803
995.637774
1015.605927
1015.605927
1015.605927
1015.605927
777.472854
554.770827
316.864848
175.632834
63.509941
24.724603
7.010698
4.820824
4.388690
4.359484
3.929734
##ZVALUE=390
0.808835
0.774860
0.862479
0.867844
0.786781
0.907779
0.916719
0.878572
0.756979
0.923872
0.892878
0.914931
0.998974
1.047850
0.996590
0.907779
0.782609
0.815988
0.700951
0.740886
0.710487
0.824928
0.889897
0.744462
0.958443
0.928640
1.006722
1.127720
0.986457
1.250505
1.278520
1.377463
1.225471
1.170635
1.317859
1.369715
1.206994
1.427531
1.428723
1.267791
1.409650
1.310706
1.308918
1.122952
1.157522
1.071692
1.260638
1.207590
1.268983
1.189709
1.181960
1.187921
1.172423
1.106858
1.245737
1.187921
1.267791
1.205802
1.345873
1.229644
1.213551
1.313686
1.278520
1.355410
1.509786
1.358986
1.558661
1.364946
1.802444
1.850724
1.867414
1.981854
2.073646
2.453923
2.382994
2.438426
3.723502
19.849539
62.776804
192.106962
358.250737
661.072731
896.467566
1015.606523
1015.606523
1015.606523
1015.606523
934.015512
704.159737
423.017740
242.483616
97.317696
44.483542
13.403893
5.897880
4.307628
##ZVALUE=395
0.933409
0.858903
0.852942
0.767708
0.813603
0.762939
0.912547
0.802875
0.833869
0.847578
0.944734
0.778437
0.963807
0.913739
0.858903
0.905991
0.844598
0.858903
0.843406
0.878572
1.037717
0.816584
1.060963
0.886917
1.028776
0.839829
1.093745
1.056790
0.995994
1.381636
1.209974
1.410842
1.461506
1.612902
1.592636
1.529455
1.644492
1.560450
1.620650
1.637936
1.461506
1.516938
1.438856
1.359582
1.480579
1.380444
1.406670
1.345873
1.478791
1.227856
1.302958
1.108646
1.124740
1.210570
1.249909
1.131892
1.212955
1.045465
1.118779
1.263618
1.184940
1.140833
1.289845
1.272559
1.312494
1.441836
1.310706
1.359582
1.541972
1.767874
1.852512
2.025962
1.831651
1.976490
1.858473
2.022982
2.019405
2.230406
2.596974
10.559559
37.956834
130.877495
259.438753
510.740876
742.214918
1015.605927
1015.605927
1015.605927
1015.605927
1015.605927
850.085616
519.028902
327.485800
151.072741
70.532560
22.087693
##ZVALUE=400
0.878572
0.845790
0.795722
0.853539
0.772476
0.922680
0.608563
0.836849
0.770688
0.803471
0.920892
0.883937
0.839829
0.929832
0.889897
0.788569
0.904799
0.880957
0.805855
0.793934
0.781417
0.930429
0.819564
0.763535
0.906587
0.982881
1.174808
1.252890
1.360774
1.300573
1.311898
1.530647
1.592636
1.708865
1.587868
1.632571
1.580715
1.490712
1.679659
1.603961
1.727939
1.525879
1.521707
1.396537
1.484752
1.286864
1.356602
1.434684
1.365542
1.377463
1.439452
1.262426
1.120567
1.289845
1.254678
1.016855
1.194477
1.098514
1.247525
1.205802
1.165867
1.242757
1.198649
1.178980
1.208782
1.319647
1.452565
1.454949
1.691580
1.566410
1.783967
1.762509
1.865625
1.672506
1.778603
1.689792
1.752973
1.930594
2.053976
2.257824
2.213717
5.447865
20.645857
80.468655
171.777606
378.658772
596.748590
915.706754
1015.605927
1015.605927
1015.605927
1015.605927
889.629722
643.960834
363.789797
214.606524
##END
