##TITLE=SH701
##FORMAT=SPECTACLE-ASCII V-1.2
##DATA TYPE=ULTRAVIOLET SPECTRUM
##SECOND TYPE=ULTRAVIOLET SPECTRUM
##DATE=03/27/18
##TIME=17:43:03
##SPECTROMETER/DATA SYSTEM=SPECTACLE
##XUNITS=NM EM
##YUNITS=ENERGY
##YFACTOR=1
##FIRSTX=220
##LASTX=410
##NPOINTS=96
##3DDATA=Equidistant
##ZUNITS=NM EX
##FIRSTZ=210
##LASTZ=400
##ZPOINTS=39
##XYDATA=(Y..Y)
##ZVALUE=210
2.502799
2.792478
2.395511
2.339482
2.323985
2.832413
3.140569
2.637506
2.736449
3.356934
3.410578
3.032684
3.934503
3.944635
3.889799
3.728867
4.454851
4.653931
4.232526
4.669428
4.801750
5.720854
5.502701
5.354881
6.046891
6.462932
6.463528
7.481575
7.279515
7.310510
6.644726
7.380843
8.391738
7.352829
7.877946
9.204745
8.018613
8.588433
9.116530
8.693933
9.409785
10.339618
10.057688
8.977652
9.948611
9.061694
9.515882
10.035634
10.274649
10.495782
10.676980
11.948943
11.500716
11.466742
12.501478
11.750460
12.972951
11.497736
12.509823
12.538433
12.320876
13.312697
11.645555
12.539625
14.392734
14.298558
15.326738
18.231869
20.586848
22.962689
30.067563
32.774806
39.895773
42.995811
48.286915
49.189925
50.649643
48.237443
45.271516
41.629672
37.431717
34.823418
32.211542
28.394461
24.729967
21.220446
18.796921
16.447902
16.819835
15.842915
13.850927
14.916658
14.771819
15.762448
15.070438
15.456676
##ZVALUE=215
5.655885
5.477667
4.983544
4.145503
3.944635
3.698468
4.105568
4.457831
3.917813
4.294515
4.411936
4.796982
4.534721
4.272461
4.555583
3.956556
4.755855
4.618764
4.610419
5.058646
5.441904
5.638599
5.901456
5.926490
6.593466
7.539988
6.036758
7.079840
6.860495
7.915497
6.843805
7.733703
8.387566
7.787943
8.464456
8.507967
7.969737
8.309484
9.594560
9.037852
9.098649
8.731484
10.063648
9.517670
9.473562
10.244846
10.708570
11.683702
11.189580
11.640787
12.027621
12.677908
13.422966
12.368560
11.396408
14.537573
13.655424
12.760758
13.758540
12.208819
14.537573
14.068484
13.795495
13.446808
14.625788
16.097426
15.645623
17.291903
20.337701
24.134517
26.674867
33.028722
36.623478
41.433573
45.424700
44.480562
47.037601
44.671893
44.749975
40.200949
37.798882
35.335422
29.373765
27.105808
24.293661
20.781755
18.586516
18.271804
17.978549
17.073750
15.595555
14.768839
15.713573
15.877485
16.104579
16.134977
##ZVALUE=220
19.702911
20.610690
19.439459
18.703938
18.354654
13.001561
12.463927
8.772612
7.847548
8.450747
7.937551
9.631515
9.365678
8.809566
8.569956
7.206798
6.880760
5.884767
4.934669
5.056858
5.822778
5.857944
6.122589
6.248951
6.001592
7.174611
6.724000
7.749796
8.036494
8.106828
8.098483
7.972717
7.660985
8.866787
8.786917
8.824468
8.763671
10.031462
9.498000
10.261536
10.219812
9.647608
10.473728
10.838509
10.651946
11.128783
11.094809
11.240840
11.374950
11.974573
12.650490
13.993979
12.846589
12.676716
12.726784
12.499690
13.786554
14.472604
14.086962
13.267994
14.321804
14.435649
15.013814
15.566945
13.265610
15.049577
16.355515
19.183755
20.779967
25.518537
27.728677
32.086968
36.046505
37.467480
39.503574
40.931702
42.917728
43.064952
41.634440
39.629936
37.749410
32.704473
28.526783
26.620626
25.041699
21.337867
20.543933
19.350648
17.694831
18.981695
17.719865
16.925931
17.038584
17.164946
15.578866
17.321706
##ZVALUE=225
41.636825
43.736696
52.412748
66.430569
69.079995
68.186522
63.622594
46.602488
37.412643
29.899478
20.510554
18.540621
18.279552
19.848943
19.826889
20.695925
18.024445
17.788410
11.966825
10.663867
7.739663
6.650686
7.344484
7.137656
7.322431
6.658435
7.907748
7.506609
7.243752
8.536577
8.971691
9.128451
9.873509
8.541942
8.596778
9.066463
9.905696
10.767579
10.914803
10.459423
11.208653
11.192560
11.329651
11.374950
11.276603
12.244582
11.120439
12.141466
12.882948
11.933446
13.307929
13.197660
13.579726
14.079809
15.698671
15.101433
15.778542
15.975833
16.191602
15.249848
15.285611
17.884970
17.263889
18.314719
17.583966
18.246770
20.506978
19.760728
23.571849
27.200580
28.957725
31.585693
36.689639
39.329529
41.893721
42.584538
44.928789
40.926933
42.303801
36.783814
36.996603
31.863451
31.491518
29.488802
27.697682
23.639798
23.912787
24.949908
25.479794
21.573901
22.172928
20.917654
21.703839
20.882487
21.424890
22.361875
##ZVALUE=230
44.993758
45.527816
85.168481
114.315748
148.322582
193.600655
201.296806
208.038688
186.998844
149.302483
111.191869
73.347688
52.795410
40.155649
35.785437
40.667653
41.984916
43.017864
37.816763
30.964613
24.396777
20.795465
14.098883
10.344982
7.994771
8.216500
9.723902
8.366704
9.366870
8.369684
8.969903
9.523630
9.475946
9.650588
10.066628
10.399818
11.301637
11.596680
10.608435
11.691451
12.655854
11.971593
10.718703
12.169480
13.766885
13.961792
14.388561
14.290810
13.741851
14.472604
14.920831
15.111566
14.679432
16.310811
14.896989
16.208887
18.282533
17.885566
17.772913
18.395782
20.049810
20.711422
22.161603
21.721721
21.642447
23.529530
24.788976
25.580525
29.187799
34.812689
36.221743
39.101839
41.994452
46.913624
50.411820
49.468875
50.365925
48.604608
48.635602
46.553612
43.088794
41.317940
40.217638
38.486719
35.301447
33.437610
35.432577
33.431649
32.955408
32.919645
34.205914
33.470988
33.403635
32.672882
31.999946
34.259558
##ZVALUE=235
17.970800
20.704865
44.205785
103.144646
167.348981
269.186497
344.362855
440.350771
484.936833
484.882593
431.087613
361.899734
239.548683
171.216726
108.753443
81.376433
72.332621
70.916414
75.883865
78.657866
74.366927
61.409473
52.810907
35.010576
26.350617
18.309951
14.531612
11.008978
10.545850
9.953976
10.877848
10.870695
11.504889
11.303425
10.728836
11.985898
11.630654
12.258887
12.633801
13.724566
12.775660
14.075637
14.674664
13.185740
14.430881
13.627410
14.517903
13.449788
14.173985
15.391707
16.758442
17.512441
17.260909
16.909838
18.847585
19.798875
21.427870
21.364689
21.004677
21.630526
22.791624
24.645925
25.728941
26.997924
28.519630
28.755665
30.973554
32.687783
38.287640
40.023923
44.428706
47.964454
53.404570
54.725409
61.554909
60.883760
63.705444
62.073469
60.097575
59.830546
57.935715
56.811571
56.277514
56.454539
52.076578
50.725937
48.344731
50.403476
48.578978
48.682690
46.534538
48.326850
46.207905
48.020482
51.240921
49.837828
##ZVALUE=240
2.782941
3.361702
8.931756
29.689670
68.567991
156.153440
255.944729
431.178808
577.185750
731.238723
810.514688
799.129605
721.945763
566.548705
442.223549
315.094590
196.180940
131.662488
96.640587
93.310475
103.106499
112.058520
107.322931
98.092556
79.302788
63.047409
50.097704
32.593608
23.227930
17.409921
13.184547
11.468530
12.416840
12.673736
12.145638
11.913776
13.961792
13.054609
12.955666
12.878776
13.456941
13.990998
13.538599
13.718605
14.175773
15.275478
13.837814
15.668869
14.542937
16.673803
17.822981
17.492771
17.046928
17.716885
19.609928
19.375682
20.760894
20.969510
22.136569
22.162795
24.457574
25.409460
28.615594
27.489662
27.646422
32.836795
33.569932
36.954880
39.802790
47.352910
46.529770
54.196715
59.454441
64.688921
66.246986
66.021681
69.178939
69.537759
68.006516
70.042610
68.355799
63.955784
62.486529
62.189698
61.298609
62.197447
60.006976
60.304999
59.915781
60.161948
62.026978
59.978962
61.307549
60.838461
58.589578
61.024427
##ZVALUE=245
2.707839
3.043413
2.616644
3.143549
8.576512
21.990538
70.913434
145.041943
321.551561
480.046868
732.478499
899.719000
1008.918881
1015.605927
1005.688906
841.901898
669.956803
450.318456
309.240818
174.604654
126.214623
104.411840
110.318661
121.973753
127.301812
121.820569
111.618638
95.188618
71.476698
54.180622
40.331483
25.765896
18.610954
14.313459
12.817979
10.485649
12.749434
11.172891
12.941957
13.252497
11.735559
12.261868
13.515949
12.596846
12.445450
13.324618
14.534593
12.532473
13.778806
14.118552
15.044808
14.735460
15.747547
16.168952
16.155839
16.590953
17.053485
19.711852
19.774437
21.365881
22.161603
23.105741
24.314523
25.363564
27.759671
29.328465
30.775666
33.578873
37.300587
42.145848
45.481920
52.221417
52.750707
56.346655
60.582757
64.832568
65.322518
66.971779
63.196421
62.416792
60.903430
64.118505
61.999559
58.664680
62.518716
59.387684
62.512755
62.279701
62.703490
62.992573
60.090423
61.066747
60.341954
61.866641
60.133934
62.533617
##ZVALUE=250
2.302527
2.760887
2.713799
2.584457
3.300905
2.893806
4.776716
15.191436
63.775778
132.579803
306.985974
500.263572
710.401535
990.797877
1015.673876
1015.673876
1015.673876
1015.673876
938.692093
644.330978
439.190865
275.305510
149.160624
110.451579
106.340647
115.274787
129.451752
136.227608
131.109953
118.697882
102.092624
77.780485
58.554411
36.648512
25.412440
17.319918
13.103485
12.006760
11.794567
10.866523
10.546446
11.289716
11.991858
12.444854
11.566877
12.090802
12.473464
12.416840
12.760758
13.274550
13.590455
12.909770
14.499426
14.699697
14.908910
14.858842
15.000701
17.556548
16.616583
18.101931
19.049644
20.628572
21.464825
22.780895
23.557544
25.012493
27.099848
30.404925
33.562779
37.424564
39.702654
43.469667
47.336817
50.075650
52.847862
53.889751
54.472685
55.727959
58.102608
56.797862
55.931807
56.702495
55.095553
56.554675
56.627989
56.132674
57.878494
56.606531
55.685639
57.453513
56.480765
59.503913
59.333444
58.679581
59.198737
59.266686
##ZVALUE=255
2.109408
2.356768
2.326965
2.284646
1.969934
2.425909
2.816916
3.151894
3.307462
7.886887
38.648844
99.255443
256.621838
432.896018
729.876757
981.735587
1015.605927
1015.605927
1015.605927
1015.605927
1015.605927
880.534649
613.272786
337.472558
200.782418
112.195611
94.961524
106.115937
121.806860
139.957666
145.009756
141.578913
127.238631
105.134845
82.588792
56.166649
38.461685
23.757815
17.886758
12.248755
11.567473
11.112690
11.315942
11.524558
10.833740
11.967421
12.392998
12.766719
11.903644
12.770891
13.871789
12.963414
13.261437
13.287663
13.866425
14.491677
14.361739
14.956594
15.748739
16.635656
16.970634
18.413663
19.592643
19.519925
22.185445
22.958517
24.444461
26.899576
27.680993
32.850504
33.646822
38.369894
42.396784
45.777559
46.724677
49.215555
49.524903
48.658848
49.513578
49.523711
50.105453
51.375628
50.244927
53.325891
52.644610
52.852631
52.635670
52.528977
53.894520
54.034591
54.558516
55.733919
56.088567
55.385828
55.690408
56.166649
##ZVALUE=260
2.381802
2.264977
2.217889
2.374649
2.509952
2.529621
2.572536
2.764463
2.669692
3.006458
3.390908
5.128980
17.640591
74.074864
165.200830
376.505852
607.154965
966.712832
1015.775800
1015.775800
1015.775800
1015.775800
1015.775800
1015.775800
791.673660
540.328622
295.519829
177.022815
99.832416
89.112520
100.836754
123.854876
139.324665
147.892833
145.057440
128.931999
110.810995
80.855489
61.195493
38.890839
28.250813
17.841458
14.234781
11.251569
11.824965
11.657476
11.568666
12.159944
12.239814
12.478828
12.267828
12.987852
13.793707
14.118552
14.015436
15.608668
14.874935
16.047955
16.953945
16.806722
18.335581
18.058419
19.501448
20.215511
20.289421
22.202730
22.992492
25.466681
28.414726
30.215979
32.558441
34.678578
36.845803
39.920807
42.473674
43.581724
45.705438
45.869946
46.918988
46.098828
46.026707
48.099756
49.180984
47.574639
46.859980
49.280524
49.966574
49.747825
50.815940
50.473809
50.005913
52.298903
52.145720
53.214431
53.929687
55.358410
##ZVALUE=265
2.072453
2.187490
2.132654
2.087951
2.136827
2.100468
2.028942
2.309680
2.402663
2.422929
2.774596
2.929568
3.267527
4.177690
10.371804
35.789609
129.378438
262.480974
562.043786
859.820843
1015.605927
1015.605927
1015.605927
1015.605927
1015.605927
1015.605927
1015.605927
703.498721
457.481742
230.569839
130.804777
80.797672
86.440444
111.936927
128.021836
147.703886
154.586434
144.340992
132.282972
106.184483
85.087419
58.737993
41.596889
25.310516
19.076467
14.276505
13.134480
13.582706
13.156533
12.628436
14.642477
14.617443
14.228821
15.174747
15.157461
15.792847
16.378760
16.051531
17.616749
17.659664
18.927455
19.262433
19.044876
20.501614
21.216869
22.713542
22.944808
25.198460
27.049780
29.588938
31.456947
33.408999
34.643412
38.132668
39.290786
41.339993
41.701794
42.844415
42.155981
44.420958
44.841766
44.732690
45.321584
45.763850
46.629906
46.506524
48.330426
48.862696
48.496723
48.737526
48.333406
48.528910
48.801899
50.345659
51.591992
50.268769
##ZVALUE=270
1.766682
1.871586
2.098680
2.026558
2.041459
1.989603
2.181530
2.401471
2.236962
2.011657
2.249479
2.559423
2.795458
3.106594
3.123879
3.642440
5.005598
24.435520
69.309473
215.155482
419.333577
716.066957
1015.605927
1015.605927
1015.605927
1015.605927
1015.605927
1015.605927
1015.605927
1006.900668
725.557804
370.497704
202.494860
89.995861
69.335699
86.133480
106.015801
131.954551
145.889521
154.903531
151.928663
134.066939
112.289786
85.337758
64.316988
41.694641
29.457808
21.277666
17.721653
15.201569
15.117526
15.504956
16.112924
16.499758
17.649531
17.297864
18.160939
19.148588
19.076467
19.840598
20.472407
20.967722
21.791458
21.936893
23.003817
23.489594
24.523735
26.232600
26.330948
29.285550
31.939745
34.489632
35.027862
37.793517
40.098429
40.268898
41.298866
41.523576
41.705966
41.463971
43.422580
42.671561
42.729974
42.740703
43.403506
44.856668
44.187903
45.546889
46.085715
45.600533
46.440959
47.444701
46.351552
46.618581
47.849417
47.706962
##ZVALUE=275
1.735687
1.852512
1.875758
1.848936
1.814961
1.781583
1.935959
1.978874
2.070665
2.218485
2.360940
2.451539
2.244711
2.588630
2.625585
2.785921
3.067851
3.360510
3.895760
8.211732
48.423409
132.192969
369.553566
646.217465
1015.605927
1015.605927
1015.605927
1015.605927
1015.605927
1015.605927
1015.605927
1015.605927
955.154896
522.380471
298.325419
127.596855
69.730878
64.749718
83.716512
109.495521
129.136443
148.619413
154.085755
148.185492
133.168697
108.788610
88.955760
64.776540
47.825575
32.973886
24.619699
19.636750
18.188953
18.218756
18.624663
18.399954
19.903779
20.536780
20.774603
21.318793
21.970868
22.548437
22.840500
24.132729
24.368763
25.320649
26.278496
27.793646
28.909445
31.002760
32.378435
34.628510
35.574436
38.948655
39.881468
41.309595
41.453838
41.466951
41.844845
41.502714
41.630864
43.293834
41.395426
42.991638
43.587685
44.249892
43.510795
43.171644
44.271946
44.406652
44.226646
44.110417
44.944882
45.203567
45.718551
45.265555
##ZVALUE=280
1.896620
1.881719
1.621842
1.711845
1.894832
1.798868
1.939535
1.877546
2.085567
1.917481
2.063513
2.280474
2.182722
2.243519
2.224445
2.504587
2.571940
2.665520
2.820492
3.366470
3.824830
6.485581
26.177764
121.696591
269.428492
585.601926
916.650891
1015.605927
1015.605927
1015.605927
1015.605927
1015.605927
1015.605927
1015.605927
1015.605927
723.692775
427.152514
178.838968
88.209510
52.206516
59.964657
87.506771
106.699467
131.224990
144.848824
154.210925
147.924423
130.427480
111.346841
87.143779
68.148971
47.948956
34.851432
26.312470
22.824407
20.744801
21.385550
20.843744
21.152496
22.068620
22.901893
24.068952
24.636984
24.446845
25.975704
26.165843
26.716590
29.199719
30.585527
31.762719
33.519864
34.814477
37.845969
38.309693
38.914680
40.194988
40.796995
40.945411
41.380525
40.590763
42.991638
41.870475
42.802691
42.196512
42.616725
42.861700
42.913556
43.297410
43.465495
44.621825
43.116808
43.560863
43.569803
44.105649
44.100881
43.311715
##ZVALUE=285
1.539588
1.422763
1.508594
1.393557
1.684427
1.404881
1.651645
1.537800
1.848936
1.635551
1.779795
1.795888
1.744628
1.746416
1.966953
2.257824
2.470613
2.440810
2.516508
2.750754
2.873540
3.353953
3.667474
4.043579
14.049411
50.853491
173.414946
348.268747
720.769763
1015.473604
1015.473604
1015.473604
1015.473604
1015.473604
1015.473604
1015.473604
1015.473604
966.286659
625.819564
295.465589
146.004558
56.095719
43.542981
57.706833
78.161955
108.957887
125.738978
143.271685
147.932768
146.587491
135.859847
114.123821
95.632672
68.924427
53.022504
36.489964
28.938651
24.736524
22.802949
22.478700
23.269653
24.585724
24.788976
25.291443
26.513934
27.213693
27.774572
29.350519
31.201839
33.032894
34.034848
35.994649
38.280487
38.410425
39.355755
40.367842
40.106773
41.239858
41.180849
40.998459
41.831732
42.862892
42.354465
42.219758
43.178797
42.888522
43.408871
43.498874
44.507980
44.060946
43.103695
42.425990
42.354465
42.619705
42.206645
43.275952
##ZVALUE=290
1.708865
1.705885
1.665950
1.445413
1.660585
1.568794
1.641512
1.649857
1.593828
1.757741
1.638532
2.074838
2.023578
1.851916
2.088547
2.059937
2.095699
2.115965
2.171993
2.404451
2.506971
2.556443
2.850890
3.218651
3.584623
4.172921
5.979538
19.632578
91.621876
222.420692
441.263914
915.665030
1015.609503
1015.609503
1015.609503
1015.609503
1015.609503
1015.609503
1015.609503
1015.609503
839.242935
432.385802
226.567984
83.170533
41.166544
41.158795
55.127740
77.721477
97.549558
122.225881
137.485862
147.239566
145.144463
130.780935
114.206672
88.207722
70.644617
49.958825
40.318966
30.366778
27.100444
24.547577
24.470687
25.457740
25.797486
27.357936
27.517676
29.611588
31.446815
32.447577
34.499764
35.762787
37.386417
38.842559
39.382577
40.991902
41.077733
42.076707
41.108727
41.323900
42.935610
43.646693
43.432713
43.361783
43.049455
44.292808
43.912530
44.765472
44.411421
43.918490
43.345690
43.949485
44.374466
43.933988
44.772625
42.902827
##ZVALUE=295
1.445413
1.565814
1.599789
1.440644
1.700521
1.487732
1.553893
1.640916
1.558661
1.627803
1.797676
1.569986
1.744628
1.887679
1.804829
1.687407
1.874566
1.925826
1.731515
2.045631
2.216697
2.273917
2.411604
2.782941
2.848506
3.075600
3.319979
3.829598
4.414916
8.952618
32.361746
139.930844
316.454768
745.221972
1015.523672
1015.523672
1015.523672
1015.523672
1015.523672
1015.523672
1015.523672
1015.523672
994.452834
555.693507
300.466418
107.604861
48.429966
29.729605
35.095811
52.715540
69.356561
95.052719
114.767551
133.422613
141.450763
139.600635
128.621459
108.244419
90.103745
67.431927
53.076744
38.521886
32.011867
27.773976
25.551915
27.065873
27.724504
28.805733
30.293465
32.833815
33.490658
35.985708
36.834478
38.537979
38.595796
39.985776
40.780902
41.601658
42.411685
42.635798
42.293668
43.784976
44.077635
44.130683
45.503974
44.519901
45.833588
44.779778
45.038462
44.463873
45.093894
43.962002
44.260621
43.683648
44.422746
43.016672
##ZVALUE=300
1.511574
1.518726
1.442432
1.365542
1.508594
1.509786
1.643896
1.542568
1.742840
1.676679
1.788735
1.615882
1.790524
1.816750
1.815557
1.788735
1.728535
1.965761
1.970530
2.002716
2.038479
2.299547
2.286434
2.347827
2.528429
2.664924
2.832413
3.069639
3.106594
3.736615
4.234910
5.130768
21.984577
76.376796
249.042511
489.293933
974.972844
1015.606523
1015.606523
1015.606523
1015.606523
1015.606523
1015.606523
1015.606523
1015.606523
831.074715
402.359962
206.272602
72.068572
32.134652
24.944544
32.394528
48.013926
64.459443
87.848902
107.577443
127.950907
135.859847
135.249496
127.359629
109.423995
93.166828
70.505738
56.129694
42.099953
35.998821
31.673908
30.438900
30.644536
31.791925
33.323765
35.030842
36.657453
37.983656
39.831996
39.782524
40.865541
42.040944
42.515993
43.593645
44.391751
44.533610
44.952631
45.394897
45.513511
46.480894
46.511889
46.009421
46.407580
45.639873
45.320988
45.240521
44.697523
44.648647
44.136643
45.270920
##ZVALUE=305
1.433492
1.549721
1.489520
1.329780
1.580715
1.414418
1.501441
1.335740
1.596808
1.604557
1.639724
1.770854
1.652837
1.707673
1.605749
1.676679
1.739860
1.860857
2.002716
1.949668
2.043843
2.253652
2.006888
2.088547
2.239943
2.361536
2.379417
2.685785
2.723932
2.867579
3.437996
3.548861
3.678799
4.550815
8.862615
53.179860
148.424506
412.390828
744.466782
1015.606523
1015.606523
1015.606523
1015.606523
1015.606523
1015.606523
1015.606523
1015.606523
986.661911
623.710752
269.841552
124.515891
40.669441
22.118688
24.057627
31.371713
47.561526
63.482523
86.723566
105.205774
122.001767
130.693913
129.907727
122.484565
107.819438
90.688467
69.279671
56.988001
45.009851
38.668513
35.374761
35.151839
35.563707
37.189722
39.177537
39.417744
40.758848
40.992498
42.750835
44.149756
44.988990
44.662952
45.912862
45.870543
47.230721
47.728419
47.554970
48.076510
47.256947
47.514439
47.605634
47.663450
46.791434
46.262741
45.753717
46.425462
46.365857
##ZVALUE=310
1.388788
1.441836
1.237988
1.406670
1.359582
1.392961
1.439452
1.398921
1.423955
1.618862
1.369715
1.555681
1.451969
1.627803
1.583695
1.596808
1.751781
1.833439
1.661777
1.851916
1.827478
1.545548
1.941919
1.992583
2.038479
2.036691
2.302527
2.178550
2.274513
2.608895
2.790689
3.077984
3.122687
3.392696
3.647804
4.029870
5.710721
18.277764
96.849799
228.597522
566.093922
956.306458
1015.605927
1015.605927
1015.605927
1015.605927
1015.605927
1015.605927
1015.605927
1015.605927
834.238529
481.014848
192.171931
82.856417
26.843548
19.282699
23.183823
30.020475
43.410659
57.004690
80.994964
95.740557
116.046667
124.589801
126.908422
123.177767
109.268427
93.819499
73.773861
60.664415
49.292445
43.890476
41.285753
40.221810
40.524602
41.011572
42.168498
43.006539
44.615865
44.807792
46.067834
47.513843
46.776533
48.402548
47.900677
49.591660
49.532652
48.864484
48.252940
48.970580
48.765540
48.327446
48.816800
47.830939
48.013926
48.217773
##ZVALUE=315
1.319647
1.372695
1.313686
1.419783
1.367927
1.377463
1.521707
1.341701
1.591444
1.260638
1.480579
1.564622
1.534820
1.377463
1.624823
1.707673
1.724958
1.745820
1.563430
1.623631
1.691580
1.854897
1.836419
1.809597
1.781583
2.135634
1.888871
2.102852
2.227426
2.214909
2.406836
2.421737
2.699494
2.759695
3.096461
3.173947
3.611445
4.159808
4.581809
10.775924
42.069554
170.978904
366.641879
821.902752
1015.605927
1015.605927
1015.605927
1015.605927
1015.605927
1015.605927
1015.605927
1015.605927
1015.605927
649.821758
339.283943
116.289854
45.421720
19.207597
18.942952
22.720695
29.058456
42.429566
56.084991
76.007843
92.780590
111.713409
121.799707
124.770999
120.911598
106.498003
94.189644
77.301860
65.716505
54.627657
48.768520
43.958426
43.717623
43.349862
43.392777
45.424700
46.224594
47.099590
47.370791
49.132705
49.469471
49.294829
49.642920
49.968958
49.626827
50.344467
50.087571
48.746467
48.927665
48.681498
48.597455
48.546791
##ZVALUE=320
1.339912
1.243949
1.391768
1.364946
1.446605
1.275539
1.397729
1.584888
1.385808
1.364946
1.353621
1.314878
1.336932
1.397729
1.493692
1.472831
1.489520
1.483560
1.598597
1.486540
1.619458
1.789927
1.870990
1.768470
1.913905
1.700521
1.838803
2.109408
2.061725
2.103448
2.090931
2.313852
2.413988
2.531409
2.498627
2.880692
2.876520
3.148913
3.373623
3.854632
4.095435
5.497932
18.094778
99.610686
247.299671
633.122921
992.790461
1015.605927
1015.605927
1015.605927
1015.605927
1015.605927
1015.605927
1015.605927
1015.605927
910.225511
503.985882
205.175877
87.305903
27.018785
18.315911
19.700527
22.618771
29.117465
39.454699
55.910945
70.899725
92.396736
107.132792
120.976567
123.289824
119.482875
111.579895
94.145536
80.325603
65.173507
57.654977
50.229430
46.421885
45.836568
46.307445
46.901703
47.483444
48.482418
49.032569
48.743486
49.570799
49.891472
50.497651
50.731897
49.684644
50.104856
49.391985
49.033761
48.462749
49.370527
##ZVALUE=325
1.283884
1.204610
1.218915
1.232624
1.187921
1.286864
1.433492
1.507998
1.385808
1.451969
1.405478
1.437664
1.682639
1.314878
1.416802
1.391768
1.421571
1.444817
1.482964
1.451969
1.572967
1.602769
1.562834
1.809597
1.684427
1.728535
1.908541
1.904964
1.819730
1.870990
1.921654
1.852512
2.190471
2.248883
2.283454
2.350807
2.525449
2.820492
2.870560
3.027916
3.392696
3.684759
4.081726
4.701614
9.896755
66.017509
176.590681
461.323857
818.040967
1015.605927
1015.605927
1015.605927
1015.605927
1015.605927
1015.605927
1015.605927
1015.605927
1015.605927
681.011677
288.748741
131.848454
39.293766
20.573735
18.851757
20.117760
24.123788
31.206608
43.069720
56.317449
75.624585
91.641545
109.195709
117.265582
120.861530
116.521716
104.420781
94.314814
78.547597
67.502856
56.882501
52.485466
49.251914
48.527718
48.194528
48.417449
48.870444
49.430728
49.410462
49.432516
49.295425
48.642755
49.359798
49.398541
49.423575
48.862696
49.607754
##ZVALUE=330
1.048446
1.168847
1.314878
1.347661
1.411438
1.211762
1.296997
1.301765
1.276731
1.355410
1.402497
1.346469
1.403689
1.534820
1.294613
1.410842
1.318455
1.453757
1.461506
1.457930
1.543760
1.540780
1.475811
1.648664
1.664758
1.633763
1.654625
1.749992
1.731515
1.760721
1.949668
1.608729
1.930594
2.006888
2.076626
2.086759
2.228618
2.424717
2.328753
2.588630
2.721548
3.111959
3.384948
3.643632
4.085898
4.815459
6.059408
31.688809
104.381442
345.704556
662.815571
1015.605927
1015.605927
1015.605927
1015.605927
1015.605927
1015.605927
1015.605927
1015.605927
1015.605927
916.877389
412.973762
200.271606
65.911412
28.115511
19.326806
20.005703
22.890568
26.179552
35.039783
43.286681
59.061646
72.919726
92.499852
105.711818
115.296841
117.374659
112.458467
104.552507
90.008974
78.612566
67.071915
59.459805
53.692460
51.284432
49.009919
48.768520
48.430562
48.699975
48.738718
48.595667
48.723817
48.831701
48.389435
48.316717
48.172474
##ZVALUE=335
1.336932
1.216531
1.151562
1.228452
1.221895
1.291633
1.284480
1.288652
1.196861
1.321435
1.343489
1.161695
1.156926
1.257658
1.310706
1.458526
1.420975
1.519918
1.384616
1.339912
1.364946
1.559854
1.547933
1.491904
1.549721
1.646876
1.559854
1.543760
1.860857
1.695752
1.787543
1.833439
1.903772
1.924634
1.893640
1.948476
1.974702
2.436638
2.160668
2.358556
2.582669
2.741814
2.889633
2.954602
3.227592
3.431439
3.685951
4.484653
4.702806
13.139844
51.241517
221.458673
476.885438
994.728804
1015.605927
1015.605927
1015.605927
1015.605927
1015.605927
1015.605927
1015.605927
1015.605927
1015.605927
629.130006
321.576595
101.961493
41.030645
21.630526
21.197796
22.927523
24.892688
29.155612
35.330653
46.579838
57.861805
74.652433
88.175535
102.472901
110.323429
112.924576
110.430717
99.530816
90.384483
78.256726
68.779588
59.758425
54.224730
50.502419
48.954487
47.675967
46.832561
47.909617
47.061443
46.976805
47.086477
46.802759
##ZVALUE=340
1.309514
1.264811
1.323819
1.159906
1.272559
1.120567
1.145601
1.174808
1.185536
1.250505
1.254678
1.350641
1.261830
1.307726
1.211762
1.342893
1.313686
1.256466
1.394749
1.386404
1.236796
1.290441
1.562834
1.488924
1.400709
1.328588
1.566410
1.533628
1.461506
1.563430
1.682639
1.682639
1.578927
1.893640
1.712441
1.844764
1.868606
2.021790
1.980662
2.132654
2.263784
2.185702
2.498627
2.400875
2.507567
2.984405
3.053546
3.469586
3.495812
3.907681
4.262924
7.062554
23.732781
125.597715
314.909816
802.528858
1015.596986
1015.596986
1015.596986
1015.596986
1015.596986
1015.596986
1015.596986
1015.596986
1015.596986
776.684880
411.507487
146.991611
59.517622
25.041699
22.261739
23.019910
24.294853
26.831627
30.635595
37.291646
45.510530
58.333874
70.522428
87.554455
98.204613
107.077956
108.602643
105.627775
97.927451
86.941719
77.249408
66.473484
58.808923
52.054524
49.092770
45.303702
45.117736
44.369698
44.622421
45.262575
##ZVALUE=345
1.262426
1.068711
1.129508
1.124740
1.211762
1.143813
1.273751
1.395941
1.340508
1.158714
1.106858
1.316667
1.106858
1.300573
1.163483
1.176000
1.305938
1.393557
1.206994
1.374483
1.235604
1.405478
1.319647
1.356602
1.417994
1.386404
1.467466
1.586676
1.589656
1.503825
1.693964
1.658797
1.749992
1.644492
1.828671
1.709461
1.894832
1.810789
1.918674
1.978874
1.973510
2.080798
2.337694
2.352595
2.408624
2.453923
2.666712
2.865791
2.904534
3.191829
3.585815
3.719926
4.000664
5.274415
10.793805
71.105957
198.615789
532.712936
945.314765
1015.605927
1015.605927
1015.605927
1015.605927
1015.605927
1015.605927
1015.605927
1015.605927
1015.605927
637.336969
243.795514
103.121996
33.356547
23.420453
23.372769
24.240613
25.367737
26.744604
30.488968
34.639835
44.690967
54.954886
70.099831
80.981851
93.064904
98.835826
103.264451
101.192594
92.834830
85.870624
74.167848
65.875649
55.069923
50.059557
45.907497
43.619871
42.774677
##ZVALUE=350
1.202822
1.225471
1.189709
1.025796
1.457930
1.266599
1.252890
1.301765
1.116991
1.362562
1.418591
1.322627
1.301765
1.190901
1.165867
1.240969
1.369715
1.192689
1.374483
1.326799
1.465678
1.357794
1.406670
1.393557
1.319647
1.509786
1.606941
1.402497
1.511574
1.573563
1.612902
1.546741
1.684427
1.651645
1.732707
1.671910
1.643896
1.630783
1.698732
1.867414
1.939535
2.026558
2.071857
1.924634
2.249479
2.365708
2.280474
2.545714
2.505779
2.680421
2.826452
3.165603
3.356934
3.445745
3.891587
4.531741
6.379485
33.914447
113.630295
363.475680
696.071982
1015.600562
1015.600562
1015.600562
1015.600562
1015.600562
1015.600562
1015.600562
1015.600562
1015.600562
817.425847
375.810862
169.738531
46.817660
24.008751
21.880865
22.176504
23.155808
23.951530
26.292801
28.857589
35.456419
41.392446
51.550865
61.476827
74.141622
83.446503
91.489553
94.873905
92.428923
88.101625
78.173876
70.117712
59.758425
53.118467
47.268867
##ZVALUE=355
1.220703
1.264811
1.416802
1.145601
1.229644
1.209974
1.389980
1.350641
1.291633
1.266599
1.274943
1.293421
1.243949
1.331568
1.452565
1.428723
1.473427
1.324415
1.345873
1.354814
1.437664
1.569986
1.602769
1.536608
1.465678
1.562834
1.395941
1.410842
1.336932
1.515746
1.624823
1.670718
1.548529
1.608729
1.833439
1.731515
1.691580
1.856685
1.858473
1.975894
1.912713
1.806617
1.923442
1.968741
1.935959
2.037883
2.355576
2.530813
2.346635
2.424717
2.623796
2.895594
2.889633
3.209710
3.434420
3.501773
4.210472
4.414916
5.312562
17.764568
65.034628
245.613456
498.668551
988.164544
1015.606523
1015.606523
1015.606523
1015.606523
1015.606523
1015.606523
1015.606523
1015.606523
960.060954
439.125896
210.422873
65.956712
28.835535
20.788908
21.215677
21.730661
22.564530
23.881793
25.354624
27.914643
31.681657
38.081408
45.285821
56.978464
65.423846
76.636672
82.775950
86.957812
86.398721
80.331564
74.205995
65.281987
##ZVALUE=360
1.247525
1.466870
1.256466
1.223683
1.212955
1.316667
1.365542
1.282692
1.395941
1.322627
1.432896
1.492500
1.370907
1.464486
1.485944
1.374483
1.352429
1.412630
1.587868
1.381636
1.338720
1.473427
1.388788
1.364946
1.357794
1.438856
1.414418
1.471639
1.397729
1.504421
1.625419
1.677871
1.803637
1.783967
1.713634
1.815557
1.730919
1.804829
1.719594
1.820922
1.759529
1.897812
1.976490
1.986623
1.963973
2.255440
2.059937
2.222657
2.434850
2.379417
2.575517
2.536774
2.714992
2.950430
3.080964
3.170967
3.376603
3.661513
3.807545
4.484653
5.096793
8.505583
29.366612
136.538744
330.128670
799.878836
1015.605927
1015.605927
1015.605927
1015.605927
1015.605927
1015.605927
1015.605927
1015.605927
1015.605927
583.679676
289.843678
98.190904
38.975477
20.445585
20.068884
20.101666
20.866990
21.795630
22.207499
23.403764
25.518537
29.014945
32.813549
40.181875
47.301650
58.570504
65.312982
73.385835
77.498555
78.851581
##ZVALUE=365
1.192689
1.204610
1.203418
1.235604
1.143813
1.448989
1.290441
1.286864
1.399517
1.245737
1.258850
1.293421
1.321435
1.405478
1.308918
1.427531
1.471639
1.382828
1.518726
1.271963
1.328588
1.362562
1.378655
1.384616
1.530647
1.498461
1.569986
1.627803
1.502633
1.590848
1.703501
1.659989
1.596808
1.723766
1.655817
1.814961
1.822710
1.807809
1.810789
1.870990
1.785755
1.836419
1.856685
1.869798
2.057552
2.212524
2.155900
1.967549
2.336502
2.128482
2.281666
2.262592
2.405643
2.503991
2.626777
2.959967
2.957582
3.350973
3.410578
3.726482
3.977418
4.597902
4.911423
5.816817
12.106895
74.236393
205.996037
549.831986
970.139503
1015.605927
1015.605927
1015.605927
1015.605927
1015.605927
1015.605927
1015.605927
1015.605927
860.417485
457.667708
155.923963
58.899522
21.334887
18.171668
18.269420
18.327832
19.400716
20.168424
20.715594
21.445751
22.935867
25.475621
29.685497
34.320951
43.245554
50.125718
59.438944
##ZVALUE=370
1.176596
1.215935
1.142621
1.141429
1.188517
1.242757
1.233816
1.255870
1.280904
1.329780
1.360774
1.401901
1.270771
1.340508
1.366735
1.393557
1.345873
1.257658
1.158714
1.505613
1.496673
1.357794
1.369715
1.414418
1.405478
1.561642
1.621842
1.459718
1.436472
1.475811
1.555681
1.515746
1.469851
1.470447
1.463890
1.572967
1.479983
1.689792
1.635551
1.537800
1.787543
1.611710
1.613498
1.662970
1.708865
1.782775
1.917481
1.972914
2.005696
1.971722
2.131462
1.986623
2.156496
2.023578
2.105832
2.363920
2.327561
2.604723
2.820492
2.758503
3.128648
3.301501
3.678799
4.030466
4.487634
5.137920
7.031560
35.419464
120.138526
396.710634
752.594471
1015.605927
1015.605927
1015.605927
1015.605927
1015.605927
1015.605927
1015.605927
1015.605927
995.531678
591.905713
223.834515
98.017454
32.227635
18.370748
17.087460
17.104745
17.598867
17.859936
18.229485
18.920898
19.538999
20.540953
23.381710
26.128888
31.821728
##ZVALUE=375
1.141429
1.105666
1.227856
1.117587
1.214743
0.942945
1.138449
1.261830
1.273751
1.216531
1.374483
1.178980
1.308918
1.402497
1.412630
1.241565
1.239777
1.269579
1.281500
1.377463
1.243949
1.248717
1.262426
1.352429
1.123548
1.319647
1.308918
1.332760
1.284480
1.321435
1.431704
1.374483
1.479983
1.467466
1.599789
1.495481
1.562834
1.592636
1.523495
1.644492
1.576543
1.462698
1.590848
1.721978
1.678467
1.672506
1.701713
1.604557
1.913905
1.720786
1.881719
1.698732
1.886487
1.932979
2.061725
1.903772
2.077818
2.234578
2.162457
2.202988
2.401471
2.705455
2.915859
2.879500
3.254414
3.590584
4.015565
4.491806
5.510449
18.706918
69.312453
251.351595
542.131662
1015.611887
1015.611887
1015.611887
1015.611887
1015.611887
1015.611887
1015.611887
1015.611887
1015.611887
838.081837
401.033759
196.834803
57.632923
22.821426
15.701652
15.792847
15.767813
16.054511
16.795993
16.677976
17.508864
18.290877
19.581914
##ZVALUE=380
1.130700
1.173615
1.119971
1.146793
1.027584
1.023412
1.012683
1.170635
1.052618
1.064539
1.086593
1.139641
1.090765
1.164675
1.102686
1.092553
1.138449
1.143813
1.196861
1.148582
1.371503
1.032948
1.279712
1.204610
1.239777
1.319647
1.370907
1.365542
1.259446
1.320839
1.234412
1.227856
1.331568
1.361966
1.379848
1.492500
1.488924
1.302958
1.392961
1.358986
1.374483
1.328588
1.489520
1.515746
1.413822
1.613498
1.539588
1.648664
1.769662
1.606941
1.649857
1.667738
1.761913
1.831651
1.809597
1.765490
1.913905
2.004504
2.054572
2.151728
2.286434
2.223849
2.151728
2.544522
2.672672
2.874732
3.057718
3.615618
4.112720
4.857779
5.665421
9.847879
39.493442
197.118521
454.537868
981.734991
1015.609503
1015.609503
1015.609503
1015.609503
1015.609503
1015.609503
1015.609503
1015.609503
1015.609503
563.333631
284.003615
95.268488
37.435889
16.086698
14.367700
14.679432
14.859438
15.329719
15.394688
16.212463
##ZVALUE=385
1.007915
1.095533
1.167655
0.981688
1.072884
0.995994
0.939965
1.139641
1.200438
0.929832
1.082420
1.027584
1.036525
1.254678
1.028776
1.146793
1.090765
0.986457
0.953674
1.143813
1.048446
1.110435
1.138449
0.949502
1.204610
1.213551
1.141429
1.105666
1.094937
1.116991
1.283884
1.310706
1.288652
1.213551
1.329780
1.290441
1.378655
1.289845
1.346469
1.322627
1.299977
1.481771
1.481771
1.369715
1.413822
1.364946
1.468658
1.489520
1.422763
1.552701
1.569986
1.501441
1.607537
1.821518
1.656413
1.675487
1.746416
1.725554
1.834631
1.828671
2.124906
2.103448
2.067685
2.327561
2.290606
2.463460
2.833605
2.955794
3.427863
3.925562
4.241467
4.895926
5.018711
5.716681
21.566749
80.350637
300.306678
651.294589
1015.608907
1015.608907
1015.608907
1015.608907
1015.608907
1015.608907
1015.608907
1015.608907
1015.608907
905.721784
392.714739
183.684826
58.399439
22.618771
13.591647
13.555884
13.505816
13.571978
##ZVALUE=390
1.051426
1.081824
1.158714
1.065731
1.069903
1.113415
0.953674
1.047850
1.091957
0.935793
0.984669
1.178980
1.002550
1.067519
1.079440
1.173615
1.068711
1.180768
1.161695
1.217723
1.153946
1.283884
1.094937
0.963807
1.225471
1.201630
1.055598
1.151562
1.179576
1.081824
1.185536
1.219511
1.282692
1.084805
1.323819
1.190901
1.355410
1.347661
1.429915
1.358986
1.446605
1.292825
1.287460
1.357794
1.565814
1.376867
1.307726
1.363754
1.356602
1.484752
1.472831
1.666546
1.500845
1.513958
1.671910
1.720786
1.753569
1.787543
1.760721
1.932979
1.919866
2.044439
2.045631
2.253652
2.341866
2.469420
2.669692
2.931952
3.278852
3.346801
3.781915
4.191995
4.197955
4.546642
4.664660
5.388856
9.328723
56.051612
181.294680
557.204485
982.607007
1015.605927
1015.605927
1015.605927
1015.605927
1015.605927
1015.605927
1015.605927
1015.605927
1015.605927
719.398856
276.054740
117.322803
29.482841
15.019774
12.697577
##ZVALUE=395
1.032948
1.007915
1.063943
1.065731
1.039505
1.055598
0.975728
0.948906
1.053810
1.006722
0.957847
0.977516
0.958443
0.970960
1.202822
1.031756
1.005530
1.128912
1.026988
1.183748
1.096725
1.160502
1.207590
1.264811
1.177788
1.277924
1.259446
1.199841
1.153946
1.294613
1.115799
1.232624
1.070499
1.157522
1.372695
1.119971
1.277924
1.243949
1.336932
1.475811
1.345873
1.276731
1.532435
1.391768
1.330972
1.401901
1.326799
1.377463
1.446605
1.496673
1.349449
1.549721
1.562834
1.581907
1.561642
1.728535
1.810789
1.811981
1.778603
1.852512
1.869798
1.835823
2.047420
2.120733
2.323985
2.276897
2.522469
2.708435
3.010631
3.422499
3.477931
3.655553
3.877878
3.920794
3.860593
4.194975
4.590750
5.088449
7.164478
26.250482
153.291821
377.230644
876.934528
1015.607715
1015.607715
1015.607715
1015.607715
1015.607715
1015.607715
1015.607715
1015.607715
1015.607715
930.081010
487.645864
166.522861
64.967871
##ZVALUE=400
0.968575
1.047850
0.961423
0.953674
1.090765
1.065731
0.988841
1.070499
1.208782
1.095533
0.929832
0.850558
1.073480
0.979900
0.970960
1.038909
1.010895
1.186728
1.137853
1.088977
1.191497
1.275539
1.100898
1.188517
1.210570
1.140833
1.143813
1.177788
1.114607
1.191497
1.245737
1.074672
1.227856
1.201630
1.297593
1.258850
1.391768
1.352429
1.272559
1.283884
1.378655
1.380444
1.279712
1.423955
1.351833
1.494884
1.398921
1.487732
1.407862
1.345873
1.396537
1.449585
1.555681
1.505613
1.681447
1.681447
1.627803
1.692772
1.871586
1.727939
1.816750
1.837611
1.940727
2.056956
2.104640
2.196431
2.479553
2.692938
2.935529
3.236532
3.404617
3.385544
3.363490
3.397465
3.388524
3.648996
3.829598
3.963709
4.469752
5.070567
5.628467
18.793941
76.675415
298.837423
631.550550
1015.605927
1015.605927
1015.605927
1015.605927
1015.605927
1015.605927
1015.605927
1015.605927
1015.605927
1015.605927
694.193840
##END
