##TITLE=SH702
##FORMAT=SPECTACLE-ASCII V-1.2
##DATA TYPE=ULTRAVIOLET SPECTRUM
##SECOND TYPE=ULTRAVIOLET SPECTRUM
##DATE=03/27/18
##TIME=17:46:14
##SPECTROMETER/DATA SYSTEM=SPECTACLE
##XUNITS=NM EM
##YUNITS=ENERGY
##YFACTOR=1
##FIRSTX=220
##LASTX=410
##NPOINTS=96
##3DDATA=Equidistant
##ZUNITS=NM EX
##FIRSTZ=210
##LASTZ=400
##ZPOINTS=39
##XYDATA=(Y..Y)
##ZVALUE=210
2.839565
2.609491
2.293587
2.507567
2.474785
2.986789
2.825856
2.642870
3.266931
2.970695
3.688931
3.687739
4.262924
4.628897
3.607869
4.766583
4.586577
4.617572
4.624724
5.583763
5.371571
5.722642
6.488562
6.850958
5.913973
7.905960
7.562637
7.859468
7.462502
7.083416
7.607937
8.476973
8.470416
8.903742
8.817911
7.883906
8.469820
9.971857
10.188818
9.765625
10.037422
9.849668
10.681748
10.943413
11.808872
10.964870
11.212826
11.414886
12.984872
12.106895
13.248920
13.777614
12.672544
12.625456
13.863444
12.263656
13.551712
13.905764
14.417768
14.807582
15.275478
14.835596
13.953447
15.595555
15.397668
17.563701
18.247962
19.470453
24.153590
27.098656
32.976866
36.516786
44.572949
48.126578
54.001808
58.392882
57.769418
55.119991
54.481626
52.185655
47.417879
47.395825
38.788915
36.016703
28.889775
23.501515
21.570921
19.870996
20.030737
18.261671
17.204881
17.599463
16.981959
17.026663
16.319752
17.529726
##ZVALUE=215
4.800558
5.952716
3.837943
3.591776
3.483891
3.223419
3.923774
3.940463
4.090667
4.850626
4.560947
4.365444
4.479885
4.279613
4.188418
4.537702
4.553795
4.876852
5.217791
4.850626
6.008744
5.961657
5.029440
5.866885
6.508827
6.483793
7.450581
7.915497
7.490516
7.259846
8.463860
8.332729
8.480549
8.237958
8.105636
9.193420
10.245442
9.665489
9.976625
9.387732
10.307431
10.792613
9.321570
11.256933
11.512637
11.635423
12.691617
11.765957
11.323690
12.542605
13.257861
13.262630
12.852550
12.566447
12.578964
14.080405
12.729764
15.268922
13.379455
14.275908
14.604926
14.966726
13.921857
14.459491
16.043782
16.300678
16.308427
19.138455
23.274422
25.224686
30.294657
34.457445
40.442944
46.763420
47.806501
50.716996
55.402517
52.836537
50.934553
48.167706
46.017766
40.367842
37.071705
31.844974
27.986765
23.511648
20.585656
20.394921
19.277930
18.810630
16.959906
16.866922
17.105937
16.373992
16.760826
15.916824
##ZVALUE=220
17.716885
18.137693
20.134449
17.805696
15.841722
12.646914
11.600852
9.248853
8.480549
7.809997
8.790493
9.646416
8.911490
8.649826
8.300543
6.889701
5.799532
6.390810
5.655885
5.743504
6.248951
6.492734
5.869865
6.979704
7.215738
7.329583
7.732511
7.970929
7.955432
8.588433
8.332729
8.465648
9.562969
9.145737
10.228753
9.108782
10.508895
10.331869
11.611581
11.272430
12.671947
11.762977
12.586713
11.536479
12.476444
11.533499
11.990666
14.144778
13.809800
13.569593
12.959838
13.929605
14.564991
14.739633
14.850497
15.477538
14.163852
15.385747
14.852881
15.375614
15.834570
17.118454
16.669631
17.682910
17.256737
17.590523
19.075871
22.172928
23.959875
24.809837
29.717684
32.757521
39.933920
42.774677
47.509670
48.738718
49.813986
50.013661
51.231980
48.870444
44.134855
40.121675
35.986900
34.570694
29.171705
26.385784
20.937920
21.361709
19.962788
21.158457
19.524693
17.743707
18.967986
18.671751
18.358827
18.789768
##ZVALUE=225
38.890839
39.524436
52.789450
66.181421
68.834424
68.298578
63.560605
50.958991
35.184622
28.283596
21.728873
19.474626
17.649531
21.230578
21.922588
20.589828
18.505454
15.192628
12.295842
10.321736
6.785989
8.263588
6.705523
7.426739
7.735491
7.261634
7.586479
8.953810
8.406639
9.433627
10.369420
9.110570
11.448860
10.410547
10.572672
10.883808
11.471510
11.280775
10.870695
11.088848
12.310743
11.756420
13.056993
13.748407
11.917949
15.778542
14.361739
14.796853
14.298558
15.032887
14.317632
14.483929
14.461875
16.932487
15.427470
15.625954
17.024875
16.105771
16.288757
17.014742
17.931461
18.327832
18.599629
18.299818
18.938780
20.853877
20.778775
22.892952
23.825765
28.919578
31.263828
36.632419
40.828586
44.749975
46.294928
47.674775
48.546791
46.649575
45.672655
40.997863
41.238666
38.517714
34.546852
31.823516
30.403733
26.983619
24.867654
24.990439
25.941730
24.279952
24.188757
23.332834
23.084879
22.885799
24.448633
23.305416
##ZVALUE=230
37.912726
41.564703
68.342686
112.411976
150.230527
191.092491
208.898783
214.755535
199.628472
171.257854
117.687583
85.784793
52.454472
39.468408
36.580563
42.157769
43.796897
44.901967
39.841533
34.186840
26.636720
19.046664
14.800429
11.828542
8.731484
9.326935
8.952618
8.828640
9.082556
10.149479
9.945631
10.151863
10.134578
10.854602
11.720657
12.739897
11.032820
11.988878
11.345744
12.871623
13.302565
14.305711
13.758540
13.413429
13.357997
15.259981
15.419722
14.191866
15.378594
15.740991
16.040802
16.744733
17.711520
18.252730
18.418431
17.923713
17.489791
19.735694
21.266937
20.511746
23.348927
21.790862
21.708608
24.481416
25.995970
25.074482
27.055740
29.238462
32.523870
35.786629
37.405491
43.853521
46.056509
49.366951
54.157972
57.383776
57.702661
53.882599
53.293705
51.247478
48.333406
44.220686
44.197440
41.875839
38.527846
36.502481
37.321448
37.587881
34.124851
36.297441
35.075545
35.225749
34.073591
34.865737
35.057664
33.893585
##ZVALUE=235
16.231537
18.151999
45.438409
88.175535
165.256858
240.985751
352.853537
432.420969
493.729711
491.295457
443.592668
364.877582
281.626582
172.040462
120.019913
77.860951
69.755912
73.766708
74.367523
77.756643
74.503422
62.368512
51.643848
37.645698
26.341677
20.220876
13.839602
12.299418
10.797977
10.873675
10.963678
11.442900
11.016726
11.641979
12.364984
13.212562
14.501810
13.588667
14.756918
14.109612
14.810562
14.385581
16.361475
14.741421
15.854836
15.452504
16.820431
16.929507
16.624928
16.988516
18.953681
19.777417
20.460486
21.635890
20.822883
22.966862
23.336411
21.798611
22.160411
24.574995
25.609732
28.070807
27.412772
30.725598
30.022860
30.416846
33.989549
36.259890
39.665699
45.182705
45.334697
53.869486
58.775544
61.146617
64.060688
67.438483
66.460967
69.447756
64.226985
65.808892
60.512424
61.350465
58.717728
57.869554
55.673718
53.079724
50.182939
50.892830
51.208735
50.183535
49.950480
50.790906
46.984553
52.498579
51.630735
49.671531
##ZVALUE=240
2.958775
2.993941
9.336472
25.240779
73.150992
135.539770
273.782015
404.459834
612.382889
739.717484
855.305791
867.037773
806.643963
639.740825
490.252972
302.768946
210.000873
129.759908
105.269551
93.190670
105.297565
111.310482
106.760859
101.694465
82.124472
65.762997
48.277974
36.218762
25.369525
17.238855
14.216900
12.068748
12.337565
13.140440
12.289882
12.725592
13.104677
13.834834
15.012622
14.269948
14.361739
14.057755
15.215874
15.149713
16.463995
15.292764
17.302632
16.550422
17.819405
16.779900
18.374920
19.159913
20.038486
20.184517
21.039844
21.778941
21.737814
24.263859
25.210977
25.260448
26.805997
28.761625
29.910803
32.316446
33.439994
35.928488
37.546754
40.986538
46.171546
49.767494
56.541562
63.241720
67.785978
74.023604
73.907971
77.186823
77.992678
76.628923
76.526999
72.223544
69.504976
70.219636
67.707896
67.747831
66.278577
67.519546
65.184832
64.561963
64.882636
63.983798
63.272715
62.888861
63.152909
64.765811
64.964890
63.746572
##ZVALUE=245
2.614856
2.633929
2.980828
3.256798
7.400513
22.303462
69.002509
142.150521
321.144462
490.228534
762.417912
943.048596
1015.605927
1015.605927
1015.605927
927.823782
741.585493
485.048890
334.237814
188.203454
126.865506
108.626485
112.012625
121.536851
126.449466
124.087930
112.936497
95.194578
72.982907
57.717562
39.451718
27.850866
20.562410
15.345812
12.056828
12.246966
12.971759
13.376474
12.803674
14.190674
14.173985
12.347698
13.833642
14.117956
14.578700
14.359951
13.663769
15.234947
14.578700
14.882684
16.553998
17.247796
17.114878
18.129945
18.466711
18.269420
19.295812
20.029545
20.836592
25.680661
25.079846
24.470687
26.571751
28.044581
29.073954
33.638477
32.816529
37.407875
38.204789
41.940808
48.570633
54.367781
57.609677
65.930486
64.995885
69.525838
71.181655
71.305633
70.785880
67.789555
70.179701
65.175891
64.968467
64.737797
65.425634
66.444874
64.090490
65.236688
62.378645
64.450502
62.205791
64.017773
65.440536
67.289472
65.340996
63.551664
##ZVALUE=250
2.453923
2.310872
2.167821
2.389550
2.590418
3.016591
4.061460
18.502474
49.598813
143.191814
272.552967
538.213849
774.226785
1015.517712
1015.517712
1015.517712
1015.517712
1015.517712
978.018641
760.703683
461.030006
278.873444
147.515535
107.876658
108.526945
118.127465
133.570433
131.789446
131.941438
122.008920
98.293424
79.560876
62.290430
39.852858
27.521849
17.147660
14.334917
13.076663
12.260675
12.361407
12.594461
11.824965
12.663603
13.319850
13.204813
13.924837
14.483929
14.351606
14.380813
14.869571
15.461445
14.895797
15.994906
15.376806
16.151667
17.181635
18.075705
19.289851
19.183755
20.968914
20.663738
21.795630
23.829937
25.049448
25.303960
26.881695
29.504895
32.730699
34.971833
38.981438
42.890906
46.932697
51.166415
55.035949
57.094693
60.032606
59.211850
60.007572
59.885979
61.135888
60.487986
61.349869
58.749914
61.289668
58.341622
60.987473
60.072541
58.566928
60.785413
60.620904
61.562657
59.669614
60.806870
60.565472
61.461926
61.459541
##ZVALUE=255
2.046824
2.474785
2.309680
2.498627
2.427697
2.382994
2.716780
2.853870
3.440976
8.640885
41.431785
103.356838
211.317539
459.175706
716.393590
1015.605927
1015.605927
1015.605927
1015.605927
1015.605927
1015.605927
1006.887555
664.630532
416.080952
206.751823
132.973790
99.997520
105.004907
127.251744
138.766766
143.986940
141.104460
128.838420
104.290843
83.300471
57.330728
40.923953
27.509928
17.653704
13.117790
12.134910
11.544824
10.501742
12.239814
11.615753
12.365580
12.633801
13.022423
13.398528
14.628768
14.932752
14.990568
14.400482
15.044808
15.365481
15.685558
16.850829
17.159581
17.382503
18.645525
18.955469
19.882917
20.634532
22.226572
22.920966
25.038719
25.824904
27.469993
31.243563
33.978820
39.488673
40.844679
43.895841
49.458742
50.190687
52.805543
52.188635
52.536726
52.249432
53.933859
54.625869
54.033995
54.471493
53.672791
54.640770
53.631663
55.334568
56.901574
57.804585
57.168603
58.296919
57.700872
57.378411
59.403777
58.032870
59.008598
##ZVALUE=260
2.370477
2.156496
2.088547
2.287626
2.190471
2.518892
2.577901
2.657771
2.598763
2.692938
3.567934
5.047917
16.899705
67.824721
154.299736
373.572707
613.077879
979.779959
1015.606523
1015.606523
1015.606523
1015.606523
1015.606523
1015.606523
909.250975
615.022779
342.492461
200.195909
107.785463
90.981722
99.765658
128.172636
140.607953
152.070522
149.767995
130.512714
112.376809
86.270571
63.464642
39.963722
28.708577
18.549562
14.731884
12.851954
11.638999
12.796521
12.266636
13.393760
13.050437
14.569759
15.079975
14.504790
15.764832
16.237497
15.912652
17.284751
16.941428
18.369555
18.180609
19.278526
19.858479
20.403862
20.560622
22.036433
23.680925
23.118854
25.129914
28.208494
30.230880
32.589436
35.198927
38.340688
41.314960
44.014454
44.630766
46.177506
48.036575
47.438741
49.083829
48.537850
47.836900
50.033927
49.341917
50.036907
49.719810
51.732659
51.572919
52.134991
52.118897
53.659678
53.032637
53.781867
53.300858
55.646896
55.295825
55.165887
##ZVALUE=265
1.961589
1.900792
2.212524
2.338886
2.216697
2.457500
2.284646
2.345443
2.467632
2.656579
3.076792
2.982616
3.230572
3.918409
8.639693
46.918988
116.117001
297.173858
522.988439
961.567760
1015.605927
1015.605927
1015.605927
1015.605927
1015.605927
1015.605927
1015.605927
882.715583
479.719639
283.459425
163.021684
87.288618
86.328983
113.352537
132.727623
150.534511
155.105591
149.617791
134.179592
108.668804
88.355541
60.087442
43.574572
26.844740
20.649433
15.446544
14.219880
13.878942
14.702678
15.399456
15.485883
16.160607
16.973615
16.240478
17.693639
18.927455
18.050671
20.248890
19.748807
19.734502
21.184683
22.059679
22.350550
23.573637
23.502707
25.835633
26.246905
28.145909
29.983521
32.392740
33.525825
36.840439
38.522482
41.146874
42.520761
45.647621
45.652986
46.593547
46.249628
45.399666
45.160651
47.742724
47.652721
47.628880
47.840476
47.732592
48.790574
50.428510
50.138831
50.471425
50.633550
52.715540
52.329898
51.553845
52.642822
53.977966
##ZVALUE=270
1.993775
1.946688
2.009869
2.030730
2.287626
2.062917
2.009869
2.212524
2.341866
2.641678
2.674460
2.720952
2.766848
3.185868
3.085732
3.726482
5.081892
22.874475
70.160627
219.343901
429.499745
742.616653
1015.605927
1015.605927
1015.605927
1015.605927
1015.605927
1015.605927
1015.605927
1015.605927
836.528540
435.252786
236.960649
100.452900
72.034597
87.785721
110.721588
134.654641
149.757862
157.753825
151.696801
134.559870
115.043521
87.006688
65.397620
43.452978
31.551719
22.540689
18.694997
17.166734
16.812682
17.390847
17.402768
17.778873
18.909574
20.098686
19.442439
20.746589
21.054745
21.894574
22.769570
22.424459
23.407936
25.081635
24.843812
25.628805
27.710795
28.793812
29.667616
32.467842
33.483505
36.704540
40.163994
40.835738
41.740537
42.594671
45.010448
43.162704
44.241548
44.962764
43.721795
43.991804
45.766830
44.917464
45.495629
46.235919
47.305822
47.505498
48.335791
47.425628
48.296452
49.264431
50.597787
48.725605
49.065948
50.111413
##ZVALUE=275
1.913905
1.802444
1.753569
1.852512
1.984835
1.994967
2.180934
2.228618
2.274513
2.462864
2.296567
2.334714
2.308488
2.453923
2.753735
3.010631
3.368855
3.576875
3.923774
9.043813
37.395954
153.289437
323.020816
707.075596
1015.605927
1015.605927
1015.605927
1015.605927
1015.605927
1015.605927
1015.605927
1015.605927
1015.605927
585.153699
333.948731
139.453411
75.017810
64.113736
82.938671
111.714602
131.313801
150.139928
157.349706
151.578784
138.778687
110.258460
91.102719
65.792799
49.019456
33.604503
26.391745
21.839738
20.127892
20.376444
19.943714
20.955801
22.358894
21.494627
23.184419
24.653673
24.283528
24.854541
25.153756
26.496649
27.692914
27.437806
28.268695
30.377507
31.346679
34.337640
34.730434
36.379695
38.917661
41.557550
42.719841
43.861866
44.469833
44.175982
43.614507
44.350624
43.732524
43.696761
44.116974
44.721961
44.924617
45.959949
45.285821
46.079755
45.918822
46.070814
45.583844
47.005415
46.503544
46.769977
46.856999
47.743917
##ZVALUE=280
1.804829
1.624823
1.943707
1.780987
1.850724
1.837611
1.882911
2.030730
2.162457
2.099872
2.085567
2.099872
2.352595
2.367496
2.375841
2.507567
2.710819
3.075600
3.065467
3.310442
3.760457
5.022883
28.176904
93.946457
294.227600
534.901619
965.079665
1015.605927
1015.605927
1015.605927
1015.605927
1015.605927
1015.605927
1015.605927
1015.605927
780.455470
461.117625
194.472671
94.236732
54.996610
60.696006
87.352991
110.586882
133.784413
149.181485
156.140924
149.751902
134.560466
116.342902
87.916851
70.363879
48.214793
38.016438
27.242899
24.559498
22.962689
22.453666
22.265911
23.251772
24.413466
24.524927
25.933981
26.018620
26.556849
27.974844
29.195547
30.057430
31.372905
32.222867
34.209490
35.409927
37.343502
38.955808
40.356517
42.160749
42.915940
42.385459
43.932796
44.259429
43.685436
43.595433
43.381453
43.745637
42.843819
43.333769
44.195652
44.173598
44.952631
44.983625
44.966936
44.930577
44.654608
45.739412
45.154691
45.420527
45.531988
##ZVALUE=285
1.583695
1.623631
1.768470
1.660585
1.743436
1.900792
1.772642
1.872778
1.985431
1.747608
1.930594
2.202988
1.978874
2.094507
2.270937
2.313852
2.531409
2.453923
2.786517
3.038645
3.183484
3.281832
3.720522
4.297495
13.455749
48.475862
172.118545
355.479717
755.592585
1015.605927
1015.605927
1015.605927
1015.605927
1015.605927
1015.605927
1015.605927
1015.605927
999.881029
668.845773
312.994719
155.223608
58.064461
43.477416
60.422421
79.985857
108.390450
126.614571
145.468712
152.998567
149.290562
140.261650
118.076801
97.460747
71.019530
54.334998
39.255619
31.633973
26.584864
25.800467
25.497675
25.352836
26.135445
26.360750
27.603507
28.746724
29.793978
30.669570
32.502413
33.945441
35.206676
36.632419
39.279461
40.043592
41.765571
42.813420
42.264462
44.325590
43.926835
44.842958
43.785572
43.683648
43.803453
44.384599
44.247508
44.060946
44.243932
45.280457
44.116974
45.358539
44.219494
45.733452
45.070648
44.719577
44.189692
43.602586
45.589805
##ZVALUE=290
1.638532
1.866817
1.607537
1.913905
1.682639
1.845956
1.704693
1.809597
2.065897
1.787543
1.797676
1.825690
1.989603
1.919866
1.993775
2.051592
2.224445
2.530813
2.378821
2.660751
2.941489
2.921820
3.121495
3.664494
3.601909
4.295707
6.359816
21.520853
101.535916
241.575837
477.441549
964.369774
1015.608907
1015.608907
1015.608907
1015.608907
1015.608907
1015.608907
1015.608907
1015.608907
881.520510
431.671739
222.621560
80.303550
41.538477
41.745901
55.055618
78.069568
97.614527
123.850703
140.266418
152.649879
150.233507
135.775805
119.850636
93.637705
74.660778
54.420829
43.305755
34.133792
30.299425
28.337836
28.386712
27.975440
30.499697
30.799508
32.155514
32.627583
34.203529
35.565495
37.765503
39.016604
40.300488
41.784644
42.630434
43.859482
42.457581
44.001937
44.285655
43.394566
44.422746
44.493675
44.968724
44.259429
45.053959
45.281649
44.694543
45.758486
45.795441
45.698881
45.127869
44.942498
44.789910
44.815540
44.834614
45.487881
##ZVALUE=295
1.699924
1.770854
1.607537
1.535416
1.860857
1.684427
1.690984
1.853704
1.753569
1.704693
1.955628
1.932979
2.095699
1.974702
2.045631
2.026558
2.229810
2.445579
2.156496
2.236962
2.402663
2.660751
2.717972
2.911687
3.197789
3.375411
3.964901
3.881454
4.614592
9.899735
38.333535
166.102648
372.780561
850.439668
1015.605927
1015.605927
1015.605927
1015.605927
1015.605927
1015.605927
1015.605927
1015.605927
1015.605927
615.111589
321.675539
110.132694
49.862862
30.290484
36.871433
55.410862
71.297884
100.389719
119.038820
139.015913
144.171715
145.332813
134.122968
116.401911
97.827911
74.063540
60.671568
45.445561
38.222671
34.427643
32.830834
32.730699
33.006668
34.320951
35.668612
37.069917
39.172769
39.563775
41.615963
42.768717
43.258667
44.658780
44.101477
44.687986
45.397878
45.308471
44.216514
45.724511
45.108795
45.109987
45.760870
45.616627
45.798421
46.658516
46.389699
46.021938
45.951605
45.343637
45.529604
45.084953
45.826435
44.869781
##ZVALUE=300
1.623631
1.545548
1.577735
1.696944
1.627803
1.631975
1.505613
1.844764
1.610518
1.728535
1.715422
1.780987
1.715422
1.839995
1.812577
1.875758
2.052784
1.940727
2.091527
2.052784
2.242923
2.370477
2.317429
2.460480
2.767444
2.731681
3.156662
3.253818
3.467798
3.900528
4.223585
5.354881
17.100573
103.794932
266.267061
664.299726
1015.606523
1015.606523
1015.606523
1015.606523
1015.606523
1015.606523
1015.606523
1015.606523
1015.606523
892.392993
518.286824
214.923620
94.539523
33.688545
27.941465
37.482977
49.869418
70.880651
90.055466
116.947889
130.783916
142.218471
144.637823
131.654739
119.547844
97.398758
80.629587
62.119961
50.054789
41.513443
38.101673
37.880540
37.716627
38.412809
39.736629
42.203665
42.234659
43.749809
44.649839
45.227408
44.830441
45.895576
47.456622
47.269464
47.001839
48.075914
47.652721
48.188567
48.140883
47.845840
47.988892
48.230886
47.905445
46.614408
47.001839
46.775937
46.312809
46.841502
46.003461
46.443939
##ZVALUE=305
1.645684
1.639724
1.456738
1.473427
1.449585
1.522899
1.527667
1.592636
1.584888
1.626611
1.826882
1.752973
1.786947
1.705885
1.693964
1.682639
1.811981
1.965761
2.020597
1.932979
1.842976
2.062917
2.297759
2.290606
2.334714
2.619624
2.644658
2.708435
2.979636
3.103614
3.480911
3.718734
4.200935
5.079508
10.034442
61.534643
179.265738
506.030917
892.483592
1015.605927
1015.605927
1015.605927
1015.605927
1015.605927
1015.605927
1015.605927
1015.605927
1015.605927
798.072815
350.629687
162.984729
51.255822
28.618574
29.891729
37.758946
53.553581
69.260597
94.305873
111.586452
131.640434
140.043497
138.815641
131.312609
115.882754
100.544691
81.226826
65.548420
52.199960
46.855807
43.497682
41.840672
43.520927
43.148994
44.753551
45.861602
47.109723
47.550797
46.899915
47.146678
47.671795
48.934817
49.514771
48.991442
49.465895
50.011873
50.378442
50.499439
50.074458
49.724579
49.257874
49.535632
47.819614
48.266649
47.776699
47.413707
46.901703
##ZVALUE=310
1.540780
1.501441
1.641512
1.597404
1.604557
1.568794
1.520514
1.701713
1.619458
1.487732
1.779795
1.573563
1.632571
1.781583
1.951456
1.778603
1.704693
1.979470
1.839995
1.999736
2.026558
1.972914
1.984835
2.118945
2.140999
2.221465
2.367496
2.631545
2.556443
2.947450
2.821684
3.064871
3.153682
3.749728
4.062653
4.691482
5.546808
25.746822
91.869831
312.230587
620.824695
1015.605927
1015.605927
1015.605927
1015.605927
1015.605927
1015.605927
1015.605927
1015.605927
1015.605927
1015.605927
567.345023
282.539725
92.490911
39.516687
24.889708
27.589798
37.771463
47.845840
67.187548
84.284544
106.959939
121.796727
134.134889
135.075450
127.173662
115.751624
99.151731
82.817674
65.615773
57.255626
49.277544
46.323538
44.019818
44.534802
45.503974
45.778751
46.038628
46.994686
47.596693
47.803521
49.124956
49.073696
50.527453
50.186515
50.016642
50.301552
50.680637
50.930977
50.174594
49.345493
50.312877
49.085617
49.163699
48.686862
48.493743
##ZVALUE=315
1.427531
1.361966
1.483560
1.340508
1.585484
1.507998
1.550913
1.528859
1.587868
1.484752
1.560450
1.732707
1.473427
1.661777
1.699924
1.722574
1.759529
1.665950
1.824498
1.810789
1.919866
1.846552
1.969934
2.039671
2.001524
2.088547
2.346635
2.220869
2.489686
2.509952
2.589822
2.677441
2.995729
3.003478
3.356934
3.655553
3.992915
4.314780
5.044937
11.015534
45.439005
201.701522
446.370840
972.615480
1015.595794
1015.595794
1015.595794
1015.595794
1015.595794
1015.595794
1015.595794
1015.595794
1015.595794
808.925629
429.632664
147.889853
57.354569
24.686456
23.100972
28.004646
34.541488
48.815608
60.997605
81.550479
99.430680
119.210482
127.464533
131.563544
126.174688
113.765001
100.866556
83.857775
70.152879
58.273673
51.296949
47.076941
46.066642
46.493411
46.777725
47.049522
48.417449
49.772859
49.898624
50.455928
50.223470
51.195621
51.699877
51.419735
51.410794
51.231980
50.871968
51.014423
50.164461
50.045848
49.634576
49.222708
##ZVALUE=320
1.434684
1.452565
1.532435
1.423955
1.490712
1.571774
1.445413
1.490712
1.408458
1.413822
1.591444
1.475811
1.548529
1.558661
1.627803
1.664758
1.568794
1.701713
1.687407
1.757741
1.936555
1.901984
1.875758
1.907945
2.083778
1.852512
2.009869
2.216697
2.248883
2.254844
2.189875
2.416968
2.449751
2.954602
3.060699
3.056526
3.228784
3.577471
3.646612
4.033446
4.505515
6.319880
18.838644
112.136602
293.519497
769.003034
1015.605927
1015.605927
1015.605927
1015.605927
1015.605927
1015.605927
1015.605927
1015.605927
1015.605927
1011.071801
628.669858
262.485743
109.520555
33.808947
23.579597
24.382472
27.206540
34.831762
44.004917
62.968731
77.571869
97.401738
112.925768
127.260685
129.058957
125.440955
116.328597
98.846555
85.307956
69.881678
61.007738
53.421855
51.152706
48.461556
48.845410
49.384832
50.208569
50.500631
50.848722
51.262975
52.282810
52.060485
51.536560
51.911473
51.448941
50.883889
52.247643
50.226450
50.433874
49.305558
##ZVALUE=325
1.288652
1.396537
1.356602
1.342893
1.483560
1.320839
1.463890
1.470447
1.395941
1.395941
1.547933
1.504421
1.521707
1.541972
1.473427
1.515746
1.616478
1.543760
1.646876
1.765490
1.658797
1.637936
1.740456
1.712441
1.848936
1.985431
1.916885
1.913905
1.928806
1.907945
2.081990
2.100468
2.350807
2.450943
2.519488
2.800822
2.796650
2.857447
3.014803
3.460646
3.755689
4.075766
4.480481
5.175471
11.109710
71.280599
194.286704
525.545478
942.959785
1015.603542
1015.603542
1015.603542
1015.603542
1015.603542
1015.603542
1015.603542
1015.603542
1015.603542
800.266862
352.315903
167.077780
50.650835
26.638508
24.082661
25.169849
29.785633
35.484433
47.165751
60.871840
81.933737
97.178817
115.319490
122.861862
126.743913
121.718645
109.437704
97.651482
81.039667
70.475936
59.331656
54.092407
51.268935
50.250888
50.512552
50.948858
51.162839
50.951838
51.369667
51.131845
51.719546
50.857663
51.465631
51.093698
50.189495
48.914552
49.850941
##ZVALUE=330
1.342893
1.437664
1.290441
1.340508
1.256466
1.491904
1.343489
1.396537
1.522899
1.298785
1.370907
1.333952
1.524687
1.552701
1.408458
1.521707
1.503825
1.599789
1.329780
1.579523
1.643896
1.637936
1.617670
1.576543
1.741648
1.721978
1.744628
1.883507
1.992583
1.823902
1.860857
2.142787
2.194643
2.200603
2.147555
2.333522
2.353787
2.541542
2.669692
2.844930
3.172755
3.184676
3.692508
3.982782
4.482865
5.302429
6.826520
35.946965
119.018555
394.871831
773.070455
1015.605927
1015.605927
1015.605927
1015.605927
1015.605927
1015.605927
1015.605927
1015.605927
1015.605927
980.472565
464.898944
230.885744
81.093907
35.916567
23.923516
24.967790
27.232766
30.745864
38.640499
48.381686
63.203573
77.424645
97.821951
109.150410
119.735003
121.877789
116.973519
109.044909
93.458891
81.867576
68.545938
61.316490
54.987669
51.969886
49.803853
49.255490
49.579740
49.453974
49.800873
50.112605
50.188899
49.059987
48.996806
49.152970
49.527884
##ZVALUE=335
1.244545
1.262426
1.368523
1.259446
1.332760
1.236796
1.267791
1.392961
1.294613
1.396537
1.421571
1.387596
1.315475
1.462698
1.322627
1.578927
1.341701
1.470447
1.520514
1.650453
1.498461
1.544952
1.641512
1.738667
1.504421
1.812577
1.859665
1.888871
1.891851
1.862645
1.832843
1.861453
2.069473
2.100468
2.063513
2.131462
2.209544
2.279878
2.381802
2.664924
2.709627
2.887845
2.984405
3.241897
3.544688
3.819466
4.151464
4.875660
5.441904
15.282631
62.554479
271.407962
585.975051
1015.584469
1015.584469
1015.584469
1015.584469
1015.584469
1015.584469
1015.584469
1015.584469
1015.584469
1015.584469
635.007024
324.189663
105.401874
45.474768
26.428699
25.409460
27.136803
29.018521
33.370852
38.625598
49.856901
61.142445
78.829527
91.580749
106.198788
113.166571
117.006898
113.209486
102.095604
92.951655
79.803467
71.069598
61.357617
55.420995
51.408410
49.852729
48.660636
48.842430
47.886968
47.139525
47.839880
47.972798
47.468543
##ZVALUE=340
1.284480
1.348853
1.242757
1.108646
1.297593
1.338720
1.318455
1.241565
1.466870
1.342893
1.337528
1.319647
1.374483
1.221895
1.269579
1.342893
1.480579
1.363754
1.507998
1.484752
1.551509
1.472831
1.532435
1.619458
1.650453
1.767874
1.695752
1.595616
1.709461
1.721978
1.840591
1.715422
1.851916
1.947880
2.129674
2.038479
2.023578
2.157688
2.316833
2.342463
2.408624
2.499819
2.674460
2.821684
2.814531
3.213882
3.762841
3.890991
4.166961
4.692674
5.300641
8.019805
26.173592
147.473812
392.700434
969.686508
1015.602946
1015.602946
1015.602946
1015.602946
1015.602946
1015.602946
1015.602946
1015.602946
1015.602946
888.235569
469.384789
169.097781
67.163706
27.845502
25.170445
25.865436
27.080774
29.616952
32.655597
39.405823
46.702623
60.338974
72.048903
89.243650
100.014806
108.872652
111.366510
107.192993
100.637674
89.256763
78.566670
66.905618
60.372949
53.430796
49.165487
46.446919
45.434833
45.262575
45.471787
45.515895
##ZVALUE=345
1.261830
1.339912
1.122952
1.222491
1.333952
1.141429
1.384616
1.194477
1.383424
1.352429
1.328588
1.443624
1.254678
1.386404
1.452565
1.300573
1.406670
1.465678
1.405478
1.532435
1.469851
1.394749
1.644492
1.606941
1.563430
1.617670
1.605749
1.758933
1.513958
1.653433
1.838803
1.690984
1.628995
1.768470
1.963973
1.914501
1.877546
1.966953
2.016425
2.298951
2.173781
2.406836
2.371669
2.657771
2.473593
2.922416
2.947450
3.266931
3.378987
3.720522
3.864765
4.275441
4.905462
5.732775
11.928678
76.084733
222.432613
631.919503
1015.605927
1015.605927
1015.605927
1015.605927
1015.605927
1015.605927
1015.605927
1015.605927
1015.605927
1015.605927
671.263933
255.674720
109.283924
37.678480
26.046634
25.452971
25.504827
26.565790
27.826428
30.541420
35.893917
45.652986
55.367947
70.001483
80.310702
92.791915
99.111795
103.714466
101.620555
94.289780
86.485744
74.440837
65.304637
56.273937
51.191449
45.855641
43.675900
44.082999
##ZVALUE=350
1.362562
1.330972
1.343489
1.326799
1.369715
1.323819
1.415610
1.271963
1.542568
1.360774
1.327991
1.280904
1.527667
1.384616
1.345873
1.385808
1.280904
1.411438
1.540780
1.421571
1.499653
1.512766
1.531839
1.545548
1.655817
1.563430
1.493692
1.615882
1.675487
1.630783
1.446605
1.661777
1.654625
1.710653
1.691580
1.869798
1.872778
2.045631
2.024770
2.064705
1.969934
2.135634
2.254844
2.369881
2.302527
2.480745
2.522469
2.738833
3.031492
3.064871
3.223419
3.295541
3.688931
4.044771
4.549623
5.068779
6.978512
35.724640
119.009018
390.022993
769.082904
1015.615463
1015.615463
1015.615463
1015.615463
1015.615463
1015.615463
1015.615463
1015.615463
1015.615463
860.942602
376.968980
165.698528
46.271682
25.674701
23.108721
22.891760
23.497939
24.580956
26.320815
29.820800
35.461783
41.541457
51.493645
61.321855
74.613690
84.256530
92.793703
95.838904
93.993545
89.413524
79.562664
71.056485
61.191916
53.954720
47.714710
##ZVALUE=355
1.287460
1.272559
1.326799
1.264811
1.255870
1.362562
1.287460
1.342893
1.375675
1.330972
1.332760
1.255870
1.454949
1.219511
1.408458
1.485944
1.458526
1.487732
1.773834
1.591444
1.484752
1.253486
1.502633
1.425743
1.525879
1.594424
1.480579
1.599789
1.685619
1.655817
1.508594
1.575947
1.737475
1.809597
1.622438
1.806617
1.870990
1.874566
1.941919
1.790524
1.813769
1.947880
2.175570
2.035499
2.167821
2.108812
2.310872
2.394915
2.482533
2.723932
2.713799
2.893806
3.094673
3.409982
3.590584
3.892779
4.321933
4.689693
5.273819
17.534494
69.069862
271.371603
552.732944
1015.605927
1015.605927
1015.605927
1015.605927
1015.605927
1015.605927
1015.605927
1015.605927
1015.605927
1015.073657
487.021804
228.689909
67.718625
29.365420
21.616817
21.754503
21.959543
22.708774
24.164915
25.840998
28.549433
31.717420
38.844943
45.186877
55.623651
64.506531
76.835752
82.862973
87.139606
85.718632
81.603527
75.626969
66.712499
##ZVALUE=360
1.422763
1.302958
1.409650
1.422763
1.342893
1.186728
1.444817
1.427531
1.407862
1.315475
1.266599
1.216531
1.451969
1.459718
1.413822
1.558661
1.434684
1.529455
1.477599
1.480579
1.577735
1.627803
1.664758
1.479983
1.468658
1.558661
1.583695
1.442432
1.665950
1.737475
1.653433
1.659989
1.675487
1.630783
1.610518
1.960993
1.766682
1.847744
1.943707
2.033710
2.094507
2.102852
1.996756
2.160668
2.349615
2.250671
2.318621
2.268553
2.442598
2.837777
2.787709
2.909899
3.101826
3.171563
3.326535
3.522635
3.792644
4.058480
4.466772
5.147457
5.769730
9.261966
31.947494
152.133107
368.819833
902.925730
1015.632749
1015.632749
1015.632749
1015.632749
1015.632749
1015.632749
1015.632749
1015.632749
1015.632749
696.746707
361.247659
127.325654
46.321750
21.396875
20.675659
20.939708
21.217465
22.012591
22.543669
23.639798
25.624633
28.831959
32.844543
39.990544
47.134757
58.485866
66.758990
74.382424
78.160763
79.416633
##ZVALUE=365
1.270771
1.332760
1.336932
1.327991
1.328588
1.487732
1.378655
1.431704
1.420975
1.420975
1.596808
1.485944
1.543760
1.492500
1.372695
1.440644
1.584888
1.516938
1.570582
1.287460
1.416802
1.677871
1.444817
1.617670
1.663566
1.571774
1.662970
1.849532
1.624823
1.613498
1.739860
1.579523
1.748800
1.739860
1.779795
1.912713
1.884699
1.863837
1.778603
1.887679
1.997948
1.991987
2.042651
2.003908
2.168417
2.016425
2.102852
2.396703
2.381802
2.372861
2.597570
2.707839
2.742410
2.899766
2.855659
3.094673
3.219843
3.488660
3.700852
4.092455
4.460812
5.168915
5.419850
6.525517
13.268590
82.439780
240.114927
672.636032
1015.605927
1015.605927
1015.605927
1015.605927
1015.605927
1015.605927
1015.605927
1015.605927
1015.605927
959.894657
546.915531
199.666619
75.990558
24.046898
18.945932
19.024611
19.326806
19.796491
20.089746
20.385981
21.272898
23.049712
25.892854
30.114651
34.375787
42.940974
49.766898
59.210658
##ZVALUE=370
1.370907
1.342893
1.339912
1.410842
1.476407
1.499653
1.412630
1.408458
1.343489
1.502633
1.364946
1.380444
1.486540
1.371503
1.385808
1.366735
1.374483
1.424551
1.526475
1.415610
1.572967
1.629591
1.475811
1.506805
1.642704
1.563430
1.522899
1.519918
1.551509
1.694560
1.668930
1.516938
1.623631
1.617670
1.845956
1.855493
1.928806
1.877546
1.793504
1.802444
1.946688
2.046824
2.037883
1.988411
1.859665
2.074838
2.140999
2.312660
2.209544
2.256632
2.287626
2.468824
2.272725
2.574921
2.608895
2.815723
2.702475
2.873540
3.052950
3.187656
3.584623
3.889799
4.180670
4.743934
5.096793
6.231666
9.067655
49.927831
169.075727
553.790927
976.904631
1015.605927
1015.605927
1015.605927
1015.605927
1015.605927
1015.605927
1015.605927
1015.605927
1015.605330
729.182959
297.154784
133.612752
40.440559
20.224452
17.787814
17.675757
17.991662
18.328428
18.639565
19.136667
20.007491
21.026731
23.659468
26.329756
31.978488
##ZVALUE=375
1.264811
1.320839
1.265407
1.189709
1.318455
1.269579
1.366735
1.312494
1.359582
1.292825
1.360774
1.418591
1.328588
1.504421
1.316667
1.296997
1.431704
1.479983
1.369715
1.379848
1.365542
1.443624
1.331568
1.448989
1.514554
1.477599
1.339912
1.525879
1.500845
1.541972
1.458526
1.485944
1.479983
1.749992
1.608729
1.609921
1.572967
1.633763
1.533628
1.773834
1.708865
1.590848
1.790524
1.859665
1.981854
1.727939
1.814961
1.717806
2.059937
1.883507
1.899600
1.908541
2.132654
2.196431
2.258420
2.409816
2.376437
2.340674
2.590418
2.927780
2.841949
3.021955
3.254414
3.484488
3.726482
4.067421
4.699826
5.596876
6.548762
22.956729
86.628795
333.412886
732.283592
1015.605927
1015.605927
1015.605927
1015.605927
1015.605927
1015.605927
1015.605927
1015.605927
1015.605927
967.096686
497.421622
251.418948
76.831579
28.293729
16.728640
16.465783
16.660690
16.941428
17.192960
17.509460
17.796755
18.234849
19.710660
##ZVALUE=380
1.197457
1.198649
1.223683
1.212955
1.250505
1.243949
1.327991
1.239777
1.307726
1.367927
1.400709
1.408458
1.327991
1.159906
1.238585
1.163483
1.273751
1.190901
1.220703
1.333952
1.277924
1.360774
1.390576
1.270771
1.291633
1.291633
1.365542
1.323819
1.487732
1.457930
1.676679
1.418591
1.468658
1.488924
1.319647
1.480579
1.439452
1.588464
1.625419
1.669526
1.603961
1.609921
1.551509
1.550913
1.649857
1.816750
1.686811
1.776814
1.812577
1.766682
1.996756
2.101660
1.851916
1.862645
2.151728
2.162457
2.247691
2.217889
2.551675
2.466440
2.473593
2.628565
2.809763
2.965927
3.184676
3.493428
3.848672
4.609823
4.970431
5.726814
6.744862
11.323690
43.475628
224.569440
542.844534
1015.606523
1015.606523
1015.606523
1015.606523
1015.606523
1015.606523
1015.606523
1015.606523
1015.606523
1015.606523
682.545900
350.075960
118.173957
44.846535
17.593503
15.807748
15.266538
15.375614
15.417933
16.017556
16.256571
##ZVALUE=385
1.188517
1.005530
1.072884
1.132488
1.131892
1.102686
1.203418
1.218915
1.255870
1.322627
1.208782
1.226664
1.219511
1.327991
1.287460
1.189709
1.162887
1.372695
1.203418
1.170635
1.221895
1.345873
1.199841
1.318455
1.369715
1.218915
1.296997
1.399517
1.266599
1.299977
1.330972
1.369715
1.407862
1.368523
1.411438
1.334548
1.400709
1.520514
1.389980
1.557469
1.573563
1.526475
1.448989
1.691580
1.586676
1.612902
1.679659
1.800656
1.718998
1.664758
1.739860
1.975894
1.714826
1.687407
1.791716
2.008677
2.077818
2.114773
2.183914
2.133846
2.350807
2.557635
2.460480
2.493858
2.657771
3.110766
3.459454
3.881454
3.943443
4.635453
4.982948
5.689859
6.077886
7.215738
19.484758
115.366578
313.923955
852.262974
1015.609503
1015.609503
1015.609503
1015.609503
1015.609503
1015.609503
1015.609503
1015.609503
1015.609503
969.733000
563.028455
223.915577
85.593462
22.216439
14.978647
14.536977
14.162660
14.341474
##ZVALUE=390
1.063943
1.137853
1.213551
1.133680
1.188517
1.192689
1.116991
1.326799
1.226664
1.120567
1.201630
1.203418
1.251698
1.264811
1.176596
1.236796
1.279712
1.232624
1.164675
1.148582
1.303554
1.145601
1.285672
1.325607
1.326799
1.389980
1.382828
1.353621
1.395941
1.347661
1.327991
1.408458
1.400709
1.396537
1.290441
1.176000
1.462698
1.461506
1.574755
1.513958
1.380444
1.662970
1.587868
1.627803
1.545548
1.481771
1.559854
1.637936
1.636744
1.672506
1.667738
1.756549
1.821518
1.895428
1.736879
1.847744
1.993775
2.157688
2.076626
2.293587
2.365708
2.219677
2.405643
2.813935
2.702475
2.826452
3.075600
3.531575
3.887415
4.270673
4.690886
4.909635
5.144477
5.272627
5.662441
6.506443
10.189414
58.129430
188.786983
614.156723
1015.605927
1015.605927
1015.605927
1015.605927
1015.605927
1015.605927
1015.605927
1015.605927
1015.605927
1015.605927
896.255970
342.361927
149.779916
41.331649
17.369986
13.676882
##ZVALUE=395
1.202822
1.034737
1.189709
1.251698
1.201630
1.110435
1.124740
1.129508
1.172423
1.279712
1.142621
1.261830
1.125932
1.238585
1.082420
1.165867
1.190901
1.234412
1.033545
1.145601
1.254678
1.222491
1.298785
1.239777
1.195669
1.307726
1.286864
1.477599
1.419783
1.463890
1.442432
1.333952
1.265407
1.248717
1.372695
1.381636
1.432896
1.530647
1.378655
1.351833
1.390576
1.411438
1.531839
1.535416
1.454949
1.603961
1.772642
1.763701
1.546741
1.803637
1.881719
1.745820
1.693964
1.835823
1.759529
1.951456
2.066493
1.904964
2.083778
2.028942
2.146959
2.232790
2.306700
2.426505
2.687573
2.807975
3.068447
3.178716
3.585815
3.896952
4.444718
4.508495
4.585981
4.777908
5.031824
5.040765
5.540848
5.985498
8.027554
25.276542
149.236917
383.649468
937.234759
1015.606523
1015.606523
1015.606523
1015.606523
1015.606523
1015.606523
1015.606523
1015.606523
1015.606523
1015.606523
591.120720
201.545954
79.402924
##ZVALUE=400
0.975728
1.053810
1.154542
1.298785
1.223683
1.239777
1.106858
1.215935
1.163483
1.041889
1.189709
1.178980
0.976920
1.017451
1.190901
1.142621
1.083612
1.297593
1.086593
1.210570
1.288652
1.302958
1.217723
1.193881
1.207590
1.275539
1.417994
1.232624
1.279712
1.347661
1.179576
1.338720
1.337528
1.154542
1.424551
1.279712
1.297593
1.417994
1.435876
1.380444
1.430511
1.484752
1.437664
1.374483
1.472831
1.532435
1.681447
1.482964
1.535416
1.665950
1.726747
1.807809
1.843572
1.701713
1.946688
1.866817
1.951456
1.977682
1.798868
1.961589
1.975894
2.096891
2.185702
2.626777
2.532601
2.561808
2.633929
3.020763
3.398657
3.647804
3.864765
4.063845
4.197955
3.980994
4.072785
3.985763
4.317760
4.805923
4.798770
5.519986
6.471872
17.011762
62.941909
244.728923
553.226471
1015.605927
1015.605927
1015.605927
1015.605927
1015.605927
1015.605927
1015.605927
1015.605927
1015.605927
1015.605927
778.673887
##END
