##TITLE=SH752
##FORMAT=SPECTACLE-ASCII V-1.2
##DATA TYPE=ULTRAVIOLET SPECTRUM
##SECOND TYPE=ULTRAVIOLET SPECTRUM
##DATE=03/27/18
##TIME=17:32:33
##SPECTROMETER/DATA SYSTEM=SPECTACLE
##XUNITS=NM EM
##YUNITS=ENERGY
##YFACTOR=1
##FIRSTX=220
##LASTX=410
##NPOINTS=96
##3DDATA=Equidistant
##ZUNITS=NM EX
##FIRSTZ=210
##LASTZ=400
##ZPOINTS=39
##XYDATA=(Y..Y)
##ZVALUE=210
13.463497
14.223456
10.699630
9.179711
9.397864
9.482503
7.571578
7.741451
6.302595
5.344748
4.099607
4.645586
3.332496
4.001856
4.093647
3.862977
3.990531
4.419684
4.657507
4.784465
4.880428
5.288720
5.368590
6.126761
5.280972
6.979704
6.826520
6.035566
6.271601
8.402467
7.629991
7.800460
8.120537
7.919669
8.847713
8.594990
9.246469
9.148717
9.129643
8.219481
9.491444
8.647442
9.437799
8.710623
9.814501
10.596514
10.473728
10.468960
9.577870
11.684895
11.195540
10.565519
11.895895
10.603666
11.400580
12.100935
10.357499
11.815429
11.362433
12.847781
12.197495
13.539791
12.911558
12.524724
11.917949
12.738705
14.904737
14.641881
18.821955
22.334456
24.549961
29.517412
32.569766
36.434531
38.167834
40.383935
39.677620
39.680600
36.968589
36.993623
31.863451
28.030872
26.008487
22.585988
18.756986
16.043782
14.303923
12.019873
12.967587
14.447570
13.673902
15.261769
18.239617
21.669865
26.859641
30.828714
##ZVALUE=215
43.680668
42.999983
37.770867
28.766990
20.962954
17.787814
14.072657
13.292432
11.941791
12.629628
11.141896
8.300543
7.206798
6.658435
5.335808
4.288554
4.739761
4.272461
4.506707
5.619526
4.847646
5.662441
5.564690
5.223751
6.018877
6.513000
6.172657
6.976724
7.678866
6.893873
7.123947
7.507801
9.119511
8.782744
8.694530
8.829832
10.132790
9.374619
9.151697
9.682775
9.619594
9.937882
9.731650
10.859966
10.795593
9.268522
10.360479
11.599660
11.236668
12.439489
10.989904
11.466742
11.032820
11.653900
11.954904
11.504889
11.687875
12.411475
11.281967
12.253523
11.742711
12.515783
13.378859
11.918545
13.461709
14.501810
13.588667
15.636683
17.388463
21.971464
23.984909
26.805997
29.428601
33.932924
35.903454
40.282607
39.795637
40.122867
38.579702
35.723448
32.824874
27.611852
27.733445
25.426745
21.272898
18.947721
17.419457
13.559461
13.604760
12.614727
12.695789
11.476874
12.811422
13.031960
14.004707
15.908480
##ZVALUE=220
113.855004
111.476779
110.186934
100.309849
85.182786
63.392520
46.582818
33.582449
25.965571
24.729967
24.649501
21.554828
20.895600
20.392537
15.041828
11.278987
8.293986
7.222891
5.891919
5.642772
5.981922
6.700754
6.624460
7.181764
7.215738
7.770658
6.619692
7.890463
8.747578
8.815527
8.604527
9.164810
9.743571
10.883808
9.456873
10.810494
10.382533
11.482835
11.518598
11.307597
11.931658
12.669563
12.367964
12.467504
12.091994
13.489723
14.255643
13.215542
13.248920
13.349652
14.823675
13.770461
14.665723
13.517737
14.501810
15.118718
15.732646
14.836788
16.143918
15.096664
17.081499
15.643835
16.471744
17.014742
17.614961
17.930865
19.335747
19.629598
22.117496
24.605989
29.151440
34.474730
39.946437
42.351484
44.676661
49.515963
49.968958
49.037933
48.547983
45.952797
42.680502
38.698912
36.612749
30.860901
27.179718
24.518967
20.893812
18.017888
17.906427
16.226768
16.603470
15.220642
15.399456
14.819503
14.451742
14.407635
##ZVALUE=225
177.650452
188.064575
216.564536
247.589946
247.209668
236.336589
210.482478
151.688457
107.647777
77.158809
48.530698
38.786530
36.016703
38.156509
38.923621
33.668876
28.215647
23.197532
17.596483
12.107491
10.331869
8.439422
8.709431
6.866455
8.768439
8.447766
8.997917
8.630753
10.535717
10.142922
10.231733
10.563731
10.406971
11.927485
11.540651
12.209415
11.347532
12.157559
12.491941
11.925697
13.011694
13.265610
13.247728
13.440847
13.395548
12.795925
16.237497
14.172792
14.713407
14.191866
15.954971
16.177893
16.367435
16.473532
15.764832
17.273426
17.969608
17.706752
16.766787
17.715693
18.370748
18.310547
17.451644
19.491911
20.028949
21.783710
20.220876
21.610856
25.878549
30.080676
31.327605
37.522912
42.535663
46.594739
50.346851
49.360991
52.772760
52.045584
48.675537
46.402812
44.285655
42.268634
37.190914
33.372641
26.845932
22.056699
21.157861
19.574761
18.404722
14.560819
16.284585
16.735792
15.916824
16.070604
15.648603
15.487671
##ZVALUE=230
140.244961
152.268410
224.820971
335.648656
407.157540
466.962457
491.739511
455.642939
387.939811
313.094854
209.427476
138.199925
83.560944
64.984560
61.487556
62.607527
63.197613
59.918761
55.399537
40.720701
32.170415
23.400784
16.881824
12.061000
10.986924
9.170771
10.282993
10.422468
10.608435
10.706782
11.772513
11.000633
11.738539
12.488961
11.233687
13.122559
12.941957
13.109446
13.468862
13.037920
14.597774
13.810992
14.792681
14.444590
14.491677
14.976859
15.450716
16.225576
16.514659
15.192628
16.554594
15.371442
18.418431
18.425584
18.114448
18.161535
19.472837
18.627644
17.399788
17.503500
18.792748
19.244552
19.857883
20.071864
19.917488
22.142529
21.530986
22.065639
26.397705
29.029846
33.803582
36.253929
42.490959
41.565895
45.825839
45.885444
47.305822
45.799613
41.929483
41.444898
38.402677
38.603544
31.767488
31.803846
25.248528
23.166537
20.477772
17.768741
18.719435
16.825795
17.590523
16.523600
17.040968
15.706420
16.219616
15.186667
##ZVALUE=235
34.107566
39.348602
81.002712
169.203877
268.432498
414.963961
522.582531
643.744469
683.682561
667.029619
590.966940
441.081524
326.045752
201.304555
135.101676
102.232695
87.345839
87.294579
92.939734
92.424750
88.271499
72.752833
51.356554
40.186644
25.940537
19.232631
15.086532
12.169480
11.020899
10.462999
11.011958
10.449886
11.996627
10.926723
10.775924
11.287928
11.193752
12.311935
11.691451
11.419654
11.026859
12.142658
12.692809
13.326406
12.889504
13.088584
13.686419
11.587739
14.042854
13.582706
13.758540
13.530850
14.021993
14.749765
15.525818
14.355779
14.565587
15.529990
17.072558
14.884472
16.196966
16.066432
15.868545
15.607476
18.238425
18.040538
18.817782
20.571947
21.175742
23.079515
24.404526
29.061437
32.349825
37.261844
37.038922
35.372972
37.633777
33.424497
33.446550
30.440688
28.737783
25.694966
25.614500
22.742748
22.149682
19.416809
17.995834
17.303824
17.488599
17.085671
15.498996
16.622543
15.958548
14.892817
16.218424
15.083551
##ZVALUE=240
2.913475
3.404617
12.901425
34.385920
88.068843
161.195993
314.164758
464.989543
683.805943
806.553960
918.266773
910.851955
837.507844
660.170913
506.275892
307.231545
206.583738
134.579539
107.236505
103.634000
110.064745
118.808746
109.563470
99.504590
80.096722
67.804456
49.064755
34.490824
23.238659
14.886856
13.613701
11.376739
11.057854
11.716485
10.961890
10.629892
10.569692
11.269450
11.392832
11.022687
13.256669
12.207627
11.490583
11.582971
12.209415
13.215542
12.232661
11.585951
12.686849
12.281537
13.604760
13.653636
14.909506
13.310909
14.625788
13.762712
13.994575
14.759898
14.194846
15.599728
14.885664
15.115738
15.097857
17.113686
16.117692
16.292930
19.006729
19.280910
20.314455
22.618771
24.518967
27.597547
28.626919
30.921698
31.393766
33.937693
32.298565
31.130910
31.584501
29.792786
28.444529
25.831461
23.708940
21.794438
20.027757
19.228458
17.875433
16.293526
15.878677
17.070770
15.943646
16.455650
15.696883
15.140772
14.527440
15.690923
##ZVALUE=245
2.827644
2.427697
2.734661
2.643466
5.982518
24.728775
60.942769
152.726769
275.089741
423.573852
657.414794
830.201507
984.709859
1011.130810
947.429538
820.797682
610.111952
446.541905
302.151442
181.587934
123.439431
103.517771
112.317801
123.681426
126.627684
122.284889
110.117793
89.587569
73.588490
52.625537
38.043857
22.931695
17.006993
11.845827
10.320544
9.590983
10.540485
10.172725
9.613633
10.784864
9.736419
9.889603
10.065436
9.751916
10.345578
10.413527
10.216832
10.310411
9.834766
10.300875
10.651946
10.912418
11.049509
11.099577
11.423826
11.581779
12.343526
10.622740
12.016892
11.769533
12.464523
11.654496
12.412667
12.504458
12.729764
13.267994
13.978481
14.857650
16.416907
17.852783
19.081831
22.670627
23.753643
25.330782
27.702451
27.114749
27.597547
27.622581
26.052594
23.660660
22.727847
18.914938
19.120574
17.375946
16.885996
15.030503
15.457869
15.333891
14.216900
13.046861
14.109612
14.201999
13.641715
13.408661
13.558865
13.679862
##ZVALUE=250
2.164841
2.428889
2.141595
2.566576
2.675653
2.532601
3.981590
15.521646
44.909716
124.579668
238.558650
460.221767
653.349757
906.710029
1015.606523
1015.606523
1015.606523
1009.002924
809.475780
620.097518
384.505987
245.229006
137.847662
107.353926
104.869604
118.160844
128.657818
135.864615
130.118728
117.917657
96.642971
76.806545
58.171749
35.744905
24.214983
15.471578
11.388659
9.708405
9.930730
9.255409
8.593798
9.079576
10.162592
9.720922
8.662939
9.127855
9.451509
9.553432
9.750724
9.342432
10.324717
9.222627
9.369850
9.044409
11.114478
9.783506
9.874701
10.760427
10.760427
9.918809
10.692477
11.742711
10.326505
10.746717
10.003448
11.860728
11.331439
12.484789
13.530850
14.673471
16.548634
19.564629
20.978451
21.939874
22.611618
23.596883
22.180676
22.821426
20.482540
19.146800
18.911958
17.821789
16.635656
16.428828
14.972687
13.076663
14.207959
13.332963
12.636781
12.993813
12.511611
12.944937
11.601448
12.032986
12.272596
12.360811
##ZVALUE=255
1.877546
2.252460
2.095699
2.158880
2.105832
2.424717
2.643466
2.659559
2.667904
5.988479
30.207634
80.949664
217.205882
364.768505
628.018975
873.299837
1015.605927
1015.605927
1015.605927
1015.605927
1015.605927
789.093971
547.791719
299.374461
179.267526
106.778741
92.519522
102.483630
119.290948
135.025978
141.008496
134.249926
123.240948
99.702477
79.636574
54.934621
37.618876
23.558736
15.603900
10.912418
9.449720
8.753538
8.164644
8.663535
9.445548
8.785725
9.730458
9.133816
9.113550
8.789897
8.872747
8.082986
8.899570
9.431839
9.438992
9.048581
8.727908
9.158850
8.652806
8.851886
8.594990
9.670854
9.076595
9.895563
10.122657
10.489821
10.913610
12.298822
11.839867
14.339685
15.510917
17.380714
18.463731
20.492673
20.118952
20.845532
20.391941
18.788576
18.325448
17.433763
15.909672
14.451742
14.829636
14.186502
12.800694
12.274981
11.822581
11.073947
12.410879
11.722445
11.032820
11.509657
10.811687
10.845661
11.241436
11.348724
##ZVALUE=260
1.841784
2.002716
1.777411
2.217889
2.353787
2.231598
2.395511
2.457500
2.501607
2.818704
3.093481
4.635453
14.327765
60.510635
141.781569
340.511799
552.552938
899.793506
1015.702486
1015.702486
1015.702486
1015.702486
1015.702486
1015.702486
710.426569
478.864908
260.430574
154.922605
90.641975
84.549785
97.735524
122.205615
138.340592
147.305727
143.605471
126.629472
108.885765
80.463886
59.254766
37.878752
25.347471
15.070438
11.123419
9.199977
8.769631
8.319616
8.262992
8.395910
8.249879
8.517504
8.428693
9.111762
8.351803
8.916855
8.024573
8.213520
7.943511
8.755922
8.182526
8.514524
8.185506
8.525848
8.770823
8.719563
8.606911
8.876920
9.725690
10.510683
10.668635
11.825562
13.120770
15.510917
15.257597
15.932918
16.967654
17.361641
17.504692
16.420484
15.753508
14.619827
13.127923
13.897419
12.163520
11.618733
11.443496
10.236502
10.719895
9.863973
11.160970
10.060668
10.222793
10.923743
10.264516
10.718703
9.941459
10.213852
##ZVALUE=265
1.950860
1.868606
1.890659
2.217889
1.962781
2.012849
2.088547
2.288818
2.256632
2.248883
2.305508
2.640486
2.713799
3.215671
9.453893
32.681823
114.639997
225.044489
336.251855
745.034814
1006.519794
1015.605927
1015.605927
1015.605927
1015.605927
1015.605927
966.230631
618.938804
400.485396
200.880766
120.640993
76.879859
82.466602
108.845830
127.147436
145.296454
148.290992
138.862729
128.433704
103.151798
83.570480
53.992867
37.025809
22.261739
15.438795
9.927750
8.354783
7.702708
6.930828
7.262826
7.984638
7.285476
7.843971
7.931590
7.638931
7.376671
7.136464
7.492900
7.340908
7.711649
7.364750
7.594824
7.550716
7.776618
7.976890
7.743835
8.353591
8.982420
9.290576
10.184646
11.717677
12.246966
12.919903
13.694763
13.977885
13.824701
13.471842
13.185740
13.327599
11.638999
11.350513
10.973811
10.257959
9.797812
9.475946
9.423494
9.321570
9.230971
8.974671
9.044409
9.168983
9.078979
8.669496
8.598566
9.161830
8.497834
##ZVALUE=270
1.541972
1.466870
1.745820
1.594424
1.735687
1.721978
1.725554
1.877546
2.009869
2.300739
2.071857
2.160668
2.442598
2.552867
2.883673
2.859831
4.058480
18.360615
53.462982
172.964931
341.004729
584.599972
981.006026
1015.605927
1015.605927
1015.605927
1015.605927
1015.605927
1015.605927
875.094533
609.146953
315.494537
169.586539
78.568459
63.175559
84.265471
103.529692
129.298568
144.746900
148.499608
145.478845
127.805471
109.163523
78.617930
59.236884
36.109686
24.060607
15.254617
10.540485
8.205771
7.765889
7.574558
7.408857
7.485747
7.325411
6.958842
7.254481
7.065535
7.118583
7.018447
7.214546
7.050633
7.522702
7.103682
7.370710
7.501841
7.865429
7.587671
8.547902
9.266734
10.709763
10.957718
11.233687
12.779832
12.789965
12.631416
12.281537
11.532903
11.396408
9.788871
10.005832
9.879470
9.295940
9.023547
8.581877
8.772612
8.096695
8.293986
8.326769
8.420944
8.008480
7.953644
8.044839
8.470416
8.091927
8.204579
##ZVALUE=275
1.523495
1.467466
1.632571
1.581907
1.410842
1.634955
1.665950
1.699924
1.715422
1.908541
1.858473
1.988411
2.127886
2.234578
2.319813
2.450943
2.639890
3.238916
3.390908
8.285642
33.679605
96.055865
271.998644
501.849651
916.057825
1015.605927
1015.605927
1015.605927
1015.605927
1015.605927
1015.605927
1015.605927
814.837813
427.639484
239.793658
99.616647
59.600472
59.625506
76.949000
102.900863
123.940706
142.205954
145.517588
141.835809
129.300952
102.491975
82.735419
57.341456
40.872693
24.865866
14.774799
10.378957
8.843541
7.535815
7.341504
7.399917
6.890893
6.827712
6.972551
7.154942
7.201433
7.020831
7.345676
7.481575
7.188916
7.806420
7.603765
7.968545
8.141994
8.865595
9.524822
10.467768
11.742711
11.584759
11.814833
11.758804
12.042522
11.164546
10.928512
9.855628
8.962750
8.803606
8.894801
8.561611
8.006692
7.976890
7.716417
7.333755
7.858872
7.753968
7.063746
7.944703
7.796884
7.739663
7.320642
7.854700
##ZVALUE=280
1.532435
1.638532
1.668930
1.580715
1.616478
1.607537
1.423955
1.674891
1.627803
1.787543
1.659989
1.827478
1.790524
2.183914
1.921654
2.258420
2.142787
2.297759
2.652407
2.960563
2.790689
4.290938
21.047592
70.534945
218.914747
402.635932
745.150447
1014.025807
1015.602946
1015.602946
1015.602946
1015.602946
1015.602946
1015.602946
965.606570
550.604463
323.773623
135.779977
69.264770
44.676661
54.218769
79.730749
98.085999
124.082565
138.660669
145.994425
141.090751
124.174953
107.425451
78.882575
58.175921
36.088824
24.393797
15.256405
10.607839
7.753968
7.632971
6.782413
6.571412
7.372499
6.617904
6.999969
6.838441
6.955862
7.042885
6.932616
7.469654
7.402897
7.878542
8.249879
9.176731
9.757876
10.474920
10.642409
11.345744
10.580420
10.546446
9.574890
9.620786
9.183884
8.560419
8.353591
7.912517
7.787943
7.760525
6.895661
7.802844
7.341504
7.152557
7.415414
6.726980
7.172823
7.302761
6.777644
6.837845
6.999969
##ZVALUE=285
1.484752
1.419783
1.524687
1.455545
1.462698
1.675487
1.516938
1.622438
1.700521
1.694560
1.619458
1.690984
1.712441
1.806617
1.862645
2.027750
2.152920
2.214909
2.456903
2.624989
2.463460
2.760887
3.013611
3.394485
10.446906
37.326813
129.773617
267.077684
566.990972
888.804793
1015.606523
1015.606523
1015.606523
1015.606523
1015.606523
1015.606523
1015.606523
786.391497
490.470529
228.144526
111.261606
44.830441
36.632419
52.151680
71.050525
98.525882
117.710829
137.013793
143.830776
138.635635
124.779940
103.335977
84.235668
58.250427
40.556788
24.275780
16.539693
10.690689
8.498430
7.409453
6.879568
6.584525
6.964803
6.576777
6.878972
7.069707
7.047653
7.740855
7.971525
8.186698
9.277463
9.610653
9.544492
10.098815
10.580420
9.824634
9.942651
9.385943
9.218454
9.135604
8.393526
8.129478
7.870793
6.913543
7.231832
7.209778
7.130504
7.402897
7.234812
7.192492
6.728768
6.568432
7.183552
6.553531
6.592870
6.860495
##ZVALUE=290
1.395941
1.314878
1.351833
1.404881
1.326799
1.583695
1.515746
1.479983
1.601577
1.398921
1.417994
1.519918
1.606941
1.579523
1.687407
1.740456
1.789927
1.597404
2.018809
2.191663
2.432466
2.149940
2.352595
2.804995
2.750754
3.333688
4.444718
20.121932
60.801506
194.714665
371.779799
758.355856
1015.605927
1015.605927
1015.605927
1015.605927
1015.605927
1015.605927
1015.605927
972.735882
648.526549
316.173434
160.446763
57.475567
31.722784
35.127997
48.322678
70.990920
91.251731
114.708543
128.748417
138.510466
136.857629
122.478604
104.168653
77.866912
58.591962
37.927628
26.430488
15.906692
10.727644
7.802844
6.976724
6.917715
6.843805
6.667972
7.131696
7.211566
8.050799
7.796884
8.495450
8.692741
9.222627
9.322762
9.356737
9.498000
9.080768
8.568764
8.433461
7.793903
7.343888
7.048845
7.147789
6.939769
6.724000
6.405711
6.539822
6.755590
6.604791
6.476641
6.545782
6.272793
6.617904
6.621480
5.961657
6.243587
##ZVALUE=295
1.279712
1.299977
1.376867
1.344681
1.315475
1.264811
1.241565
1.460910
1.494884
1.579523
1.322627
1.556873
1.735687
1.572967
1.625419
1.523495
1.765490
1.536608
1.857877
1.798868
1.912713
1.957417
2.344847
2.508759
2.435446
2.644658
2.745986
3.275871
3.471971
8.158684
30.190945
122.891665
264.338851
605.229735
954.626799
1015.605927
1015.605927
1015.605927
1015.605927
1015.605927
1015.605927
1015.605927
868.344903
461.050868
245.574713
86.551905
39.338470
24.547577
29.848814
47.166944
62.976480
89.119673
106.384754
124.578476
129.454732
128.837824
118.325949
96.791983
77.430606
54.037571
39.528608
23.700595
16.024709
10.445714
7.893443
6.867647
6.919503
6.932616
7.191896
7.630587
7.832646
7.845759
8.550882
8.684993
9.036660
8.746982
8.568764
7.818937
7.702708
6.939769
7.224679
6.839633
7.028580
6.730556
6.583929
6.554723
6.244779
6.287694
6.639957
6.304979
6.381869
6.093979
5.875826
6.259680
6.007552
6.581545
##ZVALUE=300
1.224875
1.222491
1.297593
1.268983
1.177788
1.267791
1.327991
1.220703
1.364946
1.466870
1.421571
1.480579
1.433492
1.302958
1.554489
1.378655
1.676679
1.521707
1.366735
1.674891
1.942515
1.893640
2.006888
2.052784
1.984835
2.141595
2.243519
2.439618
2.769828
2.972484
3.316998
4.063845
17.088652
59.092641
201.857686
399.319530
821.408033
1015.605927
1015.605927
1015.605927
1015.605927
1015.605927
1015.605927
1015.605927
988.813639
658.758879
324.557424
172.948837
59.631467
26.856661
19.807816
26.580691
41.384697
56.189895
79.899430
98.828673
117.634535
122.701526
123.341680
114.147663
94.302893
78.892708
55.333972
40.250421
24.348497
16.647577
10.935664
8.808970
7.064939
7.597804
7.452965
7.995963
8.525848
8.215904
8.221865
7.976890
7.592440
7.436872
7.289648
7.055998
7.005930
6.575584
6.586909
6.333590
6.357431
6.495714
6.042719
6.253719
6.212592
6.211996
6.138682
5.778670
5.953908
5.550981
5.703568
5.745888
##ZVALUE=305
1.288652
1.147985
1.147985
1.201630
1.210570
1.077652
1.278520
1.306534
1.308918
1.350641
1.407862
1.471639
1.469851
1.644492
1.564622
1.412630
1.633763
1.593828
1.517534
1.577735
1.647472
1.827478
1.733899
1.884699
1.853704
1.989603
2.052784
2.230406
2.258420
2.419949
2.542734
2.745986
3.281832
3.667474
6.660819
39.779544
112.071633
322.989821
582.758784
1010.070443
1015.611887
1015.611887
1015.611887
1015.611887
1015.611887
1015.611887
1015.611887
813.992023
495.500565
219.027996
103.864670
32.430887
17.443895
19.031763
25.412440
40.516853
55.908561
76.965690
93.017817
111.119747
116.251707
116.495490
107.733607
90.430975
75.042844
52.780509
38.392544
23.727417
16.398430
11.059642
9.285808
8.218884
8.059740
8.198619
7.791519
7.608533
7.164478
7.397532
6.984472
6.557703
6.033778
6.228685
6.186962
6.179810
5.943775
5.817413
5.687475
6.106496
5.526543
5.935431
5.599856
5.869865
5.528927
5.309582
5.630851
5.367994
##ZVALUE=310
1.204610
1.237988
1.253486
1.207590
1.273751
1.220703
1.297593
1.258850
1.381636
1.192689
1.366735
1.341701
1.243949
1.165867
1.511574
1.461506
1.300573
1.566410
1.454949
1.578927
1.576543
1.470447
1.726747
1.755953
1.862645
1.732707
1.785755
2.081990
2.033710
2.070665
2.055764
2.320409
2.655983
2.682805
2.810955
3.400445
3.939867
16.341805
57.331920
197.026730
399.182439
830.456018
1015.605927
1015.605927
1015.605927
1015.605927
1015.605927
1015.605927
1015.605927
1006.552577
700.410008
339.483619
175.304413
58.344007
23.425817
13.690591
16.020536
23.488998
32.214522
51.128864
66.898465
88.372827
99.968910
110.545754
110.555887
103.758574
91.544986
70.922971
55.158734
36.081672
26.127696
17.267466
12.626648
9.531975
8.383989
7.605553
7.054806
6.637573
6.232858
6.048679
6.180406
5.952716
5.760789
5.662441
5.622506
5.545616
5.673766
5.759597
5.515814
5.690455
5.768538
5.582571
5.412698
5.361438
5.515814
5.320907
##ZVALUE=315
1.310706
1.142621
1.241565
1.097918
1.200438
1.278520
1.117587
1.126528
1.239777
1.272559
1.232624
1.239777
1.229644
1.160502
1.322627
1.215935
1.371503
1.327991
1.399517
1.485944
1.468658
1.331568
1.629591
1.545548
1.434684
1.696944
1.800656
1.768470
1.930594
1.968741
1.988411
2.026558
2.333522
2.524853
2.459884
2.849698
2.881885
3.151894
3.608465
8.025765
30.914545
130.057931
284.049511
650.798678
997.442603
1015.636921
1015.636921
1015.636921
1015.636921
1015.636921
1015.636921
1015.636921
954.653025
491.501689
258.229971
89.723468
35.047531
13.625622
12.517571
15.417933
20.744801
32.573938
44.041872
63.211918
78.489780
95.771551
102.083683
105.353594
99.099874
83.817840
69.909692
51.936507
37.866831
23.856759
17.132759
10.951757
8.682609
7.326603
6.885529
6.326437
5.969405
5.660653
5.735755
5.785823
5.842447
5.638599
5.803704
5.442500
5.625486
5.506873
5.485415
5.502701
5.396605
5.205870
5.688667
5.465746
##ZVALUE=320
1.116991
1.119971
1.077652
1.111627
1.162887
1.078844
1.199841
1.330972
1.128912
1.230836
1.139641
1.272559
1.260638
1.068711
1.260638
1.165867
1.333952
1.356602
1.396537
1.477599
1.416802
1.513958
1.506805
1.496673
1.552701
1.542568
1.717806
1.652837
1.618862
1.605749
1.808405
1.968741
2.072453
2.091527
2.033710
2.245903
2.460480
2.690554
2.912879
2.988577
3.442764
4.482865
13.320446
74.914694
185.676813
478.025675
826.413035
1015.605927
1015.605927
1015.605927
1015.605927
1015.605927
1015.605927
1015.605927
1015.605927
648.445487
360.422730
145.362616
62.480569
19.574761
11.620522
11.231899
13.333559
19.033551
26.845932
41.476488
55.706501
75.097680
88.986754
98.082423
100.267529
94.217658
84.010959
64.978600
50.216913
33.923984
24.451613
15.249848
10.738969
7.602572
6.688833
6.041527
5.619526
5.560517
5.699992
5.546808
5.571842
5.519986
5.360842
5.381703
5.238652
5.231500
5.034804
5.300641
4.999638
5.055666
##ZVALUE=325
1.103878
1.091957
1.200438
1.142621
1.002550
1.114607
0.994802
1.124740
1.226664
1.117587
1.222491
1.239777
1.228452
1.196861
1.295805
1.193881
1.322627
1.270771
1.330972
1.360774
1.342893
1.574755
1.431704
1.498461
1.406670
1.377463
1.579523
1.436472
1.702905
1.598597
1.760721
1.855493
1.812577
1.937747
1.975894
2.058744
2.201796
2.354980
2.302527
2.526641
2.662539
2.995729
3.280640
3.931522
7.501841
47.176480
127.964616
350.317955
628.169775
1015.605927
1015.605927
1015.605927
1015.605927
1015.605927
1015.605927
1015.605927
1015.605927
866.572857
522.206426
223.573446
101.248622
29.257536
13.345480
10.495782
10.500550
13.121963
17.561913
27.611852
38.997531
57.499409
70.256591
85.759759
92.276931
93.868971
88.360906
75.063705
61.087608
44.808984
32.761693
20.266771
13.590455
8.765459
7.479787
6.094575
5.709529
5.515814
5.361438
5.307794
5.057454
5.247593
4.997849
4.905462
5.037785
4.978776
4.913807
5.081892
##ZVALUE=330
1.148582
1.019835
1.044869
1.106858
1.125932
1.062751
1.051426
1.256466
1.182556
1.313686
1.231432
1.210570
1.221895
1.250505
1.024604
1.110435
1.167655
1.334548
1.068711
1.395941
1.155734
1.226664
1.397729
1.486540
1.440644
1.535416
1.426935
1.462698
1.732707
1.743436
1.478791
1.776814
1.742840
1.843572
1.814961
2.090931
2.091527
2.053976
2.073646
2.288818
2.272725
2.503991
2.657771
2.927780
3.016591
3.370643
4.600883
21.018982
70.868731
236.810446
461.751819
942.710638
1015.610695
1015.610695
1015.610695
1015.610695
1015.610695
1015.610695
1015.610695
1015.610695
706.453919
309.156775
147.015452
47.075748
17.763972
10.040402
9.417534
10.406971
12.327433
17.853975
25.627613
38.975477
50.865412
68.853498
78.785419
86.465478
87.812543
80.444813
70.816875
55.555701
42.510629
28.769970
20.645857
13.408661
9.653568
7.099509
6.273985
5.526543
5.316734
5.118847
4.943609
4.915595
5.054474
4.908442
4.820824
4.978776
##ZVALUE=335
1.018643
1.122952
1.211762
1.189709
1.104474
1.121759
1.208782
1.109838
1.187921
1.042485
1.192689
1.029968
1.133680
1.110435
1.167655
1.083612
1.299977
1.283884
1.130700
1.366735
1.248717
1.153946
1.111627
1.337528
1.384616
1.332760
1.384616
1.332760
1.549721
1.444817
1.529455
1.384616
1.502633
1.553893
1.471639
1.788735
1.712441
1.887679
2.056956
1.747608
2.102852
2.220869
2.261996
2.514720
2.411604
2.977848
3.030896
3.400445
3.561974
9.394884
34.166574
143.552423
310.339928
705.692768
1015.607715
1015.607715
1015.607715
1015.607715
1015.607715
1015.607715
1015.607715
1015.607715
848.174691
421.224833
211.450458
67.849755
25.874972
11.129975
9.124875
9.150505
9.893775
12.316704
16.511679
25.089979
35.253763
50.899982
61.596632
73.634982
79.668760
81.153512
74.836612
63.886642
54.310560
40.292740
30.797720
19.894838
14.437437
9.553432
7.586479
5.864501
5.144477
4.944801
4.950762
4.597902
4.501939
4.575849
##ZVALUE=340
0.976920
0.952482
1.042485
1.139641
0.999570
1.116991
1.078844
1.054406
1.134872
1.222491
1.116991
0.942945
1.019835
0.874996
1.100898
1.266599
1.030564
1.062751
1.065731
1.165867
1.128912
0.999570
1.212955
1.280904
1.362562
1.355410
1.216531
1.145601
1.342893
1.366735
1.324415
1.351833
1.247525
1.370907
1.545548
1.518726
1.620650
1.731515
1.575947
1.652837
1.772642
1.868606
1.886487
2.087951
2.306700
2.217889
2.431870
2.554655
2.891421
3.285408
3.356934
5.363822
17.369986
90.349913
225.559473
570.464730
953.018665
1015.605927
1015.605927
1015.605927
1015.605927
1015.605927
1015.605927
1015.605927
993.825793
536.986589
291.039944
109.341741
39.531589
11.993647
9.511709
9.148717
8.607507
9.722710
11.135936
16.223788
22.535920
33.184886
43.271780
58.141947
67.603588
74.475408
75.411797
71.149468
63.111782
50.891638
40.593743
28.107762
20.828843
13.834834
9.792447
6.447434
5.637407
4.880428
4.711747
4.531741
##ZVALUE=345
1.154542
0.920892
1.155734
1.065731
1.103878
1.080632
1.022816
1.097918
1.073480
1.186728
1.041889
1.094937
1.123548
1.162887
1.079440
1.081824
1.085997
1.015663
1.176596
1.074672
0.955462
1.156926
1.151562
1.261830
1.091957
1.138449
1.050830
1.136661
1.394749
1.198649
1.299977
1.314878
1.335740
1.524687
1.502633
1.480579
1.386404
1.606941
1.580715
1.607537
1.687407
1.808405
1.740456
1.750588
2.060533
2.229810
2.060533
2.305508
2.496839
2.684593
2.795458
3.143549
3.335476
3.927946
8.332729
52.317977
147.472620
400.623679
712.723732
1015.605927
1015.605927
1015.605927
1015.605927
1015.605927
1015.605927
1015.605927
1015.605927
764.282942
440.464616
176.547766
70.926547
19.434690
10.955930
9.563565
8.942485
8.322001
8.251667
10.378957
13.637543
20.944476
28.927922
42.409897
51.929951
62.305927
67.621469
69.524646
66.879988
59.779882
51.164627
38.007498
28.796792
19.528866
14.056563
9.490848
7.249713
5.544424
##ZVALUE=350
1.145601
1.078844
1.022816
0.986457
1.137853
0.999570
0.935793
0.909567
1.099706
1.035929
1.057982
1.157522
1.138449
1.155734
1.031756
1.112819
1.143813
1.141429
1.045465
1.126528
1.347661
1.168847
1.260638
1.178980
1.186728
1.329780
1.221895
1.156926
1.258850
1.184940
1.231432
1.355410
1.406670
1.505613
1.543760
1.485944
1.380444
1.329780
1.506805
1.509786
1.569986
1.526475
1.447797
1.657605
1.719594
1.850724
1.977682
1.984835
2.091527
2.300739
2.346635
2.442598
2.922416
3.175735
3.499985
3.715754
6.026626
20.658970
104.254484
259.351730
661.356449
1015.605927
1015.605927
1015.605927
1015.605927
1015.605927
1015.605927
1015.605927
1015.605927
955.563784
467.832685
248.285532
89.440942
32.950640
11.896491
9.575486
8.368492
7.952452
7.508993
7.736683
9.616613
12.652874
18.878579
25.317669
36.474466
45.251846
56.202412
61.580539
65.036416
62.873960
55.873990
47.757626
36.892891
27.870536
19.416809
14.469624
##ZVALUE=355
0.968575
0.946522
1.044869
0.963807
1.179576
0.982881
1.022816
1.081824
1.037717
1.063943
1.070499
0.969768
1.010895
1.115799
1.051426
1.257658
1.048446
1.058578
1.211762
1.100898
1.235604
1.242757
1.074672
0.984669
1.268983
1.176596
1.313686
1.242757
1.291633
1.348853
1.440644
1.242757
1.383424
1.222491
1.489520
1.413822
1.437664
1.529455
1.503825
1.502633
1.504421
1.684427
1.710653
1.475811
1.565814
1.766682
1.804829
1.781583
1.773834
1.955628
2.249479
2.391934
2.442598
2.717972
2.701879
3.139973
3.365874
3.543496
4.379749
13.311505
50.483942
201.883912
419.600010
890.949965
1015.544534
1015.544534
1015.544534
1015.544534
1015.544534
1015.544534
1015.544534
1015.544534
707.975626
296.554565
136.380792
39.213896
14.665723
8.839965
8.089542
7.299781
6.943941
6.931424
7.065535
8.329749
10.640621
16.182661
22.069812
31.995773
39.505959
48.744678
55.114627
58.228970
57.758689
51.388741
44.430494
35.447478
##ZVALUE=360
1.081824
1.082420
1.057982
1.254678
0.958443
1.134872
1.035929
1.050830
1.044869
1.133680
1.148582
1.089573
1.250505
1.212955
1.259446
1.067519
1.212955
1.268983
1.315475
1.215935
1.210570
1.200438
1.108646
1.159906
1.171827
1.163483
1.207590
1.250505
1.295805
1.307726
1.575947
1.292825
1.525879
1.414418
1.476407
1.465678
1.454949
1.520514
1.660585
1.643896
1.889467
1.678467
1.644492
1.606941
1.724958
1.550913
1.890659
1.894832
1.917481
2.106428
2.225637
2.159476
2.235770
2.464652
2.579689
2.608895
2.932549
2.910495
3.336668
3.456473
4.148483
6.165504
20.385385
103.696585
261.600614
655.779839
1011.800766
1015.605927
1015.605927
1015.605927
1015.605927
1015.605927
1015.605927
1015.605927
883.543491
414.700508
207.045674
67.413449
23.777485
9.121895
8.041859
7.338524
6.660819
6.577969
6.098747
6.540418
7.454753
9.539723
12.560487
18.591881
25.214553
35.093427
42.033792
49.243569
52.799582
52.721500
##ZVALUE=365
0.986457
1.258850
0.908971
1.170635
1.197457
0.961423
0.995994
1.262426
1.157522
1.064539
1.201630
1.194477
1.146793
1.184940
0.958443
1.107454
1.128912
1.173615
1.065731
1.301765
1.209974
1.106858
1.349449
1.194477
1.184940
1.053810
1.293421
1.301765
1.302958
1.379848
1.464486
1.474619
1.294613
1.183748
1.401901
1.223683
1.509786
1.365542
1.251698
1.571774
1.481771
1.572967
1.659989
1.557469
1.812577
1.642704
1.692772
1.813769
1.717806
1.795888
1.949668
1.925826
1.982450
2.111793
2.324581
2.258420
2.457500
2.605915
2.691746
2.948642
3.262758
3.672838
3.908873
4.791617
8.544922
50.056577
151.919723
444.493890
810.706615
1015.605927
1015.605927
1015.605927
1015.605927
1015.605927
1015.605927
1015.605927
1015.605927
634.620786
337.677002
113.923550
40.578842
10.980964
8.091927
7.145405
6.738901
6.346703
5.998611
5.787611
5.562901
6.376505
7.835627
11.284947
15.264750
21.622777
28.135777
36.630630
##ZVALUE=370
1.088977
1.186728
1.082420
1.063943
1.008511
1.024604
1.017451
1.117587
1.056790
0.992417
0.933409
0.983477
1.171827
1.056790
1.087785
1.092553
0.993609
1.114607
1.151562
1.173615
1.125932
1.172423
1.139641
1.382828
1.217723
1.152754
1.111627
1.157522
1.281500
1.335740
1.291633
1.224875
1.224875
1.350641
1.210570
1.403689
1.381636
1.363754
1.348853
1.461506
1.367927
1.471639
1.597404
1.377463
1.586676
1.504421
1.592636
1.602769
1.624823
1.684427
1.485944
1.845956
1.845956
1.886487
1.871586
1.832843
2.043843
2.181530
2.144575
2.230406
2.527833
2.713799
2.891421
3.142953
3.302693
3.940463
5.660653
29.789805
99.993944
319.707394
597.878695
1015.605927
1015.605927
1015.605927
1015.605927
1015.605927
1015.605927
1015.605927
1015.605927
735.784769
412.092805
154.595971
64.854622
18.605590
8.830428
6.792545
6.233454
5.843639
5.813837
5.357862
4.972816
5.099773
5.465746
6.800890
9.957552
13.172626
##ZVALUE=375
1.079440
1.075864
1.136661
0.954866
0.870824
0.979900
1.052618
1.065731
0.930429
0.941753
0.940561
0.884533
0.973940
1.020432
0.948906
1.024604
1.053810
1.059771
0.958443
1.117587
1.090765
1.056790
1.014471
0.925660
1.084805
1.192689
1.109838
1.020432
1.090765
1.106858
1.049638
1.204610
1.165867
1.099706
1.058578
1.132488
1.199841
1.265407
1.364946
1.144409
1.190901
1.122952
1.217723
1.371503
1.217723
1.301765
1.240969
1.327991
1.366735
1.330972
1.669526
1.440644
1.504421
1.545548
1.656413
1.706481
1.692772
1.786947
1.702905
1.898408
1.949668
1.981854
2.348423
2.452731
2.477765
2.827644
3.110766
3.650784
4.398823
14.970899
55.278540
211.317539
463.736057
971.222520
1015.552878
1015.552878
1015.552878
1015.552878
1015.552878
1015.552878
1015.552878
941.603780
567.549467
250.073671
119.293928
34.233928
12.520552
6.706715
6.098747
5.723834
5.206466
4.965663
4.680753
4.407763
4.624724
4.938841
##ZVALUE=380
1.025796
1.092553
0.937581
1.001954
0.819564
0.751615
0.965595
1.055598
0.977516
0.907779
0.793934
0.955462
0.881553
1.080632
1.022816
0.953674
0.971556
1.058578
0.884533
0.948906
1.072884
1.159906
1.089573
0.954866
0.984669
1.044869
1.002550
0.932813
1.112819
1.009703
1.126528
1.156926
1.126528
1.221895
1.236796
1.178980
1.234412
1.088977
1.108646
1.116991
1.089573
1.168847
1.210570
1.266599
1.289845
1.276731
1.436472
1.266599
1.337528
1.356602
1.196861
1.478791
1.359582
1.494884
1.552701
1.569986
1.662970
1.618862
1.743436
1.754761
1.816750
1.789927
1.913905
1.999736
2.040863
2.297759
2.441406
2.942681
3.276467
3.519654
4.015565
7.236600
28.697848
144.864917
338.235497
776.310563
1015.605927
1015.605927
1015.605927
1015.605927
1015.605927
1015.605927
1015.605927
1015.605927
717.603564
343.818665
177.139640
65.589547
23.766756
7.306933
6.024837
5.338788
5.196929
4.941821
4.657507
4.321933
##ZVALUE=385
0.895858
0.882745
0.862479
0.892878
1.038909
0.938773
0.829697
1.030564
0.784993
0.717640
1.008511
0.895858
1.026988
0.902414
0.892878
0.797510
0.937581
0.794530
1.006722
1.051426
1.041889
0.992417
0.988841
0.897646
0.941753
0.835657
0.989437
1.036525
0.963807
0.934601
0.925660
1.055598
1.078844
1.022816
1.139641
1.047850
0.984669
0.981688
1.041889
0.972748
1.259446
1.093745
1.156926
1.306534
1.261830
1.110435
1.133680
1.209974
1.344681
1.186728
1.249909
1.385808
1.360774
1.431704
1.362562
1.375675
1.453757
1.426935
1.537800
1.754761
1.582503
1.617670
1.593828
1.710653
1.770854
2.027750
2.218485
2.372861
2.804995
3.092885
3.346801
3.544688
3.603697
4.621744
13.104677
77.449679
202.501416
511.533618
889.536738
1015.569568
1015.569568
1015.569568
1015.569568
1015.569568
1015.569568
1015.569568
965.406895
516.749620
284.703970
111.565590
41.693449
10.032654
6.044507
5.201697
5.018711
4.731417
##ZVALUE=390
0.889897
0.993609
0.963807
1.037717
0.867844
0.941753
0.783801
0.701547
0.779629
0.860691
0.892878
0.935793
0.762939
0.847578
0.955462
0.909567
0.889897
0.883937
0.909567
0.830889
0.877976
0.883937
0.910759
0.959635
1.058578
0.995994
0.977516
1.032948
0.904799
0.975728
1.016855
0.943542
1.072884
1.062751
1.006722
1.155734
1.099706
1.180768
1.192689
1.224875
1.179576
1.067519
1.171827
1.138449
1.111627
1.051426
1.343489
1.177788
1.318455
1.327991
1.306534
1.479983
1.268983
1.245737
1.356602
1.422763
1.414418
1.371503
1.472831
1.393557
1.523495
1.652837
1.625419
1.551509
1.553893
2.054572
1.992583
2.240539
2.534986
2.767444
2.922416
3.049970
3.011823
3.136992
3.272891
3.883839
6.382465
39.065480
122.383833
373.090506
691.562891
1015.605927
1015.605927
1015.605927
1015.605927
1015.605927
1015.605927
1015.605927
1015.605927
753.836036
424.992442
168.738961
74.146986
20.420551
8.117557
5.349517
##ZVALUE=395
1.098514
1.125932
1.106858
1.057982
1.221895
1.111627
1.026988
1.048446
0.965595
1.094937
1.121759
0.894666
1.091957
1.096725
1.043677
1.048446
1.065731
0.998974
0.931621
1.077652
1.176000
1.216531
1.113415
1.126528
1.071692
1.137853
1.121759
1.104474
1.003742
1.207590
1.117587
1.158714
1.331568
1.160502
1.217723
1.304746
1.269579
1.352429
1.303554
1.415610
1.310706
1.213551
1.397729
1.455545
1.372695
1.348853
1.324415
1.305938
1.387596
1.261830
1.340508
1.370907
1.317859
1.547933
1.534820
1.500845
1.512766
1.537800
1.629591
1.591444
1.717806
1.726747
1.601577
1.752973
1.829863
2.095699
2.047420
2.228618
2.441406
2.689958
2.779961
2.898574
2.872944
2.998710
2.990961
3.260970
3.370643
3.493428
4.258752
20.385981
76.639652
270.290971
513.159633
953.666568
1015.733480
1015.733480
1015.733480
1015.733480
1015.733480
1015.733480
1015.733480
953.883529
589.455962
255.501866
117.698908
34.219623
##ZVALUE=400
1.039505
1.000762
1.113415
0.986457
0.908971
0.834465
0.904799
0.822544
0.955462
0.842810
0.917912
0.977516
0.907779
0.880957
0.880957
0.870824
0.985861
0.849962
1.065731
1.015663
0.829697
0.804663
0.920892
0.831485
0.905991
1.104474
0.973940
1.089573
1.028776
1.022816
1.146793
1.114607
1.010895
1.157522
1.085997
1.075864
0.987649
1.171827
1.163483
1.169443
1.202822
1.144409
1.080632
1.053810
0.976920
1.130700
1.245737
1.348853
1.208782
1.334548
1.251698
1.116991
1.327991
1.285672
1.255870
1.295805
1.499653
1.496673
1.408458
1.453757
1.546741
1.612902
1.547933
1.613498
1.765490
1.765490
1.779795
2.100468
2.328753
2.431870
2.404451
2.603531
2.549887
2.630949
2.737641
2.564788
2.764463
2.893806
3.023744
3.426671
3.695488
9.690523
37.076473
153.615475
333.047509
736.031532
1015.603542
1015.603542
1015.603542
1015.603542
1015.603542
1015.603542
1015.603542
1015.603542
798.035860
399.292707
##END
