##TITLE=DDW2
##FORMAT=SPECTACLE-ASCII V-1.2
##DATA TYPE=ULTRAVIOLET SPECTRUM
##SECOND TYPE=ULTRAVIOLET SPECTRUM
##DATE=01/09/18
##TIME=15:38:17
##SPECTROMETER/DATA SYSTEM=SPECTACLE
##XUNITS=NM EM
##YUNITS=ENERGY
##YFACTOR=1
##FIRSTX=220
##LASTX=410
##NPOINTS=96
##3DDATA=Equidistant
##ZUNITS=NM EX
##FIRSTZ=210
##LASTZ=400
##ZPOINTS=39
##XYDATA=(Y..Y)
##ZVALUE=210
11.417866
10.594726
8.792877
8.962750
8.275509
7.680655
6.793737
6.746650
4.789829
4.119873
2.938509
2.538562
1.983643
1.530647
1.523495
2.054572
1.797676
1.731515
1.792908
2.212524
2.449751
2.252460
1.749992
2.056956
1.990795
2.530813
2.345443
1.925826
2.112985
2.422929
3.218651
3.428459
2.693534
3.137589
3.386736
3.009439
2.908707
3.704429
3.344417
3.154874
3.282428
3.349781
3.877878
3.445745
3.704429
3.145933
3.650784
3.948808
3.459454
3.184676
3.600717
3.571510
3.509521
3.263950
3.772974
3.722906
3.044605
3.532767
3.306866
3.449917
3.840923
3.593564
4.162788
3.275871
4.162788
3.604889
3.272891
4.074574
4.982948
4.661679
4.904866
5.757809
6.949902
7.619858
7.645488
6.567836
7.672906
7.563829
6.756783
6.100535
5.987883
5.249977
4.663467
4.450679
4.511476
2.917647
3.140569
3.173947
4.680753
5.578995
6.322861
7.932782
9.831786
13.513565
17.593503
19.339919
##ZVALUE=215
27.274489
24.519563
22.809505
18.284917
17.267466
15.032887
13.530850
13.994575
14.763474
13.304949
8.769631
6.363988
6.354451
3.743768
3.009439
2.108812
1.919866
1.898408
2.013445
1.897812
2.295971
1.803637
2.282858
2.753735
1.998544
1.754761
2.033710
1.855493
3.122687
2.691746
2.883673
3.565550
3.398657
3.205538
3.320575
3.207922
3.669858
3.820658
3.581643
3.904700
3.716946
3.707409
3.711581
3.867745
3.369451
3.527999
3.676414
3.458858
4.045963
3.643632
4.005432
4.054904
3.798604
4.088879
3.680587
4.023910
3.742576
4.198551
4.687905
4.351735
4.005432
4.153848
4.005432
3.621578
3.703833
4.503727
4.066825
4.631877
4.689693
4.598498
6.175637
5.474687
5.893707
6.275773
6.639957
7.404685
7.124543
6.353855
6.615520
6.476641
5.058646
5.551577
4.490614
3.723502
3.929734
4.247427
3.247857
3.085732
3.383756
2.754927
3.089905
2.748966
3.422499
3.917813
4.929900
7.016659
##ZVALUE=220
54.500699
53.436756
54.232478
48.682690
43.386817
31.659603
27.712584
23.252964
21.219850
21.913648
20.982623
20.598769
19.362569
16.344786
11.626482
9.466410
5.412698
4.825592
2.625585
2.234578
2.421737
2.219677
2.352595
2.842546
3.100634
3.103614
2.680421
3.354549
2.642870
3.228784
3.215671
2.549887
3.804564
3.431439
4.889965
4.036427
4.482865
4.280806
4.633665
4.905462
4.806519
4.582405
4.223585
4.502535
4.361868
5.044937
4.800558
5.400777
4.497766
4.902482
4.916787
4.776716
5.150437
4.866719
4.921556
5.906820
4.378557
4.896522
5.175471
4.801750
6.715655
5.017519
4.727840
4.635453
5.242825
4.880428
5.197525
6.005764
5.791783
5.715489
6.304979
5.944967
6.834865
7.067919
7.010698
7.092953
7.252693
7.291436
7.315874
6.699562
6.776452
6.151795
6.032586
4.801750
4.186630
4.490614
3.365874
3.604889
3.757477
3.617406
3.045797
3.466606
3.519654
3.443956
3.493428
3.707409
##ZVALUE=225
65.443516
67.958832
86.693764
90.692639
93.812943
90.523958
79.102516
63.795447
46.486855
38.239956
35.276413
33.262968
34.572482
35.934448
32.455921
26.876926
24.139881
17.244816
12.776852
7.839799
5.187988
3.355742
3.170967
2.788901
2.951622
3.005862
2.970695
2.956986
2.665520
2.623796
3.404617
3.769994
3.404617
4.094839
4.322529
4.702806
4.696846
4.563928
5.229712
5.494952
5.472898
5.950928
4.977584
5.409718
5.455613
5.392432
4.599690
5.158782
5.797744
5.511642
5.657673
5.704761
5.147457
5.761981
5.800724
6.428957
5.831718
5.871654
6.664991
5.763769
6.798506
6.240606
5.295873
6.188750
5.605817
6.063581
6.234646
6.137490
5.401969
5.906820
6.337762
6.910563
6.653666
7.329583
7.327795
7.775426
7.503629
6.890893
6.426573
6.036758
6.031990
5.450845
4.886985
4.930496
4.467964
4.395843
4.653931
3.929734
3.730655
4.285574
3.391504
3.506541
3.218651
3.643632
3.451705
3.473759
##ZVALUE=230
43.985844
46.188831
69.066882
107.942820
136.947632
163.787007
168.927908
157.410502
138.063431
111.523867
83.868504
61.956644
52.861571
48.150420
52.835941
54.267645
56.629777
51.813722
43.053627
37.434697
25.539994
17.736554
10.741949
6.514788
3.535748
3.345609
3.027916
3.062487
3.721714
3.330708
3.237724
3.916621
4.547834
3.676414
4.338622
4.716516
4.370809
5.613565
5.180836
5.731583
5.679727
5.065799
6.283522
5.960464
5.200505
5.724430
5.370975
5.267859
5.720854
6.765723
5.989671
6.385446
6.469488
6.140471
6.374717
7.188916
7.206798
6.752610
6.767511
7.170439
7.304549
7.345676
6.672740
6.816983
6.498694
6.928444
5.937815
6.180406
6.663799
6.581545
6.966591
7.657409
8.439422
8.263588
8.661747
7.885695
7.413626
7.082820
7.375479
7.035732
6.202459
5.084872
5.479455
5.544424
5.018711
4.953742
4.258752
4.785657
3.764629
4.062653
4.855990
3.893971
4.634857
4.465580
3.264546
3.945827
##ZVALUE=235
12.234449
11.125803
31.745434
54.398775
104.021430
151.804686
203.659534
241.506696
268.715620
262.363553
215.052962
181.898475
141.857862
98.658800
81.961751
71.064830
70.697665
81.751943
83.279610
80.283880
75.581670
65.717697
46.776533
36.352873
20.563602
13.150573
8.626580
5.939603
4.528761
4.069805
3.905892
4.807711
4.746914
4.433990
4.563928
4.404783
4.614592
4.142523
5.292892
4.100800
5.215406
5.231500
5.127788
4.492998
4.375577
5.041957
4.835725
5.320907
5.681515
5.679727
5.370975
6.335974
4.933476
5.437732
5.869865
6.450415
6.356835
7.523894
6.253719
6.606579
6.093979
6.452799
6.415844
6.640553
6.506443
6.666780
6.901622
6.246567
6.416440
6.617904
7.837415
7.300973
6.919503
7.913709
9.450912
8.351803
7.504821
7.413626
6.903410
6.622672
7.998943
6.125569
5.595684
5.774498
5.485415
5.538464
5.304813
4.836917
5.007982
4.850626
5.204678
5.170703
4.898906
4.510880
4.788637
4.871488
##ZVALUE=240
1.397729
1.118779
4.136562
13.038516
36.814809
65.023899
129.625797
191.548467
284.183621
343.644619
388.758779
393.532515
357.039571
288.052559
224.132538
148.809552
118.895769
94.542503
92.026591
102.058649
114.107728
119.694471
111.565590
98.999739
78.106523
61.730742
43.175817
29.004812
17.598867
10.754466
6.006956
5.115867
4.292727
5.184412
4.274845
4.616976
4.767776
4.943609
3.675818
5.051494
5.482435
4.875660
4.853606
5.202889
4.809499
4.911423
4.561543
5.123615
5.061626
4.652739
5.649924
5.748868
5.691648
4.909635
6.103516
5.397797
6.383657
5.561709
6.590486
6.327629
5.682707
5.935431
6.376505
5.971789
5.779862
5.324483
7.039905
6.387830
6.839633
6.593466
7.424951
8.010864
8.321404
8.679628
8.869767
8.688569
8.786917
9.131432
8.493662
7.714629
7.406473
6.875992
6.149411
6.432533
5.442500
6.706715
6.210804
6.374717
5.683899
5.808473
5.093813
5.324483
5.797744
5.140901
5.139709
5.576611
##ZVALUE=245
1.445413
1.313686
1.341701
1.432896
3.221631
8.831620
27.782917
60.783625
132.027864
200.887918
313.999653
388.032794
445.889831
471.200943
448.482633
375.861526
302.919745
210.053921
149.863958
101.019740
94.536543
97.097754
116.049647
129.577518
131.675601
127.635598
110.482574
96.312761
69.269538
50.532818
33.576488
18.356442
10.568500
6.148815
5.098581
4.443526
4.693866
4.453659
3.866553
4.540682
4.403591
4.186630
4.325509
4.169941
5.144477
5.038977
4.669428
4.558563
4.485846
4.515648
4.600883
5.381703
5.309582
5.708933
5.352497
5.519986
4.799962
5.736947
5.818605
5.465746
6.341934
5.869865
5.899668
5.029440
6.010532
6.756783
6.193519
5.271435
6.318688
6.789565
6.610751
7.588863
7.813573
8.045435
7.864833
8.400679
7.771850
7.695556
8.218884
7.244945
6.849766
7.083416
6.717443
5.490780
5.484819
5.935431
4.836917
5.793571
5.159974
5.785823
5.515814
5.606413
6.164908
4.899502
5.189776
5.695820
##ZVALUE=250
0.998974
0.836849
0.724792
1.192689
1.141429
1.440644
1.771450
5.621910
20.105839
44.581890
109.911561
186.132789
270.489454
394.267440
475.490689
536.865592
527.686477
465.066433
401.902795
279.940963
198.941827
133.441687
92.584491
90.145469
103.887916
124.004483
135.432482
139.825940
134.355426
118.831992
105.343461
74.525476
55.294633
34.226775
19.948483
10.477901
6.412864
4.619956
4.414916
4.170537
4.513860
5.178452
4.304647
4.403591
4.268885
4.442930
4.441738
3.887415
4.404783
4.797578
4.498959
4.590750
4.766583
4.845858
5.010962
4.778504
5.640984
5.384684
4.787445
5.187988
5.272627
5.409718
5.063415
5.392432
5.396605
5.670786
5.637407
5.143881
5.390644
6.750822
6.582737
6.269813
7.399917
7.094741
6.558895
6.942749
6.739497
6.321669
7.033944
6.253719
5.475879
6.157756
5.532503
5.241632
5.066991
5.049706
4.594922
4.776716
4.930496
5.204678
4.590750
4.597902
5.022883
5.080700
4.456639
4.259944
##ZVALUE=255
0.651479
0.823736
0.447631
0.712872
0.934601
0.753999
1.270771
1.344681
1.505613
2.720952
13.982654
34.293532
69.880486
156.341791
239.458680
379.844904
475.326777
558.806658
596.606731
558.576584
475.921631
385.679007
246.385932
160.447955
100.240707
80.599785
88.035464
102.018714
126.892924
141.234994
148.103833
142.922997
129.402876
105.164647
80.998540
53.768754
35.625696
18.872619
11.862516
6.551743
5.074739
4.642606
4.590750
4.186630
4.359484
4.749894
4.600883
4.664660
5.318522
4.874468
4.723668
4.768968
5.244613
5.150437
5.092621
4.730821
6.027818
5.673766
4.781485
5.488992
5.506873
5.309582
5.589724
5.132556
4.957914
5.629659
5.707741
5.615950
5.327463
5.743504
5.655885
5.764961
6.039739
6.149411
6.357431
6.153584
6.183982
6.874800
5.993843
6.257892
5.002618
4.956722
5.120635
4.066825
4.665852
4.607439
4.055500
4.049540
4.594922
4.416704
3.954768
5.027652
4.786849
4.744530
4.367828
5.006790
##ZVALUE=260
0.699759
0.769496
0.586510
0.772476
0.910759
0.896454
0.865459
0.967979
0.802875
1.088977
0.980496
1.529455
4.626513
22.018552
49.993992
123.283863
199.427009
333.711505
445.978642
582.700968
637.945533
652.297735
575.024486
468.508005
318.914652
222.244859
132.740736
91.086626
72.400570
82.126856
101.022720
128.458738
146.222711
154.206753
150.419474
133.670568
112.007856
82.492828
56.943893
36.617517
23.546815
13.160706
8.730888
6.249547
4.894733
5.297661
5.673766
5.482435
5.310774
5.088449
4.876852
5.580783
5.485415
5.710721
5.321503
5.308986
6.286502
6.262660
5.671978
5.393624
5.783439
5.339980
5.514622
5.410910
5.557537
5.384684
5.765557
5.657673
5.574822
5.433559
5.995631
6.075501
6.718636
6.009936
6.590486
6.279945
6.083846
5.871654
5.254745
4.939437
5.346537
4.728436
4.926920
4.137754
4.656911
4.435778
4.079938
4.297495
3.730655
4.169941
4.112720
4.806519
4.569888
4.932880
4.996657
4.784465
##ZVALUE=265
0.941753
0.930429
0.952482
0.743866
0.802875
0.777841
0.832677
1.060963
0.928640
1.037717
0.911951
1.115799
1.246929
1.320839
2.711415
14.764667
37.285686
95.413923
167.815685
313.626528
438.068509
555.973649
671.393871
691.481829
633.139610
544.068813
405.117869
281.243920
162.145495
102.462769
68.255663
66.655874
81.151724
113.011599
133.675933
152.328610
160.440803
148.816705
135.082603
106.433630
84.592700
56.124926
38.689971
20.644665
13.257861
8.745790
6.692410
6.647706
6.061792
6.093979
6.343722
6.545782
6.048679
6.136894
5.876422
6.379485
6.121993
6.769896
5.803704
6.175637
6.155968
6.810427
6.477833
6.117821
6.126761
6.434917
5.875826
5.674958
6.273985
5.638599
6.130934
6.265640
5.982518
6.341934
6.043911
6.014705
6.032586
5.471706
5.058646
4.676580
5.663633
5.152822
4.701614
4.795790
4.394650
3.941655
4.106760
4.553795
4.561543
4.061460
4.353523
4.232526
4.818439
5.312562
5.352497
5.737543
##ZVALUE=270
0.636578
0.491738
0.514984
0.404716
0.530481
0.545979
0.713468
0.574589
0.348687
0.608563
0.675917
0.662804
0.593662
0.850558
0.804663
0.991821
1.395941
6.837845
20.475984
66.134930
134.024620
229.034424
401.066542
535.381436
677.350760
724.461675
710.198879
636.347532
497.643948
375.420451
256.789923
137.433410
83.752871
55.800676
60.054660
84.924698
109.775662
136.521459
152.055621
158.085823
154.955983
133.910775
112.611651
80.622435
59.352517
36.300421
24.107695
14.432669
10.674000
6.680489
6.922483
6.803870
6.515980
6.844997
5.869865
6.565452
6.837845
6.757975
7.017851
6.141663
6.650686
6.649494
5.937815
6.288886
6.143451
5.822778
5.782843
5.840659
5.815625
6.055832
6.254911
5.797744
5.913973
6.005764
5.888939
5.710721
5.241632
5.049706
5.057454
5.157590
4.679561
4.717708
4.325509
4.174709
4.303455
3.925562
3.857613
3.839731
3.892779
3.984571
3.726482
4.240870
4.969835
4.717708
4.521608
5.028844
##ZVALUE=275
0.482798
0.533462
0.675917
0.480413
0.447631
0.644922
0.515580
0.339746
0.422597
0.617504
0.624657
0.496507
0.718832
0.637770
0.756979
0.766516
0.616908
0.953674
1.301765
2.925992
12.158751
33.305883
100.687742
188.870430
350.632668
476.085544
624.423623
710.982680
738.479495
704.647899
646.967888
455.967784
325.962901
174.291730
103.717446
55.592656
45.933723
60.928464
81.245899
110.760927
131.115913
149.584413
155.542493
148.041844
134.163499
108.029842
84.330440
58.084726
41.337609
24.747849
16.453862
10.469556
8.041859
6.820560
7.152557
6.358624
6.853938
6.558895
6.361604
6.263852
6.233454
6.452799
6.651878
6.344914
6.896853
6.493926
6.006956
5.946755
5.830526
5.880594
5.898476
6.144643
5.637407
5.884767
6.174445
5.993843
5.578995
5.348921
5.125999
5.166531
4.544854
4.455447
4.326701
4.270673
4.128814
4.259944
4.017949
3.761649
3.739595
3.923774
4.008412
4.196763
3.805757
4.045963
4.301667
4.196763
##ZVALUE=280
0.301600
0.430942
0.430942
0.359416
0.390410
0.276566
0.525713
0.451803
0.520945
0.604987
0.380874
0.530481
0.471473
0.442863
0.666976
0.682473
0.776649
0.729561
0.935793
0.835657
0.891685
1.378655
7.256866
23.792982
77.636838
146.408677
272.143483
404.635668
571.773648
679.912567
749.617815
744.277835
673.288703
511.964560
377.209783
217.236876
130.377412
63.285828
41.631460
41.726828
55.994987
83.412528
104.618669
133.539438
146.825910
153.249502
147.915483
129.378438
110.119581
80.565810
59.579611
36.750436
25.246739
14.679432
10.368824
7.059574
6.855726
6.128550
6.465912
5.946755
6.136894
6.483793
6.476641
6.125569
5.925894
5.932450
6.074905
5.755424
5.716681
5.977750
5.925894
5.728602
5.563498
5.717874
5.597472
5.457997
5.168915
4.859567
5.259514
4.586577
4.680753
4.336834
4.407763
3.952980
3.654957
3.862977
3.610849
3.848672
3.642440
3.664494
3.761649
3.618598
3.448725
3.575683
3.564954
3.325939
##ZVALUE=285
0.259876
0.372529
0.322461
0.485778
0.288486
0.379682
0.426769
0.514984
0.450611
0.476837
0.431538
0.500679
0.577569
0.519753
0.490546
0.482798
0.461936
0.778437
0.516772
0.628829
0.771880
0.889897
0.903606
1.145601
3.178716
12.538433
41.927695
90.142488
192.884803
308.020711
443.044901
619.155765
721.481442
774.679780
732.626915
602.141619
473.771691
299.018621
187.252760
88.429451
48.859715
29.917955
33.484697
52.706003
73.569417
102.282763
123.057961
138.769746
147.202611
141.743422
129.530430
104.973912
85.728765
57.511926
40.601492
23.775697
15.201569
9.205937
7.395744
5.682707
5.710721
5.970597
5.643964
5.763769
5.368590
5.565882
5.890727
5.460978
5.701780
5.525947
5.356669
5.667806
5.469918
5.585551
5.623698
5.061626
4.805923
4.960895
4.475713
4.737973
4.535913
4.135966
4.180670
4.187822
3.697872
3.495812
3.342628
3.674626
3.230572
3.477931
3.308654
3.577471
3.289580
3.280640
2.863407
2.907515
##ZVALUE=290
0.282526
0.306964
0.225902
0.376701
0.443459
0.209808
0.297427
0.334978
0.384450
0.423789
0.298619
0.505447
0.395775
0.409484
0.386834
0.456572
0.555515
0.441670
0.481606
0.621676
0.502467
0.513792
0.683665
0.890493
0.830889
1.078844
1.453757
4.774928
23.804903
56.605935
68.387985
234.143734
362.685919
556.256771
673.437715
767.737627
762.766600
666.992664
546.739697
369.250774
245.410800
124.393702
66.631436
28.436780
23.503900
33.481717
47.823787
71.829557
90.854764
118.114948
132.155418
142.795444
140.567422
125.649571
106.604695
78.785419
57.771802
36.635995
24.928451
13.809800
9.774566
6.804466
5.650520
5.160570
4.724860
5.205870
4.690886
4.966855
4.606843
4.920959
4.788637
4.988909
4.784465
5.071759
4.792809
4.746914
4.324913
4.399419
4.288554
4.054904
3.634691
3.620982
3.671646
3.468990
3.716946
3.752708
3.443956
3.560781
3.276467
3.264546
2.946854
3.175735
3.253818
3.056526
3.194809
2.765656
##ZVALUE=295
0.248551
0.395775
0.270605
0.447631
0.338554
0.400543
0.330806
0.369549
0.400543
0.402927
0.277758
0.308752
0.254512
0.458956
0.459552
0.469685
0.445843
0.412464
0.568628
0.558496
0.714660
0.600815
0.425577
0.717640
0.887513
0.970960
0.811815
1.133680
1.230836
1.967549
7.885695
34.136772
80.088973
192.071795
309.724808
494.635701
620.421767
737.298727
770.065784
709.394813
616.098642
440.009832
308.700800
163.405538
90.728998
35.379529
19.986629
19.736886
27.414560
45.848489
62.141418
89.964867
107.369423
128.009915
134.265423
131.421685
118.883848
97.882748
77.796578
53.050518
37.924647
22.064447
13.890862
8.310676
5.887747
4.728436
4.431605
3.951788
3.729463
3.862977
4.174709
3.773570
3.958941
3.877878
4.230738
3.982782
3.978610
3.786683
3.905892
3.708601
3.450513
3.376603
3.400445
3.011823
3.118515
3.160834
3.118515
2.980828
2.889633
2.929568
3.008842
2.951622
2.836585
2.829432
2.870560
2.831817
##ZVALUE=300
0.141859
0.220537
0.297427
0.231862
0.145435
0.281930
0.440478
0.228882
0.330806
0.325441
0.406504
0.556707
0.330806
0.529885
0.285506
0.394583
0.389814
0.363588
0.432730
0.281930
0.474453
0.516772
0.400543
0.479817
0.297427
0.452995
0.753999
0.823736
0.852942
0.730753
1.098514
1.282692
4.850626
17.500520
60.857534
121.047497
248.765945
375.665426
558.729768
667.610765
754.067898
752.452612
652.589798
537.299514
358.953476
234.252810
117.609501
64.642429
25.634766
14.778972
16.798973
23.980737
39.975643
55.418611
82.448721
99.392533
121.504664
127.051473
123.606920
115.691423
96.367598
77.652931
54.299831
38.995743
22.112727
13.836622
7.834435
5.511642
4.097819
3.578663
3.528595
3.656745
3.511906
3.661513
3.297925
3.560781
3.346801
3.214478
3.266931
3.178716
3.421903
3.260970
3.386736
3.178716
2.862811
2.935529
2.942681
2.703667
2.900958
2.720952
2.601743
2.867579
2.696514
2.448559
2.887845
2.760887
##ZVALUE=305
0.273585
0.168681
0.244975
0.247955
0.157952
0.234842
0.226498
0.214577
0.317693
0.356436
0.340939
0.264645
0.395775
0.419617
0.428557
0.352859
0.596642
0.491738
0.450611
0.483990
0.408888
0.293851
0.504851
0.483990
0.517964
0.621676
0.543594
0.430942
0.576973
0.630617
0.581741
1.141429
0.973940
0.900626
1.714826
11.724830
33.429861
96.814632
174.536705
323.988795
453.677773
614.087582
703.984499
741.524696
693.437457
549.635887
430.546999
274.524689
170.705914
76.270700
38.786530
15.997887
11.190772
15.793443
22.606850
37.929416
55.082440
78.013539
95.106959
112.533569
120.010972
116.153955
109.473467
89.924932
73.472857
50.889850
36.289692
21.152496
13.459921
7.184744
4.927516
3.841519
3.415942
3.344417
3.073812
2.957582
2.997518
3.122687
2.862811
3.071427
3.022552
2.974868
3.024936
3.029704
2.743602
2.761483
2.963543
2.739429
2.791882
2.764463
2.724528
2.839565
2.401471
2.735853
2.550483
2.642870
##ZVALUE=310
0.146627
0.206828
0.206828
0.211596
0.137687
0.200868
0.278950
0.194907
0.298619
0.173450
0.265837
0.156760
0.364780
0.163913
0.310540
0.259876
0.380874
0.315905
0.418425
0.276566
0.203848
0.392795
0.503659
0.385642
0.383854
0.355840
0.493526
0.650883
0.570416
0.466704
0.563860
0.659823
0.759959
0.725985
0.577569
1.104474
1.160502
4.993677
17.228723
58.887601
115.750432
239.310861
365.381837
542.252660
651.189685
731.121898
726.139545
637.913942
526.859760
352.835655
233.512521
116.798878
62.751770
23.602843
11.777878
9.782910
12.772679
21.749735
31.850934
48.590899
66.378713
88.019967
101.290941
111.409426
111.651421
102.170706
90.872645
68.717003
52.258968
32.829642
22.106767
12.982488
8.175969
4.907846
3.973842
3.297925
3.111959
2.858639
3.097653
2.721548
2.451539
2.784729
2.682805
2.775788
2.930760
2.728701
2.781749
2.692938
2.758503
2.643466
2.495646
2.713799
2.824664
2.558827
2.795458
2.632737
##ZVALUE=315
0.184774
0.327826
0.306964
0.325441
0.251532
0.287890
0.206828
0.198483
0.217557
0.349879
0.182986
0.173450
0.364780
0.211596
0.270605
0.213981
0.314713
0.311732
0.343919
0.369549
0.292659
0.327826
0.397563
0.374913
0.372529
0.230670
0.383854
0.549555
0.609756
0.603795
0.591874
0.536442
0.596642
0.710487
0.719428
0.772476
0.849962
0.917912
1.188517
2.283454
8.910894
36.332607
81.403852
184.904933
300.520658
485.634804
601.851940
708.130598
742.020607
682.208538
589.213967
420.483947
298.196673
159.882903
87.036490
33.243895
14.774799
8.183718
8.554459
12.152791
17.896891
30.787587
43.063760
64.258575
80.592632
97.649693
104.536414
105.124712
98.396540
81.464648
66.795945
48.321486
34.821630
20.048618
12.236834
7.187724
4.751682
3.496408
3.134608
2.801418
2.749562
2.696514
2.601743
2.805591
2.876520
2.781749
2.814531
2.930760
2.792478
2.888441
2.682805
2.768636
2.610683
2.716780
2.488494
2.733469
##ZVALUE=320
0.098944
0.403523
0.283718
0.401735
0.343919
0.194907
0.180602
0.240803
0.204444
0.224710
0.184774
0.220537
0.318885
0.371933
0.258684
0.281930
0.363588
0.307560
0.257492
0.303984
0.267625
0.366569
0.116825
0.258684
0.422597
0.488758
0.417829
0.432730
0.603795
0.487566
0.484586
0.419617
0.429749
0.557899
0.768900
0.686646
0.738502
0.740886
0.855923
0.952482
1.177788
1.329780
3.926754
21.879673
53.696632
138.001442
230.014920
385.942459
518.108010
658.824444
721.784830
718.995929
648.345947
498.093963
366.349816
205.362439
115.976930
48.852563
23.206472
9.404421
7.166862
7.750988
10.076761
16.477704
25.125742
41.017532
55.625439
74.265003
87.782741
98.494887
100.116730
92.441440
80.916882
61.653852
47.468543
30.137897
20.125508
11.680722
7.351637
4.585981
3.412962
2.963543
2.724528
2.735853
2.791882
2.598763
2.764463
2.643466
2.415776
2.538562
2.603531
2.663732
2.664924
2.807975
2.763867
2.530813
##ZVALUE=325
0.203848
0.040531
0.342727
0.044703
0.231862
0.325441
0.287890
0.081658
0.183582
0.108480
0.130534
0.257492
0.150800
0.212789
0.183582
0.135899
0.203848
0.151992
0.228882
0.255704
0.144839
0.179410
0.163913
0.364780
0.287890
0.246763
0.369549
0.457764
0.438690
0.364780
0.540614
0.436902
0.490546
0.563860
0.535846
0.507832
0.521541
0.730753
0.571609
0.797510
0.784993
0.732541
0.878572
0.951886
2.029538
12.668967
34.589767
93.505979
167.707801
309.462547
437.550545
592.100024
673.424602
708.169937
663.032532
522.849560
392.396450
231.562853
143.857598
65.930486
33.327937
11.338592
6.771684
5.960464
6.751418
9.942651
14.975667
24.929643
37.036538
55.747628
69.818497
83.706975
91.435909
92.002749
86.364746
71.582794
58.026910
41.411519
29.446483
17.550588
11.013746
6.535649
3.637671
3.395677
2.961755
2.651811
2.442598
2.565980
2.530813
2.665520
2.473593
2.533793
2.457500
2.604723
2.438426
2.654791
##ZVALUE=330
0.156760
0.075698
0.096560
0.119805
0.227690
0.185966
0.079870
0.285506
0.389814
0.368953
0.258684
0.281930
0.113845
0.211596
0.070930
0.284910
0.260472
0.272989
0.302792
0.188947
0.186563
0.252724
0.153780
0.323653
0.217557
0.161529
0.164509
0.309944
0.225902
0.275970
0.182986
0.276566
0.425577
0.426769
0.490546
0.312924
0.437498
0.452995
0.463724
0.647902
0.517964
0.490546
0.626445
0.590682
0.715852
0.848770
1.309514
4.108548
22.242665
55.187941
136.547685
230.425596
390.746593
517.026782
646.853447
702.587962
676.802993
599.654913
450.244546
327.684879
181.865692
103.182793
43.675900
20.340681
7.708669
5.722642
5.514622
6.191730
9.530783
14.501810
25.165677
34.841895
51.960945
65.328479
79.036951
85.224509
86.456537
81.520677
67.671537
55.323839
38.209558
27.546883
17.315745
11.560917
6.753802
4.813671
3.425479
2.898574
2.805591
2.586842
2.089739
2.471805
2.400875
2.343655
2.226830
2.384782
##ZVALUE=335
0.111461
0.240803
0.165701
0.155568
0.030994
0.110865
0.087619
0.041723
0.301600
0.134706
0.020862
0.103712
0.253916
0.219941
0.165701
0.288486
0.107884
0.143647
0.112653
0.190735
0.043511
0.243783
0.282526
0.226498
0.225902
0.323653
0.269413
0.332594
0.238419
0.308752
0.299811
0.250936
0.280738
0.315905
0.247955
0.275970
0.330806
0.404716
0.341535
0.186563
0.379682
0.431538
0.667572
0.526905
0.586510
0.719428
0.814795
0.787973
1.024604
2.084970
11.703968
32.123923
89.663863
161.507726
300.164819
423.637629
584.656000
655.923486
680.554509
639.873743
509.199500
383.730531
230.312943
136.542916
57.516694
26.941895
9.763837
6.059408
5.111694
4.971623
6.134510
8.305907
13.506413
20.901561
33.417940
45.350790
60.396791
72.903633
79.376698
80.536604
74.235797
65.997839
52.456856
40.712953
26.608706
18.700957
11.264682
7.394552
4.804730
3.227592
2.718568
2.454519
2.297759
2.411604
2.169609
2.331734
##ZVALUE=340
0.174642
0.181794
0.150800
0.123978
0.290871
0.126958
0.307560
0.077486
0.100732
0.108480
0.125766
0.209808
0.033975
0.199676
0.210404
0.154972
0.189543
0.199676
0.190735
0.298619
0.244975
0.249743
0.111461
0.319481
0.350475
0.118613
0.210404
0.152588
0.203848
0.324845
0.478625
0.050664
0.145435
0.242591
0.311732
0.374913
0.373721
0.238419
0.403523
0.261664
0.414848
0.480413
0.438690
0.497699
0.448823
0.650883
0.463724
0.595450
0.624657
0.698566
0.640750
1.143813
4.119873
21.992922
54.262877
136.912465
233.135819
385.454893
502.623916
625.311732
669.803619
641.590953
561.255813
414.990783
289.717913
148.647428
80.768466
32.884479
13.961792
5.899668
5.120635
4.761815
4.729629
5.791783
8.018613
13.518929
19.952655
31.703711
42.932630
58.350563
67.994595
74.961782
74.487925
70.869923
62.987804
49.174428
38.199425
25.994778
18.743873
11.011958
7.530451
4.152656
3.141761
2.635717
2.284646
2.217889
##ZVALUE=345
0.211596
0.061989
0.136495
0.130534
0.147820
0.092983
0.073910
0.089407
0.155568
0.174642
0.178814
0.325441
0.168681
0.078678
0.127554
0.147820
0.138879
0.078678
0.185966
0.260472
0.172853
0.207424
0.197887
0.153780
0.242591
0.189543
0.179410
0.228882
0.349879
0.269413
0.060797
0.354648
0.311732
0.198483
0.310540
0.232458
0.299811
0.282526
0.282526
0.338554
0.298619
0.346899
0.525713
0.318885
0.489950
0.333786
0.552535
0.418425
0.461936
0.619888
0.601411
0.810623
0.810623
0.813603
1.943707
11.718869
34.593940
95.029473
165.972710
297.296643
409.726501
545.294881
611.719489
629.200935
579.424500
451.561809
337.275863
197.388530
111.433864
44.160485
20.341873
7.893443
5.569458
4.789829
4.359484
4.479885
5.072951
7.111430
10.835528
19.246936
27.738810
41.083694
51.188469
61.120987
67.128539
68.851709
66.399574
58.166981
49.241781
27.085543
24.583936
18.131733
10.518432
7.039905
4.521608
3.530979
##ZVALUE=350
0.163913
0.224710
0.150800
0.075698
0.115633
0.169873
0.103712
0.101924
0.195503
0.057817
0.040531
0.177622
0.111461
0.087619
0.173450
0.115633
0.047684
0.264645
0.065565
0.103712
0.152588
0.039935
0.211596
0.171661
0.196695
0.168681
0.149608
0.330806
0.255704
0.019670
0.178814
0.069737
0.146627
0.239611
0.333786
0.273585
0.183582
0.285506
0.237823
0.288486
0.292659
0.273585
0.288486
0.214577
0.212789
0.382662
0.353456
0.302792
0.398755
0.376701
0.484586
0.653863
0.547767
0.619888
0.801682
0.750422
1.109838
6.160736
19.697547
60.539842
115.004778
232.060552
335.147977
468.121767
550.632477
597.603917
574.577451
478.037000
367.063880
219.765902
131.794810
58.222413
26.279688
8.808970
5.430579
4.371405
4.050732
3.932714
3.917813
4.761815
6.418824
10.985732
16.146898
24.668574
33.230782
45.817494
53.749681
61.459541
62.884688
60.459971
55.545568
44.867992
35.583973
24.583936
17.866492
11.249781
##ZVALUE=355
0.051856
0.240803
-0.023842
-0.013709
0.116825
0.180602
0.085831
0.109673
0.030994
0.099540
0.254512
0.223517
0.233650
0.125766
0.197887
0.133514
0.117421
0.074506
0.173450
0.163913
0.198483
0.082850
0.090599
0.121593
0.291467
0.165701
0.038743
0.210404
0.297427
0.234842
0.206828
0.118613
0.344515
0.316501
0.332594
0.191927
0.175834
0.204444
0.207424
0.104904
0.294447
0.323653
0.207424
0.294447
0.336766
0.475645
0.404716
0.399947
0.325441
0.478625
0.318885
0.461936
0.433922
0.537634
0.669956
0.538826
0.705719
0.674725
0.732541
2.649426
10.011792
41.102767
84.722638
178.177953
278.885961
423.491001
509.472489
574.021935
569.833517
487.971902
391.820669
262.888670
168.505907
76.323748
37.157536
11.960864
6.173849
4.377961
4.110932
3.749728
3.573895
3.636479
4.327893
5.701780
8.326769
13.989806
20.296574
30.704737
38.469434
48.543811
54.113865
57.259798
55.730939
49.868822
42.880774
33.426881
##ZVALUE=360
0.026822
0.106692
0.060797
0.075698
0.152588
0.155568
0.016689
0.095963
0.124574
0.147820
0.155568
0.236630
0.130534
0.176430
0.218749
0.145435
0.194907
0.111461
0.196695
0.115633
0.090599
0.159740
0.061989
0.015497
0.152588
0.156760
0.167489
0.264645
0.190735
0.169873
0.144839
0.148416
0.163913
0.409484
0.157952
0.219941
0.239611
0.242591
0.158548
0.284910
0.264645
0.347495
0.170469
0.199676
0.218749
0.244975
0.360608
0.294447
0.362992
0.387430
0.318885
0.453591
0.344515
0.344515
0.379682
0.493526
0.542998
0.476837
0.630617
0.657439
0.688434
1.299977
4.207492
20.478964
49.262643
125.537515
208.575726
336.113572
439.563990
535.496473
557.667017
511.552691
430.808663
296.243429
199.066997
97.611547
51.708817
19.611716
8.565784
4.399419
4.124641
3.616810
3.500581
3.130436
3.395677
3.695488
4.559755
6.885529
10.381937
16.352534
24.067760
33.620596
40.673614
48.492551
51.046610
51.366687
##ZVALUE=365
0.110865
0.169873
0.072718
0.051856
0.129938
0.076890
0.213981
0.131726
0.133514
0.112653
0.146627
0.146627
0.091791
0.103712
0.220537
0.066757
0.206828
0.040531
0.252724
0.172853
0.104904
0.158548
0.286698
0.159740
0.270605
0.192523
0.277758
0.306964
0.217557
0.111461
0.231862
0.183582
0.125766
0.200868
0.040531
0.156760
0.209808
0.390410
0.215769
0.130534
0.192523
0.256896
0.262856
0.315905
0.203848
0.284910
0.133514
0.294447
0.257492
0.374913
0.238419
0.380874
0.342727
0.230670
0.328422
0.322461
0.415444
0.427961
0.446439
0.700951
0.659823
0.664592
0.904799
0.772476
1.840591
10.899901
30.886531
84.560513
156.892538
288.708806
389.806628
498.219728
542.231798
524.050593
459.314585
336.428881
239.342451
131.966472
72.297454
26.975870
11.378527
4.719496
3.969669
3.415942
3.453493
3.036857
3.051758
2.807975
3.169775
3.790855
5.584955
9.202957
13.425946
21.287799
28.212667
36.312938
##ZVALUE=370
0.008941
0.000596
0.113845
0.036955
-0.013709
-0.020862
0.147820
0.017881
0.105500
0.162721
0.172853
0.012517
0.211596
0.170469
0.139475
0.118613
0.143647
0.060797
0.117421
0.198483
0.065565
0.107884
0.098944
0.112653
0.227690
0.171661
0.068545
0.153780
0.064969
0.196695
0.156760
0.093579
0.189543
0.072718
0.061989
0.242591
0.224710
0.262856
0.197887
0.233650
0.299811
0.187755
0.331998
0.209808
0.217557
0.303984
0.254512
0.274777
0.251532
0.230670
0.265837
0.252724
0.396967
0.233650
0.335574
0.443459
0.376701
0.452995
0.373721
0.400543
0.459552
0.582933
0.614524
0.591874
0.630617
0.726581
1.097918
5.897880
18.748641
59.980750
115.599632
225.854516
327.381492
455.665588
521.136522
531.289577
486.620665
381.619930
283.671618
161.997676
92.834830
37.738681
17.228723
6.153584
3.836751
3.387928
3.224611
2.909899
2.920628
2.670884
2.713799
2.890825
3.197789
4.713535
7.022619
11.661649
##ZVALUE=375
0.164509
0.234842
0.187755
0.188947
-0.116825
0.081658
0.055432
0.089407
0.010729
0.095963
0.206828
0.116825
0.253916
0.168681
0.170469
0.218749
0.088811
0.125766
0.110865
0.263453
0.120997
0.150800
0.101924
0.065565
0.326633
0.127554
0.099540
0.190735
0.203848
0.163913
0.349879
0.242591
0.167489
0.117421
0.285506
0.208616
0.295639
0.260472
0.146627
0.206828
0.165701
0.267625
0.173450
0.226498
0.294447
0.216961
0.356436
0.273585
0.190735
0.152588
0.246763
0.174642
0.185966
0.209808
0.294447
0.336766
0.311732
0.323653
0.264645
0.368953
0.485778
0.436902
0.440478
0.502467
0.691414
0.631809
0.654459
0.572801
0.976920
2.707839
10.009408
37.187934
79.417825
178.431869
276.710987
412.961841
490.141511
537.264943
517.309904
424.692631
328.796506
200.531483
126.903653
63.031912
31.673908
10.642409
5.201697
3.591776
3.402829
2.866983
2.823472
2.511740
2.499819
2.459884
2.409816
2.884865
##ZVALUE=380
0.094771
0.057817
-0.060797
0.009537
0.142455
0.203848
0.096560
0.054836
0.102520
0.137687
0.146627
0.102520
0.219941
0.034571
-0.117421
0.062585
0.188947
0.046492
0.104904
0.141859
0.074506
0.142455
0.105500
0.205636
0.299811
0.134706
0.224710
0.113845
0.146627
0.388622
0.271797
0.238419
0.183582
0.089407
0.297427
0.208616
0.193715
0.250936
0.111461
0.246763
0.289679
0.276566
0.163913
0.251532
0.313520
0.229478
0.409484
0.345707
0.287890
0.187755
0.242591
0.252724
0.415444
0.392795
0.267625
0.206828
0.400543
0.358820
0.362992
0.497699
0.310540
0.390410
0.398755
0.452995
0.402927
0.486970
0.495911
0.511408
0.574589
0.551939
0.767708
1.562834
5.289912
26.191473
60.954690
143.207908
229.471922
359.009504
448.986888
528.635979
530.580878
462.991595
377.621651
253.110528
169.269443
84.200501
43.381453
15.877485
7.088780
3.906488
3.110766
3.158450
2.714992
2.794862
2.478957
2.426505
##ZVALUE=385
0.093579
0.111461
0.117421
0.135899
0.355840
0.134706
0.113845
0.135899
-0.001788
0.221729
0.055432
0.233650
0.089407
0.134706
0.113845
0.064969
0.093579
0.043511
0.164509
0.218749
0.004768
0.348687
0.005960
0.215769
0.134706
0.221729
0.130534
0.123978
0.077486
0.096560
0.252724
0.084639
0.307560
0.202656
0.177622
0.271797
0.342727
0.287890
0.239611
0.257492
0.083447
0.193715
0.333786
0.310540
0.135899
0.184774
0.164509
0.204444
0.201464
0.212789
0.023842
0.281930
0.270605
0.247955
0.300407
0.177622
0.151992
0.287890
0.117421
0.205636
0.180602
0.236630
0.252724
0.451803
0.420809
0.431538
0.438690
0.515580
0.552535
0.535846
0.566840
0.535846
0.718832
0.952482
2.403855
13.271570
35.806894
99.059939
172.421932
304.721594
403.266549
500.565767
525.566936
495.496988
432.576537
316.701531
225.080848
124.320984
71.634650
30.189753
12.329817
4.154444
2.995729
2.836585
2.573729
2.727509
##ZVALUE=390
0.073910
-0.007749
0.123978
0.094771
0.144839
0.002980
-0.008941
-0.091791
0.224710
0.116825
0.196695
0.139475
0.096560
0.125766
-0.076890
0.193715
0.198483
0.248551
0.060797
0.102520
0.200868
0.011921
0.142455
0.212789
0.152588
0.110865
0.177622
0.207424
0.044703
0.309944
0.186563
0.235438
0.286698
0.172853
0.215769
0.271797
0.086427
0.094771
0.162721
0.198483
0.232458
0.219941
0.267625
0.164509
0.315905
0.129938
0.212789
0.159740
0.136495
0.150800
0.214577
0.295639
0.385642
0.322461
0.402927
0.326633
0.261664
0.159740
0.061989
0.313520
0.069737
0.288486
0.327826
0.221729
0.320673
0.305772
0.371933
0.368953
0.532866
0.548959
0.673532
0.505447
0.600815
0.692606
0.700951
0.702739
1.245737
6.925464
21.690726
69.092512
131.459832
250.121951
343.002677
448.536873
506.326556
522.882938
481.830835
381.058455
289.473534
175.021887
102.367997
43.764710
20.112991
6.403923
3.583431
2.926588
##ZVALUE=395
0.157952
0.009537
0.177622
0.158548
0.069737
0.131726
0.020862
0.133514
0.055432
0.038743
0.095963
0.037551
0.003576
0.001788
0.039935
-0.005960
-0.010729
-0.051856
0.030994
0.077486
0.097752
-0.004768
0.158548
0.046492
0.177622
-0.104904
0.061989
0.182986
0.106692
0.108480
0.009537
0.084639
0.153780
0.114441
0.232458
0.205636
0.137687
0.368953
0.295639
0.161529
0.137687
0.273585
0.207424
0.343919
0.267625
0.223517
0.390410
0.156760
0.371933
0.257492
0.100732
0.236630
0.134706
0.143647
0.240803
0.123978
0.192523
0.052452
0.295639
0.348687
0.231862
0.184774
0.391603
0.256896
0.446439
0.277758
0.241995
0.322461
0.347495
0.454783
0.466704
0.453591
0.505447
0.569820
0.480413
0.605583
0.569820
0.544786
0.767708
3.655553
13.686419
49.153566
97.649693
195.510983
286.518931
417.130589
493.773818
540.331602
526.852012
446.971655
350.895524
217.689872
136.237741
64.192414
30.830503
10.454655
##ZVALUE=400
0.230670
0.265837
0.177622
0.199676
-0.014901
0.200868
0.119805
0.235438
0.215769
0.150800
0.084639
0.152588
0.125766
0.147820
0.068545
0.086427
0.022650
0.248551
0.121593
0.075698
0.148416
0.193715
0.223517
0.108480
-0.042915
0.100732
0.091791
0.247955
0.052452
0.192523
0.214577
0.248551
0.163913
0.055432
0.139475
0.188947
0.100732
0.282526
0.296831
0.347495
0.248551
0.293851
0.297427
0.387430
0.319481
0.277758
0.263453
0.362992
0.260472
0.178814
0.192523
0.252724
0.304580
0.240803
0.162721
0.130534
0.231862
0.256896
0.300407
0.406504
0.206828
0.321865
0.397563
0.212789
0.320673
0.205636
0.285506
0.388622
0.555515
0.494719
0.456572
0.376701
0.589490
0.394583
0.561476
0.476837
0.440478
0.494719
0.625849
0.802875
0.797510
2.272725
7.764697
28.779507
62.609911
143.125653
227.923989
354.723930
443.169475
517.230630
529.270768
465.736985
384.195447
253.398418
166.557431
83.576441
##END
