##TITLE=FDDW2
##FORMAT=SPECTACLE-ASCII V-1.2
##DATA TYPE=ULTRAVIOLET SPECTRUM
##SECOND TYPE=ULTRAVIOLET SPECTRUM
##DATE=01/09/18
##TIME=15:48:39
##SPECTROMETER/DATA SYSTEM=SPECTACLE
##XUNITS=NM EM
##YUNITS=ENERGY
##YFACTOR=1
##FIRSTX=220
##LASTX=410
##NPOINTS=96
##3DDATA=Equidistant
##ZUNITS=NM EX
##FIRSTZ=210
##LASTZ=400
##ZPOINTS=39
##XYDATA=(Y..Y)
##ZVALUE=210
13.063550
12.817979
13.427734
11.351705
9.887815
9.971857
8.686781
8.218884
5.925894
5.621910
3.841519
3.042817
1.927614
2.123713
2.665520
2.059937
1.569986
1.617670
2.638698
2.503991
2.352595
2.607703
3.122687
3.641844
4.870892
8.074641
10.567904
16.871691
20.648837
27.667880
31.852722
37.723780
42.600632
46.801567
47.790408
49.012899
49.674511
50.966740
47.813654
45.299530
44.987798
40.512681
40.048957
35.951734
33.314824
29.846430
30.416846
26.371479
24.365783
22.151470
21.214485
19.437671
18.475652
17.231703
15.343428
13.293624
13.184547
11.720657
12.646914
10.902882
10.118484
9.393692
9.472966
9.528995
8.006692
8.032918
7.911921
7.830858
6.109476
7.556677
7.234812
8.013844
8.317828
8.219481
8.840561
7.730722
9.352565
7.687807
7.685423
6.680489
6.732941
6.435513
5.183816
4.097819
4.574656
3.883839
4.234910
4.406571
4.534721
6.387830
6.733537
8.400679
11.432767
14.644861
16.831756
23.368597
##ZVALUE=215
30.027628
29.899478
28.429627
21.692514
18.359423
17.435551
17.979741
15.717745
14.198422
12.138486
11.347532
8.661747
6.531477
5.451441
3.882647
2.892613
2.116561
1.866817
2.179742
2.614856
2.862811
2.183914
3.421903
4.218817
7.709861
8.981824
12.358427
20.685792
25.267601
34.007430
38.560629
47.691464
50.320625
56.068897
57.251453
59.468746
58.600903
57.821870
56.647658
52.879453
53.548813
50.025582
45.707822
43.456554
40.269494
37.770867
34.478903
32.509565
28.072000
26.729703
25.787950
23.532510
20.447969
20.023584
17.404556
16.542673
15.623569
14.015436
13.331771
13.513565
11.007786
10.968447
10.106564
9.774566
9.456873
8.319616
8.344650
9.278655
8.276701
8.195639
7.982850
8.537769
8.026958
8.881688
7.815957
8.240938
8.709431
8.615851
8.198619
7.391572
6.426573
6.642938
6.121993
5.373955
5.711913
4.227757
4.867911
5.346537
4.402995
4.755855
4.205704
3.932714
4.817843
5.765557
6.200671
8.696914
##ZVALUE=220
63.227415
65.147877
60.104728
58.627725
48.652887
38.926601
32.696724
26.801825
27.497411
26.205778
24.884939
24.037957
21.324754
19.402504
14.581680
9.458661
6.123781
4.433990
3.664494
2.410412
2.700686
2.410412
4.014969
4.861951
7.034540
11.458993
15.276670
22.525787
30.146837
39.553642
47.235489
53.172708
64.003468
69.116950
70.334673
73.806643
72.154999
69.432855
68.613887
67.278743
63.425899
60.628653
57.029724
51.976442
45.974851
43.255687
41.845441
35.562515
37.196875
30.030608
29.520988
28.793812
22.472739
22.663474
20.773411
19.575953
17.010570
17.736554
14.610887
13.542771
12.942553
12.972951
12.257695
11.971593
9.942651
9.785891
9.597540
9.545684
9.776950
10.027885
9.288788
8.490682
9.227991
9.556413
9.825826
9.926558
7.655621
8.504987
8.444786
7.983446
7.077456
7.300973
6.739497
6.418824
5.489588
5.629659
5.178452
6.061792
4.968643
4.796982
3.965497
5.029440
5.136728
4.739761
4.464984
3.959537
##ZVALUE=225
85.816979
85.973740
100.515485
108.509660
112.050772
101.395845
85.105896
61.566830
50.951838
45.604706
39.225817
38.197637
40.359497
40.423870
38.262606
33.168793
27.431846
19.580722
13.631582
10.545850
6.553531
3.997684
3.831983
5.351901
6.766915
10.699630
14.563799
21.731853
28.035641
34.216642
41.415691
50.144792
54.983497
61.463714
63.069463
65.139532
65.589547
65.840483
62.806606
59.696436
58.040619
56.003928
55.418611
46.793818
43.918490
41.803718
39.130449
35.701990
31.906962
29.104948
29.360652
27.591586
23.881793
22.850633
20.407438
19.602776
18.712878
17.493963
16.279817
16.647577
15.495420
13.881922
13.481975
13.018847
12.168884
11.332631
11.457801
10.922551
10.255575
9.918809
11.129975
11.303425
11.048913
11.030436
10.727644
10.851622
8.521676
9.606481
9.658933
10.039806
8.188486
7.845759
8.248687
7.176995
6.679893
6.339550
6.106496
5.936623
5.801916
5.489588
5.312562
5.348921
5.533695
5.260706
5.367994
5.465746
##ZVALUE=230
53.770542
61.040521
87.720752
129.577518
160.749555
180.127621
183.076859
176.490545
152.281523
115.268826
92.338920
69.278479
60.307980
57.660937
59.654713
65.294504
62.665939
59.134960
48.480630
42.418838
28.188825
18.491745
11.725426
7.547736
6.348491
8.268952
9.487867
15.317798
17.009974
24.367571
26.727915
32.379627
35.017729
38.293600
39.113760
41.460991
43.599606
42.656660
40.287971
40.409565
39.413571
36.533475
36.023855
33.708811
31.088591
30.243993
28.013587
28.297901
23.369789
24.275780
21.504760
20.603538
21.754503
18.671751
20.020604
17.475486
16.025901
17.791986
15.211701
14.699697
13.968945
13.798475
13.946891
12.778640
12.718439
11.551976
12.068748
10.845661
12.831688
12.345910
10.902882
11.119843
11.240840
12.325644
10.763407
10.691881
11.240840
10.159612
10.669827
8.871555
8.617640
8.915663
8.327961
8.603930
8.559823
6.768703
7.342696
7.159710
7.330775
7.391572
6.796718
5.903840
6.273985
6.724000
6.394982
6.537437
##ZVALUE=235
14.870763
18.244982
38.289428
76.037645
123.148561
181.721449
231.552720
283.902884
295.825005
292.115808
251.119733
201.538801
139.267445
107.304454
83.772540
78.130960
80.663562
87.532997
90.370774
89.725852
85.911751
69.524646
54.882765
37.899613
25.958419
14.796853
11.928678
9.704828
10.429621
13.139844
13.481975
16.244650
18.020868
19.720793
19.912720
21.234751
22.088885
23.006797
23.281574
24.390817
22.041798
23.110509
22.753477
21.721721
19.221902
17.707944
17.948747
19.769669
18.521547
17.067790
17.120838
17.902851
16.461611
15.835762
14.389753
14.918447
15.112758
14.338493
15.239716
15.348792
13.715625
13.758540
13.997555
13.015866
13.548732
11.282563
12.738705
10.869503
12.437701
11.943579
12.849569
11.275411
11.786819
13.183951
11.979938
12.286901
13.466477
11.228919
12.127757
10.787845
10.335445
10.382533
10.430813
8.920431
9.617805
9.457469
8.457899
8.344650
8.577704
7.101893
8.067489
8.245707
7.948875
9.087920
7.636547
8.277893
##ZVALUE=240
1.713634
2.070665
6.491542
16.046762
43.654442
73.545575
139.789581
206.611753
304.972529
356.195569
397.729874
397.948623
362.706780
287.363529
222.173929
154.216886
120.769739
93.454719
94.537735
106.447935
112.472773
123.702884
116.026998
109.947920
83.029866
67.118406
44.954419
32.614470
19.695759
13.729930
11.620522
11.248589
12.183785
12.921691
13.875961
13.753772
15.068650
17.260909
17.262697
16.130805
17.200708
18.104911
17.242432
19.123554
17.557740
17.513633
18.205643
16.034842
16.199946
16.916990
16.131997
15.020967
14.571548
14.272928
15.464425
13.877749
13.507605
13.998747
13.193488
12.741685
13.469458
11.828542
11.970997
12.892485
12.328625
11.731982
11.451840
11.961460
11.102557
11.866689
12.105703
12.149811
12.097955
12.830496
12.750626
13.387799
11.862516
11.567473
11.154413
11.646748
11.444688
9.701848
10.570884
9.437799
10.014772
10.104775
8.613467
9.736419
8.571744
9.621978
9.739995
8.609891
9.617805
9.126663
9.254813
9.113550
##ZVALUE=245
1.355410
1.414418
1.287460
1.569986
3.686547
10.004640
30.137897
65.538883
135.719776
206.816792
316.215754
392.125845
437.690616
466.343760
435.946584
362.945795
293.828845
205.736756
151.554942
103.796721
93.676448
100.144744
114.624500
130.446553
132.218599
130.466819
113.354921
98.595619
74.223876
57.213902
39.978623
27.473569
20.150542
15.983582
14.186502
16.027689
16.478896
17.219782
18.867850
18.543601
18.024445
18.531680
18.982887
18.523932
19.288659
18.096566
18.666983
17.885566
17.097592
14.757514
16.829967
16.448498
14.739633
13.293624
14.163852
13.209581
12.585521
12.906790
12.761950
12.018681
11.652708
11.059642
11.030436
10.574460
10.123849
10.713935
10.557771
10.342598
9.910464
10.893941
10.587573
11.067986
11.761785
10.862947
10.812879
11.139512
11.661649
11.030436
10.377765
11.313558
9.619594
8.801818
9.509921
8.088946
8.964539
8.420944
9.699464
8.843541
8.519888
8.767843
8.304715
8.189678
7.015467
8.111000
8.127689
7.936954
##ZVALUE=250
0.972748
0.998974
1.160502
1.114607
1.260638
1.561642
2.237558
5.367994
21.664500
50.628781
121.720433
191.094875
281.085968
395.543575
465.036631
517.911911
507.418513
455.737710
382.707715
263.744593
190.578699
129.993558
90.356469
90.173483
106.435418
120.012760
138.777494
143.038630
141.396523
130.398870
116.552711
91.472864
69.671869
48.783422
37.992001
28.527975
27.084947
24.055839
24.939775
24.327636
23.832917
23.724437
23.588538
23.059845
24.293661
22.304654
22.364855
20.501614
20.547509
19.562840
18.215775
17.212629
16.360879
15.710592
14.485717
14.684796
13.765693
13.115406
13.609529
12.210608
12.847781
11.582971
11.346936
10.704994
10.717511
10.432601
9.983778
9.449720
9.537935
9.371638
9.449720
10.721684
9.366870
10.385513
10.198951
10.474920
9.746552
9.900928
8.154511
8.596778
8.878708
8.412600
8.323789
8.874536
7.695556
7.343888
7.513762
6.874800
7.825494
7.432699
7.401705
7.378459
7.485747
7.266998
7.580519
7.035732
##ZVALUE=255
1.045465
0.863671
1.354814
1.270771
1.070499
0.980496
1.127720
1.515746
1.452565
2.897978
14.936924
35.356879
76.817870
161.405802
249.948502
381.780863
468.025804
555.037856
569.733977
532.530546
460.073948
366.987586
233.642459
153.708458
95.868707
83.038807
90.380907
109.394789
135.827661
154.772997
164.133906
166.979432
151.863694
127.799511
109.691620
79.668760
64.415932
48.406720
41.212440
36.843419
32.811761
33.903718
33.560991
30.269623
30.667782
29.101968
27.326941
25.201440
24.737716
22.454858
21.188855
20.310879
19.446611
17.873645
17.332435
16.461611
16.303658
14.544725
15.014410
12.974739
12.980700
12.290478
11.496544
11.277795
10.618567
10.174513
10.483861
9.916425
9.306669
9.547472
9.388924
9.059906
9.331703
9.185672
9.462833
8.852482
9.254813
9.022951
8.027554
8.190870
6.976724
7.880926
7.466674
7.436872
7.183552
7.177591
7.091761
6.265640
6.786585
7.159710
7.248521
7.111430
6.873608
6.690621
6.468892
6.284714
##ZVALUE=260
0.745654
0.794530
0.822544
1.180768
0.965595
1.079440
0.833869
0.886917
1.137853
0.995994
1.511574
1.806617
4.942417
23.351908
50.760508
124.654770
205.846429
340.547562
443.013906
573.198795
626.668930
628.783703
549.880862
453.437567
303.544402
213.906765
132.095814
96.620917
85.843801
100.500584
121.959448
156.911612
177.778006
190.571547
188.985467
174.690485
155.050755
124.062896
102.037787
76.118708
63.513517
50.677657
44.036508
42.385459
39.969683
37.407875
35.165548
32.274723
30.788779
28.459430
27.747750
24.994612
23.836493
22.057891
20.701885
18.486977
18.513799
16.395450
16.576648
15.222430
14.322996
13.150573
12.990832
11.407733
12.189746
11.004806
10.264516
10.122657
9.657741
9.444952
9.650588
10.151863
9.878874
9.319782
8.899570
8.583665
8.700490
7.637739
8.276701
8.430481
7.606745
7.045865
7.617474
7.140636
7.244945
6.534457
6.462932
6.067753
7.115602
6.569624
6.223917
6.070733
5.856752
6.172657
6.459951
6.511807
##ZVALUE=265
0.749826
0.761747
0.777841
0.613928
0.896454
0.880957
0.782609
1.101494
0.952482
0.794530
1.046658
1.003742
1.171827
1.265407
2.737641
14.358759
37.035942
95.093846
169.765949
312.758684
432.239771
544.568896
664.839745
677.292943
615.592003
533.865690
403.831005
294.421911
180.798769
125.414729
101.515651
100.006461
120.268464
156.676769
178.076625
201.447606
207.690597
202.485919
187.695622
157.568455
135.319829
103.768706
84.112883
61.550736
52.990913
44.581890
41.463971
36.928654
36.004782
33.527613
30.274987
28.335452
25.881529
24.487972
22.974610
20.851493
20.488501
17.967820
16.784668
15.901923
14.646649
13.624430
13.133883
12.420416
11.983514
11.666417
10.896921
10.700822
9.761453
9.865761
9.597540
9.142756
9.283423
9.331703
8.697510
9.131432
8.672476
8.205771
8.230805
7.826686
7.250905
7.179976
7.022619
6.951690
6.104708
6.631613
5.995631
6.698966
5.958676
6.857514
5.995631
6.073713
6.153584
5.940795
5.748868
5.576611
##ZVALUE=270
0.647902
0.554919
0.743866
0.622869
0.680685
0.728965
0.742674
0.645518
0.807643
1.001954
0.964999
0.802875
1.070499
1.016855
0.849962
1.235604
1.640916
6.653666
20.390749
65.609813
131.574869
230.900645
398.455858
525.826812
660.602450
709.706545
700.111985
633.963943
500.559807
391.389728
322.095752
176.049471
125.343800
100.551844
105.971694
134.097934
160.342455
186.124444
203.101635
206.617713
203.851461
183.178782
158.173442
124.176741
101.496577
73.828697
59.277415
45.898557
39.283633
34.343600
31.508803
28.368831
27.803779
25.018454
23.268461
21.148920
20.101666
18.727779
17.909408
15.435815
15.106797
14.111996
13.709664
12.705922
12.016892
11.689663
11.074543
10.411739
10.535717
10.046959
9.735823
9.761453
9.378791
8.856654
8.896589
8.695722
8.294582
7.996559
8.103848
7.497668
7.330775
6.839633
7.007718
6.445646
6.688833
6.781816
6.465912
6.208420
6.017685
6.551743
5.884767
5.790591
5.700588
5.914569
5.891919
5.380511
##ZVALUE=275
0.644922
0.655651
0.633597
0.758767
0.697970
0.642538
0.746846
0.570416
0.844598
0.709891
0.812411
0.694990
0.764728
0.967979
0.745654
0.822544
0.948906
1.199841
1.037717
3.199577
11.668801
33.529401
101.776719
187.129974
351.156592
475.745797
619.036555
704.644918
744.441748
708.654523
633.631945
480.946898
356.775522
208.297968
138.322711
91.555715
84.386468
97.208619
119.119883
149.134994
168.690681
187.245607
191.460848
183.471441
165.011883
136.749744
112.642646
85.334778
66.446662
45.956969
35.631657
28.073788
25.432706
21.846890
20.106435
18.882751
17.825961
17.363429
15.935898
14.474988
14.668703
12.930632
12.676716
12.103915
11.763573
11.207461
10.705590
10.193586
9.726882
9.428859
9.825826
9.480715
9.348989
9.188652
9.005666
8.485913
8.624792
8.821487
7.979870
7.549524
7.161498
7.134676
6.972551
6.793737
6.901622
6.750822
6.480813
6.650686
6.527901
5.742908
6.067753
6.001592
6.003976
6.018877
5.888939
5.708933
##ZVALUE=280
0.501871
0.397563
0.469685
0.436902
0.465512
0.614524
0.617504
0.623465
0.438690
0.508428
0.508428
0.762939
0.811815
0.757575
0.801682
0.739694
0.883937
0.765920
0.682473
1.109838
1.232624
1.414418
7.324815
24.765730
79.394579
147.952437
271.045566
399.156809
567.422509
668.380857
735.445023
730.483532
664.912462
518.351793
390.978456
236.713886
153.254867
85.229874
60.865879
58.594942
72.786808
100.115538
122.356415
148.134828
162.211657
166.875720
163.468719
142.588615
125.722885
93.857646
72.946548
49.854517
36.741495
23.603439
19.020438
15.391707
14.028549
13.566613
12.287498
12.042522
11.567473
11.444688
10.905862
10.569692
9.845495
9.719729
9.520650
9.050965
9.031892
8.744597
8.686781
8.902550
8.787513
8.349419
8.405447
8.178949
7.738471
7.633567
7.926822
7.223487
7.109642
7.368922
6.660819
6.419420
6.708503
6.180406
6.268620
6.351471
5.853772
6.086826
6.009936
6.027818
5.834699
6.104708
6.022453
5.488992
##ZVALUE=285
0.335574
0.464916
0.302792
0.560880
0.413656
0.304580
0.641942
0.639558
0.550747
0.512600
0.638962
0.553727
0.551939
0.469685
0.537634
0.533462
0.647902
0.758767
0.649691
0.804663
0.915527
0.890493
1.002550
1.145601
3.328919
11.600852
42.091608
91.049671
199.775696
308.995843
470.064878
592.260957
689.705014
737.527609
700.227618
578.010678
458.650589
295.294523
189.100504
96.836686
57.454705
37.172437
40.028691
59.530735
80.575943
108.378530
126.700401
147.138834
154.688954
148.793459
137.901902
113.494992
90.968609
63.167810
45.168996
27.168989
19.018650
12.945533
10.671616
9.504557
9.341836
8.644462
8.730888
8.762479
8.500814
8.534789
8.621812
8.186698
8.224845
8.308887
7.924438
7.710457
7.804632
7.967949
7.631779
7.732511
7.379651
7.430911
7.598996
7.071495
6.672740
6.702542
6.784797
6.624460
6.262660
6.206632
6.616712
6.041527
6.181598
6.162524
5.970597
5.854964
5.760789
5.721450
5.647540
5.781651
##ZVALUE=290
0.509620
0.600815
0.507832
0.407696
0.465512
0.449419
0.483990
0.528693
0.531673
0.631809
0.567436
0.522733
0.528693
0.778437
0.708699
0.704527
0.735521
0.917912
0.740886
0.650883
0.713468
0.856519
0.766516
1.147985
1.177788
1.139641
1.757741
4.951954
23.750663
56.202412
68.190694
232.452750
358.344913
538.969636
649.012923
730.001926
716.323853
623.343587
512.847900
347.024798
232.721567
119.712949
65.243840
30.240417
26.022792
35.238862
50.244927
74.263811
94.897747
120.407939
136.743784
144.845843
143.219829
127.763748
109.522939
82.299709
61.805844
40.375590
27.978420
16.635656
12.033582
8.735657
8.091927
7.752776
7.476807
7.475615
7.248521
7.443428
7.426739
7.390976
7.229447
7.584691
7.552505
7.860661
7.231832
7.489920
7.150769
6.946921
6.928444
7.351637
6.795526
6.785989
6.596446
6.949902
6.789565
6.336570
6.567836
6.341934
6.498694
6.493926
6.481409
6.221533
6.249547
6.271601
6.067753
5.881786
##ZVALUE=295
0.424981
0.329614
0.375509
0.491738
0.398755
0.361800
0.418425
0.386834
0.355840
0.485778
0.504851
0.513792
0.626445
0.442863
0.514984
0.523925
0.523925
0.595450
0.659823
0.539422
0.660419
0.622869
0.849962
0.418425
0.866652
0.836849
0.906587
1.045465
1.128912
2.052784
10.834932
32.745600
77.279806
183.148980
298.932791
472.228527
588.178635
696.543455
723.536015
670.174956
569.794774
413.891673
291.508436
161.016583
92.848539
39.037466
23.586750
21.169782
29.039979
46.435595
63.410997
90.279579
110.451579
129.330754
136.571527
134.650469
123.452544
102.273822
82.135797
57.153702
40.786862
24.551749
16.777515
10.595918
7.984638
7.008910
6.559491
6.336570
6.275773
6.239414
6.384850
6.649494
6.866455
7.017851
6.737709
6.899834
7.023811
6.294847
6.817579
6.511807
6.477833
6.515980
6.361604
6.069541
6.397963
6.276965
6.335974
6.296635
6.253719
6.262660
6.353855
5.902648
5.972981
6.251931
6.010532
6.211996
##ZVALUE=300
0.427961
0.311732
0.533462
0.240803
0.387430
0.356436
0.385642
0.353456
0.420809
0.521541
0.341535
0.492930
0.318885
0.346899
0.487566
0.394583
0.395775
0.338554
0.491738
0.493526
0.562668
0.591874
0.656843
0.833869
0.797510
0.868440
0.841618
0.773668
0.877976
0.937581
1.070499
1.267791
3.173947
19.267797
48.903823
127.941966
220.717788
383.465886
506.781936
644.852519
704.808831
689.395666
619.820952
472.626686
345.975757
192.427635
117.913485
54.836869
28.339624
15.447736
17.077923
26.527643
38.679838
59.125423
79.697967
105.169415
119.835734
129.128695
127.789974
116.293430
101.444721
76.451898
58.382750
39.152503
26.480556
15.149713
10.590553
7.394552
6.287694
5.914569
5.751848
5.981922
6.017685
6.056428
6.608963
6.103516
6.424785
6.269813
6.171465
6.232858
6.486773
6.262660
6.284714
6.378889
6.209612
6.302595
6.328821
6.401539
6.313920
5.897880
6.099939
5.828738
6.054640
5.859733
5.818605
5.986691
##ZVALUE=305
0.325441
0.452995
0.361800
0.320673
0.255704
0.350475
0.372529
0.396967
0.348687
0.253916
0.445843
0.410676
0.322461
0.509620
0.481606
0.361800
0.463724
0.400543
0.448823
0.275970
0.547767
0.341535
0.367761
0.495911
0.611544
0.551939
0.638962
0.696778
0.792742
0.625849
0.815988
0.825524
0.962615
1.048446
2.106428
11.367798
32.100677
92.413425
168.329477
311.976671
435.120463
586.179495
672.801733
694.859028
644.268990
515.438914
397.383571
248.780847
156.105757
73.292851
37.246943
15.426874
11.786819
15.898943
23.312569
39.315820
55.695772
78.498721
96.420646
114.056468
121.725798
120.441914
111.803412
93.946457
76.471567
52.502751
37.484765
23.455620
15.530586
9.540915
7.191896
5.959868
5.927682
5.896688
5.880594
5.706549
5.838871
5.670786
6.131530
6.007552
6.036758
6.225705
6.022453
6.194711
6.227493
5.963445
6.246567
6.314516
6.448627
5.902648
6.038547
5.637407
5.999804
5.966425
5.850792
5.706549
##ZVALUE=310
0.250936
0.414848
0.261664
0.372529
0.282526
0.329614
0.269413
0.289679
0.383854
0.279546
0.199676
0.366569
0.382662
0.326633
0.372529
0.445843
0.375509
0.421405
0.346899
0.312924
0.412464
0.373721
0.331998
0.538826
0.410676
0.490546
0.570416
0.671744
0.564456
0.692606
0.733733
0.653863
0.742674
0.736713
0.988841
0.973940
1.420975
4.339814
15.639663
54.534674
110.062957
230.475664
347.481966
510.753989
613.440871
682.416558
669.986606
586.229563
481.090546
320.987701
214.068890
108.112693
58.595538
22.757649
11.836886
10.372996
13.435483
21.226406
31.597614
51.394701
67.983866
89.705586
103.308558
113.531947
115.306973
106.328726
93.966722
71.008801
54.010749
36.052465
24.907589
15.407801
9.957552
7.177591
6.067753
5.702972
5.476475
5.514622
5.405545
5.625486
5.820990
5.836487
5.615950
5.877614
5.979538
5.880594
6.221533
6.008744
6.154776
6.179810
5.926490
5.787611
6.056428
5.784631
5.636811
5.617738
##ZVALUE=315
0.224710
0.465512
0.305772
0.188947
0.254512
0.231862
0.413656
0.258684
0.348687
0.363588
0.426769
0.390410
0.291467
0.307560
0.418425
0.295639
0.356436
0.267625
0.421405
0.496507
0.401735
0.311732
0.334978
0.384450
0.427961
0.455976
0.564456
0.579953
0.648499
0.519753
0.519753
0.765920
0.681877
0.730753
0.818968
0.812411
0.940561
0.851750
1.059771
2.146959
7.614493
34.126639
78.383684
181.451440
287.257433
454.214811
558.682680
657.307506
679.422617
624.035001
531.906486
380.311608
267.765522
142.254829
78.072548
30.235648
14.143586
8.342862
8.718967
13.186932
18.489957
31.254888
43.423772
64.269900
80.123544
97.518563
106.014609
107.851624
100.269914
85.021853
69.981813
50.248504
36.660433
22.193789
14.986992
8.937716
7.015467
5.701780
5.348921
5.451441
5.340576
5.356669
5.326867
5.323887
5.570650
5.894899
5.816817
5.734563
5.486608
5.741715
5.768538
5.802512
5.799532
5.477667
5.544424
5.450845
##ZVALUE=320
0.331998
0.214577
0.290871
0.293851
0.246763
0.305772
0.213981
0.262856
0.278950
0.288486
0.298619
0.305772
0.334978
0.229478
0.303984
0.415444
0.353456
0.169873
0.285506
0.283718
0.177622
0.342727
0.358820
0.387430
0.570416
0.425577
0.439882
0.433922
0.701547
0.575781
0.603795
0.516772
0.669956
0.417829
0.554919
0.619888
0.762939
0.694990
0.965595
0.944734
0.813603
1.259446
3.301501
19.465685
49.184561
126.428604
212.711692
358.381867
473.986864
601.966977
658.210516
645.325780
580.051541
442.349911
324.012637
181.856751
104.968548
45.909882
22.024512
9.327531
7.280707
8.152723
10.314584
16.692877
24.935603
41.601658
56.279898
75.446963
89.604855
100.438595
102.284551
95.765591
84.871650
64.490438
50.106645
32.807589
23.010969
14.176965
9.840727
6.943941
5.844831
5.460978
5.181432
5.408525
5.511642
5.319715
5.513430
5.424619
5.643964
5.716681
5.447865
5.506873
5.631447
5.532503
5.457997
5.529523
##ZVALUE=325
0.260472
0.216961
0.267625
0.136495
0.275970
0.178814
0.213981
0.202656
0.211596
0.318885
0.384450
0.307560
0.385642
0.371933
0.439882
0.304580
0.338554
0.166893
0.260472
0.379682
0.198483
0.332594
0.424981
0.186563
0.396967
0.402927
0.435710
0.415444
0.426769
0.346899
0.519753
0.408888
0.607967
0.573993
0.534654
0.605583
0.737906
0.611544
0.704527
0.853539
0.921488
0.822544
0.773668
0.969768
1.923442
11.759996
32.849908
89.263916
161.191821
305.329561
423.460603
562.855005
633.250475
649.482608
600.574017
472.620726
357.737541
220.896602
135.716796
60.001612
30.173659
11.564493
7.216930
6.308556
7.196665
10.707974
15.413761
26.086569
38.452744
57.044625
70.718527
85.777640
92.871785
94.544888
89.784861
74.630976
61.810613
44.201612
32.110810
19.650459
13.642907
8.775592
6.895661
5.870461
5.489588
5.365610
5.492568
5.325675
5.082488
5.333424
5.201697
5.317926
5.337596
5.058646
5.256534
5.306602
##ZVALUE=330
0.291467
0.093579
0.383854
0.292659
0.231862
0.061989
0.277758
0.187755
0.231862
0.289679
0.298619
0.312924
0.253916
0.319481
0.398755
0.254512
0.265837
0.434518
0.256896
0.159740
0.161529
0.098944
0.370741
0.444651
0.381470
0.432730
0.276566
0.290871
0.322461
0.374913
0.323653
0.477433
0.438690
0.490546
0.429749
0.488758
0.604987
0.740886
0.661612
0.667572
0.659823
0.851750
0.849962
0.888705
0.973940
1.187921
1.551509
6.937981
25.293827
91.081858
178.155899
344.356894
480.697751
647.009015
722.520947
729.957819
670.408010
534.881949
414.523482
261.356831
166.825652
78.999996
41.039586
16.291738
8.656979
6.053448
6.031990
7.112622
9.324551
16.046762
23.065805
36.694407
49.528480
68.539977
79.025626
88.654757
88.595748
83.165765
71.830750
55.400729
43.029785
27.935505
20.381808
13.197660
9.436607
6.929636
5.833507
5.321503
4.994869
5.015731
5.038977
5.213618
5.030632
4.910827
4.921556
5.038977
##ZVALUE=335
0.152588
0.104904
0.248551
0.177622
0.283718
0.398755
0.340939
0.297427
0.288486
0.273585
0.279546
0.162721
0.256896
0.158548
0.087619
0.238419
0.188947
0.309944
0.345707
0.317693
0.335574
0.352859
0.362992
0.276566
0.235438
0.239611
0.355840
0.388622
0.190735
0.260472
0.389814
0.467896
0.457764
0.496507
0.436902
0.406504
0.450611
0.497699
0.505447
0.625849
0.537634
0.436902
0.585914
0.683665
0.737906
0.625849
0.606775
0.758767
0.998974
2.329946
8.418560
34.121871
72.956681
165.526867
267.513990
421.939492
523.820519
601.768494
606.445670
536.388755
447.724462
303.949714
204.164982
105.425715
57.205558
22.175908
10.461807
6.091595
5.487800
5.970597
6.621480
9.185672
12.959838
22.964478
33.232570
49.735904
61.977506
75.661540
81.166625
81.782937
77.736974
65.701604
54.682493
40.379763
30.149817
19.726753
14.005899
9.135604
7.092953
5.814433
5.380511
5.072951
4.948974
4.689693
4.780889
4.788637
##ZVALUE=340
0.086427
0.196695
0.310540
0.224710
0.258684
0.115633
0.170469
0.347495
0.101924
0.251532
0.167489
0.242591
0.240803
0.282526
0.164509
0.531673
0.326633
0.203848
0.184774
0.211596
0.208616
0.368953
0.224710
0.287890
0.214577
0.350475
0.382662
0.274777
0.369549
0.252724
0.241995
0.347495
0.296831
0.405908
0.358820
0.448823
0.492930
0.524521
0.398755
0.426769
0.427961
0.528693
0.546575
0.544786
0.456572
0.462532
0.504851
0.814795
0.667572
0.809431
0.743866
1.263618
3.554821
19.318461
48.675537
123.922825
212.697983
353.087783
455.277562
555.239916
593.532920
562.018752
488.121510
358.837843
248.188972
128.848553
71.590543
30.245781
13.485551
6.402731
5.450845
5.293489
5.211830
6.303787
8.774996
13.827682
20.628572
32.904744
44.559836
60.050488
69.625974
77.409744
77.223778
72.851777
65.215826
52.244663
41.208863
28.480887
20.542741
13.571978
9.715557
6.589890
5.779862
4.874468
4.677773
4.826784
##ZVALUE=345
0.110865
0.308752
0.258684
0.244975
0.367761
0.243783
0.213981
0.271797
0.213981
0.153780
0.079870
0.211596
0.154972
0.213981
0.072718
0.348687
0.275970
0.276566
0.280738
0.127554
0.281930
0.311732
0.278950
0.229478
0.217557
0.208616
0.190735
0.270605
0.278950
0.308752
0.268817
0.190735
0.309944
0.404716
0.417829
0.408888
0.455976
0.175834
0.462532
0.437498
0.410676
0.327826
0.395775
0.550747
0.536442
0.377893
0.477433
0.595450
0.386834
0.550747
0.578761
0.592470
0.769496
1.014471
1.768470
10.421872
29.615760
79.955459
145.072937
266.097784
367.510915
491.197705
551.698804
560.230017
516.920686
399.555564
296.059847
173.423886
99.014640
39.090514
18.675923
8.135438
5.704761
5.105734
5.131960
5.135536
5.482435
8.246899
11.595488
19.858479
28.634667
42.376518
52.722692
64.432621
68.008900
71.226954
68.141818
60.016513
50.845742
39.359927
29.585958
19.387603
14.014840
9.521842
7.039905
5.475879
##ZVALUE=350
0.137687
0.272989
0.149608
0.231862
0.181794
0.119805
0.255704
0.059605
0.125766
0.306964
0.254512
0.283718
0.247955
0.374913
0.243783
0.147820
0.082850
0.170469
0.214577
0.178814
0.358820
0.335574
0.135899
0.168681
0.229478
0.239611
0.148416
0.097752
0.185966
0.347495
0.130534
0.172853
0.436902
0.101924
0.387430
0.494719
0.349879
0.241995
0.361800
0.408888
0.263453
0.337958
0.327826
0.181794
0.192523
0.291467
0.386834
0.331998
0.565648
0.478625
0.536442
0.412464
0.639558
0.749826
0.629425
0.741482
0.940561
5.226731
16.272664
52.290559
101.069808
206.316710
299.619436
421.538949
499.815941
548.416972
531.993508
438.585877
338.866711
202.192664
123.002529
54.034591
25.196671
8.970499
5.816817
4.847646
4.708767
4.553795
4.754663
5.458593
6.902814
11.954904
17.115474
25.763512
34.521818
46.515465
55.121779
63.576698
65.725446
62.646866
57.865977
46.838522
38.153529
27.117729
19.971728
13.202429
##ZVALUE=355
0.268817
0.243783
0.215769
0.239611
0.144839
0.128746
0.319481
0.220537
0.227690
0.236630
0.175834
0.190735
0.192523
0.302792
0.235438
0.197887
0.283718
0.190735
0.221729
0.232458
0.219941
0.221729
0.179410
0.163913
0.162721
0.158548
0.329614
0.362992
0.259876
0.323653
0.360608
0.364780
0.323653
0.329614
0.267625
0.244975
0.333786
0.367761
0.272989
0.393987
0.382662
0.455976
0.360608
0.234842
0.332594
0.445843
0.455976
0.386834
0.514984
0.467896
0.235438
0.458956
0.436902
0.427961
0.526905
0.689626
0.687838
0.712872
0.793934
2.331734
8.538961
34.073591
71.228743
151.822567
239.001513
370.583534
452.813506
515.110493
518.997908
448.617935
368.604660
247.090459
159.322619
71.186423
34.888983
11.610985
6.197691
4.884601
4.492998
4.260540
4.189610
4.256964
4.922748
6.854534
9.066463
15.072823
21.183491
31.765699
39.211512
49.599409
55.697560
59.347749
58.072805
52.890778
45.933723
36.369562
##ZVALUE=360
0.293851
0.262856
0.276566
0.152588
0.332594
0.269413
0.102520
0.213981
0.340939
0.329614
0.235438
0.425577
0.298619
0.289679
0.336766
0.310540
0.337958
0.313520
0.183582
0.401735
0.320673
0.407696
0.359416
0.229478
0.247955
0.371933
0.421405
0.362992
0.212789
0.385642
0.431538
0.256896
0.278950
0.302792
0.305772
0.498891
0.428557
0.305772
0.525713
0.459552
0.311732
0.363588
0.575781
0.460744
0.372529
0.469685
0.533462
0.502467
0.518560
0.445843
0.515580
0.354648
0.528693
0.431538
0.523925
0.516772
0.559688
0.760555
0.801682
0.826716
0.899434
1.314878
3.829598
17.169714
42.918921
108.793974
179.799795
292.805433
383.734703
476.815701
499.550700
472.470522
408.782959
285.485983
194.138885
96.866488
51.760674
19.505620
8.589625
4.853606
4.378557
4.238486
3.971457
3.946424
4.136562
4.270673
5.409718
7.958412
11.771917
17.806888
24.370551
34.939647
42.154789
49.948692
53.334832
52.889585
##ZVALUE=365
0.257492
0.127554
0.229478
0.154972
0.339746
0.256896
0.308752
0.232458
0.062585
0.175834
0.141859
0.226498
0.159740
0.178814
0.152588
0.253916
0.336766
0.117421
0.183582
0.072718
0.091791
0.160933
0.177622
0.193715
0.126958
0.243783
0.317693
0.266433
0.186563
0.098944
0.185966
0.270605
0.260472
0.240803
0.312924
0.314713
0.273585
0.245571
0.313520
0.488758
0.289679
0.391603
0.406504
0.232458
0.431538
0.417829
0.432730
0.353456
0.474453
0.335574
0.241995
0.447631
0.288486
0.437498
0.425577
0.444651
0.251532
0.545979
0.482798
0.744462
0.802875
0.717640
0.677705
0.773668
1.980662
7.281899
28.523803
63.231587
146.288872
229.838490
345.638990
414.510965
467.486978
468.434691
406.472683
334.445834
222.991705
141.735673
65.687895
32.039881
10.460615
5.575418
4.118681
3.855824
3.798604
3.655553
3.511906
3.677607
3.792644
4.489422
6.346703
9.436607
14.717579
20.795465
29.825568
36.885738
##ZVALUE=370
0.163913
0.222921
0.175834
0.110865
0.206828
0.126958
0.141859
0.304580
0.118613
0.227690
0.090599
0.095963
-0.038743
0.078678
0.343919
0.075698
0.171661
0.197887
0.246763
0.157952
0.268817
0.222921
0.344515
0.241995
0.278950
0.186563
0.094771
0.212789
0.209808
0.244975
0.353456
0.247955
0.321865
0.195503
0.314713
0.391603
0.302792
0.136495
0.360608
0.247955
0.223517
0.297427
0.307560
0.163913
0.379682
0.312924
0.456572
0.252724
0.359416
0.447631
0.345707
0.457764
0.276566
0.350475
0.473857
0.384450
0.437498
0.398755
0.429749
0.290871
0.372529
0.408888
0.460744
0.689626
0.716448
0.735521
0.934601
4.620552
16.298890
56.644678
107.511878
201.409459
291.118622
401.784778
449.129939
462.244749
424.090624
338.861942
256.542563
149.495602
86.876750
37.120581
17.925501
7.201433
4.314780
3.917813
3.789663
3.501773
3.426671
3.379583
3.428459
3.444552
4.000664
5.805492
8.218884
12.911558
##ZVALUE=375
0.186563
0.232458
-0.016689
0.086427
0.015497
0.012517
0.097752
0.244975
0.151992
0.156760
0.075698
0.047684
0.122786
0.286698
0.274777
0.127554
0.197887
0.186563
0.144839
0.148416
0.076890
0.079870
0.280738
0.061989
0.156760
0.131726
0.174642
0.287890
0.429749
0.346899
0.173450
0.405908
0.427961
0.411868
0.258684
0.342727
0.394583
0.302792
0.360608
0.421405
0.438690
0.418425
0.343919
0.458956
0.448823
0.315905
0.476837
0.394583
0.346899
0.510812
0.489950
0.402927
0.309944
0.345707
0.273585
0.377893
0.391603
0.371933
0.410676
0.401735
0.350475
0.310540
0.334978
0.481606
0.492930
0.554919
0.636578
0.577569
0.860691
2.192855
8.320808
30.098557
67.217946
149.851441
231.334567
344.961882
411.524773
450.053811
435.371995
360.117555
282.987952
177.950859
116.909742
61.372519
32.996535
11.770725
5.724430
3.735423
3.599524
3.471971
3.269911
3.058910
3.214478
3.061891
3.051758
3.637671
##ZVALUE=380
0.027418
0.159740
0.207424
0.126958
0.096560
-0.062585
0.120997
0.138879
0.115633
0.108480
0.072718
0.159740
0.020862
0.146627
0.071526
0.041723
0.269413
0.206828
0.029802
0.121593
0.139475
0.053644
0.159740
0.128746
0.133514
0.308752
0.225902
0.466704
0.442863
0.648499
0.587702
0.633597
0.787973
0.882745
0.783801
0.798702
0.896454
0.761747
0.866652
0.770688
0.625849
0.684857
0.416636
0.423789
0.542998
0.565648
0.647902
0.438690
0.448823
0.461936
0.503659
0.472665
0.435710
0.403523
0.371933
0.309944
0.423789
0.390410
0.403523
0.298619
0.284910
0.338554
0.391603
0.267625
0.514984
0.450611
0.535846
0.515580
0.576973
0.724792
0.795722
1.217723
4.556775
21.715760
50.501823
118.930936
190.961957
295.943618
371.052623
428.844690
430.264473
372.313857
305.991769
212.817788
145.162940
73.980689
39.607882
15.090704
7.301569
3.836751
3.388524
3.222823
3.018975
2.843738
2.826452
2.733469
##ZVALUE=385
-0.086427
-0.181794
-0.114441
-0.055432
-0.124574
-0.180602
-0.055432
-0.297427
-0.206828
-0.096560
-0.216961
-0.081658
-0.106692
-0.079870
-0.157952
-0.007749
-0.071526
0.127554
-0.083447
0.007749
-0.061989
0.017881
-0.051856
-0.023842
0.040531
0.248551
0.370741
0.349879
0.702739
0.767708
0.877976
1.002550
1.282692
1.310706
1.439452
1.506805
1.540780
1.413822
1.588464
1.274943
1.284480
1.141429
1.057982
0.991821
0.869632
0.712872
0.889897
0.685453
0.513792
0.600815
0.563860
0.463724
0.494719
0.389814
0.441670
0.427961
0.316501
0.342727
0.375509
0.370741
0.233650
0.215769
0.127554
0.225902
0.268817
0.163913
0.231862
0.164509
0.186563
0.423789
0.368953
0.277758
0.483990
0.666976
1.862645
11.914968
32.080412
81.798434
143.467784
249.030590
329.271555
405.124426
424.633622
400.834680
349.755883
258.312821
183.675885
101.515651
58.635473
24.725795
11.059642
3.961921
3.213882
2.954602
2.799630
2.657771
##ZVALUE=390
-0.002980
0.173450
0.149608
0.129938
-0.027418
0.136495
0.271797
0.125766
0.180602
0.252724
0.136495
0.066757
0.265837
0.109673
0.136495
0.160933
0.222921
0.187755
0.260472
0.244975
0.143647
0.010729
0.171661
0.214577
0.359416
0.503659
0.711679
0.992417
1.314878
1.654625
2.033710
2.296567
2.727509
2.946854
2.957582
3.023744
3.152490
2.980828
2.968907
2.791882
2.621412
2.460480
2.406836
2.111793
1.958609
1.845956
1.682639
1.476407
1.300573
1.447797
1.357794
1.163483
0.897646
1.038909
1.035929
0.862479
0.696778
0.641942
0.571609
0.514984
0.662804
0.507832
0.646710
0.559688
0.471473
0.523925
0.632405
0.589490
0.607967
0.425577
0.638962
0.492930
0.732541
0.680685
0.593662
0.719428
1.262426
4.709959
22.506714
52.971840
123.768449
192.925930
288.788676
356.993675
412.488580
418.982506
377.054811
314.615965
217.073560
147.593617
77.174902
40.795803
15.097857
6.555915
3.414750
3.121495
##ZVALUE=395
0.175834
0.194907
0.267625
0.173450
0.131726
0.101924
0.123978
0.069737
0.148416
0.181794
0.144839
0.178814
0.112653
0.072718
0.141859
0.138879
0.122786
0.071526
0.115633
0.208616
0.182986
0.094771
0.147820
0.274777
0.416636
0.514984
0.953674
1.357794
1.859665
2.108812
2.770424
3.200769
3.546476
3.923774
3.768802
3.829598
4.183650
3.955960
3.862977
3.656745
3.593564
3.456473
3.115535
2.824664
2.657771
2.505779
2.148747
1.884699
2.016425
1.814961
1.626611
1.579523
1.325607
1.263618
1.220703
0.994802
1.021624
0.836849
0.833869
0.925660
0.680685
0.687838
0.542998
0.618696
0.499487
0.530481
0.504851
0.687838
0.552535
0.609756
0.661612
0.620484
0.685453
0.581741
0.630617
0.709891
0.689626
0.639558
0.933409
2.413988
14.339685
35.187602
84.777474
141.943693
240.441561
318.107605
396.619439
423.871875
406.079888
356.052518
264.966488
187.890530
101.486444
55.138469
21.650791
10.314584
##ZVALUE=400
0.326633
0.261664
0.340939
0.232458
0.087619
0.060797
0.219941
0.331998
0.097752
0.215769
0.079870
0.082850
0.236630
0.147820
0.177622
0.115633
0.245571
0.253916
0.210404
0.021458
0.221729
0.158548
0.217557
0.335574
0.493526
0.700951
1.077652
1.376867
1.791716
2.179742
2.637506
3.376603
3.736615
3.913641
4.228950
4.283786
4.499555
4.292727
4.399419
3.902912
3.921986
3.535748
3.487468
3.186464
2.888441
2.645850
2.468824
2.346635
2.053976
1.840591
1.703501
1.487732
1.485944
1.369715
1.177788
1.207590
1.169443
1.058578
1.053810
0.992417
0.808835
0.754595
0.668764
0.588894
0.730753
0.747442
0.753999
0.692606
0.602603
0.721812
0.651479
0.682473
0.563860
0.568628
0.599623
0.506639
0.614524
0.484586
0.630617
0.622869
0.851750
1.768470
6.007552
23.370981
51.237941
117.117763
187.617540
293.877721
365.970731
429.237485
435.030460
382.028818
312.088728
206.472874
136.887431
69.289804
##END
