##TITLE=FDDW1
##FORMAT=SPECTACLE-ASCII V-1.2
##DATA TYPE=ULTRAVIOLET SPECTRUM
##SECOND TYPE=ULTRAVIOLET SPECTRUM
##DATE=01/09/18
##TIME=15:44:26
##SPECTROMETER/DATA SYSTEM=SPECTACLE
##XUNITS=NM EM
##YUNITS=ENERGY
##YFACTOR=1
##FIRSTX=220
##LASTX=410
##NPOINTS=96
##3DDATA=Equidistant
##ZUNITS=NM EX
##FIRSTZ=210
##LASTZ=400
##ZPOINTS=39
##XYDATA=(Y..Y)
##ZVALUE=210
14.893413
13.648868
13.516545
10.657907
11.685491
10.229945
10.346770
8.375645
6.533861
4.797578
3.589988
2.614856
2.429485
1.555681
1.618862
2.230406
2.007484
2.007484
2.325773
2.132654
2.231598
2.915859
2.777576
4.030466
4.596710
6.042719
8.484721
11.453629
14.890432
17.534494
19.931793
25.629997
27.044415
31.471848
31.337738
32.396913
31.888485
30.786991
31.018853
30.833483
30.416846
27.615428
25.788546
23.331642
21.473765
19.554496
19.812584
19.052625
17.370582
16.588569
16.103983
13.352633
14.269948
12.570620
13.191700
10.107756
10.460615
8.684993
10.227561
9.605885
7.986426
8.072853
5.737543
7.655621
7.877946
6.865859
7.050633
6.827712
7.975698
7.782578
8.931756
9.260774
9.686947
10.986924
11.243820
10.332465
11.494756
9.829998
10.375977
9.306669
8.492470
8.343458
7.216930
6.761551
5.876422
4.896522
5.013943
4.823804
5.908608
6.377697
8.474588
9.886622
13.116598
17.164946
22.265911
26.370883
##ZVALUE=215
35.195947
33.522844
29.406548
24.033785
20.065904
16.620755
17.334819
15.165806
15.818477
13.688803
10.521412
9.537935
6.402731
4.770756
3.540516
3.028512
2.237558
2.543926
2.542734
2.175570
2.647638
2.743602
2.994537
3.483891
4.916787
7.169843
9.821653
14.110804
17.631650
21.955967
26.160479
29.389858
33.703446
37.031770
38.279891
37.470460
37.180781
39.346814
37.398934
38.408637
33.534765
33.901930
32.259822
28.446913
28.807521
24.799705
23.518801
22.665858
19.229650
17.915964
16.199946
15.460849
16.045570
14.046431
12.700558
12.629628
11.740923
10.868907
9.197593
10.173917
8.715987
8.160472
8.966923
7.467866
8.660555
7.099509
7.564425
6.906986
6.830692
7.831454
7.482767
9.235740
7.736683
9.797812
11.314750
10.202527
9.384751
9.031892
8.621812
8.009672
7.447600
7.665753
6.183982
5.142689
5.380511
5.373955
4.364848
4.576445
4.549623
3.554821
4.259944
4.049540
4.507899
4.751682
7.123947
10.082722
##ZVALUE=220
67.970753
73.130727
72.097778
62.711835
56.044459
42.360425
34.028888
29.148459
26.206970
25.340915
24.801493
24.963617
20.524859
17.879605
13.780594
10.855794
6.255507
5.147457
4.093647
2.893806
3.104806
3.173947
3.590584
3.726482
4.863739
8.421540
9.942651
16.161799
18.580556
23.031831
31.225681
34.678578
40.016770
42.108893
45.232773
46.101809
45.616627
43.625832
43.323636
41.065812
41.483641
37.834644
35.679936
33.489466
32.736659
28.770566
27.655959
23.910999
22.633672
20.450950
20.956993
19.427538
17.700791
17.167926
14.598966
14.004707
14.964938
12.039542
12.631416
12.320876
10.785460
10.496974
9.937882
9.059906
8.498430
8.049607
7.439852
9.116530
8.100867
7.698536
8.011460
7.942915
8.536577
9.174943
9.375811
9.484887
10.308623
8.262992
8.612871
7.940531
8.502603
7.376671
7.217526
5.932450
5.699992
4.913807
4.787445
4.959702
4.305840
3.703833
4.459620
4.750490
4.581809
4.557967
4.831553
4.359484
##ZVALUE=225
82.596540
84.491968
99.433661
114.308596
116.972923
102.805495
93.501806
69.693923
53.853989
46.237707
37.447810
39.742589
40.719509
40.185452
37.244558
33.106804
24.522543
19.344687
14.654994
9.435415
5.605817
4.262924
3.513694
3.443956
5.485415
8.230805
9.524822
14.661551
18.977523
22.859573
27.664900
32.369494
35.195947
36.772490
40.401816
41.296482
43.708682
40.696859
42.638779
40.659904
37.220716
36.278963
34.104586
31.830668
30.996799
27.004480
27.328730
25.814772
21.655560
21.758676
20.377636
17.132759
17.176867
16.222596
15.911460
14.521480
13.680458
12.651682
11.590719
12.035966
11.598468
11.006594
9.872913
9.504557
9.295940
9.968877
9.385943
8.942485
7.920861
8.692741
9.193420
9.734631
10.165572
10.397434
9.505749
9.208918
8.312464
9.679794
8.234978
8.197427
7.810593
6.674528
6.667972
5.934834
6.159544
5.822778
5.623698
5.084872
4.614592
5.556941
4.991889
4.941821
5.037785
4.523993
4.879832
5.007982
##ZVALUE=230
51.451921
56.998730
82.687736
122.282505
153.873563
187.881589
191.308856
178.914666
155.460835
128.708482
93.823671
72.274804
62.072873
58.128834
58.974624
64.243674
64.386725
57.429671
52.983761
39.351583
29.692650
17.697811
12.426972
7.844567
6.462932
7.105470
7.625818
10.928512
11.892915
15.783906
18.675923
21.240711
23.959875
27.223825
28.502941
28.606653
28.124452
29.172897
28.728843
26.621819
26.659966
25.255680
24.261475
24.591684
21.283627
19.831657
19.566417
19.326806
18.623471
17.108917
15.882850
15.142560
14.328957
14.880896
14.501810
14.234781
12.781620
11.287928
11.749864
11.877418
11.691451
11.964440
10.840893
10.282993
9.680986
9.432435
9.096861
9.363890
9.304881
9.986758
9.182692
10.768771
10.669827
10.868907
9.699464
10.889769
10.540485
10.817647
8.983612
9.226799
8.408427
8.207560
7.847548
7.009506
6.755590
6.926656
7.059574
6.386638
5.877614
6.738901
6.017685
5.233884
5.218983
5.760789
4.528761
6.230474
##ZVALUE=235
15.509725
16.149879
38.887858
69.604516
120.936632
163.901448
234.557986
269.690752
299.320817
294.823647
255.625844
208.936930
161.197782
109.291673
89.863539
80.836415
79.022646
87.402463
93.338490
93.348622
85.845590
72.680712
53.879619
38.624406
24.589896
15.218854
10.601878
10.104775
8.475780
9.362698
11.855960
11.580586
12.632608
13.612509
14.192462
15.195608
15.164614
15.926957
15.480518
16.514659
16.858578
14.970899
14.505982
15.043616
15.063882
15.189648
14.593601
12.474656
12.268424
12.670755
12.526512
12.862682
12.000799
11.943579
11.492968
11.264682
11.582971
11.789799
10.815859
11.528730
10.975599
10.727644
10.875463
9.724498
9.934902
10.014772
10.628700
10.471940
10.322928
10.008812
11.580586
9.163618
11.339784
11.329651
10.998845
11.302829
10.334849
10.922551
11.142492
11.276603
9.413958
9.365678
9.492636
8.748770
8.815527
7.613897
7.725954
7.710457
7.539988
6.762743
6.706715
6.711483
6.387830
6.927848
6.974936
6.283522
##ZVALUE=240
2.147555
2.556443
4.239678
15.978813
36.570430
76.048970
127.839446
215.456486
288.756490
375.931859
410.557985
414.829850
364.582539
318.659544
223.631859
168.094635
112.891793
99.462867
94.353557
101.873875
117.557645
121.622682
113.968849
101.959705
81.488490
63.693523
46.570897
29.241443
20.438433
12.194514
10.717511
8.860826
9.453893
9.983778
8.821487
10.008812
11.159778
11.204481
11.134744
10.626912
11.861920
11.825562
12.632608
11.160970
12.164712
11.016726
11.613965
11.747479
10.447502
11.598468
11.849999
10.758638
10.703802
10.549426
10.477901
10.389686
10.529757
9.263754
10.986924
10.075569
11.132956
10.390878
10.341406
9.919405
10.658503
9.819865
8.986592
9.672642
9.164810
10.273457
9.605885
10.293722
12.303591
10.270476
12.165904
11.128783
11.531711
12.522936
11.522770
11.467934
10.865927
10.784864
9.530783
8.688569
9.411573
8.054972
7.451773
7.333755
8.118749
8.472800
7.650852
8.079410
7.645488
7.853508
7.390976
7.723570
##ZVALUE=245
1.693964
1.402497
1.517534
1.991987
3.730655
9.546876
30.107498
58.767796
132.621527
205.838680
318.017006
396.263003
454.220772
484.438539
453.443527
374.738574
309.031010
211.947560
155.004859
107.244849
93.035698
95.500946
114.514828
123.476982
130.753517
129.645467
112.304688
97.636580
73.491931
54.856539
39.982796
24.291873
16.856790
12.733936
11.868477
12.241602
11.180639
11.214614
11.767745
12.927651
12.548566
13.656616
12.445450
12.530684
11.827946
11.019707
11.809468
11.210442
11.652708
11.406541
10.825992
10.342598
11.202693
11.686683
9.756684
9.613633
9.444952
9.932518
9.022951
9.645820
9.067655
8.365512
8.855462
9.134412
9.474754
8.262992
8.257627
8.945465
9.476542
9.097457
8.875728
9.773970
9.726882
8.614659
9.993911
10.188818
9.684563
10.381937
9.779930
10.045767
8.386970
8.487701
8.885860
8.532405
7.751584
7.363558
6.607771
6.226897
7.891655
7.188916
7.198453
6.903410
7.265806
7.669926
6.935596
7.500648
##ZVALUE=250
1.166463
0.983477
0.841618
1.287460
1.154542
1.114607
1.768470
6.915927
17.441511
52.319765
97.197890
190.708637
284.778476
403.950810
477.719903
533.824563
533.413887
467.742682
391.612649
275.516510
192.856789
122.712851
96.044540
90.245605
106.080770
123.167634
133.502483
139.716864
135.875940
126.803517
104.159713
83.974004
58.973432
44.366717
28.900504
22.336841
17.280579
16.029477
14.942884
15.314817
15.654564
15.859604
15.566945
16.352534
15.007854
14.845729
14.495850
15.261769
13.575554
14.490485
12.675524
12.274981
11.959672
10.867715
10.271668
9.881854
10.073781
10.353923
9.246469
9.407997
9.195805
8.610487
9.166598
9.162426
8.413792
8.432865
8.002520
8.077621
8.905530
8.166432
8.598566
8.312464
8.078814
8.562803
7.752776
8.587837
8.812547
8.917451
7.949471
8.252859
7.601976
7.428527
7.406473
7.161498
6.720424
7.016659
6.198883
6.754994
6.507635
6.072521
6.143451
5.765557
6.305575
6.670952
5.873442
6.083846
##ZVALUE=255
1.008511
0.909567
0.984669
1.090765
1.015663
0.919700
1.119971
1.497865
1.704693
2.554655
14.034510
34.208894
70.594549
152.906775
243.000984
376.362801
471.391678
560.536981
591.264963
553.678870
480.659008
379.113555
244.455934
159.380436
97.727776
83.358884
89.655519
105.408430
131.653547
144.728422
158.334970
156.685710
142.641664
118.910670
97.880960
68.987608
53.653717
36.926866
29.128790
25.183558
22.785664
21.214485
20.944476
20.201802
20.287633
18.780828
18.530488
17.387867
17.712712
15.670657
15.464425
14.293790
13.714433
13.032556
12.861490
12.416840
11.709929
11.226535
11.428595
9.895563
9.863973
9.101629
9.295940
8.864999
8.321404
8.135438
8.057952
7.838607
7.419586
8.162856
8.140802
7.912517
8.670688
7.965565
8.450747
8.440614
7.365942
7.442832
7.186532
7.217526
7.410645
7.694960
6.948709
6.252527
5.947948
5.990863
5.757809
5.742908
5.521774
5.636811
6.194711
5.844831
5.765557
5.929470
5.579591
5.715489
##ZVALUE=260
0.760555
0.714660
0.857711
0.990629
0.650883
1.079440
1.032948
0.746846
1.097918
0.970960
1.155734
1.601577
5.141497
21.729469
49.277544
119.883418
200.057626
332.889557
443.224907
582.801700
639.166832
648.730993
572.787523
470.056534
312.095881
215.610862
133.043528
93.904734
81.670880
92.215538
122.599602
145.089626
164.336562
174.598694
175.203681
150.745511
136.471987
107.138753
84.806681
60.052872
47.198534
36.930442
31.043887
27.147532
27.107596
24.815798
23.063421
22.513866
20.608902
19.833446
18.796921
18.478632
16.565919
15.839934
14.962554
13.705492
12.330413
12.330413
12.143850
10.973811
11.351705
9.373426
9.001493
9.182692
8.876920
9.195805
8.412600
8.342862
8.312464
8.651614
8.669496
8.146763
8.133650
7.971525
7.922649
7.699728
8.134842
7.306933
6.938577
7.014871
7.083416
6.694794
5.636811
6.454587
5.836487
5.663633
5.211830
6.044507
4.861951
5.572438
5.868673
5.542636
5.535483
5.333424
5.051494
5.586743
##ZVALUE=265
0.553727
0.733733
0.840425
0.673532
0.592470
0.737906
0.922680
0.765920
0.912547
0.843406
1.230836
0.969768
0.849962
1.478791
3.157854
11.574626
42.058825
84.890723
150.610805
293.949842
424.530506
589.113832
676.184893
704.146624
656.921864
533.102751
422.300696
274.837017
186.425447
112.725496
86.425543
89.046955
105.571747
137.074590
162.207484
180.844665
189.070702
181.845427
163.842440
137.698650
112.370849
83.594918
64.333677
45.731664
38.299561
31.573772
27.773976
25.320649
23.499727
23.537874
21.795630
20.396709
19.109845
18.037558
16.915798
14.731884
14.812946
14.167428
12.392998
11.904836
11.886954
11.879802
10.137558
9.750724
9.081960
9.332895
8.626580
8.320808
7.850528
7.164478
8.200407
8.120537
8.038878
8.017421
8.296967
7.410645
7.530451
6.867647
6.923676
6.965995
6.566644
6.368756
6.153584
5.449653
5.729795
5.607605
5.582571
5.570650
5.253553
4.656911
5.402565
4.861951
4.799962
4.888773
4.555583
5.273819
##ZVALUE=270
0.737906
0.533462
0.675917
0.629425
0.647902
0.660419
0.719428
0.926852
0.876784
0.838637
0.844598
0.977516
0.804663
0.964999
1.241565
1.180768
1.496673
6.518960
20.230412
64.427853
126.174688
224.629641
392.176509
529.465675
681.613684
747.816563
743.205547
674.129725
531.205535
405.932665
317.250490
163.099766
109.230876
82.474947
88.604689
114.123821
138.055682
164.663792
181.185603
187.097788
181.728601
165.039897
141.714811
108.460784
85.738897
60.279965
44.933558
33.901930
28.220415
24.075508
22.334456
20.173788
18.468499
17.973781
16.676784
16.421676
14.785528
14.370680
13.391972
11.874437
11.442900
11.034608
10.138750
9.815693
8.696914
8.750558
8.494854
8.317828
7.891655
7.750988
7.516742
7.890463
7.890463
7.430911
7.175803
7.666945
7.431507
7.267594
6.852746
7.085800
6.283522
5.972981
6.022453
5.506873
5.936623
5.472898
5.144477
4.956722
5.351901
5.100965
4.691482
4.969835
5.200505
4.568696
4.709959
4.866719
##ZVALUE=275
0.628829
0.569820
0.519753
0.595450
0.394583
0.552535
0.648499
0.614524
0.614524
0.848770
0.590682
0.539422
0.671744
0.807643
0.760555
0.638962
0.945926
1.041889
1.193881
3.056526
11.862516
34.519434
101.696849
186.184645
349.243879
478.766561
638.520718
728.647709
779.761672
748.796463
666.098595
495.668650
354.124904
197.083950
124.224424
76.385736
67.847967
82.621574
103.533864
131.581426
153.195858
170.824528
179.120898
169.479847
154.766440
124.448538
102.174878
76.117516
56.891441
36.961436
28.911829
20.106435
17.625690
16.301870
15.389919
13.834834
13.178587
12.916923
12.062788
12.079477
11.187792
10.647774
10.011792
9.053946
9.172559
8.804798
8.788705
8.208752
8.282661
8.058548
7.502437
7.831454
7.915497
7.454753
7.647872
7.301569
7.443428
6.846786
6.721616
6.782413
6.617904
6.108880
6.074905
5.865693
5.006790
5.435944
5.213618
5.586743
5.185604
4.755855
4.673600
4.474521
4.822612
4.848838
4.976988
4.679561
##ZVALUE=280
0.506639
0.605583
0.605583
0.681877
0.521541
0.546575
0.500679
0.793934
0.543594
0.520945
0.574589
0.575781
0.509620
0.684857
0.600815
0.753999
0.521541
0.632405
0.849962
0.976920
1.135468
1.495481
8.862615
27.341843
85.115433
157.089829
291.821957
421.388745
593.291521
702.750683
776.610970
768.564939
699.060559
538.510680
396.564603
229.093432
141.585469
73.896646
51.651001
51.063895
64.864755
93.310475
116.849542
144.780874
155.607462
162.827969
155.910850
137.411952
118.457675
89.289546
67.860484
44.824481
30.505657
21.369457
15.540719
12.278557
10.616779
10.393858
9.719729
9.792447
9.022951
8.797646
9.235740
8.445978
8.390546
8.175969
7.769465
7.690787
7.836819
7.152557
7.389784
7.450581
7.354617
7.355809
6.659627
7.084608
6.686449
6.731749
6.438494
6.373525
6.108880
5.797744
6.055832
5.758405
5.383492
5.471706
4.969835
5.057454
4.820824
5.062819
4.874468
4.646778
4.616976
4.761815
4.714727
4.887581
##ZVALUE=285
0.597835
0.446439
0.525713
0.474453
0.556707
0.669956
0.389814
0.596642
0.423789
0.529885
0.447631
0.557899
0.551939
0.591874
0.545979
0.468493
0.813603
0.782609
0.566840
0.737906
1.081824
1.041889
0.974536
1.253486
3.555417
12.812614
45.162439
94.762444
206.552744
327.734947
464.604497
641.729832
740.042925
778.564811
732.028484
603.149533
471.272469
289.994478
182.200670
89.187622
50.817728
33.092499
37.615895
57.509542
76.788664
107.487440
127.114654
144.071579
151.418447
146.283507
133.665800
110.863447
88.070631
61.336756
43.387413
25.554895
18.456578
12.046695
9.879470
8.172989
8.004904
7.561445
7.461905
7.179976
6.839633
6.833673
6.803870
6.875992
6.934404
6.796718
6.979704
6.883740
6.728768
6.553531
6.966591
6.471872
6.486773
6.096959
5.983710
6.152987
5.850792
5.527735
5.561709
5.329847
5.071759
5.213618
5.077720
5.314946
4.836917
4.870892
4.989505
4.668832
4.655719
4.557967
4.931688
4.712939
##ZVALUE=290
0.257492
0.422597
0.390410
0.317693
0.355840
0.392795
0.258684
0.452995
0.493526
0.695586
0.509620
0.462532
0.479817
0.441670
0.413656
0.303984
0.569820
0.501871
0.600815
0.632405
0.684857
0.695586
0.970960
0.934601
1.033545
0.999570
1.537800
5.401969
24.476647
58.674812
140.291452
244.813561
376.303792
570.832491
685.538650
768.043995
750.662684
642.524958
526.816845
352.139473
232.416987
121.584535
65.015554
30.100942
24.811625
34.353733
47.719479
72.126985
93.182921
118.848681
133.605599
143.636465
141.124725
126.806498
107.524991
80.714822
59.228539
37.179589
25.681853
15.458465
11.143684
7.828474
7.001758
6.571412
6.024837
6.181598
6.342530
6.243587
6.205440
6.204844
6.351471
6.513596
6.521940
6.141663
5.864501
6.156564
5.985498
5.601645
5.650520
5.462766
5.592704
5.381703
5.269647
4.563928
4.982948
5.205870
5.007982
4.953742
4.749894
4.754663
4.611611
4.689693
4.411936
4.310608
4.372597
4.461408
##ZVALUE=295
0.142455
0.197887
0.254512
0.279546
0.307560
0.319481
0.287890
0.334978
0.216961
0.317693
0.386834
0.459552
0.435710
0.317693
0.442863
0.359416
0.294447
0.367761
0.388622
0.323653
0.550747
0.503659
0.565648
0.524521
0.441670
0.740886
0.641942
0.829697
1.230836
2.089739
10.867715
32.020807
75.971484
187.914968
304.041505
488.323569
609.978437
725.455880
744.195580
684.762001
580.413938
414.791703
284.700990
150.826573
84.478855
34.371614
21.343827
20.505786
27.746558
45.128465
63.514709
90.374947
108.907819
126.445889
135.467649
131.709576
120.944977
98.694563
80.614686
53.981543
39.141774
23.448467
15.378594
9.081960
6.882548
5.488992
5.022883
4.844666
4.920959
5.305409
5.155802
5.290508
5.494952
5.335808
5.499721
5.272627
5.091429
5.303621
5.159974
4.814863
5.059838
5.031824
4.947782
4.807711
4.823804
4.871488
4.868507
4.369617
4.542470
4.652739
4.541874
4.470944
4.393458
4.110932
4.513860
4.373789
##ZVALUE=300
0.334978
0.458956
0.311732
0.294447
0.306964
0.105500
0.163913
0.207424
0.271797
0.345707
0.447631
0.460744
0.637770
0.460744
0.372529
0.342727
0.409484
0.368953
0.552535
0.603795
0.460744
0.624657
0.436902
0.559688
0.568628
0.663996
0.631809
0.754595
0.859499
0.952482
0.935793
1.325607
4.717708
16.928911
57.721734
114.624500
241.364837
364.039540
528.995991
627.245903
702.767968
696.691871
599.611998
498.601794
330.060720
216.223001
109.860897
59.919953
25.163889
15.921593
17.468929
24.870634
41.490793
56.973696
82.029700
101.134777
120.618939
128.429532
125.999451
117.895603
95.907450
79.026818
56.147575
39.816499
22.918582
15.696883
9.059906
6.587505
5.342960
4.754663
4.872680
4.661679
5.215406
4.725456
4.979968
4.935861
4.778504
4.908442
4.863739
4.983544
4.858971
4.587770
4.850626
4.598498
4.639626
4.657507
4.879832
4.556775
4.523993
4.501939
4.452467
4.693866
4.650950
4.544854
4.525781
4.174709
##ZVALUE=305
0.334978
0.359416
0.258684
0.275970
0.208616
0.205636
0.352859
0.227690
0.325441
0.248551
0.411868
0.315905
0.175834
0.468493
0.362992
0.301600
0.327826
0.401735
0.249743
0.365973
0.426769
0.394583
0.692606
0.582933
0.508428
0.519753
0.601411
0.605583
0.850558
0.804663
0.761747
0.719428
0.912547
0.989437
2.470613
8.805990
36.773682
81.524849
183.566809
287.336707
447.165966
558.848977
664.061904
690.204501
631.001592
539.429784
389.690995
276.289582
149.613619
82.434416
32.808781
16.841888
11.798739
14.649630
24.189949
36.011934
58.054924
76.167583
98.169446
109.891891
121.456981
122.283697
108.163953
95.474720
71.107745
55.236816
35.402775
23.799539
12.727976
8.693933
5.668998
5.279779
4.433990
4.837513
4.648566
4.672408
4.401803
4.510880
4.300475
4.363656
4.439950
4.521608
4.647970
4.671812
4.919767
4.693866
4.622936
4.231930
4.589558
4.742742
4.606843
4.272461
4.422665
4.511476
4.167557
4.291534
##ZVALUE=310
0.296831
0.222921
0.244975
0.261664
0.401735
0.465512
0.339746
0.307560
0.319481
0.371933
0.424981
0.346899
0.518560
0.258684
0.247955
0.185966
0.345707
0.279546
0.442863
0.384450
0.412464
0.433922
0.453591
0.521541
0.511408
0.548959
0.516772
0.458956
0.598431
0.599623
0.583529
0.604987
0.727773
0.919700
0.780821
1.038909
1.081824
4.647970
15.377402
53.768754
107.161999
223.308802
336.740017
495.152473
600.036979
673.961639
664.273500
580.897927
478.889942
317.514539
211.261511
106.600523
58.246851
23.108721
12.076497
9.082556
13.018847
20.926595
30.778646
49.887896
66.673756
88.216662
101.414919
112.869740
113.435984
103.115439
91.899633
71.871877
53.938627
34.196973
22.776723
14.227629
9.007454
5.858541
4.840493
4.621744
4.584789
4.130602
4.379749
4.616976
4.228950
4.302859
4.067421
4.485846
4.494786
4.668832
4.625916
4.441738
4.593730
4.493594
4.514456
4.489422
4.283786
4.219413
4.346967
4.454851
##ZVALUE=315
0.211596
0.132918
0.362992
0.240803
0.299811
0.160933
0.237823
0.290871
0.301600
0.311732
0.267625
0.412464
0.226498
0.404716
0.374913
0.289679
0.317693
0.385642
0.281930
0.262856
0.384450
0.396967
0.314713
0.320673
0.375509
0.504851
0.494719
0.443459
0.529885
0.397563
0.567436
0.584722
0.450611
0.583529
0.595450
0.792742
0.694990
0.848770
1.018643
2.123713
7.869601
32.610893
75.236559
172.170997
275.637507
435.850620
543.059707
637.803674
662.141442
611.987710
525.166988
378.828645
269.374847
142.334700
79.482794
30.840635
14.289618
8.117557
8.328557
11.991858
17.367601
30.910969
43.430924
62.667727
78.820586
97.934604
105.537772
107.045770
100.625753
82.785487
69.091916
49.281716
35.596490
20.452738
13.488531
8.205771
6.121993
4.905462
4.550815
4.163980
3.948808
4.224777
4.353523
4.194975
4.218817
4.106760
4.139543
4.365444
4.435778
4.454851
4.360676
4.580617
4.393458
4.385710
4.025698
4.263520
##ZVALUE=320
0.218749
0.132918
0.224710
0.246763
0.201464
0.159740
0.191927
0.315905
0.334978
0.293851
0.288486
0.391603
0.268817
0.310540
0.207424
0.081658
0.258684
0.314713
0.217557
0.518560
0.469685
0.333786
0.422597
0.451803
0.326633
0.434518
0.328422
0.525713
0.504851
0.391603
0.517964
0.401735
0.367761
0.672936
0.543594
0.611544
0.818968
0.880957
0.926852
0.796914
0.860691
1.236796
3.722906
18.940568
48.427582
124.181509
205.994844
345.974565
458.880663
585.088730
635.585785
630.483031
567.658544
433.895588
319.340825
178.358555
104.214549
45.281649
21.816492
8.916855
7.169843
7.998943
9.948611
16.349554
24.820566
40.902495
54.792762
73.862672
88.080764
99.515915
100.984573
93.222857
82.607865
62.669516
49.105883
31.660795
21.675825
13.053417
8.838773
5.829930
4.676580
4.216433
4.169941
4.222989
3.995895
4.221797
4.144907
4.410744
4.027486
4.218817
4.228950
4.319549
4.239678
4.202724
4.323721
4.223585
##ZVALUE=325
0.073910
0.075698
-0.022650
0.128746
0.098944
0.000000
0.105500
0.132918
0.086427
0.009537
0.104904
-0.069737
0.136495
0.182986
0.082850
0.187755
0.061989
0.171661
0.124574
0.125766
0.209808
0.275970
0.192523
0.224710
0.079870
0.293851
0.106692
0.161529
0.257492
0.274777
0.308752
0.168681
0.259876
0.347495
0.392795
0.366569
0.398755
0.480413
0.507832
0.438690
0.734925
0.621676
0.722408
0.820756
1.830459
11.482835
31.357408
82.646608
150.159001
283.134580
394.258499
531.436801
598.382950
625.714660
582.260489
461.978912
350.206494
217.247605
132.098794
59.342980
29.424429
10.857582
6.924868
6.000996
6.897449
10.211468
15.155673
25.155544
36.485791
55.964589
69.970489
84.494948
91.545582
93.702674
87.336898
72.733760
60.382485
42.343736
31.240582
18.737912
12.264848
7.383823
5.319715
4.572868
4.253983
3.957748
3.779531
3.725886
4.017949
3.800988
3.922582
3.643632
3.876686
3.742576
3.796816
3.988743
##ZVALUE=330
0.177622
0.224710
0.232458
0.226498
0.253916
0.211596
0.252724
0.247955
0.288486
0.181794
0.265837
0.177622
0.278950
0.343919
0.337958
0.285506
0.153780
0.207424
0.186563
0.209808
0.311732
0.236630
0.297427
0.354648
0.228882
0.249743
0.313520
0.356436
0.332594
0.269413
0.356436
0.406504
0.340939
0.283718
0.464916
0.394583
0.552535
0.592470
0.446439
0.682473
0.474453
0.612736
0.588894
0.753999
0.824928
0.875592
1.035929
4.821420
15.717745
54.349899
105.026960
214.483738
316.991806
461.758971
554.265976
611.064434
588.691831
493.487716
395.423770
259.545445
168.708563
79.459548
41.125417
15.950799
8.197427
5.726814
5.677938
6.466508
9.200573
15.315413
22.699833
36.398768
48.938990
67.629814
78.308582
86.141825
87.634921
81.429482
71.379542
54.977536
42.017698
26.923418
19.341707
12.590885
8.526444
6.077886
4.790425
4.280806
4.197955
3.881454
3.863573
3.959537
3.710985
3.950596
3.825426
3.908873
##ZVALUE=335
0.095963
0.150800
0.100732
0.100732
0.108480
0.064969
0.083447
0.219941
0.231862
0.148416
0.166893
0.120997
0.158548
0.198483
0.222921
0.278950
0.183582
0.202656
0.271797
0.174642
0.220537
0.224710
0.302792
0.247955
0.367761
0.259876
0.372529
0.390410
0.306964
0.461936
0.506639
0.389814
0.453591
0.441670
0.324845
0.305772
0.364780
0.335574
0.382662
0.359416
0.338554
0.478625
0.640750
0.561476
0.525713
0.644922
0.557899
0.714660
0.976920
2.195835
7.629991
32.235980
69.563985
156.176686
252.788663
397.709608
493.037701
572.988987
582.606792
522.158742
437.620878
301.053524
205.620527
107.781887
57.240725
20.624995
9.874701
5.848408
5.316734
5.180836
5.860925
8.659959
13.110638
23.096800
32.941699
48.899651
61.015487
74.216723
80.336928
81.338882
76.843500
64.120889
53.601861
39.973855
30.263662
19.160509
13.165474
8.096695
6.047487
4.496574
4.142523
3.993511
3.659725
3.767610
3.621578
3.613830
##ZVALUE=340
0.224710
0.209808
0.081658
0.076890
0.097752
0.189543
0.210404
0.237823
0.316501
0.239611
0.398755
0.092983
0.373721
0.152588
0.111461
0.192523
0.210404
0.186563
0.319481
0.222921
0.221729
-65.453649
0.172853
0.211596
0.312924
0.110865
0.494719
0.274777
0.301600
0.356436
0.279546
0.233650
0.341535
0.266433
0.300407
0.361800
0.499487
0.335574
0.446439
0.383854
0.459552
0.437498
0.393987
0.541806
0.605583
0.506639
0.558496
0.620484
0.590682
0.637770
0.941753
1.153946
5.046725
16.270876
52.250624
106.616616
220.396519
316.942930
442.809463
519.941449
568.019748
545.551777
456.476808
362.725854
226.632953
143.467784
68.182945
33.873916
11.442900
6.293654
5.250573
4.892945
5.133748
5.563498
8.125901
12.224913
20.841956
30.671954
46.462417
56.970716
70.522428
75.556636
76.528788
72.008967
63.416958
52.415729
38.295984
28.714538
18.472672
13.211966
8.160472
6.169677
4.421473
4.048944
3.671646
3.656745
##ZVALUE=345
0.074506
0.157952
0.168681
0.270605
0.258684
0.266433
0.032783
0.209808
0.214577
0.247955
0.082850
0.115633
0.062585
0.128746
0.238419
0.237823
0.219941
0.260472
0.187755
0.150800
0.233650
0.287890
0.164509
0.182986
0.166893
0.263453
0.205636
0.252724
0.272989
0.339746
0.265837
0.287890
0.340939
0.221729
0.275970
0.376701
0.184774
0.381470
0.182986
0.236630
0.302792
0.396967
0.424981
0.312924
0.310540
0.458956
0.339746
0.458956
0.610948
0.554919
0.608563
0.565648
0.897646
0.847578
1.728535
10.514855
29.684901
78.717470
142.022967
259.336829
357.112885
469.358563
524.199605
532.949567
486.127734
375.566483
280.471444
166.516900
95.777512
39.501786
18.684864
7.573962
5.190969
4.904866
4.446507
4.658699
5.398989
7.557869
11.390448
19.548535
28.014779
42.233467
52.318573
61.415434
67.824721
70.691705
67.602992
59.598684
51.089525
37.845969
29.300451
18.846989
13.501644
8.509755
6.076694
4.495978
##ZVALUE=350
0.218749
0.136495
0.260472
0.130534
0.239611
0.130534
0.153780
0.259876
0.021458
0.119805
0.143647
0.212789
-0.091791
0.268817
0.112653
0.214577
0.146627
0.199676
0.265837
0.167489
0.278950
0.134706
0.252724
0.194907
0.207424
0.217557
0.095963
0.234842
0.122786
0.368953
0.181794
0.291467
0.304580
0.302792
0.203848
0.354648
0.235438
0.240803
0.288486
0.266433
0.197887
0.210404
0.279546
0.411868
0.420809
0.449419
0.398755
0.416636
0.384450
0.555515
0.534654
0.379682
0.487566
0.548959
0.737906
0.679493
0.993609
5.217791
16.190410
52.588582
100.421906
201.335549
292.320848
410.681963
480.892658
517.763495
494.366884
408.977866
315.647721
188.663602
117.187500
55.294633
26.608706
8.728504
5.397797
4.483461
4.250407
4.119873
4.154444
5.122423
6.865859
11.539459
16.725659
25.094748
33.924580
46.493411
53.873658
61.484575
63.886642
61.916709
56.780577
46.122670
37.136674
25.405884
18.852949
12.239814
##ZVALUE=355
-0.014901
-0.005960
-0.095963
-0.141859
-0.193715
-0.049472
0.037551
0.024438
-0.018477
0.020862
0.027418
-0.087619
-0.032783
-0.053644
0.052452
0.002980
-0.035763
0.117421
0.020862
0.160933
0.008941
0.009537
0.122786
-0.090599
-0.062585
-0.028610
-0.106692
-0.020862
0.192523
0.086427
-65.499544
0.079870
0.014901
-0.024438
0.115633
0.094771
0.151992
0.204444
0.135899
0.182986
0.044703
0.118613
0.126958
0.159740
0.101924
0.142455
0.033975
0.192523
0.250936
0.090599
0.128746
0.232458
0.271797
0.367761
0.385642
0.203848
0.448823
0.471473
0.660419
2.212524
8.505583
34.584403
70.831776
149.217844
234.313607
360.688567
438.102484
494.963527
494.655967
424.793959
342.613459
229.198933
146.260858
66.467524
32.873750
11.060834
5.830526
4.326701
4.100800
3.904700
3.630519
3.917813
4.374981
6.296635
8.443594
14.290810
20.637512
30.534863
39.149523
48.047900
54.334998
57.858825
57.675838
50.811768
44.396520
33.835769
##ZVALUE=360
0.139475
0.105500
-0.012517
0.214577
0.237823
0.167489
0.270605
0.152588
0.215769
0.147820
0.252724
0.085831
0.121593
0.227690
0.077486
0.264645
0.150800
0.177622
0.105500
0.085831
0.244975
0.220537
0.231862
0.184774
0.319481
0.234842
0.187755
0.315905
0.382662
0.052452
0.309944
0.137687
0.213981
0.216961
0.225902
0.234842
0.267625
0.210404
0.292659
0.334978
0.339746
0.257492
0.304580
0.323653
0.328422
0.282526
0.270605
0.310540
0.397563
0.389814
0.438690
0.322461
0.324845
0.480413
0.507832
0.541806
0.421405
0.498891
0.746846
0.710487
0.713468
1.028776
3.682971
17.584562
42.723417
105.639696
178.669691
295.448899
382.395983
461.758971
482.180715
446.377993
379.981995
261.820555
173.126459
86.057782
45.831800
17.960668
8.293986
4.590750
4.276633
3.777742
3.982782
3.660917
3.637671
4.079938
4.916787
7.391572
10.734797
17.650723
24.419427
34.796596
41.412711
49.438477
52.229762
51.800609
##ZVALUE=365
0.219941
0.249743
0.247955
0.182986
0.193715
0.069737
0.233650
0.217557
0.250936
0.253916
0.144839
0.298619
0.185966
0.131726
0.106692
0.093579
0.174642
0.135899
0.098944
0.187755
0.234842
0.123978
0.059605
0.152588
0.185966
0.204444
0.167489
0.287890
0.158548
0.283718
0.235438
0.251532
0.121593
0.167489
0.212789
0.226498
0.227690
0.316501
0.313520
0.367761
0.214577
0.277758
0.238419
0.330806
0.141859
0.386834
0.327826
0.390410
0.381470
0.387430
0.336766
0.270605
0.406504
0.145435
0.465512
0.376701
0.359416
0.615716
0.421405
0.561476
0.671744
0.575781
0.681877
0.772476
1.429915
9.360909
25.951862
69.241524
128.083825
236.833692
320.544839
412.006974
455.381870
447.098613
394.583941
289.338827
205.730796
115.443468
63.664913
24.197698
10.602474
4.758835
3.988743
3.785491
3.575683
3.434420
3.177524
3.381968
3.363490
4.160404
5.875826
9.647608
13.555884
21.648407
28.009415
36.600828
##ZVALUE=370
0.206828
0.072718
0.076890
0.261664
0.078678
0.084639
0.102520
0.053644
0.074506
0.138879
0.281930
0.284910
0.176430
0.119805
0.186563
0.074506
0.216961
0.253916
0.217557
0.122786
0.104904
0.029802
0.225902
0.189543
0.163913
0.190735
0.257492
0.208616
0.033975
0.212789
0.089407
0.167489
0.209808
0.361800
0.219941
0.366569
0.235438
0.353456
0.196695
0.233650
0.300407
0.302792
0.296831
0.259876
0.272989
0.249743
0.382662
0.275970
0.343919
0.188947
0.309944
0.256896
0.307560
0.307560
0.286698
0.276566
0.461936
0.257492
0.486970
0.448823
0.522733
0.472665
0.655651
0.550747
0.614524
0.732541
0.916719
4.602671
15.604496
52.163601
98.399520
186.685920
272.015929
382.508636
440.200567
453.062654
415.301919
326.120853
241.458416
136.649609
77.653527
31.328797
15.447736
6.265640
4.161596
3.375411
3.298521
3.198981
3.193617
2.984405
3.114939
2.959967
3.752708
5.386472
7.801652
12.429953
##ZVALUE=375
0.126958
0.212789
0.318885
0.204444
0.236630
0.079870
0.087619
-0.035763
0.146627
0.239611
0.145435
0.164509
0.150800
0.247955
0.147820
0.233650
0.161529
0.186563
0.061989
0.042915
0.202656
0.143647
0.284910
0.141859
0.262856
0.175834
0.359416
0.301600
0.152588
0.261664
0.268817
0.245571
0.192523
0.249743
0.321865
0.427961
0.279546
0.379682
0.374913
0.223517
0.392795
0.358820
0.232458
0.300407
0.391603
0.400543
0.286698
0.322461
0.219941
0.206828
0.398755
0.344515
0.334978
0.259876
0.363588
0.240803
0.380874
0.253916
0.348687
0.400543
0.479817
0.582933
0.348687
0.400543
0.421405
0.480413
0.503659
0.761747
0.780821
2.353787
8.289814
32.416582
68.640709
150.253773
227.735639
330.250859
397.676826
442.615747
428.381562
356.514454
277.612805
170.558691
109.765530
54.867864
28.438568
10.078549
5.001426
3.490448
3.337860
3.090501
3.137589
2.861619
2.700686
2.751946
2.776980
3.387928
##ZVALUE=380
0.156760
0.008941
0.127554
0.138879
0.065565
0.110865
0.175834
-0.042915
0.165701
0.238419
0.202656
0.130534
0.157952
0.194907
0.229478
0.023842
0.091791
0.097752
0.014901
0.176430
0.180602
0.272989
0.140667
0.199676
0.102520
0.130534
0.126958
0.303984
0.528693
0.276566
0.446439
0.498891
0.508428
0.595450
0.643730
0.543594
0.573993
0.651479
0.463724
0.599623
0.522733
0.588894
0.494719
0.544786
0.459552
0.498891
0.450611
0.381470
0.483990
0.597835
0.413656
0.332594
0.382662
0.353456
0.370741
0.351667
0.419617
0.322461
0.302792
0.419617
0.313520
0.259876
0.302792
0.345707
0.286698
0.400543
0.430942
0.564456
0.511408
0.548959
0.790954
1.351833
4.608631
21.751523
50.065517
117.246509
188.483596
291.607976
366.830826
431.726575
434.321761
379.135609
313.264728
218.889713
148.588419
75.123906
39.722919
14.881492
6.812811
3.889799
3.242493
3.031492
2.884865
2.714992
2.802610
2.699494
##ZVALUE=385
0.142455
0.142455
0.097752
0.030994
0.172853
0.155568
0.297427
0.111461
0.097752
0.195503
0.220537
0.192523
0.127554
0.139475
0.104904
0.150800
0.015497
-0.084639
0.168681
0.263453
0.245571
0.060797
0.079870
0.180602
0.118613
0.294447
0.299811
0.469685
0.557899
0.617504
0.694990
1.167655
1.067519
1.185536
0.929832
1.137853
1.183748
1.038909
1.043677
1.003742
0.940561
1.027584
0.872612
0.944734
0.847578
0.729561
0.711679
0.809431
0.721812
0.592470
0.473857
0.514984
0.517964
0.402927
0.333786
0.321865
0.289679
0.302792
0.358820
0.528693
0.406504
0.405908
0.331998
0.443459
0.223517
0.469685
0.486970
0.482798
0.500679
0.474453
0.650883
0.744462
0.629425
0.810623
2.177954
12.620687
32.062531
80.435872
141.065717
246.921778
326.738954
405.243635
424.159765
405.523777
356.779695
264.068842
188.567638
103.996992
59.749484
25.648475
11.319518
4.198551
3.290772
2.864599
2.955794
2.825856
##ZVALUE=390
0.142455
0.146627
0.131726
0.211596
0.000596
0.111461
0.240803
0.276566
0.060797
0.150800
0.095963
0.187755
0.167489
0.250936
0.083447
0.046492
0.160933
0.095963
0.116825
0.155568
0.133514
0.171661
0.252724
0.266433
0.363588
0.387430
0.512600
0.755787
0.995994
1.079440
1.402497
1.533628
1.915693
1.886487
1.903772
1.997948
1.940727
1.950860
1.847744
1.686811
1.637936
1.654625
1.560450
1.450777
1.327991
1.288652
1.179576
1.137853
0.989437
0.861883
0.832677
0.760555
0.880957
0.595450
0.764728
0.444651
0.556707
0.554919
0.520945
0.478625
0.531673
0.496507
0.491738
0.440478
0.489950
0.564456
0.487566
0.569820
0.553727
0.535846
0.584722
0.706911
0.504851
0.561476
0.650883
0.790954
1.131892
6.706715
21.435618
62.935948
118.810534
217.604637
294.861794
378.777981
425.418615
432.396531
395.302773
312.968493
238.827467
146.492720
86.477995
36.356449
16.979575
5.549788
3.382564
2.665520
##ZVALUE=395
0.189543
0.166893
0.036955
0.189543
0.089407
0.008941
0.029802
0.100732
0.000596
0.008941
0.022650
-0.031590
0.052452
0.238419
0.107884
0.110865
0.085831
0.190735
0.170469
0.067949
0.053644
0.048876
0.114441
0.197887
0.125766
0.351667
0.665784
0.929832
1.268983
1.387596
1.754761
1.999736
2.044439
2.320409
2.480745
2.637506
2.512932
2.524853
2.437830
2.358556
2.286434
2.100468
1.846552
1.826882
1.668930
1.565814
1.348853
1.317859
1.147985
1.092553
0.986457
1.101494
0.863671
0.972748
0.767708
0.636578
0.679493
0.637770
0.686646
0.515580
0.457764
0.491738
0.411868
0.475645
0.446439
0.519753
0.371933
0.595450
0.594854
0.558496
0.553727
0.589490
0.510812
0.693798
0.534654
0.652671
0.459552
0.860691
0.795722
3.285408
12.828708
44.429898
83.540678
161.835551
239.999890
351.055861
415.622592
455.303788
439.461470
367.755890
287.023783
177.552700
110.578537
49.213767
24.174452
8.600950
##ZVALUE=400
0.328422
0.298619
0.154972
0.146627
0.034571
0.009537
0.156760
0.085831
0.113845
0.208616
0.217557
0.233650
0.114441
0.091791
0.121593
0.104904
0.105500
0.032783
0.159740
0.078678
0.245571
0.048876
0.101924
0.099540
0.381470
0.431538
0.612736
0.875592
1.286864
1.525879
1.808405
1.985431
2.476573
2.510548
2.719760
2.771616
2.761483
2.617836
2.625585
2.501607
2.444983
2.262592
2.212524
2.114773
1.941919
1.679659
1.623631
1.563430
1.365542
1.201630
1.205802
1.205802
1.025796
0.955462
1.011491
0.914931
0.812411
0.615716
0.688434
0.712872
0.486970
0.480413
0.595450
0.561476
0.524521
0.501871
0.540614
0.639558
0.404716
0.488758
0.521541
0.485778
0.452995
0.513792
0.536442
0.450611
0.617504
0.549555
0.661612
0.778437
0.826716
1.756549
6.545782
24.864674
55.394769
126.575828
205.837488
318.034887
385.952592
446.888804
448.794961
391.511917
318.228006
208.423734
136.728883
69.407821
##END
