##TITLE=FQP00351
##FORMAT=SPECTACLE-ASCII V-1.2
##DATA TYPE=ULTRAVIOLET SPECTRUM
##SECOND TYPE=ULTRAVIOLET SPECTRUM
##DATE=01/09/18
##TIME=17:14:45
##SPECTROMETER/DATA SYSTEM=SPECTACLE
##XUNITS=NM EM
##YUNITS=ENERGY
##YFACTOR=1
##FIRSTX=220
##LASTX=410
##NPOINTS=96
##3DDATA=Equidistant
##ZUNITS=NM EX
##FIRSTZ=210
##LASTZ=400
##ZPOINTS=39
##XYDATA=(Y..Y)
##ZVALUE=210
2.167821
2.965927
1.982450
2.772808
2.435446
2.766848
3.095865
2.941489
3.681779
3.186464
3.591776
2.661943
2.767444
2.865791
3.654957
4.068613
3.670454
4.031658
4.258752
4.719496
4.814863
4.574656
5.603433
5.343556
6.125569
6.944537
7.208586
7.372499
7.705688
8.016825
8.280873
8.412600
8.518696
9.998679
9.014606
9.561777
8.646846
9.331703
9.712577
10.332465
9.860992
9.766817
9.836555
9.986758
10.542870
9.625554
10.519624
10.069609
9.761453
10.497570
10.031462
10.195971
12.085438
9.453893
10.821819
10.874867
11.547804
12.265444
11.452436
11.726618
10.877848
12.223721
12.514591
12.832880
14.444590
13.772845
13.979673
13.591647
17.201900
19.350648
22.650957
27.865767
32.404661
36.392808
42.775869
46.594739
48.943758
50.451756
51.956773
50.517917
49.427748
44.871569
42.758584
35.562515
27.162433
21.087527
16.021729
14.294982
10.619760
11.131763
10.135770
11.734962
11.170506
11.465549
11.909604
11.839867
##ZVALUE=215
11.696815
10.620952
10.323524
7.648468
7.949471
5.820990
5.544424
5.650520
5.867481
5.814433
4.438758
5.307794
5.369782
4.638433
4.488826
4.479885
4.437566
4.824996
4.716516
4.802942
5.321503
6.498694
6.522536
6.760955
6.356835
7.332563
7.618666
8.071661
8.619428
9.881854
10.005832
11.087656
11.613965
11.926889
11.605620
11.857748
11.334419
12.596846
12.118816
12.193918
12.075901
11.840463
12.898445
11.946559
12.614727
12.003779
12.075901
12.709498
13.646483
12.731552
12.904406
12.288690
13.599992
12.244582
13.139844
13.040900
13.373494
13.095737
14.540553
13.454556
12.624860
11.962652
12.430549
12.779832
13.683438
13.059974
13.282895
15.124679
19.015670
19.326806
25.363564
27.796626
32.224655
36.013722
39.939880
42.093992
45.382977
44.908524
45.422912
43.458939
40.959716
37.860870
32.704473
28.068423
22.206903
18.744469
13.693571
14.362931
12.314916
11.364818
11.450648
10.926723
11.190772
11.409521
11.135936
10.891557
##ZVALUE=220
41.007996
45.588613
47.785640
51.039457
45.392513
37.623644
29.023886
21.912456
16.276836
14.035702
11.535883
13.336539
13.313890
12.485981
11.953712
8.564591
7.803440
6.513596
5.971789
5.407929
6.412864
6.228685
6.454587
6.585717
8.224845
7.656813
9.410977
10.558963
10.546446
10.948777
11.570454
13.208985
12.707710
12.200475
12.529492
13.070703
13.630986
14.094710
12.485981
13.384819
13.490915
12.508631
12.961626
13.479590
13.004541
12.055635
13.135672
12.039542
12.649894
12.160540
13.334751
12.703538
11.793971
13.402700
12.246966
11.828542
12.508631
12.758970
13.958812
13.285875
12.070537
12.309551
14.139414
13.842583
12.861490
13.368726
13.465881
16.022921
20.213723
20.129681
22.354722
29.972792
33.023953
36.867857
41.836500
46.322942
46.930909
49.543977
48.473477
46.410561
45.379996
40.211678
35.038590
28.605461
24.848580
19.903779
14.827847
14.711618
13.568997
11.816621
12.372732
12.553930
11.131763
11.463761
12.745857
11.648536
##ZVALUE=225
81.232786
84.218979
112.408996
146.882534
159.668922
160.659552
143.192410
115.169883
80.419779
52.008629
33.894777
28.303862
26.297569
28.153658
28.500557
27.094483
24.239421
20.017624
15.486479
13.230443
9.724498
8.057952
8.445978
7.873774
9.485483
9.493828
10.050535
11.621714
12.695789
14.377832
14.196634
14.675856
15.749931
16.995668
16.736984
16.949773
16.945601
17.259717
16.329885
16.482472
15.502572
15.262961
15.629530
16.802549
16.082525
16.472936
14.384985
14.526844
14.626980
14.423728
15.692711
15.113950
14.838576
16.057491
14.837980
14.830828
15.553832
15.292764
16.957521
16.830564
13.748407
16.673803
16.152859
17.675757
16.485453
15.999675
17.267466
19.401908
20.407438
24.442673
27.328730
30.786991
35.120845
39.293766
41.363835
43.101907
44.968724
43.443441
42.521954
40.546656
35.826564
32.345653
30.238628
25.576949
23.034811
18.969774
18.133521
16.888976
14.739633
14.633536
14.657974
15.109777
14.410615
13.914704
15.218854
13.846755
##ZVALUE=230
71.002841
77.833533
133.093596
230.480433
309.589505
393.821001
415.053964
424.419641
387.763977
317.957997
211.881995
144.439936
82.793832
61.247945
51.662922
52.312613
55.341721
52.959919
47.836900
38.818717
31.756759
20.443797
15.336871
11.953712
10.152459
10.025501
11.256933
11.087656
11.597872
14.030933
12.828708
14.721751
16.244650
16.431808
15.984774
16.527772
16.936660
16.814470
16.990900
17.113686
15.989542
17.707944
17.305613
16.247630
17.460585
17.043948
16.955733
16.011000
14.906526
16.714931
15.401840
17.127991
16.787648
15.181899
17.083883
17.144680
17.073750
15.967488
16.979575
15.997887
15.888810
17.243624
15.836954
18.584728
16.768575
16.444921
17.647743
20.173788
19.313693
22.310615
25.941730
29.290915
31.390786
35.502911
39.016604
37.810802
39.151907
34.937859
34.706593
32.818913
32.273531
27.779937
25.492907
23.159981
21.554828
19.163489
19.000769
17.768741
18.449426
16.983747
17.690659
15.771985
16.136765
15.644431
16.030669
16.006827
##ZVALUE=235
24.846792
26.558638
60.403943
161.078572
262.562633
431.810617
564.161539
713.544488
795.910954
779.106021
671.841502
541.809797
357.099771
245.983005
144.742727
99.157691
77.917576
78.451633
84.960461
88.358521
81.071854
70.757866
56.603551
40.123463
31.009912
18.627644
14.031529
11.370778
10.949969
11.198521
11.572838
13.363957
12.414455
12.445450
13.109446
13.250709
13.741851
14.365911
13.084412
14.292598
13.709664
13.496876
13.859868
13.740659
13.573766
13.962984
13.278723
14.175773
13.435483
13.639927
11.728406
13.409853
13.587475
14.354587
13.970733
14.453530
14.582872
14.151931
14.429688
15.108585
15.387535
14.817715
16.773939
15.463829
15.946627
16.368628
18.010736
18.690825
19.299984
22.175908
25.298595
28.879642
31.461716
34.636855
36.380887
36.442876
39.855838
39.131641
37.335753
36.146641
31.227469
31.410456
27.615428
26.074648
23.586750
21.341443
21.001697
18.338561
19.202828
17.930865
19.725561
18.196702
16.538501
17.221570
16.041994
16.748905
##ZVALUE=240
2.315640
2.290606
11.746883
34.661889
92.936754
165.658593
327.996016
483.182669
727.982521
891.580582
1008.548737
1009.500623
917.373896
718.510747
540.941954
330.785513
218.672752
134.045482
109.949708
110.885501
115.479827
121.276975
117.217898
110.790730
86.503625
70.625544
49.228668
36.355853
23.269653
17.358661
13.476610
11.930466
11.060834
11.557937
12.390614
12.844801
11.913776
13.101697
12.753606
13.107657
13.514757
14.071465
13.309717
13.014674
14.561415
13.854504
14.248490
14.358759
13.825893
15.150905
13.317466
14.178753
14.855862
13.923645
14.787912
14.300942
13.678670
13.898611
16.259551
15.084743
15.255809
16.102791
17.200708
16.274452
17.737746
17.697811
18.773675
19.815564
21.996498
23.507476
25.943518
29.378533
28.759837
34.560561
37.062764
39.054751
37.800670
36.611557
34.610629
34.417510
32.110810
28.448701
26.834607
25.990605
24.311543
21.883845
22.605658
22.434592
22.182465
21.232963
21.404624
21.841526
18.890500
21.152496
20.978451
21.962523
##ZVALUE=245
1.874566
1.758933
2.509952
2.084970
9.212494
26.220679
91.339946
187.257528
426.885486
659.214854
1004.113555
1015.674472
1015.674472
1015.674472
1015.674472
1015.675068
1012.185812
701.701641
474.063754
252.934694
160.669684
123.038888
124.023557
135.732889
138.221979
134.241581
118.575692
100.931525
78.134537
56.170821
43.756962
26.323795
20.606518
14.649630
13.683438
14.251471
14.484525
13.163686
13.065934
13.958812
14.717579
15.333891
13.336539
14.795661
14.492869
15.159845
13.893843
14.935732
16.212463
14.916658
14.715791
14.612675
13.942719
14.084578
14.065504
14.054775
14.564991
14.288425
14.913678
14.865994
14.943480
16.006827
15.574694
16.235709
16.682744
16.336441
17.587543
19.711852
20.195842
22.864938
25.448799
29.240847
30.729771
33.593774
34.886599
35.257936
35.083890
38.305521
35.604835
31.543970
32.468438
30.399561
28.074980
26.440620
24.470687
24.903417
23.269653
22.937655
22.759438
22.343993
21.909475
20.273924
21.571517
21.227598
20.519495
21.246672
##ZVALUE=250
1.814961
1.692772
1.827478
1.699924
1.745820
2.151728
5.484819
20.039678
77.755451
168.202519
396.476984
644.815564
937.037468
1015.674472
1015.674472
1015.674472
1015.674472
1015.674472
976.085663
605.157614
377.632976
218.028426
117.178559
97.429752
111.039877
123.963952
141.312480
143.627524
137.129426
126.448870
110.682845
83.820820
60.968995
40.114522
27.275681
17.009974
14.298558
12.938976
11.504889
11.795759
11.326671
11.569858
12.919903
12.027621
12.344718
12.480617
12.044907
12.029409
11.027455
11.488795
11.334419
11.238456
10.797977
11.933446
11.473894
10.569692
10.628700
10.413527
10.671616
11.157990
10.193586
11.976957
11.257529
11.792779
12.751818
12.358427
13.785958
14.070868
15.199780
17.299652
17.560720
20.728707
22.233725
23.392439
25.183558
25.732517
25.887489
27.237535
26.036501
25.814772
24.024844
23.365617
21.471977
21.967888
21.115541
19.231439
19.189715
19.573569
18.540621
19.301772
17.320514
18.751621
18.502474
17.667413
18.591881
18.505454
##ZVALUE=255
1.382828
1.558661
1.124740
1.293421
1.861453
1.572967
2.152920
2.140999
2.580881
4.981756
32.475591
86.291432
189.413428
434.679389
695.305467
1015.656590
1015.656590
1015.656590
1015.656590
1015.656590
1015.656590
994.489789
620.293021
379.175544
196.437836
131.683946
103.526711
108.857751
131.045580
146.465898
153.536797
151.239634
138.380527
110.110641
88.673830
59.133768
44.428706
27.505755
20.149946
14.534593
13.720989
12.256503
12.590885
11.285543
11.900663
11.262894
10.986924
11.025667
11.814833
11.075735
10.075569
9.643435
10.675788
10.232925
9.354949
9.864569
10.615587
8.877516
9.574890
9.840727
10.460615
9.897947
9.387732
9.549856
10.668635
10.299683
10.424852
10.931492
13.192892
13.146996
14.485717
16.213655
18.019676
19.248724
19.526482
20.670891
20.015836
19.794703
20.233989
18.994808
18.507838
18.532872
17.577410
18.131733
16.188622
16.571879
17.457604
16.239882
17.236471
17.055869
15.976429
16.322732
16.989708
15.620589
15.787482
16.244650
##ZVALUE=260
1.092553
1.226664
1.357794
1.405478
1.182556
1.514554
1.353621
1.430511
1.624823
1.706481
1.990795
3.185868
12.840629
53.759813
116.933584
293.785930
490.424633
815.832615
1015.674472
1015.674472
1015.674472
1015.674472
1015.674472
910.173655
563.285947
371.327996
209.128857
129.522681
87.952614
88.149905
113.691688
134.488940
152.626634
163.659453
160.741806
141.685605
121.776462
92.215538
68.838000
42.575002
30.576587
19.985437
15.473962
13.482571
11.285543
11.298656
11.115670
11.205673
10.277629
10.409951
10.662675
9.149909
9.189844
8.937716
8.619428
7.716417
8.212924
8.179545
8.075833
7.863641
8.195639
7.662773
8.308887
7.747412
8.078814
8.278489
9.122491
9.046793
9.022951
10.501742
10.759830
11.078715
12.578964
13.951659
14.154911
12.948513
13.339520
13.767481
13.984442
14.063716
14.022589
13.084412
13.702512
13.991594
14.056563
13.619661
14.063716
14.170408
14.011860
14.174581
14.448762
14.215708
14.602542
14.254451
14.258623
15.259981
##ZVALUE=265
0.842810
0.930429
0.818968
0.914931
1.016855
0.969768
0.919700
1.194477
1.076460
1.384616
1.204610
1.275539
1.855493
1.649857
4.385710
22.358894
57.441592
162.953734
314.132571
607.798696
865.655541
1015.674472
1015.674472
1015.674472
1002.132893
818.328857
553.985834
361.400843
190.105438
116.243958
82.174540
74.213743
86.694956
120.388865
142.550468
161.297917
168.144703
160.799623
143.215656
117.894411
93.127489
62.210560
45.543909
27.993917
18.803477
13.905764
11.912584
10.485649
10.192990
9.493828
9.624958
9.116530
8.451939
7.866621
8.227825
7.539988
7.990599
7.073879
7.767677
7.519722
7.307529
7.080436
7.258654
7.359982
7.403493
7.827878
7.885695
8.726716
8.451939
9.454489
9.766817
11.133552
11.106730
12.230873
12.555718
12.819767
13.525486
13.001561
13.594627
12.332797
13.157725
12.926459
12.968779
13.043880
12.727976
12.100935
13.159513
12.838840
13.097525
12.884736
12.466908
12.836456
13.030767
13.641715
13.467669
13.724566
##ZVALUE=270
0.858903
0.692606
0.749826
0.795722
0.864863
0.871420
0.933409
0.877976
1.189709
1.106858
1.226664
1.277924
1.393557
1.570582
1.537800
1.659989
2.557635
10.147691
31.792521
116.721988
263.868570
488.360524
871.642828
1015.674472
1015.674472
1015.674472
1015.674472
996.494889
708.832741
488.277674
314.627886
159.722567
93.922615
63.919425
66.933632
92.792511
116.820931
145.506859
159.297585
165.901780
160.604715
139.616728
119.225979
89.190602
66.556931
39.364696
27.909875
17.287731
13.522506
10.696650
9.611845
9.276867
8.218884
8.364916
7.926822
7.820725
7.814765
7.635951
6.982684
7.490516
7.228851
6.977916
6.777644
7.053614
7.489920
7.437468
8.044839
8.011460
7.977486
8.725524
9.158850
10.179877
10.128617
11.320710
12.003779
12.240410
12.022853
11.778474
12.032986
11.913776
11.501908
11.610985
12.020469
11.461973
11.290908
11.215806
12.078881
11.396408
11.630654
12.480617
11.651516
11.950731
12.019873
11.607409
11.542439
11.547804
##ZVALUE=275
0.546575
0.673532
0.609756
0.676513
0.659823
0.698566
0.822544
0.641942
0.726581
0.945926
0.730753
0.935793
0.970960
1.160502
1.196861
1.201630
1.146793
1.379848
1.509786
3.772974
20.164847
57.342649
174.261928
327.454805
583.138466
774.847865
979.435444
1015.676856
1015.676856
935.021639
731.268525
547.864437
376.215577
191.172957
115.077496
60.916543
50.077438
65.168738
84.589720
114.626884
135.740638
157.684684
163.216591
154.049993
140.709877
109.013915
88.358521
60.427785
42.844415
24.966598
17.130971
10.881424
8.368492
7.243752
6.889701
6.813407
6.819963
6.634593
6.804466
6.654859
6.823540
6.781816
6.679893
7.026792
7.120967
7.160902
7.491708
7.350445
7.702708
8.492470
8.886456
9.285808
9.698868
9.721518
10.304451
10.064840
10.844469
10.788441
11.273623
10.934472
10.664463
10.607839
11.330843
10.236502
10.807514
11.011958
11.088848
10.819435
10.599494
10.855794
10.841489
10.782480
10.992885
11.465549
10.759830
11.160970
##ZVALUE=280
0.383854
0.550747
0.609756
0.350475
0.581741
0.648499
0.457764
0.531673
0.651479
0.566840
0.799894
0.726581
0.650883
0.744462
1.155734
1.019835
1.016855
1.138449
1.017451
1.238585
1.323819
1.522899
10.280609
33.865571
99.293590
177.307725
316.007733
450.938940
629.811883
735.000968
810.712576
787.374973
681.404471
554.648638
368.101001
244.701505
124.331713
70.343614
40.561557
40.072799
57.860613
81.238747
109.705925
130.182505
149.389505
154.969692
147.751570
135.483742
108.082891
85.556507
57.613850
40.230751
23.839474
15.205741
9.283423
7.301569
6.497502
6.352663
6.153584
6.461740
6.423593
6.696582
6.805658
7.123947
7.588863
7.040501
7.630587
7.644892
7.462502
8.059740
7.866621
8.407831
8.765459
8.977652
9.357929
9.326935
9.514689
10.639429
9.864569
10.197759
10.434985
10.604858
10.525584
10.163784
10.839701
10.381937
10.210872
10.371804
10.118484
10.175705
10.489821
10.368824
10.364652
10.040998
10.695457
10.740757
##ZVALUE=285
0.465512
0.379682
0.357628
0.496507
0.456572
0.568628
0.692606
0.671744
0.623465
0.657439
0.597835
0.724792
0.756979
0.775456
0.878572
0.632405
1.000762
0.891685
0.843406
0.984669
1.038909
0.983477
1.331568
1.525879
4.035830
21.452904
52.867532
126.096606
218.151808
335.123539
641.048551
658.735633
772.078633
785.620809
743.296742
653.432608
468.910933
322.251916
168.800950
98.173618
32.709837
30.518770
35.746694
50.934553
76.662898
99.800825
133.485794
140.022635
149.820447
146.687627
127.778649
110.552907
83.159804
63.120723
38.664937
26.109815
14.771819
10.996461
7.505417
7.196665
6.503463
6.672740
6.889701
7.315874
7.605553
7.610917
7.988811
7.799864
8.197427
8.442998
9.010434
9.210706
9.699464
9.708405
9.854436
10.327697
9.712577
10.241866
9.995699
9.859800
9.895563
10.368824
10.356903
10.656714
10.551810
10.359883
10.128617
10.948777
9.907484
10.912418
10.165572
10.491610
9.623766
10.108948
10.087490
10.315776
##ZVALUE=290
0.427961
0.556707
0.484586
0.458956
0.505447
0.535846
0.484586
0.440478
0.437498
0.456572
0.702739
0.532866
0.618696
0.549555
0.437498
0.692606
0.735521
0.610948
0.672936
0.773668
0.716448
0.681877
0.930429
1.140833
1.162887
1.370907
2.015829
6.611943
29.037595
67.121983
130.403042
263.569951
399.853587
590.490699
707.528591
794.158578
783.568025
676.048994
552.141666
367.098451
243.829489
121.518970
66.265464
29.875636
23.021698
33.342838
47.628880
71.233511
93.288422
119.573474
134.696960
143.952966
144.241452
127.331614
110.348463
81.722736
60.437918
39.702654
25.430918
15.576482
11.460781
8.919835
8.002520
7.840991
8.052588
7.346869
8.454919
8.541942
8.420944
8.988976
9.542704
9.634495
9.646416
9.950995
10.246634
10.016561
10.374784
10.393858
10.372996
11.064410
10.115504
9.911656
10.734797
10.940433
10.546446
10.448694
10.345578
10.726452
10.456443
10.381937
10.234714
10.502934
9.666681
9.973645
10.065436
10.220408
##ZVALUE=295
0.346899
0.392795
0.534654
0.622869
0.378489
0.262856
0.374913
0.471473
0.349879
0.349879
0.414848
0.447631
0.434518
0.627637
0.522733
0.595450
0.618696
0.650883
0.428557
0.540614
0.560880
0.703931
0.874996
0.775456
0.766516
0.978708
1.077652
1.132488
1.281500
3.108978
11.215806
44.588447
94.671845
207.382441
326.340795
507.999659
633.491874
749.288797
773.159862
711.390972
604.889989
433.974862
299.378633
158.555508
87.669492
34.750700
21.119714
19.792914
27.742982
46.809912
64.547658
92.024803
110.364556
130.359530
138.493776
134.034753
123.192668
102.319717
84.687471
58.643818
42.478442
25.703907
17.400980
11.845827
9.232759
8.695722
8.666515
8.519888
8.755922
9.127855
10.131598
9.772778
9.872913
9.978414
10.426641
10.709763
10.211468
10.856986
10.740757
10.621548
10.702610
11.027455
10.609627
11.101961
10.896921
10.816455
10.439754
10.732412
10.898709
10.834932
10.480881
10.620952
10.422468
10.414720
10.284781
9.671450
##ZVALUE=300
0.402927
0.403523
0.397563
0.412464
0.452995
0.358820
0.441670
0.360608
0.475645
0.348687
0.504851
0.439882
0.486970
0.480413
0.397563
0.452995
0.565648
0.444651
0.569820
0.496507
0.541806
0.663996
0.647902
0.722408
0.590682
0.815988
0.903606
0.799894
0.938773
0.849962
1.346469
1.417994
6.344914
20.342469
68.734884
134.082437
271.025896
406.845808
593.258739
705.263019
782.439709
774.261951
661.228895
536.972880
354.738832
231.216550
116.998553
63.226819
25.827885
15.814900
17.655492
25.474429
41.696429
58.672428
83.242655
104.167461
124.078989
131.375790
129.236579
122.228861
101.146698
83.597898
58.588982
43.438673
27.272701
19.006729
13.001561
10.625720
9.460449
9.449720
9.510517
9.604692
9.670854
9.995699
10.390878
10.768771
10.407567
10.671616
11.089444
10.768771
11.265874
11.068583
10.577440
11.258721
10.901690
10.816455
10.856986
11.380911
10.709763
10.536909
10.674596
10.404587
9.874701
10.138750
10.117888
10.040998
##ZVALUE=305
0.458956
0.433922
0.375509
0.336766
0.368953
0.402927
0.342727
0.269413
0.249743
0.249743
0.590682
0.272989
0.615716
0.436902
0.450611
0.451803
0.483990
0.462532
0.645518
0.571609
0.486970
0.611544
0.586510
0.669956
0.550747
0.533462
0.783801
0.721812
0.738502
0.751615
0.628829
0.876784
0.951886
1.028776
2.297759
13.607740
38.310885
106.766820
193.721652
358.950496
499.319434
670.467019
757.681727
771.074891
710.331798
556.060672
425.655842
268.383622
167.199969
76.980591
39.026737
15.902519
12.211800
16.607642
23.983717
41.244626
57.227612
81.221461
98.523498
116.694570
123.592615
121.967793
115.574002
98.903775
79.016685
56.035519
41.082501
26.386976
18.710494
13.293624
10.707974
10.485649
9.788871
10.315776
10.424852
10.384917
10.199547
10.837913
10.909438
10.760427
10.922551
11.134744
11.414886
10.987520
11.238456
10.896921
11.296868
10.868907
10.380745
11.010766
10.943413
10.634661
10.877848
9.768605
10.038614
9.851456
##ZVALUE=310
0.397563
0.240803
0.165701
0.196695
0.458956
0.258684
0.134706
0.289679
0.279546
0.439882
0.437498
0.432730
0.340939
0.385642
0.349879
0.487566
0.418425
0.456572
0.371933
0.441670
0.283718
0.492930
0.517964
0.529885
0.561476
0.534654
0.419617
0.711679
0.791550
0.739694
0.641942
0.839829
0.834465
0.959635
0.856519
1.234412
1.320839
5.825758
18.983483
66.386461
132.108927
275.778770
415.387750
605.654716
713.725686
780.062675
753.374696
645.223856
525.434017
344.981551
229.934454
115.293860
62.129498
24.065971
13.092756
11.267662
13.932586
23.194551
33.411980
51.638484
67.890882
91.763735
106.539726
117.056966
117.972493
108.720660
96.378922
77.552795
59.148669
39.507747
29.267669
19.245744
15.071630
11.698604
10.790825
10.182858
10.184646
10.444522
10.057688
10.772943
10.655522
10.949969
11.002421
10.888577
10.924935
11.149645
10.885000
10.772943
10.945797
10.851622
10.791421
10.551810
10.400414
10.025501
10.221601
9.796619
##ZVALUE=315
0.366569
0.242591
0.192523
0.237823
0.310540
0.334978
0.309944
0.326633
0.141859
0.266433
0.281930
0.355840
0.304580
0.433922
0.302792
0.393987
0.365973
0.487566
0.438690
0.461936
0.495911
0.496507
0.477433
0.439882
0.509620
0.580549
0.529885
0.620484
0.379682
0.525713
0.650883
0.676513
0.692606
0.882745
0.944734
0.855923
0.877976
1.045465
1.315475
2.685785
10.428429
44.026971
97.305775
217.850804
351.659656
550.864935
668.284893
757.943988
769.810677
693.254471
585.663915
412.112474
287.978649
152.831674
85.265636
32.923818
16.195774
9.586811
10.037422
13.901591
19.704700
33.294559
46.455860
66.602826
82.953572
101.799965
109.886527
111.067891
105.102658
89.593530
75.062513
55.334568
41.510463
26.807785
19.546747
13.683438
11.855960
10.725856
10.743737
10.781884
10.870695
10.763407
10.712743
11.022687
10.986924
10.901690
11.190772
10.806918
10.994673
10.705590
10.645986
10.533929
10.698438
10.451674
10.024905
10.008812
##ZVALUE=320
0.322461
0.262856
0.122786
0.247955
0.324845
0.261664
0.277758
0.502467
0.447631
0.359416
0.274777
0.322461
0.401735
0.364780
0.312924
0.430942
0.334978
0.343919
0.311732
0.425577
0.441670
0.381470
0.498891
0.407696
0.526905
0.501871
0.518560
0.682473
0.389814
0.675917
0.595450
0.306964
0.507832
0.520945
0.620484
0.693798
0.772476
0.878572
0.814795
0.915527
1.167655
1.459718
4.841685
25.371909
63.790679
161.854625
267.847776
440.746546
574.818850
710.943937
759.567022
728.119612
645.424724
486.967564
350.762010
197.012424
111.061931
47.727823
23.325682
10.496974
8.419752
9.123683
11.645555
18.852949
27.434826
44.110417
59.351921
78.635812
93.282461
104.083419
106.364489
100.108981
89.035630
70.372820
54.356456
37.052631
27.131438
18.706918
14.191866
11.631846
10.902882
10.761619
10.630488
10.351539
10.649562
10.680556
10.541677
10.422468
10.555983
10.295510
10.278821
10.472536
10.334849
9.828806
10.108948
9.688735
##ZVALUE=325
0.272989
0.226498
0.305772
0.355840
0.299811
0.349879
0.314713
0.319481
0.340939
0.299811
0.160933
0.330806
0.359416
0.343919
0.267625
0.308752
0.196695
0.342727
0.332594
0.305772
0.397563
0.469685
0.459552
0.361800
0.321865
0.363588
0.278950
0.385642
0.543594
0.486970
0.462532
0.552535
0.483990
0.483990
0.633597
0.510812
0.596642
0.733733
0.770688
0.758767
0.766516
0.951886
0.987649
1.151562
2.349615
16.353726
43.815970
114.896894
206.300020
371.378660
506.593585
651.301742
719.910860
723.273754
656.203032
510.845780
386.486650
236.528516
144.653916
65.125823
32.894611
13.036728
7.938743
7.858872
8.751750
12.084842
17.144680
28.378963
40.234923
59.745908
74.537992
90.089440
97.104907
99.464655
94.124675
79.113841
66.418648
48.759580
37.107468
24.074912
17.913580
13.429523
12.208819
10.860562
10.579824
10.257959
10.477901
10.324717
10.148883
10.202527
10.197759
10.348558
9.796619
9.864569
9.834766
9.946823
##ZVALUE=330
0.178814
0.240803
0.305772
0.196695
0.284910
0.277758
0.344515
0.286698
0.374913
0.342727
0.289679
0.222921
0.360608
0.324845
0.325441
0.298619
0.294447
0.262856
0.245571
0.364780
0.338554
0.408888
0.377893
0.423789
0.290871
0.432730
0.479817
0.318885
0.356436
0.551939
0.393987
0.409484
0.494719
0.683665
0.576973
0.419617
0.539422
0.604987
0.424981
0.661612
0.662804
0.609756
0.722408
0.866652
1.019835
1.077652
1.286864
7.381439
24.573803
81.543922
153.667927
298.312902
424.300432
586.141944
674.417019
711.326599
670.966506
553.363562
436.736941
282.160640
181.821585
86.436868
45.428872
17.999411
10.348558
7.290840
7.440448
8.791685
11.371970
18.171668
25.752783
39.609671
53.414702
72.015524
83.595514
93.126893
93.153715
86.853504
77.048540
61.144829
47.594905
32.942891
25.225878
18.189549
14.643669
12.253523
10.598898
10.254979
9.752512
9.994507
10.068417
9.807944
9.538531
9.431839
9.522438
9.683967
##ZVALUE=335
0.329614
0.279546
0.457764
0.203848
0.435710
0.283718
0.349879
0.316501
0.327826
0.278950
0.296831
0.260472
0.234842
0.357628
0.262856
0.339746
0.325441
0.186563
0.375509
0.365973
0.462532
0.285506
0.377893
0.397563
0.384450
0.496507
0.364780
0.548959
0.419617
0.391603
0.425577
0.386834
0.277758
0.513792
0.469685
0.532866
0.456572
0.600815
0.524521
0.676513
0.593662
0.665784
0.612736
0.724792
0.709891
0.969768
0.932813
0.923872
1.140833
3.519654
14.283657
54.612756
113.315582
236.766934
362.001657
534.123778
632.236600
695.784688
686.754584
592.674017
487.830639
331.453681
226.279497
120.083690
65.246820
24.978518
12.242794
7.784963
7.606745
7.718801
8.456707
11.683702
16.132593
26.490688
36.866665
53.737760
66.333413
80.145597
86.733699
87.452531
82.755685
70.145726
60.232878
46.320558
36.020875
24.960637
19.220710
13.660789
12.146831
10.223985
9.822845
9.508729
9.348989
9.223819
9.203553
9.285808
##ZVALUE=340
0.130534
0.223517
0.297427
0.190735
0.131726
0.231862
0.269413
0.215769
0.188947
0.325441
0.377893
0.257492
0.229478
0.398755
0.325441
0.152588
0.267625
0.363588
0.296831
0.179410
0.197887
0.254512
0.252724
0.237823
0.235438
0.390410
0.562668
0.419617
0.406504
0.233650
0.363588
0.359416
0.279546
0.270605
0.424981
0.496507
0.288486
0.412464
0.525713
0.616908
0.557899
0.445843
0.381470
0.547767
0.436902
0.644922
0.806451
0.654459
0.727773
0.792742
0.921488
1.991987
7.004738
36.791563
86.018443
197.757483
314.911008
470.592976
578.958988
667.080879
681.083798
616.735816
526.215434
385.931730
273.887515
147.886872
85.784793
38.039684
17.949939
8.286834
7.142425
7.293820
7.769465
8.889437
11.220574
17.011762
24.321675
36.140680
47.626495
64.456463
74.625611
82.170963
82.240701
77.306628
70.421696
57.416558
46.862960
33.193827
25.600791
18.141866
13.877749
10.808706
9.565949
9.053946
8.855462
8.763671
##ZVALUE=345
0.124574
0.223517
0.159740
0.306964
0.224710
0.236630
0.179410
0.171661
0.153780
0.193715
0.167489
0.171661
0.378489
0.365973
0.334978
0.193715
0.265837
0.308752
0.116825
0.089407
0.188947
0.117421
0.235438
0.312924
0.346899
0.245571
0.206828
0.250936
0.256896
0.209808
0.307560
0.391603
0.336766
0.502467
0.334978
0.399947
0.367761
0.305772
0.412464
0.301600
0.464916
0.238419
0.397563
0.397563
0.478625
0.436902
0.603795
0.606775
0.577569
0.706911
0.804663
0.744462
0.894666
1.231432
3.220439
22.609830
60.857534
151.230693
248.806477
401.135683
515.457988
629.132986
667.212605
640.571713
567.467809
426.474810
320.778489
196.112990
115.572810
50.831437
24.886727
10.749698
7.619858
6.982684
7.057786
7.634759
8.416772
10.924935
14.988780
23.541451
32.380819
46.919584
57.281852
67.931414
73.211789
75.790882
74.012876
64.806938
56.411624
43.626428
34.021735
23.388863
18.094778
12.769699
10.557771
9.408593
##ZVALUE=350
0.270605
0.293851
0.157952
0.232458
0.176430
0.233650
0.321865
0.272989
0.301600
0.169873
0.363588
0.248551
0.190735
0.302792
0.294447
0.180602
0.429749
0.319481
0.256896
0.261664
0.093579
0.324845
0.144839
0.136495
0.247955
0.232458
0.156760
0.330806
0.240803
0.253916
0.183582
0.216961
0.219941
0.184774
0.292659
0.395775
0.400543
0.116825
0.190735
0.299811
0.361800
0.396967
0.201464
0.442863
0.461936
0.503659
0.533462
0.575781
0.563860
0.553727
0.621676
0.631809
0.797510
0.780821
1.028776
1.029968
1.483560
11.466742
37.746429
107.654929
189.688802
336.541533
449.062586
574.404001
632.360578
638.007522
586.741567
478.804708
371.572971
229.810476
146.573782
72.241426
35.969615
12.701750
7.589459
6.593466
6.578565
6.536841
7.008910
8.093715
9.973645
15.076995
20.537972
29.501915
38.553476
51.291585
59.714913
67.167878
69.652796
68.208575
62.194467
51.821470
43.025613
32.177567
23.905635
16.913414
##ZVALUE=355
0.162721
0.194907
0.134706
0.374913
0.043511
0.274777
0.398755
0.205636
0.266433
0.211596
0.139475
0.140667
0.132918
0.214577
0.135899
0.318885
0.251532
0.219941
0.339746
0.368953
0.427961
0.357628
0.333786
0.414848
0.273585
0.325441
0.255704
0.136495
0.306964
0.422597
0.419617
0.375509
0.385642
0.361800
0.386834
0.311732
0.379682
0.431538
0.318885
0.375509
0.309944
0.386834
0.394583
0.464916
0.506639
0.558496
0.525713
0.531673
0.488758
0.578761
0.777841
0.652671
0.593662
0.656843
0.737906
0.780821
0.776649
0.837445
1.058578
5.114675
21.257997
75.750947
143.055916
274.037719
392.276645
536.130667
603.405833
633.717775
605.112910
508.220792
418.999791
291.379690
195.596814
95.699430
49.606562
17.844439
8.973479
6.614923
6.203651
6.313920
6.594658
6.485581
6.996989
8.985996
11.902452
18.012524
24.552941
35.188794
43.139458
53.455830
59.528947
63.460469
61.725974
55.922866
49.103498
39.337873
##ZVALUE=360
0.114441
0.143647
0.180602
0.129938
0.177622
-0.006557
0.064969
0.219941
0.111461
0.101924
0.279546
0.119805
0.117421
0.217557
0.132918
0.086427
0.210404
0.332594
0.129938
0.163913
-0.039935
0.131726
0.246763
0.094771
0.273585
0.058413
0.267625
0.195503
0.239611
0.177622
0.299811
0.189543
0.160933
0.293851
0.304580
0.299811
0.371933
0.357628
0.217557
0.209808
0.452995
0.344515
0.280738
0.276566
0.446439
0.404716
0.336766
0.470877
0.473857
0.336766
0.349879
0.476837
0.515580
0.474453
0.556707
0.573993
0.742674
0.705719
0.824928
0.755787
0.831485
1.569986
7.330775
37.056804
87.814927
198.999643
306.888819
445.463657
536.466837
593.901873
594.621897
532.739758
449.537635
315.210819
217.990875
114.319921
63.888431
25.812984
11.698604
6.330609
5.738735
5.866885
5.827546
5.796552
5.909801
6.462932
7.444620
10.411739
14.107823
20.867586
27.555823
38.201809
45.407414
53.682923
56.486726
57.029724
##ZVALUE=365
0.299811
0.271797
0.210404
0.356436
0.148416
-0.039935
-0.022650
0.091791
0.105500
0.254512
0.077486
0.262856
0.231862
0.398755
0.344515
0.306964
0.217557
0.192523
0.118613
0.201464
0.080466
0.087619
0.214577
0.262856
0.214577
0.212789
0.132918
0.131726
0.171661
0.360608
0.245571
0.217557
0.397563
0.401735
0.193715
0.255704
0.434518
0.302792
0.333786
0.298619
0.354648
0.374913
0.431538
0.436902
0.307560
0.342727
0.332594
0.312924
0.211596
0.332594
0.613928
0.561476
0.500679
0.340939
0.499487
0.591874
0.488758
0.537634
0.643730
0.551939
0.704527
0.824928
0.955462
0.960827
2.335906
16.459823
45.196414
117.767453
207.599998
349.505544
447.276831
534.127951
561.818480
528.823733
460.360646
339.615941
246.512890
141.761899
80.477595
32.214522
14.959574
6.585717
5.556941
5.253553
5.560517
5.360842
5.160570
5.360842
5.688667
6.586909
8.377433
12.369752
17.032623
24.634600
31.967759
41.077733
##ZVALUE=370
0.097752
0.089407
0.102520
0.132918
0.083447
0.242591
0.032783
-0.010729
0.191927
0.100732
0.116825
0.103712
-0.014901
0.152588
0.016689
-0.043511
0.110865
-0.114441
0.105500
-0.055432
0.023842
-0.033975
-0.027418
0.103712
0.092983
0.034571
0.056624
0.068545
0.160933
0.137687
0.104904
0.140667
-0.001788
0.170469
0.084639
0.143647
0.146627
0.095963
0.084639
0.074506
0.092983
0.121593
0.224710
0.217557
0.095963
-0.011921
0.200868
0.217557
0.081658
0.306964
0.199676
0.080466
0.302792
0.192523
0.286698
0.170469
0.307560
0.281930
0.246763
0.237823
0.420809
0.463724
0.434518
0.453591
0.573993
0.702739
1.146793
6.641746
22.095442
70.826411
132.029653
241.116881
342.068672
464.069843
517.821908
524.508953
478.074551
377.831459
284.582973
162.115693
94.537735
40.083528
19.620657
8.487701
5.693436
4.795790
4.612803
4.522800
4.565716
4.471540
4.600883
5.037785
5.624890
7.593632
10.026693
14.776587
##ZVALUE=375
0.184774
0.103712
0.195503
0.238419
0.214577
0.224710
0.262856
0.172853
0.267625
0.205636
0.242591
0.186563
0.080466
0.346899
0.137687
0.201464
0.207424
0.132918
0.240803
0.221729
0.200868
0.237823
0.170469
0.447631
0.086427
0.199676
0.287890
0.230670
0.216961
0.181794
0.269413
0.130534
0.238419
0.381470
0.241995
0.102520
0.135899
0.221729
0.158548
0.178814
0.351667
0.186563
0.314713
0.380874
0.381470
0.178814
0.245571
0.220537
0.234842
0.324845
0.254512
0.140667
0.316501
0.338554
0.381470
0.313520
0.374913
0.415444
0.447631
0.385642
0.526905
0.332594
0.505447
0.593662
0.542998
0.624657
0.532866
0.773668
1.088977
3.276467
11.211634
40.470958
83.390474
181.442499
276.423693
403.802991
477.159619
519.981980
508.962870
431.688428
347.044468
224.760771
145.470500
70.892572
36.174655
12.442470
6.284714
4.657507
4.648566
4.528761
4.518628
4.363656
4.366636
4.370809
4.393458
5.135536
##ZVALUE=380
0.277758
0.125766
0.126958
0.064969
0.104904
0.190735
0.117421
0.145435
0.148416
0.125766
0.154972
0.094771
0.157952
0.146627
0.183582
0.026822
0.119805
0.217557
0.099540
0.281930
0.376701
0.158548
0.122786
0.234842
0.172853
0.178814
0.183582
0.152588
0.045896
0.156760
0.251532
0.054836
0.169873
0.096560
0.141859
0.342727
0.231862
0.234842
0.114441
0.131726
0.138879
0.436902
0.171661
0.293851
0.302792
0.208616
0.311732
0.296831
0.208616
0.372529
0.417829
0.494719
0.337958
0.331998
0.276566
0.423789
0.196695
0.387430
0.349879
0.385642
0.368953
0.415444
0.296831
0.456572
0.488758
0.484586
0.477433
0.510812
0.582933
0.896454
0.967979
1.768470
6.100535
27.706623
61.867833
141.895413
224.407911
345.977545
431.821942
503.639579
509.435534
449.712873
372.285843
259.370804
176.952481
90.022683
47.766566
17.232895
8.241534
4.844666
4.375577
4.268885
4.179478
4.174709
4.201531
3.955960
##ZVALUE=385
0.044703
0.173450
0.121593
0.111461
0.041723
0.198483
0.234842
0.187755
0.158548
0.273585
0.084639
-0.024438
0.145435
0.093579
0.051856
0.113845
0.160933
0.108480
0.189543
0.093579
0.328422
0.212789
0.210404
0.203848
0.225902
0.205636
0.164509
0.230670
0.140667
0.182986
0.184774
0.279546
0.185966
0.349879
0.245571
0.021458
0.254512
0.240803
0.239611
0.120997
0.196695
0.311732
0.206828
0.165701
0.177622
0.335574
0.191927
0.159740
0.325441
0.169873
0.392795
0.272989
0.326633
0.261664
0.319481
0.283718
0.329614
0.314713
0.468493
0.367761
0.273585
0.273585
0.235438
0.135899
0.365973
0.410676
0.503659
0.422597
0.496507
0.490546
0.627637
0.722408
0.810623
1.092553
3.630519
11.856556
41.289926
85.971951
181.176662
270.635486
394.467711
460.238457
500.468016
492.717624
423.045754
346.665978
226.249695
147.522688
69.172978
34.426451
11.919737
5.782843
4.129410
3.773570
3.694892
3.714561
##ZVALUE=390
0.076890
0.198483
-0.013709
0.230670
0.293851
0.053644
0.171661
0.224710
0.191927
0.213981
0.238419
0.126958
0.188947
0.156760
0.259876
0.111461
0.154972
0.106692
0.281930
0.066757
0.123978
0.177622
0.151992
0.166893
0.223517
0.072718
0.203848
0.053644
0.353456
0.180602
0.027418
0.200868
0.239611
0.218749
0.185966
0.058413
0.231862
0.219941
0.054836
0.020862
0.185966
0.260472
0.191927
0.262856
0.278950
0.223517
0.296831
0.196695
0.160933
0.160933
0.228882
0.296831
0.416636
0.261664
0.224710
0.189543
0.377893
0.432730
0.455976
0.296831
0.282526
0.334978
0.278950
0.383854
0.101924
0.402927
0.447631
0.356436
0.524521
0.389814
0.579953
0.513792
0.667572
0.730753
0.733733
0.735521
1.451969
8.337498
24.432540
72.214603
133.447647
245.948434
332.605839
432.502627
491.862893
518.817902
493.999720
408.272743
319.325924
201.113820
120.632648
49.988627
22.504926
6.786585
4.187822
3.708601
##ZVALUE=395
-0.137687
-0.045896
-0.041723
-0.008941
-0.127554
0.026822
-0.043511
0.080466
-0.018477
-0.033975
0.079870
-0.047684
0.065565
-0.052452
-0.122786
0.032783
-0.024438
-0.012517
0.107884
0.067949
0.095963
0.087619
0.047684
0.019670
-0.045896
-0.128746
-0.053644
-0.049472
-0.002980
-0.044703
0.008941
0.100732
-0.059605
0.168681
0.040531
0.099540
-0.043511
0.014901
-0.033975
-0.015497
0.002980
-0.045896
0.020862
0.071526
0.211596
0.063777
-0.034571
0.023842
0.071526
0.027418
-0.050664
0.007749
0.128746
0.124574
0.096560
0.050664
0.100732
0.094771
0.181794
0.076890
0.073910
0.187755
0.190735
0.242591
0.191927
0.179410
0.095963
0.470877
0.260472
0.386834
0.450611
0.427961
0.406504
0.336766
0.461936
0.449419
0.335574
0.636578
0.867844
4.671812
16.078949
52.530766
98.848939
185.158849
273.526907
397.318006
478.657484
542.119741
544.415712
481.087565
392.991900
258.141756
165.058970
74.098706
34.319758
10.917783
##ZVALUE=400
0.171661
0.105500
0.209808
0.091791
0.164509
0.091791
0.259876
0.209808
0.023842
0.049472
0.143647
0.103712
0.148416
0.074506
0.143647
0.204444
0.309944
0.173450
0.082850
0.217557
0.167489
0.336766
0.164509
0.194907
0.072718
0.124574
0.169873
0.104904
0.263453
0.293851
0.292659
0.252724
0.198483
0.310540
0.303984
0.270605
0.219941
0.346899
0.303984
0.257492
0.195503
0.173450
0.374913
0.312924
0.237823
0.227690
0.313520
0.221729
0.358820
0.210404
0.212789
0.277758
0.367761
0.172853
0.144839
0.273585
0.239611
0.348687
0.242591
0.250936
0.311732
0.188947
0.193715
0.343919
0.324845
0.349879
0.366569
0.366569
0.470877
0.460744
0.597835
0.673532
0.554919
0.576973
0.487566
0.572801
0.523925
0.539422
0.655651
0.714660
1.047850
2.366900
8.697510
32.487512
66.317916
144.021511
221.512914
333.119631
422.642827
510.727763
530.542731
485.605001
414.387584
295.505524
199.935436
100.911856
##END
