##TITLE=FQP00652
##FORMAT=SPECTACLE-ASCII V-1.2
##DATA TYPE=ULTRAVIOLET SPECTRUM
##SECOND TYPE=ULTRAVIOLET SPECTRUM
##DATE=01/09/18
##TIME=17:04:18
##SPECTROMETER/DATA SYSTEM=SPECTACLE
##XUNITS=NM EM
##YUNITS=ENERGY
##YFACTOR=1
##FIRSTX=220
##LASTX=410
##NPOINTS=96
##3DDATA=Equidistant
##ZUNITS=NM EX
##FIRSTZ=210
##LASTZ=400
##ZPOINTS=39
##XYDATA=(Y..Y)
##ZVALUE=210
2.378821
1.935959
1.999736
1.855493
2.376437
2.376437
2.211928
2.544522
2.550483
2.680421
2.329946
2.020597
2.014637
2.225637
2.316833
2.486706
2.372861
2.210736
2.836585
2.708435
3.015995
3.662705
3.388524
3.782511
3.552437
3.882647
3.964901
4.882812
4.635453
5.588531
5.044937
6.438494
6.367564
6.429553
5.823970
5.822778
5.850792
7.362962
5.891919
6.639957
6.077886
5.444884
5.774498
6.360412
5.733967
5.525947
5.977750
5.599856
5.790591
5.262494
5.786419
5.383492
5.890727
5.386472
5.510449
5.221963
5.168915
5.468726
5.262494
5.263686
5.257726
5.012751
4.883409
5.054474
4.914999
5.205870
5.601645
6.502867
6.784797
7.017851
9.604692
10.984540
11.952519
13.309717
15.135407
16.271472
17.921925
19.455552
19.204617
20.341873
19.858479
16.626716
15.861988
13.102889
10.267496
8.342862
6.221533
4.996657
4.662871
5.547404
4.630685
5.026460
4.946589
6.002784
5.238652
5.107522
##ZVALUE=215
11.214614
10.374784
8.783937
7.810593
5.843639
4.384518
4.904866
4.550815
6.271601
5.698800
4.501939
4.177690
3.905892
3.673434
3.360510
2.763867
3.069639
2.709627
2.512932
3.696680
3.210902
3.920794
3.760457
3.814697
4.273653
4.661679
4.963875
6.166697
6.337762
7.632971
9.195805
9.421706
9.114742
10.529757
9.994507
11.081696
10.024905
9.490848
9.706616
9.535551
9.006858
8.502603
8.290410
9.653568
7.886887
7.435679
7.468462
7.369518
5.877614
6.209612
6.160736
6.594658
5.812645
5.944967
5.355477
6.474853
5.294681
5.951524
5.247593
5.088449
5.407929
5.826950
4.774928
5.096793
5.320907
5.566478
5.585551
6.887913
5.625486
8.114576
8.358955
11.666417
12.248755
14.047623
14.827847
16.153455
18.496513
19.045472
18.455982
17.999411
14.833808
13.937950
13.182759
9.794831
8.785725
6.229877
6.219745
5.338788
5.594492
4.783869
4.148483
4.824996
4.170537
5.327463
4.752874
5.311966
##ZVALUE=220
30.632615
28.548837
32.048821
31.061769
25.317669
18.458962
14.015436
10.955930
8.756518
10.753870
9.784698
10.192990
10.345578
8.627772
6.588697
5.309582
2.734661
2.347827
1.927614
1.497865
1.357794
1.015663
1.361966
2.151728
3.415942
2.732873
5.288720
5.610585
7.461905
8.680820
9.824634
9.877682
12.931824
12.973547
13.666749
13.848543
13.355613
13.651848
12.041926
12.568831
10.987520
11.624694
10.484457
10.526776
9.297729
9.102821
8.999705
8.179545
6.042719
6.775856
7.013679
6.632805
4.899502
5.354881
5.167723
5.475879
3.795624
4.949570
4.203916
3.850460
4.722476
4.461408
4.582405
4.196763
3.867745
4.531741
3.838539
4.404783
5.082488
6.840825
7.651448
7.114410
9.162426
11.851788
12.269616
13.193488
13.525486
13.159513
13.914704
12.790561
13.273954
13.342500
10.391474
8.169413
6.194711
5.221963
4.703999
5.128980
4.018545
3.621578
3.617406
3.091693
3.686547
3.711581
3.228784
3.087521
##ZVALUE=225
49.732924
56.243539
72.668791
93.298554
98.473430
98.179579
85.096955
68.301558
48.539639
36.601424
29.250979
26.361942
25.034547
26.394725
26.625991
23.964643
21.469593
16.969442
13.098717
9.055734
7.478595
5.885959
4.705787
5.236864
5.325675
6.700754
8.411407
10.015965
11.841655
13.510585
16.511679
17.942786
17.882586
19.868612
19.969940
19.854903
18.975735
19.782782
20.084977
18.408895
19.619465
16.413927
17.801523
14.911890
15.258789
13.781786
14.015436
13.540983
12.164712
12.507439
12.534857
13.168454
12.261868
11.617541
10.380745
11.172891
10.753870
10.882616
9.980798
9.749532
9.942651
10.631680
9.927750
9.994507
10.582805
9.790659
10.154843
10.013580
11.558533
12.840629
14.829636
16.959906
16.776919
17.796755
19.100904
20.676851
19.952655
20.157695
20.811558
20.327568
18.571615
17.445683
17.019510
15.434623
14.313459
12.453794
12.613535
10.694861
9.897947
8.375645
9.409785
8.940697
8.502603
8.969903
8.572936
8.752942
##ZVALUE=230
52.750707
59.614778
95.758438
164.662600
211.467743
257.601738
265.983939
255.104899
219.480991
178.285837
118.479729
83.745718
51.978827
46.175718
44.434667
52.361488
50.703883
47.891736
44.802427
37.270784
28.420687
18.520951
13.445616
8.874536
7.865429
7.364750
8.418560
9.240508
9.917617
13.862848
14.838576
16.557574
17.553568
16.746521
17.465949
18.412471
17.617941
17.287731
17.250776
16.979575
17.985702
15.902519
15.415549
15.426874
16.345978
14.139414
15.146732
13.049841
12.796521
13.085604
13.248920
13.178587
13.007522
13.479590
12.142658
11.122823
11.876822
12.564659
12.150407
10.873675
10.997653
12.613535
11.901855
11.576414
12.969971
13.486743
11.284947
14.558434
14.257431
15.628934
15.301704
16.365647
18.392801
19.825697
18.941760
19.613504
20.460486
20.851493
20.245910
20.416975
19.780993
19.839406
18.448830
16.930699
16.245842
14.389753
13.433695
12.717843
10.779500
11.810660
10.868907
11.792779
11.662841
11.256933
10.361671
10.799766
##ZVALUE=235
14.406443
17.330647
36.469698
84.841847
137.118697
214.004517
277.684927
343.773961
361.179709
361.979604
302.507877
242.350698
166.485906
116.345882
78.382492
70.452690
72.852969
70.318580
80.763698
85.407495
77.176690
67.022443
51.641464
34.509897
25.490522
16.011000
11.577606
8.663535
8.274913
8.505583
9.050965
8.420944
11.741519
12.707710
12.494922
12.816787
12.767911
13.628602
13.214946
12.265444
12.191534
13.931990
12.677908
10.931492
12.627840
12.765527
11.192560
11.950731
10.564923
11.383891
10.975599
9.855628
10.930896
9.996891
12.218952
10.471940
10.313988
10.270476
10.355711
10.717511
10.760427
10.758638
9.978414
10.804534
11.787415
11.068583
11.667609
11.615753
12.408495
13.313890
13.738871
13.663769
15.723705
16.521811
15.949607
17.150640
18.493533
17.333627
16.796589
16.230941
16.068816
15.973449
13.456941
14.898777
14.906526
14.358759
12.003779
12.890697
14.237761
13.391972
13.141632
13.444424
14.216900
13.411641
14.557838
12.190938
##ZVALUE=240
2.117753
2.032518
7.444620
20.286441
56.450963
95.905662
181.241632
271.850824
392.738581
468.822718
525.140762
514.762998
463.589430
360.996723
279.107690
183.346868
129.851699
100.053549
91.854930
103.881955
113.150477
116.762519
114.295483
101.330876
86.590648
69.223642
47.143698
34.145713
20.333529
14.372468
11.264682
9.934902
8.623600
10.516644
11.317730
10.278821
11.725426
12.479424
11.050701
11.186600
12.206435
13.361573
12.043715
12.987852
12.817979
12.864470
12.115836
12.705922
12.966990
12.767911
13.340712
11.770725
13.259649
13.198853
12.176633
13.030767
12.951493
12.468696
13.362765
12.717843
13.530850
12.717843
13.547540
12.713671
13.671517
14.281869
13.714433
14.747977
16.255975
16.872883
18.405914
18.651485
19.052625
20.201802
21.448731
22.654533
23.736954
23.017526
21.850467
21.767616
23.834705
23.261905
21.433830
19.849539
20.016432
18.739700
17.974973
19.369721
18.701553
18.315911
18.149614
17.738938
17.568469
16.837716
18.653870
16.948581
##ZVALUE=245
1.498461
1.923442
1.969934
1.945496
4.328489
14.453530
43.852925
95.907450
218.483806
348.595977
552.550554
711.380839
846.832991
896.241665
884.293914
746.023655
616.835952
436.383486
306.394696
191.016793
130.893588
106.365681
115.358829
129.561424
133.856535
126.758814
116.443634
98.885894
73.712468
56.526661
41.817427
25.524497
18.053651
13.457537
12.698770
13.487935
13.937950
13.556480
14.025569
15.433431
16.219616
16.364455
16.117692
15.596747
15.990734
16.324520
15.470982
15.072823
14.076829
15.598536
13.536811
15.017986
14.641881
13.471842
14.096498
13.146996
12.832880
14.312863
12.740493
13.198853
13.465881
13.267994
13.925433
14.183521
15.291572
13.787746
14.612675
16.075969
14.556646
18.315911
19.055605
19.949675
20.937920
23.248792
24.531484
24.513602
26.464462
25.485754
25.150776
25.167465
23.593903
23.894906
22.343993
20.999908
21.213889
19.477606
18.720627
19.173622
19.387603
19.347668
18.658638
18.666983
18.977523
18.428564
17.145872
18.197894
##ZVALUE=250
1.385808
1.513958
1.514554
1.588464
1.829863
1.769662
2.693534
7.704496
31.861663
75.754523
202.886462
366.653800
564.339757
837.890506
1005.568504
1015.748978
1015.748978
999.521017
825.200081
544.291735
357.378721
220.717788
122.056603
97.511411
108.708739
122.536421
140.729547
143.575668
142.248869
129.445791
116.874576
84.849000
67.114830
43.787956
30.923486
24.589896
19.860864
17.904639
17.342567
18.295646
16.910434
16.978979
17.861724
18.610954
18.403530
17.333627
17.847419
17.758608
16.650558
16.329885
15.368462
15.447736
14.670491
14.391541
13.948679
14.109612
13.653636
14.270544
13.723969
12.480617
11.884570
12.652874
12.454987
13.648868
12.564659
12.545586
13.414621
14.527440
12.520552
14.182925
14.330745
16.300678
16.569495
18.465519
19.518733
18.265843
18.634796
19.962788
18.409491
18.955469
18.760562
17.975569
17.956495
17.470717
17.265677
17.023683
17.381907
17.804503
18.162727
16.458631
16.119480
16.029477
16.878843
17.226934
16.431808
16.230941
##ZVALUE=255
0.805855
1.288652
0.777841
1.187921
1.143813
1.359582
1.298785
1.511574
2.095699
2.958775
16.067624
47.283769
135.293603
234.008431
400.184989
546.370745
722.880960
802.363753
814.802647
740.000010
614.412427
426.711440
297.741890
170.730948
113.913417
83.791614
87.171793
111.878514
127.831697
146.819949
156.464577
153.282881
141.468644
115.806460
96.831918
69.032907
51.333904
34.595728
27.420521
21.321774
20.696521
21.405816
19.308925
19.863844
19.453764
18.874407
17.816424
16.900897
17.175674
15.879869
16.138554
15.337467
13.448000
13.217926
12.573600
11.225939
12.373924
11.636615
10.862947
11.321902
10.571480
11.427999
11.064410
11.452436
10.227561
10.146499
10.721684
11.145473
10.946989
11.992455
12.627840
12.137890
13.178587
14.054775
14.339685
14.754534
15.157461
16.092658
17.030835
15.694499
15.388727
15.547872
16.273856
15.221834
15.364885
14.731884
16.185641
15.528798
15.119910
16.107559
16.315579
15.267730
15.905499
16.169548
14.850497
16.132593
##ZVALUE=260
0.998974
1.016855
1.240969
0.947714
1.192689
1.061559
1.468658
1.143813
0.972748
1.402497
1.688600
2.335906
6.783605
30.580759
76.178908
182.792544
299.171805
480.887890
622.060895
780.287981
838.478804
827.933550
723.986626
593.465567
397.385955
274.750590
169.269443
113.313794
83.735585
90.917945
114.779472
145.089626
160.382986
173.796415
169.226527
151.769519
133.311749
101.211667
80.321431
54.857731
42.336583
31.906962
25.976896
22.460818
21.973848
21.324754
20.236969
19.399524
18.494725
16.447902
16.230941
15.556812
15.496612
13.784766
13.890862
11.753440
12.171865
11.875629
11.015534
10.591745
10.472536
10.527968
10.517836
9.408593
10.304451
9.655952
10.034442
10.664463
10.513663
9.945631
11.100769
11.727810
11.910796
11.949539
13.075471
13.057590
12.599826
13.231635
14.110804
14.057755
13.876557
14.155507
14.696717
14.524460
14.298558
14.127493
13.670921
13.995767
13.304949
14.071465
14.312863
14.154911
14.080405
14.077425
14.762878
15.482903
##ZVALUE=265
0.804663
0.808835
0.767708
0.936985
0.852942
0.744462
0.846982
0.874996
0.798702
0.759959
1.067519
1.260638
1.082420
1.567602
3.654957
20.580888
49.626827
128.876567
226.101875
410.123467
574.939847
741.063952
911.708474
956.915021
900.462866
788.747668
594.106913
423.472524
243.222713
153.508782
103.130937
83.781481
101.008415
134.406686
154.886842
176.255703
183.543563
173.595548
163.170695
133.394003
109.192729
77.352524
58.432817
40.295720
30.188560
23.377538
22.356510
20.242929
19.257665
17.959476
17.750859
16.244650
15.447736
15.256405
14.129877
12.902617
11.757612
11.373758
11.048913
11.115670
10.794997
9.775758
9.750724
9.737611
10.375977
9.958744
9.295940
10.336637
9.251833
10.134578
10.125637
10.886788
11.303425
12.538433
12.604594
13.131499
12.492537
12.921691
12.795925
13.068914
13.951659
13.615489
13.111830
13.895631
13.425946
13.766885
13.029575
13.513565
12.965798
13.316870
14.048815
13.430715
13.707876
12.489557
14.397502
14.264584
##ZVALUE=270
0.583529
0.497699
0.508428
0.379682
0.758767
0.730753
0.577569
0.694990
0.671744
0.804663
0.648499
0.869632
0.967979
1.095533
1.067519
1.281500
1.867414
8.295774
26.759505
88.939667
177.559853
306.859612
541.089773
733.242631
953.032970
1015.453935
1015.453935
990.016460
787.869692
601.686835
424.917936
225.785971
131.633878
81.811547
81.573725
107.793808
129.132867
157.933831
173.540711
178.334713
176.321864
153.338909
134.408474
100.584626
78.070760
51.354766
39.128661
26.647449
23.170710
17.335415
16.979575
15.756488
14.750957
13.467669
13.157725
12.652874
12.059808
11.305809
11.154413
10.692477
10.424852
10.204911
10.141730
9.838939
9.535551
9.632707
9.467602
10.088682
10.554790
10.355711
10.203719
11.038780
10.737777
11.886954
11.394620
12.006760
12.125969
12.114644
11.766553
12.355447
12.334585
12.338758
12.795925
11.931658
12.360811
12.045503
11.442900
12.290478
11.734962
12.637973
12.148619
12.896657
12.619495
12.859702
12.417436
12.041926
##ZVALUE=275
0.433922
0.513792
0.480413
0.486970
0.571609
0.428557
0.730753
0.506639
0.427961
0.434518
0.767708
0.576973
0.597835
0.761747
0.719428
1.051426
1.025796
1.108646
1.333952
3.674626
15.150905
46.788454
134.455562
248.214602
460.961461
633.457899
822.542906
938.534737
982.607603
938.106775
834.494829
615.718961
444.259644
242.437720
142.202973
76.617599
63.001513
75.295568
94.697475
123.989582
145.698786
164.273977
171.252489
162.502527
148.353577
119.194984
98.700523
67.882538
51.355958
32.451749
23.434758
16.808510
14.118552
12.186766
11.539459
11.489987
10.582805
11.002421
10.307431
10.548830
10.493994
10.300875
10.392666
9.470582
9.430647
9.966493
10.357499
9.931922
10.400414
9.499788
10.248423
11.002421
11.433959
11.485815
11.556745
11.930466
11.804700
11.726618
11.842847
12.035966
11.971593
12.055635
11.775494
11.899471
11.188984
11.752844
11.114478
11.712909
11.775494
11.783838
11.485815
11.576414
11.257529
11.664629
11.741519
12.235641
##ZVALUE=280
0.642538
0.391603
0.573993
0.616908
0.596642
0.624657
0.650883
0.753999
0.758767
0.783801
0.786781
0.724792
0.758767
0.719428
1.061559
0.873804
1.058578
1.079440
1.198649
1.206994
1.526475
1.872778
9.731650
33.459663
105.682611
195.649862
354.532003
508.592725
712.388754
838.614702
901.451707
893.291831
802.470446
614.558458
457.155704
263.960958
157.994628
76.772571
47.281981
47.157407
59.354901
87.212920
110.276937
138.674974
153.522491
157.415867
153.427720
134.613514
115.062594
85.754991
65.075755
41.201711
28.864741
18.478632
14.109612
10.938644
10.920763
10.533929
9.973645
10.206699
10.563731
10.556579
10.374784
9.903908
11.243820
10.337830
10.836720
11.047721
10.850430
11.653900
11.414886
12.293458
11.996627
12.608767
12.355447
12.115836
12.241602
12.440681
11.976957
11.995435
12.509823
12.057424
12.035966
12.831688
12.018681
12.330413
12.513995
11.982918
11.814833
11.600852
12.037754
11.405945
11.779666
12.125969
11.145473
11.335611
##ZVALUE=285
0.492930
0.410676
0.568628
0.592470
0.501871
0.409484
0.555515
0.571609
0.587702
0.470877
0.655651
0.766516
0.520945
0.690818
0.732541
0.748634
0.702739
0.698566
0.789762
0.662804
0.888705
1.234412
1.213551
1.379848
4.689693
17.164946
57.314634
120.037794
258.953571
389.809608
583.994985
710.966587
826.260448
839.310884
765.481591
648.939610
458.568931
314.816833
164.709687
97.174644
44.753551
31.565428
37.362576
52.401423
78.563690
101.099610
129.894614
142.214894
151.132941
146.326423
131.386518
113.632679
86.288452
65.905452
42.365789
29.445887
18.839836
13.109446
10.905862
10.149479
10.133982
10.581613
11.342764
10.694861
11.417866
11.136532
11.840463
12.132525
12.155771
12.464523
12.161732
13.030767
13.195872
13.278723
13.112426
13.052821
12.982488
13.394952
12.959838
13.389587
13.059974
12.948513
12.766719
12.692809
12.603998
12.483597
12.216568
12.195706
12.220740
12.276769
12.243986
11.895895
11.891723
11.561513
10.821819
11.589527
##ZVALUE=290
0.495911
0.540614
0.472665
0.625849
0.435710
0.469685
0.522733
0.559688
0.432730
0.575781
0.583529
0.654459
0.498891
0.660419
0.621676
0.815988
0.587702
0.610948
0.609756
0.595450
0.870824
0.848770
0.965595
0.810623
1.161695
1.323819
2.011657
6.422400
31.531453
73.717833
145.472884
296.412706
449.592471
650.781989
764.411688
837.619901
817.888975
690.414906
556.950569
365.727544
240.671635
120.811462
64.050555
30.387640
24.186969
34.858584
48.551559
73.200464
94.513893
121.329427
137.042999
146.276951
146.453977
130.246878
111.171603
83.256960
64.184666
43.366551
30.249953
19.716620
14.997721
12.342930
12.261868
12.429953
12.267828
12.651682
12.881756
13.146996
13.244748
13.954639
14.246702
13.821721
14.511943
14.161468
14.427900
14.394522
13.986826
14.494658
14.304519
14.191866
13.513565
13.722777
13.556480
13.535619
13.004541
13.346672
13.371706
12.622476
12.485981
12.855530
11.923909
12.172461
11.842847
11.429787
11.366606
11.182427
##ZVALUE=295
0.461936
0.381470
0.279546
0.503659
0.392795
0.700951
0.453591
0.533462
0.480413
0.537634
0.508428
0.485778
0.348687
0.545979
0.477433
0.408888
0.525713
0.716448
0.744462
0.653863
0.858903
0.705719
0.804663
0.855923
0.910759
0.958443
1.116991
1.280904
1.384616
2.758503
11.258721
46.247840
100.883842
230.804682
363.041759
564.438701
693.969727
809.329748
819.832683
741.976500
626.928806
442.614555
303.150415
159.579515
87.426901
34.902692
21.556616
20.752549
30.031800
48.170686
65.582991
93.039870
111.923814
131.872892
138.899684
137.587786
126.471519
105.264783
85.182786
61.195493
46.357512
29.671788
22.759438
16.929507
14.495850
13.824701
14.063716
13.681650
13.923645
14.056563
14.560819
15.031695
15.065670
15.131831
15.032887
15.041828
14.824867
15.072823
14.965534
15.047789
14.636517
14.133453
14.075637
14.356971
14.194846
13.840795
13.304949
13.163686
12.824535
12.515783
12.219548
12.164712
12.286901
11.734962
12.022853
11.503696
##ZVALUE=300
0.403523
0.404716
0.383854
0.315905
0.466704
0.451803
0.386834
0.382662
0.467896
0.377893
0.328422
0.251532
0.412464
0.562668
0.565648
0.572801
0.505447
0.694990
0.607967
0.525713
0.767708
0.783801
0.717640
0.609756
0.826716
0.796914
0.790954
0.949502
1.249909
1.081824
1.410842
1.541972
4.743934
26.713610
65.366626
162.244439
276.869535
461.868644
608.198643
754.648447
811.201930
779.609680
690.802932
517.956614
371.792912
202.084780
120.585561
56.250691
28.623939
16.332865
18.221736
28.377771
40.389895
63.337684
83.292723
108.082891
123.475790
134.285688
132.693648
122.707486
107.181668
82.573891
65.186620
45.623779
33.643842
22.938848
18.758774
15.236735
14.560819
14.643669
14.454722
14.723539
15.127659
15.129447
14.961958
15.086532
15.016794
15.324950
15.223622
15.176535
15.025735
14.542937
14.528632
14.437437
14.211535
13.919473
13.734698
12.800694
12.843609
13.054609
12.664795
12.527704
12.008548
11.935830
11.714697
11.668801
##ZVALUE=305
0.326633
0.287890
0.252724
0.430942
0.290871
0.352859
0.377893
0.463724
0.312924
0.497699
0.299811
0.466704
0.349879
0.456572
0.326633
0.413656
0.416636
0.418425
0.606775
0.433922
0.590682
0.469685
0.528693
0.761747
0.753999
0.824928
0.824928
0.753999
0.809431
0.850558
0.839829
0.864863
1.113415
1.235604
2.378821
15.255809
41.689873
116.821527
210.325718
380.010009
525.348783
693.175793
775.854588
792.878866
727.362633
565.425754
437.034965
273.677707
168.910623
75.733662
38.872957
17.114878
13.715625
17.712712
25.579929
42.204857
58.144927
83.023906
101.813674
120.132565
128.175616
126.915574
118.803978
100.168586
83.844662
60.039759
45.420527
31.365752
23.095608
17.336607
15.473962
14.816523
14.922619
14.493465
14.180541
14.682412
14.260411
14.473796
14.739633
14.804602
14.585853
14.673471
14.328957
13.989806
14.348626
13.849735
13.608932
13.479590
12.959838
13.022423
12.593865
12.161732
12.360811
11.947751
12.101531
11.376739
##ZVALUE=310
0.335574
0.250936
0.334978
0.335574
0.266433
0.457764
0.346899
0.454783
0.213981
0.254512
0.322461
0.291467
0.360608
0.324845
0.400543
0.457764
0.398755
0.602603
0.551939
0.571609
0.578761
0.430942
0.475645
0.615716
0.517964
0.593662
0.589490
0.785589
0.791550
0.840425
0.839829
0.810623
0.870824
1.186728
1.375675
1.273751
1.493692
5.148649
26.843548
63.106418
153.229833
261.401534
445.177555
586.967468
743.392706
801.520944
768.807530
682.636499
517.210960
374.345779
209.419727
125.092864
54.975748
27.581453
13.364553
12.120605
17.357469
23.585558
36.760569
51.686764
73.632002
92.485547
110.880733
119.403005
120.534897
116.014481
97.706914
81.743002
58.610439
44.232607
30.804873
23.215413
17.634630
15.071630
14.075637
13.410449
13.647676
13.760924
13.653636
13.597608
13.722777
13.922453
13.365746
13.492703
13.264418
13.408661
13.181567
13.339520
13.109446
12.688637
12.004972
12.455583
11.927485
11.879802
11.203885
11.652708
##ZVALUE=315
0.320673
0.369549
0.435710
0.368953
0.395775
0.355840
0.435710
0.326633
0.503659
0.357628
0.398755
0.392795
0.445843
0.442863
0.428557
0.325441
0.395775
0.456572
0.311732
0.381470
0.365973
0.374913
0.453591
0.549555
0.605583
0.592470
0.707507
0.483990
0.616908
0.543594
0.597835
0.709891
0.707507
0.847578
0.786781
0.813603
0.989437
1.301765
1.301765
2.884865
11.031628
44.631958
96.805692
218.719840
349.708796
548.295975
664.690733
764.428973
781.681538
704.593658
592.722893
419.593453
289.501548
152.169466
82.537532
32.429695
16.889572
10.793805
11.586547
16.077757
21.952987
34.845471
48.944950
69.245696
84.671974
102.190971
113.426447
114.047527
107.711554
92.194676
76.819658
56.663752
43.307543
28.715730
22.060871
16.290545
14.411807
13.295412
13.019443
12.917519
12.988448
12.890697
13.309717
13.104677
12.621880
12.834668
12.732744
12.699962
12.952685
12.138486
12.504458
12.111664
12.339950
11.561513
11.724830
11.422634
##ZVALUE=320
0.305772
0.414848
0.231862
0.461936
0.390410
0.137687
0.287890
0.400543
0.418425
0.244975
0.331998
0.245571
0.351667
0.385642
0.465512
0.384450
0.288486
0.277758
0.559688
0.464916
0.497699
0.247955
0.568628
0.504851
0.464916
0.461936
0.495911
0.689626
0.537634
0.717640
0.632405
0.662804
0.630617
0.620484
0.574589
0.641942
0.728965
0.710487
0.992417
0.969768
1.191497
1.603961
5.092621
25.430918
64.430833
164.237618
272.678733
440.695882
579.698682
726.884604
776.332021
742.898583
657.275915
491.285920
352.237821
192.784667
109.979510
48.455596
24.122596
11.170506
9.371638
10.449886
13.654828
20.216703
28.562546
45.483708
60.507655
81.353784
94.867945
105.584860
107.120872
100.798607
90.406537
70.416927
56.390762
38.417578
29.104948
20.082593
16.024709
13.669729
12.533665
11.982918
12.033582
11.972785
11.759996
12.177825
11.951923
11.577606
11.688471
11.621714
11.539459
11.521578
11.628866
11.659861
10.787845
11.237860
##ZVALUE=325
0.346899
0.353456
0.283718
0.350475
0.296831
0.362992
0.263453
0.238419
0.223517
0.275970
0.263453
0.310540
0.473857
0.219941
0.489950
0.274777
0.332594
0.461936
0.253916
0.365973
0.437498
0.458956
0.421405
0.525713
0.447631
0.408888
0.544786
0.529885
0.504851
0.434518
0.473857
0.530481
0.491738
0.607967
0.588894
0.631809
0.627637
0.688434
0.781417
0.628829
0.808835
0.931621
0.959635
1.202822
2.589822
16.305447
41.937828
108.089447
195.100904
360.407829
497.831702
659.626722
741.064548
755.935907
693.610907
535.671711
399.183631
240.067840
143.992901
63.066483
31.638741
12.951493
8.973479
8.372664
8.825660
12.417436
17.933846
29.494762
41.182637
59.372783
73.600411
89.376569
98.634958
99.846721
94.556808
80.913901
66.856742
50.028563
38.091540
25.910735
19.842982
14.651418
13.266802
11.628866
11.296868
11.445880
11.192560
11.428595
11.189580
11.312962
11.238456
10.825992
10.866523
11.296868
10.833740
10.941625
##ZVALUE=330
0.336766
0.272989
0.256896
0.217557
0.376701
0.315905
0.164509
0.373721
0.256896
0.323653
0.263453
0.240803
0.320673
0.331998
0.347495
0.473857
0.387430
0.318885
0.323653
0.526905
0.382662
0.126958
0.388622
0.444651
0.590682
0.355840
0.427961
0.429749
0.356436
0.478625
0.589490
0.555515
0.552535
0.445843
0.507832
0.472665
0.636578
0.627637
0.806451
0.648499
0.607967
0.722408
0.726581
0.764728
0.893474
1.046658
1.680851
5.928874
27.115941
64.514875
155.133605
259.355903
433.800817
564.508438
697.850585
737.611651
690.549016
600.312948
447.321534
319.797993
173.246861
98.332763
40.780902
19.858479
9.160638
7.847548
8.257627
9.015799
12.253523
18.079877
28.385520
39.421916
55.451989
69.595575
84.581971
90.909600
94.074607
88.748932
76.442957
63.727498
46.837926
35.865903
25.449991
19.970536
15.086532
13.361573
11.409521
11.183619
11.213422
10.891557
10.660887
10.526776
10.515451
10.568500
10.724664
10.327697
##ZVALUE=335
0.160933
0.239611
0.259876
0.123978
0.237823
0.357628
0.343919
0.248551
0.295639
0.285506
0.295639
0.419617
0.282526
0.295639
0.339746
0.355840
0.162721
0.412464
0.437498
0.402927
0.374913
0.355840
0.475645
0.329614
0.458956
0.375509
0.308752
0.265837
0.331998
0.293851
0.512600
0.537634
0.494719
0.392795
0.423789
0.588894
0.349879
0.474453
0.381470
0.360608
0.478625
0.663996
0.657439
0.748634
0.879765
0.635982
0.761747
0.877976
1.105666
2.425909
15.219450
39.595962
106.920004
193.823576
350.230932
486.874580
652.000904
720.161796
716.332793
651.185513
499.226451
369.707942
218.182802
128.551722
54.957867
26.940703
11.185408
7.955432
7.417798
7.883906
9.425879
11.740923
17.889738
24.925470
38.435459
50.356984
66.357851
78.065991
87.098479
89.005828
82.277656
73.314905
59.112906
48.791766
35.134554
26.873946
18.542409
15.215874
12.486577
11.277795
10.712743
10.283589
10.455847
10.055900
10.105968
9.966493
##ZVALUE=340
0.274777
0.170469
0.195503
0.220537
0.295639
0.275970
0.259876
0.190735
0.186563
0.174642
0.344515
0.359416
0.232458
0.457764
0.239611
0.299811
0.380874
0.243783
0.386834
0.374913
0.299811
0.252724
0.303984
0.323653
0.241995
0.431538
0.457764
0.405908
0.530481
0.461936
0.271797
0.540614
0.500679
0.580549
0.632405
0.384450
0.493526
0.468493
0.488758
0.451803
0.578761
0.641942
0.787973
0.640750
0.757575
0.789762
0.715852
0.740886
0.813603
0.899434
1.107454
1.781583
6.050467
28.472543
66.825747
164.769888
272.084475
441.968441
565.467477
683.434010
708.631873
650.842786
553.094745
403.609872
278.541446
140.438676
78.227520
32.742620
15.462637
8.347631
7.442832
7.704496
7.766485
9.236932
11.496544
17.645955
24.867654
37.471652
48.506856
64.359903
74.435472
82.098842
83.131790
78.242421
70.779920
58.463812
46.331882
34.322739
26.546717
18.944740
14.533997
11.728406
10.947585
9.958744
9.756684
9.485483
##ZVALUE=345
0.344515
0.326633
0.282526
0.194907
0.241995
0.394583
0.220537
0.221729
0.238419
0.306964
0.268817
0.255704
0.325441
0.313520
0.227690
0.387430
0.257492
0.363588
0.363588
0.466704
0.559688
0.257492
0.145435
0.417829
0.415444
0.394583
0.388622
0.524521
0.405908
0.534654
0.487566
0.416636
0.411868
0.413656
0.385642
0.463724
0.551939
0.386834
0.400543
0.458956
0.445843
0.639558
0.598431
0.641942
0.587702
0.583529
0.631809
0.845790
0.728965
0.753999
0.759959
0.900626
1.049638
1.081824
2.702475
15.945435
42.259693
109.470487
196.880698
356.293917
481.421947
624.356866
683.408976
678.271651
610.490441
460.241437
336.333513
194.690824
110.118985
43.715835
21.105409
9.608865
7.841587
7.457733
7.331967
7.861853
8.636713
11.283755
15.365481
24.243593
33.272505
47.708750
57.811737
67.899823
74.563622
76.343417
73.718429
65.863729
56.172609
44.975877
34.776926
24.178624
18.750429
14.096498
11.806488
10.243654
##ZVALUE=350
0.367761
0.348687
0.521541
0.413656
0.478625
0.463724
0.505447
0.470877
0.563860
0.560880
0.519753
0.552535
0.602603
0.484586
0.470877
0.398755
0.384450
0.546575
0.524521
0.639558
0.485778
0.514984
0.565648
0.568628
0.534654
0.552535
0.642538
0.480413
0.507832
0.542998
0.414848
0.624657
0.505447
0.610948
0.705719
0.620484
0.580549
0.665784
0.697970
0.536442
0.546575
0.557899
0.645518
0.577569
0.584722
0.757575
0.693798
0.632405
0.799894
0.771880
0.861883
0.919700
1.083612
1.024604
1.116991
1.150966
1.673698
8.342862
25.938749
79.921484
149.017572
288.349986
410.095453
559.378862
641.070604
673.868656
628.855824
501.980782
377.632976
218.184590
130.504966
60.564876
29.182434
11.107922
8.014441
7.350445
7.160902
7.252693
7.538795
8.459687
10.460615
15.679598
20.766854
30.131936
38.314462
51.222444
60.188770
68.665743
69.583654
67.979693
62.279701
51.846504
42.985678
31.560659
24.345517
17.468929
##ZVALUE=355
0.238419
0.275970
0.249743
0.327826
0.267625
0.340939
0.213981
0.353456
0.213981
0.148416
0.249743
0.192523
0.322461
0.100732
0.199676
0.371933
0.268817
0.307560
0.451803
0.168681
0.272989
0.372529
0.360608
0.269413
0.455976
0.390410
0.334978
0.124574
0.365973
0.354648
0.224710
0.236630
0.203848
0.408888
0.289679
0.430942
0.419617
0.281930
0.483990
0.306964
0.344515
0.281930
0.354648
0.451803
0.490546
0.619888
0.579953
0.479817
0.500679
0.482798
0.497699
0.564456
0.717640
0.676513
0.708699
0.800490
0.847578
1.075864
1.058578
3.683567
13.384819
48.879981
98.907948
206.444860
325.099826
490.489602
589.243770
653.301477
639.990568
531.849861
423.071980
269.382596
167.673826
74.528456
36.505461
13.655424
8.115768
6.688833
6.735921
6.588697
6.389618
7.054806
7.540584
9.680986
12.314916
18.333793
24.419427
35.124421
43.292642
53.694844
59.856772
63.557625
61.344504
55.897832
49.735904
39.474964
##ZVALUE=360
0.251532
0.159740
0.196695
0.318885
0.269413
0.282526
0.113845
0.323653
0.466704
0.170469
0.205636
0.191927
0.236630
0.266433
0.280738
0.239611
0.332594
0.029802
0.160933
0.226498
0.202656
0.272989
0.238419
0.211596
0.210404
0.249743
0.354648
0.427961
0.273585
0.325441
0.404716
0.232458
0.458956
0.225902
0.300407
0.389814
0.415444
0.152588
0.279546
0.391603
0.455976
0.441670
0.456572
0.592470
0.413656
0.422597
0.396967
0.562668
0.366569
0.353456
0.687838
0.668764
0.598431
0.626445
0.547767
0.738502
0.721812
0.776649
0.714660
0.795722
0.837445
1.694560
5.887747
25.343895
59.999824
146.428943
242.145658
393.236876
516.423583
627.961755
649.272799
575.927496
474.789739
317.224860
209.875703
99.997520
51.780939
19.873977
10.230541
6.534457
6.322861
6.173849
5.783439
6.315708
6.193519
6.914735
7.916689
10.938644
14.294982
20.829439
27.564764
38.263798
45.664907
54.252744
57.578683
57.861805
##ZVALUE=365
0.309944
0.233650
0.136495
0.272989
0.371933
0.243783
0.372529
0.482798
0.366569
0.273585
0.258684
0.374913
0.370741
0.150800
0.222921
0.313520
0.412464
0.373721
0.214577
0.419617
0.366569
0.385642
0.332594
0.489950
0.315905
0.328422
0.391603
0.335574
0.372529
0.376701
0.303984
0.368953
0.337958
0.319481
0.234842
0.326633
0.304580
0.376701
0.417829
0.485778
0.539422
0.493526
0.349879
0.475645
0.378489
0.571609
0.475645
0.530481
0.446439
0.387430
0.554919
0.453591
0.495911
0.594854
0.446439
0.679493
0.653863
0.683665
0.750422
0.797510
0.813603
0.798702
1.050830
1.146793
2.703667
15.092492
38.652420
99.895000
182.212591
332.149863
442.932844
559.655428
606.524944
585.935712
510.978699
366.115570
254.794955
135.284662
72.309971
26.807785
12.533665
6.316900
5.812645
5.579591
5.793571
5.691648
5.510449
5.611777
5.987883
7.105470
8.799434
12.552738
16.903877
25.522709
32.185912
41.230917
##ZVALUE=370
0.330806
0.257492
0.280738
0.173450
0.300407
0.189543
0.115633
0.260472
0.321865
0.307560
0.358820
0.155568
0.197887
0.177622
0.245571
0.244975
0.084639
0.203848
0.127554
0.259876
0.380874
0.175834
0.319481
0.289679
0.210404
0.246763
0.249743
0.503659
0.253916
0.264645
0.328422
0.332594
0.301600
0.292659
0.374913
0.301600
0.393987
0.274777
0.286698
0.401735
0.301600
0.302792
0.149608
0.395775
0.318885
0.211596
0.477433
0.442863
0.437498
0.272989
0.479817
0.405908
0.291467
0.464916
0.490546
0.605583
0.509620
0.566840
0.465512
0.484586
0.577569
0.594854
0.623465
0.773668
0.839829
0.988841
1.740456
6.147623
30.079484
68.969727
160.732865
252.450705
391.660929
491.760969
570.901632
576.103926
497.942567
398.197770
256.000757
165.800452
81.151724
41.887760
16.073585
8.143783
5.602837
5.366802
5.137920
5.002618
5.168915
5.147457
5.004406
5.439520
6.429553
7.590652
10.816455
14.123917
##ZVALUE=375
0.233650
0.289679
0.201464
0.179410
0.335574
0.218749
0.175834
0.254512
0.251532
0.317693
0.255704
0.328422
0.192523
0.267625
0.180602
0.298619
0.171661
0.222921
0.309944
0.154972
0.342727
0.342727
0.275970
0.325441
0.218749
0.325441
0.248551
0.292659
0.254512
0.352859
0.307560
0.267625
0.428557
0.281930
0.301600
0.174642
0.268817
0.275970
0.267625
0.238419
0.263453
0.411868
0.333786
0.394583
0.281930
0.423789
0.442863
0.386834
0.282526
0.345707
0.474453
0.427961
0.261664
0.411868
0.465512
0.531673
0.384450
0.551939
0.408888
0.612736
0.642538
0.431538
0.563860
0.513792
0.606775
0.516772
0.643730
0.846982
1.004934
4.152656
14.219880
47.991872
100.887418
214.947462
323.742628
467.199683
545.676947
579.259992
548.908710
438.713431
331.809521
196.634531
121.567845
59.302449
30.135512
11.341572
6.556511
5.056858
4.865527
4.843473
4.670620
4.613996
4.730821
4.751682
4.890561
5.515814
##ZVALUE=380
0.281930
0.311732
0.352859
0.292659
0.222921
0.178814
0.178814
0.436902
0.331998
0.421405
0.339746
0.428557
0.443459
0.418425
0.335574
0.298619
0.294447
0.374913
0.326633
0.393987
0.232458
0.376701
0.315905
0.406504
0.417829
0.495911
0.268817
0.314713
0.312924
0.416636
0.460744
0.225902
0.324845
0.411868
0.316501
0.257492
0.353456
0.501871
0.512600
0.414848
0.484586
0.347495
0.481606
0.309944
0.402927
0.564456
0.378489
0.432730
0.585914
0.549555
0.457764
0.539422
0.326633
0.510812
0.463724
0.600815
0.653863
0.585914
0.588894
0.672936
0.587702
0.620484
0.621676
0.529885
0.574589
0.675917
0.666976
0.786781
0.907779
0.997782
1.110435
2.178550
7.778406
33.828616
75.066686
171.309710
271.946788
408.473015
504.424572
572.126508
560.338497
471.131802
379.283428
258.818865
170.346498
82.478523
42.061806
16.156435
8.169413
4.907846
4.566908
4.649758
4.445910
4.524589
4.476905
4.433990
##ZVALUE=385
0.300407
0.192523
0.254512
0.374913
0.280738
0.115633
0.238419
0.220537
0.207424
0.152588
0.365973
0.370741
0.384450
0.261664
0.222921
0.296831
0.368953
0.259876
0.198483
0.342727
0.336766
0.383854
0.347495
0.405908
0.323653
0.391603
0.256896
0.389814
0.199676
0.315905
0.282526
0.429749
0.341535
0.302792
0.354648
0.487566
0.432730
0.292659
0.345707
0.375509
0.376701
0.357628
0.337958
0.294447
0.452995
0.485778
0.357628
0.389814
0.359416
0.297427
0.236630
0.268817
0.465512
0.299811
0.512600
0.470877
0.540614
0.408888
0.564456
0.587702
0.429749
0.405908
0.500679
0.470877
0.529885
0.577569
0.652671
0.672936
0.712872
0.880957
0.788569
0.864863
0.915527
1.287460
3.749728
20.205975
48.624873
119.427443
206.978917
357.358456
463.621616
559.162498
574.273467
529.148579
448.951721
321.185589
223.894715
117.578506
66.276789
27.306676
12.319684
5.318522
4.127622
3.981590
4.062653
4.106760
##ZVALUE=390
0.144839
0.158548
0.320673
0.250936
0.135899
0.076890
0.189543
0.269413
0.115633
0.213981
0.158548
0.175834
0.201464
0.201464
0.195503
0.165701
0.289679
0.184774
0.159740
0.254512
0.096560
0.247955
0.066757
0.147820
0.349879
0.186563
0.193715
0.248551
0.205636
0.299811
0.273585
0.211596
0.229478
0.366569
0.378489
0.385642
0.323653
0.185966
0.259876
0.215769
0.295639
0.214577
0.242591
0.190735
0.295639
0.383854
0.332594
0.249743
0.363588
0.338554
0.295639
0.187755
0.255704
0.185966
0.239611
0.282526
0.255704
0.454783
0.393987
0.382662
0.285506
0.354648
0.230670
0.374913
0.430942
0.431538
0.441670
0.483990
0.603795
0.556707
0.618696
0.657439
0.756979
0.857711
0.749826
0.837445
1.782775
10.784864
31.256676
89.795589
165.237784
300.968885
406.639576
518.720746
567.764640
564.453602
514.899492
396.736860
294.851661
175.642967
100.118518
41.308999
19.174814
7.286668
4.255772
3.863573
##ZVALUE=395
0.188947
0.104904
0.127554
0.183582
0.091791
0.111461
0.158548
0.141859
0.196695
0.168681
0.113845
0.100732
0.162721
0.176430
0.165701
0.177622
0.219941
0.088811
0.217557
-0.003576
0.243783
0.203848
0.332594
0.206828
0.284910
0.222921
0.282526
0.280738
0.151992
0.296831
0.325441
0.427961
0.233650
0.364780
0.210404
0.259876
0.327826
0.325441
0.408888
0.297427
0.284910
0.215769
0.317693
0.236630
0.207424
0.270605
0.245571
0.347495
0.296831
0.338554
0.290871
0.415444
0.409484
0.451803
0.420809
0.304580
0.278950
0.314713
0.214577
0.424981
0.176430
0.262856
0.323653
0.449419
0.332594
0.323653
0.564456
0.526905
0.533462
0.651479
0.493526
0.725985
0.605583
0.751615
0.685453
0.669956
0.793934
0.825524
1.221895
5.867481
20.576715
65.867901
122.185946
228.982568
333.401561
473.731756
552.335978
586.078763
556.069613
461.472869
353.310704
213.734508
129.504800
55.212975
26.735663
9.764433
##ZVALUE=400
0.247955
0.172853
0.180602
0.225902
0.206828
0.190735
0.239611
0.284910
0.074506
0.114441
0.191927
0.121593
0.246763
0.301600
0.380874
0.307560
0.349879
0.308752
0.244975
0.223517
0.208616
0.363588
0.209808
0.311732
0.370741
0.237823
0.420809
0.282526
0.433922
0.349879
0.734925
0.383854
0.203848
0.402927
0.346899
0.421405
0.370741
0.229478
0.361800
0.352859
0.287890
0.265837
0.266433
0.338554
0.375509
0.252724
0.219941
0.341535
0.401735
0.260472
0.345707
0.431538
0.299811
0.519753
0.328422
0.214577
0.362992
0.329614
0.227690
0.289679
0.492930
0.294447
0.317693
0.397563
0.508428
0.346899
0.402927
0.540614
0.624657
0.720620
0.565648
0.682473
0.688434
0.503659
0.457764
0.572801
0.566840
0.464916
0.610948
1.026988
0.952482
3.013611
10.762811
36.920905
76.563954
170.406699
267.604589
406.414866
497.948527
564.627647
559.813976
483.412743
391.115546
254.317522
164.263844
80.291629
##END
