##TITLE=FQP00301
##FORMAT=SPECTACLE-ASCII V-1.2
##DATA TYPE=ULTRAVIOLET SPECTRUM
##SECOND TYPE=ULTRAVIOLET SPECTRUM
##DATE=01/09/18
##TIME=16:43:52
##SPECTROMETER/DATA SYSTEM=SPECTACLE
##XUNITS=NM EM
##YUNITS=ENERGY
##YFACTOR=1
##FIRSTX=220
##LASTX=410
##NPOINTS=96
##3DDATA=Equidistant
##ZUNITS=NM EX
##FIRSTZ=210
##LASTZ=400
##ZPOINTS=39
##XYDATA=(Y..Y)
##ZVALUE=210
2.011657
1.895428
2.371669
2.194643
2.294779
2.257824
2.458692
2.008677
2.569556
2.232790
2.286434
2.326965
2.561808
1.926422
1.715422
1.985431
2.611876
2.514720
2.651811
2.447963
2.827644
3.018975
2.887845
3.345609
4.105568
3.908873
4.314780
4.487634
4.215837
4.198551
4.336834
4.620552
4.873872
5.083680
5.165935
4.801750
5.182624
5.745888
5.822778
5.947948
5.686879
4.974604
6.119609
6.084442
6.544590
6.513596
6.476641
5.881786
5.730987
5.890727
6.676912
5.332828
6.171465
5.902648
4.773736
6.393790
7.057786
6.520748
5.771518
6.721616
6.833673
6.278753
6.332994
6.960630
5.900860
7.263422
6.806850
7.230639
7.567406
9.717941
11.435747
13.973713
16.022921
18.215775
19.580722
21.451712
25.178790
25.857687
27.557611
25.206804
25.684834
22.180676
20.049810
15.867949
14.820695
10.855794
9.961724
7.914901
6.443858
7.270575
6.196499
6.398559
7.490516
7.559657
7.760525
6.839633
##ZVALUE=215
6.659627
7.235408
6.046891
4.884601
5.286932
5.350709
4.112720
4.089475
5.609989
4.951954
5.208850
4.249811
4.151464
3.500581
3.237724
3.007650
2.946854
2.945662
3.209710
2.882481
3.583431
3.212690
3.801584
3.811717
3.677607
4.678965
5.681515
4.891753
5.899668
5.443692
6.110668
6.416440
6.627440
6.848574
7.113814
7.165670
7.002950
6.299615
7.505417
7.435679
7.212758
6.620884
7.521510
7.149577
6.547570
8.094907
7.220507
7.316470
7.323623
6.504655
6.829500
6.992817
6.908774
7.206798
7.223487
6.446838
6.966591
6.505847
6.432533
7.638931
6.899834
7.678866
7.459521
7.705688
6.987453
7.295609
8.164644
7.931590
8.627772
10.153651
13.008714
14.170408
16.875863
21.534562
22.787452
25.697947
28.095841
31.224489
30.101538
29.758811
26.971698
23.480654
22.671819
19.214749
16.487837
11.650920
9.476542
9.051561
8.409619
7.772446
8.576512
8.169413
8.210540
7.600784
7.760525
8.282661
##ZVALUE=220
21.426678
23.944974
25.103688
26.169419
24.236441
21.467805
16.234517
13.605952
10.216832
8.964539
12.185574
11.838675
11.960864
9.926558
8.356571
7.265806
5.515814
4.649758
3.810525
3.611445
3.745556
3.659725
4.067421
4.416704
4.503727
3.905892
5.189776
5.066991
7.408857
7.098913
7.399917
8.315444
7.813573
8.638501
8.787513
8.331537
10.548830
10.183454
9.790659
8.526444
9.375811
10.149479
9.021759
8.554459
8.384585
8.138418
8.568764
8.597970
7.295609
8.065701
7.690787
8.120537
7.887483
8.340478
7.638931
8.297563
8.128881
8.560419
9.010434
7.901788
7.798672
8.020997
8.452535
7.825494
8.567572
9.013414
10.444522
9.787679
10.275841
12.085438
13.410449
16.156435
17.602444
19.725561
20.721555
23.515821
24.162531
26.137829
25.962591
27.491450
25.485754
23.801923
21.281838
20.011663
16.001463
13.047457
10.965466
10.053515
8.493662
8.640885
8.596778
8.965731
8.370876
8.656979
8.300543
8.038878
##ZVALUE=225
32.966733
34.980774
45.372844
61.225891
65.262914
61.692595
63.194633
53.271651
42.230487
31.312704
25.243759
22.714734
24.993420
25.708675
27.138591
25.570989
20.583868
16.537905
10.685921
8.771420
5.520582
4.672408
4.152656
3.215671
4.348755
5.052686
5.674958
6.135702
6.707907
7.259846
7.900596
8.581877
8.645654
9.093881
10.075569
9.272695
9.123683
9.644628
10.940433
10.255575
10.208488
9.413958
8.614659
9.422898
10.315776
9.534955
9.794831
8.134842
9.362698
8.540750
8.417964
8.919835
9.069443
8.057952
8.407831
8.663535
8.520484
8.308887
7.421970
8.903742
8.747578
7.357597
7.900596
8.225441
7.816553
8.560419
9.227991
8.314848
9.599924
11.206865
11.706948
12.934804
14.449954
15.542507
16.966462
17.106533
16.872883
15.462637
17.941594
14.285445
15.549660
14.310479
13.444424
13.158917
12.357831
12.722611
11.049509
11.216998
10.662675
11.213422
9.100437
10.803938
9.947419
11.023879
10.425448
9.605885
##ZVALUE=230
29.594898
29.889941
54.026842
86.342692
121.537447
162.211657
187.645555
205.798745
194.360614
184.180737
138.853788
101.044774
65.403581
49.211979
48.128963
50.496459
50.924420
49.105883
47.574639
35.194755
27.786493
18.061996
12.659431
8.440614
5.471706
6.373525
6.368756
6.668568
6.758571
7.432699
7.845759
9.863973
10.754466
9.226799
9.683967
11.133552
10.184646
10.402799
11.242628
11.368990
11.245608
11.059642
11.257529
10.602474
11.204481
11.035800
9.053946
9.744763
10.869503
9.915829
10.181665
9.298921
8.974671
9.438992
9.027719
9.729862
10.321736
9.555817
9.576678
10.114908
11.568666
11.528730
10.035634
12.705922
11.109710
12.748837
12.622476
13.267994
13.660789
15.775561
16.116500
18.325448
19.097924
19.822717
20.510554
24.822950
23.040771
21.124482
19.689798
19.287467
20.343661
19.450784
18.528700
18.167496
19.106865
17.475486
18.313527
17.344952
15.954971
16.322732
17.111897
16.986728
15.678406
18.370748
17.573833
15.543699
##ZVALUE=235
10.787845
12.570620
32.169819
63.129663
132.525563
198.227763
291.845798
355.483890
403.599739
410.476923
354.297757
285.496712
214.335918
140.506625
99.550486
74.907541
72.442889
79.026818
85.054636
83.220601
81.404448
67.055821
50.391555
37.617683
22.612810
17.470717
11.530519
9.371638
7.607937
8.413792
8.599758
7.978678
8.977652
9.064674
9.337664
9.617805
9.988546
10.361671
10.938644
10.132790
10.624528
11.000633
10.618567
11.035800
11.202693
11.116862
9.780526
11.279583
10.471940
10.002851
10.241866
11.192560
10.011792
11.223555
11.766553
11.446476
12.076497
11.911988
11.748672
12.695789
13.517737
12.601614
12.807846
14.341474
13.957620
15.844703
15.904903
16.458631
16.484857
19.280910
19.427538
20.415783
22.132993
22.752881
25.999546
25.870800
23.229718
26.451945
25.522709
25.136471
25.038719
24.097562
25.805831
24.936795
23.375750
25.142431
23.635626
24.713874
25.927424
25.141835
24.194717
24.419427
22.756457
23.494959
23.304820
23.490787
##ZVALUE=240
1.669526
1.558661
3.359914
13.578534
33.464432
77.944994
132.190585
232.031941
324.840546
429.063439
533.869863
558.717847
509.933829
423.811674
290.994644
199.008584
124.253631
96.163750
94.327927
102.461576
113.039613
119.656920
119.040608
100.269914
83.845854
59.997439
47.155619
29.975772
19.171834
12.164712
8.660555
6.540418
7.994771
7.359982
6.855726
7.573962
8.085966
7.586479
7.510781
8.134842
8.117557
8.085966
8.498430
8.042455
8.878708
8.939505
8.773804
8.621812
8.940697
9.309649
9.916425
8.137822
9.534955
9.269714
9.928942
10.453463
10.070801
10.671616
10.725856
11.675954
12.439489
12.431741
12.669563
13.738871
14.750957
15.373826
16.664863
17.775893
18.102527
20.456910
21.605492
22.303462
24.713874
27.705431
27.050972
30.245781
28.664470
29.212832
30.083656
29.842854
29.991865
33.005476
29.327869
30.636787
30.177832
28.902888
28.963685
30.283928
30.156970
29.215813
29.050708
31.607747
28.805733
29.058456
31.319857
29.868484
##ZVALUE=245
1.500845
0.972748
1.585484
1.244545
3.081560
10.331869
28.143525
78.678727
139.392614
231.536627
329.504609
432.996750
493.735671
497.511625
464.848876
384.865999
310.932994
206.350684
152.284503
102.994442
95.218420
94.871521
111.118555
125.476718
131.652951
128.244758
113.593936
98.269582
69.899559
53.570867
33.048987
21.350980
13.610721
7.800460
6.734729
7.139444
7.117987
7.055998
7.552505
7.261634
6.780624
7.229447
8.359551
7.724762
7.816553
7.350445
7.450581
7.744431
7.736683
7.792711
7.806420
7.522702
7.659793
8.616447
8.518696
8.150935
8.511543
8.556843
8.470416
9.236932
9.628534
10.696650
10.746717
11.408925
11.559725
13.218522
14.360547
14.910698
15.671849
17.299652
18.393993
20.039678
20.907521
22.528768
24.755001
25.387406
25.504827
26.601553
27.199984
27.313828
27.529597
28.402805
29.910803
29.353499
29.432774
30.641556
30.267835
30.990839
29.550791
28.908849
30.179620
29.330850
30.451417
31.467676
28.925538
30.682683
##ZVALUE=250
1.037717
0.948906
1.117587
1.313686
1.255870
1.351833
1.860857
5.181432
24.861693
54.810643
138.770938
229.835510
323.362947
450.484753
527.729988
583.985448
562.753677
494.659543
423.467755
289.684534
204.145908
143.620968
96.332431
88.561773
104.929805
121.586919
137.133598
145.639777
137.057900
122.221708
107.866526
79.414845
58.216453
36.819577
23.939610
13.934970
10.244846
7.978678
7.988811
8.734465
7.959604
8.337498
8.766651
8.739829
8.948445
9.005666
8.961558
8.213520
8.319616
8.657575
7.743835
8.239746
7.849932
8.133650
8.964539
7.931590
8.145571
8.484721
8.572936
10.094643
9.080768
9.395480
9.911656
10.261536
10.131598
11.181831
12.123585
13.922453
14.243722
14.495850
16.177893
18.946528
18.943548
20.074844
21.446943
22.625923
24.265647
23.526549
24.030805
24.013519
26.165843
27.082562
25.828481
26.529431
28.531551
27.354956
28.416514
28.979778
29.077530
27.532578
28.268695
30.278563
28.069615
28.705597
29.564500
30.714869
##ZVALUE=255
0.939965
0.978708
1.085997
0.974536
1.033545
0.982881
1.196861
1.469851
1.395941
2.995729
16.390681
38.979650
82.008839
183.188915
281.178951
430.600643
529.648662
623.307824
643.378496
600.084662
528.530478
427.523851
283.443928
193.216801
121.226907
96.623898
95.000863
105.520487
128.136873
143.038630
149.597526
146.041512
134.319663
108.072758
86.499453
58.418512
41.327477
24.829507
17.362833
11.942983
10.636449
10.064840
9.554625
9.952784
9.685755
10.485649
10.285974
9.590983
9.370446
9.477735
9.326935
9.106994
8.919835
8.860826
8.328557
8.219481
7.948875
8.593798
8.872747
8.208752
8.867979
9.006858
9.439588
10.166764
11.099577
11.087656
11.200905
12.048483
12.359619
13.896823
15.290976
16.837716
17.268658
18.089414
19.145608
20.644665
21.966696
20.500422
22.694468
23.306608
23.899674
22.793412
25.005937
26.555657
25.356412
26.279688
26.822686
27.886629
27.071834
27.276874
27.679801
27.428865
27.321577
26.896000
26.736856
28.002858
##ZVALUE=260
0.801682
0.678897
0.884533
0.826716
0.728965
0.936985
1.088977
0.851750
1.121759
1.186728
1.545548
1.670718
5.693436
22.997856
54.812431
132.668614
218.469501
360.188484
479.986668
612.922907
668.760538
671.878457
588.676929
478.833914
321.780443
224.543810
134.449601
92.524886
75.169802
86.185932
104.934573
130.185485
149.471760
160.451531
156.957507
138.434768
119.806528
86.783767
68.863630
41.516423
29.131770
17.985702
15.085936
12.680888
11.270642
11.034608
10.715723
10.837913
10.095835
10.218620
9.668469
9.096861
9.399652
8.913875
9.123683
8.429885
8.666515
8.189678
9.020567
8.711815
8.674860
9.161830
9.775758
9.321570
9.547472
10.837913
11.359453
11.476874
12.107491
12.849569
14.218688
14.646649
15.926957
16.382933
17.066598
18.407702
18.745661
18.729568
21.234751
20.888448
22.317767
22.741556
22.180676
22.753477
22.480488
23.755431
23.867488
25.385618
25.805831
24.246573
25.455952
26.541948
24.850965
25.287867
25.716424
28.097630
##ZVALUE=265
0.689626
0.516772
0.937581
0.831485
0.772476
0.872612
0.743866
0.739694
0.969768
0.878572
0.824928
0.964999
1.086593
1.205802
3.203750
14.674664
38.292408
99.341869
177.775621
337.174535
466.514826
593.690872
712.832808
739.426017
664.945841
562.542677
418.542624
296.109915
172.044635
110.171437
80.059767
71.136951
86.467862
119.824409
138.121843
161.716938
167.426467
159.060955
144.939423
117.672682
91.454983
63.197613
45.250654
29.815435
21.042824
14.777780
13.525486
12.061000
11.528730
11.359453
11.298656
10.750890
10.075569
9.542704
9.631515
8.779764
9.083748
9.301901
9.082556
8.529425
9.042621
9.283423
9.282827
9.992719
9.695888
9.831786
11.176467
10.749698
11.764765
12.412667
13.770461
14.481544
14.554858
15.979409
16.678572
18.149614
17.174482
18.020868
19.536614
19.788742
20.563602
20.758510
21.029711
22.145510
21.702647
22.357702
22.915602
22.468567
23.759604
23.812652
24.489760
23.981929
23.792982
24.147630
25.547743
25.675893
##ZVALUE=270
0.611544
0.769496
0.764728
0.643730
0.583529
0.780821
0.839829
0.700951
0.640750
0.628829
0.699759
0.868440
0.941753
0.911951
1.058578
1.254678
1.763701
7.349849
21.080971
70.673823
140.447617
242.297649
433.327556
580.386519
742.824674
792.713761
763.701797
687.551498
521.247983
394.441485
242.284536
152.195692
91.405511
63.122511
65.040588
93.225837
117.649436
144.638419
158.542991
168.709755
161.864758
143.443942
123.222470
89.654922
66.547990
42.554736
31.064749
19.687414
15.466809
12.759566
11.266470
10.644794
10.813475
10.788441
9.895563
10.048747
9.325743
9.771585
9.340644
9.559989
9.479523
9.393692
10.162592
10.169744
9.475946
10.628700
10.633469
11.371970
11.284947
12.735724
14.422536
14.612675
14.835596
15.523434
16.254783
16.265512
18.450618
18.044710
18.490553
18.937588
19.618869
19.962788
19.742846
20.489693
20.809770
21.463633
21.845698
22.067428
22.592545
21.923780
22.286773
22.935867
22.572875
23.961663
23.918748
23.692846
##ZVALUE=275
0.407696
0.467896
0.502467
0.417829
0.533462
0.649691
0.610948
0.831485
0.640750
0.803471
0.971556
0.751615
0.711679
0.847578
0.886917
1.069903
1.144409
1.166463
1.252890
3.420711
12.521744
35.085678
106.839538
205.607414
394.600630
537.578464
712.381005
805.159807
838.252902
774.719715
670.178533
487.834811
346.520543
187.955499
111.492872
61.004758
51.860809
66.908002
88.381767
116.361976
139.557719
157.630444
164.481997
159.859657
144.684911
114.632845
92.613697
67.150593
47.664642
29.258728
20.677447
14.008880
12.308955
10.181665
10.256767
9.836555
9.721518
9.987950
10.152459
9.836555
10.098815
10.805726
10.058880
10.003448
10.542870
10.602474
11.530519
11.659861
12.372732
12.686849
13.812780
15.128851
15.054941
15.461445
16.581416
17.223954
18.034577
18.180609
18.445849
19.291639
19.792914
19.100904
19.890666
20.119548
19.658804
21.190643
20.888448
21.955967
21.807551
22.504926
22.262931
22.620559
22.946596
22.667646
21.489859
21.688938
##ZVALUE=280
0.632405
0.416636
0.600815
0.683665
0.523925
0.578761
0.662804
0.622869
0.464916
0.549555
0.636578
0.684857
0.651479
0.661612
0.947714
0.764728
1.001954
0.941753
1.012683
1.091957
1.032948
1.568794
7.634759
24.980903
81.924796
156.974792
307.231545
467.270613
675.293803
799.053907
867.440701
854.865909
754.980445
564.682484
411.328673
235.625505
143.720508
72.406530
46.579838
45.726895
59.897900
86.996555
109.282732
137.085915
153.305531
159.889460
152.701735
136.308670
117.483735
85.779428
65.021515
42.382479
29.898882
17.783642
13.050437
10.553598
9.567738
9.522438
10.031462
9.421706
9.634495
10.049939
9.457469
10.100603
10.880828
11.134744
11.724830
11.900663
12.777448
13.098717
14.002919
14.324784
15.402436
16.169548
16.328692
17.936826
17.519593
18.724799
18.443465
19.092560
19.593835
19.390583
20.141602
20.408630
20.793676
20.797849
21.334887
21.047592
21.707416
21.698475
21.412969
21.690726
21.326542
21.244884
21.436810
21.802783
##ZVALUE=285
0.554919
0.479817
0.532866
0.535846
0.393987
0.636578
0.575781
0.484586
0.319481
0.570416
0.746846
0.587702
0.485778
0.610948
0.724792
0.660419
0.758767
0.827909
0.863671
0.834465
0.817776
0.974536
1.178980
1.233816
3.813505
13.333559
44.409633
93.830824
217.775702
362.001657
522.608757
733.770728
855.976939
901.855826
837.494731
664.177537
512.011647
315.793753
199.002624
96.517801
55.070519
33.825636
37.067533
56.725740
77.872872
108.231902
128.379464
143.531561
152.532458
147.945881
135.872960
111.908913
90.418458
61.541796
44.694543
26.963949
18.067956
12.611747
10.212660
9.431839
9.402633
9.711981
10.218620
10.304451
10.804534
11.588931
11.570454
12.735724
12.813807
13.922453
14.289618
14.688969
15.177727
16.262531
16.738772
17.511845
17.701983
17.612576
18.730760
19.458532
19.050837
20.147562
19.848943
20.334721
20.244718
20.409822
20.942688
21.419525
21.009445
20.576715
20.444989
20.522475
21.061897
21.014810
21.224618
20.867586
##ZVALUE=290
0.498891
0.337958
0.310540
0.330806
0.459552
0.517964
0.496507
0.409484
0.394583
0.458956
0.656843
0.549555
0.523925
0.632405
0.664592
0.823736
0.674725
0.620484
0.774860
0.713468
0.645518
0.800490
0.933409
1.045465
1.160502
1.141429
1.770854
5.148649
24.289489
58.297515
120.322704
272.831917
436.244607
673.254728
816.782713
914.458632
887.969732
742.200017
594.956875
390.737653
255.023837
130.246878
71.921945
32.487512
25.210977
36.231875
50.123930
73.368549
94.903708
120.912790
136.277676
145.416856
145.169497
130.501986
110.388994
83.085895
62.252879
41.213632
28.874874
17.685890
13.645887
11.165738
10.703802
10.252595
10.639429
11.624694
11.802912
12.862682
13.280511
13.881922
14.072657
15.634894
15.928745
16.655922
17.251968
17.959476
18.071532
18.394589
18.908978
19.523501
19.482970
20.251870
20.531416
21.261573
20.933747
21.057725
21.659732
20.836592
21.004677
21.296740
21.952987
20.683408
21.724701
21.509528
20.936728
21.097660
##ZVALUE=295
0.526905
0.457764
0.430942
0.563860
0.508428
0.507832
0.379682
0.550747
0.458956
0.548959
0.478625
0.441670
0.457764
0.700951
0.509620
0.636578
0.747442
0.667572
0.614524
0.785589
0.696778
0.778437
0.793934
0.797510
0.793934
1.118779
1.272559
1.290441
1.291633
2.520680
11.697412
35.393834
82.032681
202.981830
338.174701
548.435450
690.716505
827.069879
850.171447
776.696801
659.306645
470.223427
323.136449
169.277787
96.144676
39.080977
22.230744
21.229982
29.448867
48.188567
65.300465
92.884898
111.274719
132.629871
139.432549
136.262774
123.852491
101.791620
83.714724
58.951974
43.389797
27.036667
20.203590
13.954639
12.468696
11.867881
12.302995
12.373924
13.075471
13.872981
14.414787
15.692711
15.817881
16.618967
17.453432
17.898679
19.041896
19.077659
19.362569
19.672513
20.527840
20.777583
20.976663
20.886660
21.156669
21.711588
21.842718
21.622777
21.603703
21.882653
21.499991
21.109581
21.538734
21.879673
21.001697
21.136999
##ZVALUE=300
0.268817
0.208616
0.218749
0.385642
0.399947
0.438690
0.388622
0.518560
0.560880
0.363588
0.576973
0.408888
0.365973
0.405908
0.522733
0.536442
0.434518
0.495911
0.680685
0.526905
0.514984
0.650883
0.568628
0.496507
0.783801
0.802875
0.766516
0.843406
0.995994
0.849962
1.234412
1.188517
4.762411
16.685724
62.406659
124.179721
253.988504
388.756990
566.062927
678.564906
757.370591
757.496953
661.296844
551.015735
372.420549
247.187018
128.214955
68.311691
26.961565
16.098619
18.349886
25.855899
42.552948
59.539676
84.556937
104.285479
125.038624
131.161809
132.316947
123.504996
102.350712
83.946586
59.356689
45.953989
29.642582
21.988750
15.678406
13.296604
13.678670
14.086962
14.605522
15.242696
16.277432
16.891956
17.510653
17.832518
18.971562
19.632578
19.912720
21.009445
20.543933
21.367669
21.645427
21.655560
22.143722
21.960735
21.851659
22.487640
21.845698
22.630692
22.134781
21.937490
21.821856
21.540523
21.440983
21.972656
##ZVALUE=305
0.249743
0.289679
0.287890
0.454783
0.389814
0.412464
0.293851
0.261664
0.335574
0.410676
0.383854
0.476837
0.458956
0.430942
0.400543
0.203848
0.513792
0.391603
0.474453
0.442863
0.530481
0.629425
0.450611
0.444651
0.713468
0.684857
0.562668
0.688434
0.660419
0.764728
0.925660
0.964999
1.073480
1.173615
2.066493
12.079477
34.191012
102.301836
189.891458
354.473591
502.058864
681.510568
781.630874
817.499757
763.600469
610.995889
472.266674
292.380452
184.410810
88.611841
46.103597
17.852783
12.862682
17.065406
25.087595
41.009784
58.496594
82.923770
99.591613
118.499994
126.136541
125.737786
117.061734
98.606944
82.233548
60.431957
44.199824
29.881597
22.662878
18.128753
16.919971
16.911626
16.594529
17.406940
18.351674
19.147992
18.951893
19.873977
20.716786
21.095872
21.498799
22.241473
22.558570
22.753477
22.849441
23.651719
23.148656
23.126602
22.991896
22.668839
22.318959
22.607446
22.286773
21.826625
22.181869
22.189617
##ZVALUE=310
0.275970
0.200868
0.373721
0.308752
0.278950
0.372529
0.374913
0.259876
0.301600
0.320673
0.322461
0.236630
0.343919
0.276566
0.357628
0.383854
0.369549
0.433922
0.490546
0.340939
0.445843
0.571609
0.455976
0.574589
0.408888
0.397563
0.587702
0.595450
0.662804
0.721812
0.757575
0.811815
0.823736
0.818968
0.815988
1.131892
1.114607
5.226731
17.539859
60.162544
127.076507
277.417898
438.781977
661.158562
805.546641
899.100900
876.770616
759.474635
617.823005
410.049558
270.561576
136.993527
73.080659
27.023554
13.849735
12.133718
15.261769
23.939610
34.161806
54.243803
71.037412
95.127821
109.395981
118.867755
121.384859
112.075806
100.811720
81.241727
64.823627
45.781732
35.071969
25.945902
22.513866
19.427538
19.248724
19.157529
19.909739
20.668507
21.182895
22.038817
21.849871
22.995472
23.534894
23.848414
23.711920
23.390651
23.815632
23.819804
23.823977
23.629665
23.543835
23.190975
23.706555
22.901893
22.392869
22.378564
##ZVALUE=315
0.528693
0.413656
0.463724
0.550747
0.508428
0.421405
0.365973
0.563860
0.450611
0.450611
0.493526
0.457764
0.652671
0.494719
0.550747
0.346899
0.323653
0.515580
0.541806
0.537634
0.553727
0.689626
0.531673
0.520945
0.680685
0.634789
0.643730
0.555515
0.753999
0.614524
0.761747
0.670552
0.963807
0.852942
0.916719
1.046658
1.196861
1.317859
1.317859
2.688766
9.121895
38.477778
90.931654
220.871568
365.715623
593.570471
747.281909
884.499550
913.809538
838.782787
717.078447
505.535007
356.109738
188.765526
102.277994
37.808418
17.459989
10.384917
11.098981
15.574694
21.898746
35.175681
49.302578
68.848729
87.222457
106.375813
113.788843
116.441846
111.515522
95.769763
81.162453
60.367584
47.535896
34.215450
28.236508
22.839904
21.856427
21.100640
21.892786
22.482872
22.719502
22.884607
23.100972
23.867488
24.266839
24.304986
24.885535
24.952888
24.349689
24.489760
24.320483
23.901463
24.001598
23.518801
22.715926
23.320913
##ZVALUE=320
0.225902
0.322461
0.413656
0.318885
0.159740
0.160933
0.295639
0.144839
0.364780
0.382662
0.411868
0.406504
0.336766
0.341535
0.479817
0.240803
0.267625
0.417829
0.276566
0.471473
0.512600
0.303984
0.483990
0.414848
0.410676
0.497699
0.510812
0.411868
0.607967
0.615716
0.518560
0.608563
0.696778
0.849962
0.696778
0.775456
0.766516
0.984669
0.949502
0.932813
1.162887
1.645684
4.043579
21.732450
60.508847
177.640915
316.006541
554.177761
751.681924
977.819562
1015.674472
1015.674472
918.877721
684.036016
488.430858
265.931487
148.456693
60.609579
28.475523
11.816621
10.082722
11.617541
14.246702
21.885633
30.665994
48.220754
64.432621
83.639622
98.473430
111.397505
113.241673
108.279586
97.179413
78.697801
63.351989
46.627522
36.996603
28.997660
25.714636
23.143888
22.534728
23.679733
23.392439
23.968816
23.556948
24.336576
24.846792
24.461746
24.178624
24.570823
24.301410
23.841858
23.947954
23.637414
23.497939
23.505688
##ZVALUE=325
0.284910
0.375509
0.299811
0.256896
0.220537
0.358820
0.347495
0.332594
0.306964
0.330806
0.394583
0.445843
0.452995
0.220537
0.282526
0.304580
0.433922
0.235438
0.419617
0.493526
0.284910
0.389814
0.423789
0.445843
0.274777
0.506639
0.620484
0.553727
0.432730
0.526905
0.446439
0.561476
0.419617
0.671744
0.566840
0.859499
0.738502
0.952482
0.783801
1.119971
1.030564
1.080632
1.181960
1.295805
2.580881
13.729930
40.201545
130.188465
262.705684
541.624427
781.845450
1015.674472
1015.674472
1015.674472
1015.674472
844.991803
608.673692
354.144573
205.402970
83.522797
39.591789
15.497804
10.697842
10.536909
12.140870
15.882850
21.847486
32.731891
45.830607
66.494942
80.938935
96.426606
104.999542
108.121634
102.835894
89.660883
77.131987
59.825778
48.307776
36.510825
30.352473
26.229620
24.091601
24.497509
24.178624
24.361610
24.416447
24.306774
24.047494
24.441481
24.257898
24.509430
24.101734
24.048686
23.597479
23.644567
##ZVALUE=330
0.191927
0.178814
0.300407
0.409484
0.228882
0.262856
0.229478
0.333786
0.386834
0.360608
0.450611
0.365973
0.238419
0.376701
0.261664
0.316501
0.283718
0.345707
0.262856
0.293851
0.422597
0.360608
0.370741
0.399947
0.345707
0.412464
0.425577
0.475645
0.409484
0.518560
0.370741
0.601411
0.625849
0.642538
0.622869
0.821948
0.607967
0.671744
0.680685
0.680685
0.820756
0.943542
1.010895
1.049638
1.160502
1.532435
1.755953
6.286502
20.989776
90.962648
203.574896
459.844470
708.336830
1015.660763
1015.660763
1015.660763
1015.660763
1015.660763
821.459889
487.497449
293.297768
121.732950
58.539510
22.710562
12.770891
10.781884
11.254549
12.783408
16.210675
23.748875
31.682849
46.058893
60.821772
80.725551
92.504621
100.614429
103.914738
97.968578
87.890625
72.041750
59.187412
45.566559
38.108826
30.682683
27.632713
25.307536
24.504662
24.353862
24.215579
23.781657
23.728609
23.492575
23.560524
23.307800
23.555756
23.235679
##ZVALUE=335
0.230670
0.192523
0.211596
0.180602
0.343919
0.326633
0.239611
0.191927
0.185966
0.328422
0.394583
0.383854
0.218749
0.348687
0.323653
0.388622
0.351667
0.346899
0.464916
0.373721
0.369549
0.483990
0.347495
0.422597
0.272989
0.380874
0.493526
0.367761
0.503659
0.534654
0.480413
0.510812
0.400543
0.444651
0.553727
0.448823
0.529885
0.559688
0.586510
0.594854
0.669956
0.783801
0.778437
0.877976
1.015663
1.198649
0.959635
1.473427
1.381636
3.122687
10.110736
51.512718
128.241777
330.305696
562.442541
931.989551
1015.674472
1015.674472
1015.674472
1015.674472
1015.674472
681.346655
430.164933
195.180774
90.902448
31.148791
15.836954
11.241436
11.351705
12.010932
13.606548
17.670989
22.539496
33.259988
44.545531
60.994625
74.973702
88.559985
95.801950
97.472668
92.893839
81.284642
71.821809
58.229566
47.910810
37.676692
32.108426
26.828647
24.469495
23.696423
23.175478
22.810698
22.682548
22.680759
22.240877
22.619963
##ZVALUE=340
0.364780
0.317693
0.276566
0.173450
0.391603
0.309944
0.361800
0.205636
0.294447
0.292659
0.248551
0.294447
0.277758
0.228882
0.451803
0.348687
0.297427
0.319481
0.176430
0.308752
0.155568
0.283718
0.349879
0.389814
0.368953
0.403523
0.379682
0.515580
0.384450
0.406504
0.375509
0.420809
0.579953
0.402927
0.488758
0.475645
0.406504
0.494719
0.524521
0.703931
0.379682
0.653863
0.589490
0.681877
0.784993
0.794530
0.805855
0.932813
1.037717
1.119971
1.280904
1.650453
5.175471
30.636787
88.908672
255.292654
450.306535
772.613883
1012.295485
1015.674472
1015.674472
1015.674472
1015.674472
859.383941
560.988784
255.402923
120.289922
42.076707
20.006895
11.659861
11.426806
12.158751
12.858510
14.700890
17.321706
24.187565
31.670928
44.825673
56.930780
73.723793
83.640814
92.014670
92.625618
88.551641
80.710649
68.211555
57.166815
44.785738
37.417412
30.652881
26.730895
23.434758
22.271872
21.435618
21.645427
21.578670
##ZVALUE=345
0.214577
0.354648
0.124574
0.363588
0.259876
0.280738
0.375509
0.199676
0.288486
0.255704
0.170469
0.332594
0.271797
0.273585
0.238419
0.293851
0.285506
0.268817
0.352859
0.284910
0.257492
0.246763
0.250936
0.347495
0.297427
0.303984
0.409484
0.383854
0.456572
0.442863
0.480413
0.409484
0.287890
0.403523
0.479817
0.477433
0.460744
0.374913
0.497699
0.475645
0.418425
0.567436
0.550747
0.640750
0.674725
0.763535
0.766516
0.652671
0.737906
0.836849
0.996590
1.033545
1.277924
1.483560
2.391934
16.119480
58.085918
189.551711
352.123976
662.792921
953.361988
1015.674472
1015.674472
1015.674472
1015.674472
1002.880931
715.363026
359.296799
169.124603
58.455467
28.779507
13.911724
11.883974
12.151599
12.518764
13.171434
14.638901
17.252564
21.669865
31.000972
41.036606
55.922866
66.391826
77.976584
84.080696
87.419748
84.522963
76.099634
67.208409
55.503845
45.468807
34.538507
29.748678
24.228692
22.155643
21.216869
##ZVALUE=350
0.191927
0.389814
0.285506
0.248551
0.232458
0.320673
0.291467
0.338554
0.338554
0.291467
0.304580
0.353456
0.375509
0.346899
0.365973
0.297427
0.229478
0.399947
0.187755
0.318885
0.365973
0.252724
0.135899
0.349879
0.356436
0.280738
0.374913
0.274777
0.400543
0.392795
0.313520
0.385642
0.509620
0.622869
0.418425
0.534654
0.421405
0.454783
0.492930
0.600815
0.656843
0.541806
0.534654
0.619888
0.530481
0.494719
0.562668
0.672936
0.755787
0.601411
0.825524
0.877976
1.032948
0.918508
1.094937
1.416802
1.860857
7.474422
29.988885
122.744441
261.308551
557.138920
853.292942
1015.674472
1015.674472
1015.674472
1015.674472
1015.674472
903.404951
442.124009
224.720836
86.670518
40.079951
15.980601
11.864901
11.512637
11.677742
11.839867
12.748837
14.170408
16.442537
21.643639
27.868748
38.561821
47.126412
59.989691
68.835616
75.738430
78.426003
76.604486
71.780682
61.713457
52.476525
41.851997
35.089850
27.748942
##ZVALUE=355
0.208616
0.224710
0.118613
0.279546
0.074506
0.383854
0.246763
0.197887
0.084639
0.363588
0.226498
0.299811
0.292659
0.209808
0.205636
0.261664
0.297427
0.298619
0.364780
0.305772
0.313520
0.283718
0.264645
0.394583
0.398755
0.236630
0.403523
0.336766
0.335574
0.459552
0.354648
0.320673
0.234842
0.436902
0.379682
0.473857
0.445843
0.395775
0.462532
0.479817
0.521541
0.437498
0.376701
0.610948
0.738502
0.610948
0.650883
0.504851
0.730753
0.671744
0.855923
0.634789
0.831485
0.861883
0.904799
0.915527
0.875592
1.248717
1.454949
2.751946
14.561415
48.646927
164.377689
317.106843
630.300641
922.107697
1015.674472
1015.674472
1015.674472
1015.675068
846.289396
543.470979
250.239968
118.489861
44.183731
21.697879
11.540651
10.491610
10.817647
10.991693
11.651516
12.289882
13.538599
15.165806
19.412637
24.201870
33.485889
41.750669
53.915977
62.006712
69.096684
71.944594
70.413947
65.956712
57.239532
49.596429
##ZVALUE=360
0.226498
0.016689
0.239611
0.413656
0.238419
0.169873
0.193715
0.281930
0.102520
0.208616
0.191927
0.360608
0.202656
0.353456
0.247955
0.121593
0.152588
0.224710
0.308752
0.300407
0.318885
0.150800
0.351667
0.408888
0.321865
0.266433
0.242591
0.149608
0.343919
0.262856
0.239611
0.267625
0.282526
0.337958
0.315905
0.499487
0.477433
0.488758
0.462532
0.482798
0.358820
0.383854
0.387430
0.508428
0.484586
0.478625
0.473857
0.447631
0.507832
0.503659
0.612736
0.571609
0.721812
0.808835
0.805855
0.807643
0.808835
0.905991
0.810623
1.089573
1.284480
1.774430
5.066991
22.097826
58.943629
160.660744
275.482535
477.485657
665.099621
875.085592
942.237973
885.594487
731.344819
461.737514
287.383795
130.488873
65.973997
25.803447
13.645887
9.578466
9.774566
10.041595
10.186434
10.628700
10.997653
11.727810
13.144612
16.345978
19.765496
27.177930
34.587979
45.182705
52.377582
61.679482
65.274835
65.365434
##ZVALUE=365
0.120997
0.172853
0.063777
0.030994
0.203848
0.199676
0.094771
0.213981
0.220537
0.224710
0.264645
0.181794
0.198483
0.147820
0.156760
0.296831
0.182986
0.082850
0.185966
0.284910
0.335574
0.252724
0.357628
0.298619
0.159740
0.242591
0.258684
0.487566
0.232458
0.268817
0.013709
0.320673
0.363588
0.490546
0.202656
0.301600
0.276566
0.216961
0.349879
0.362992
0.448823
0.435710
0.183582
0.271797
0.367761
0.422597
0.576973
0.380874
0.666976
0.425577
0.480413
0.533462
0.521541
0.462532
0.572801
0.630617
0.551939
0.461936
0.759959
0.822544
0.943542
1.069903
1.115799
1.410842
2.338886
12.857914
34.961700
96.142888
180.683732
339.299440
458.810925
588.395596
648.199916
641.138554
570.917726
416.914821
295.640826
163.584948
89.780688
34.202933
16.266704
9.065866
8.578897
8.829832
9.091496
9.222627
9.455681
9.662509
10.246634
11.567473
13.816953
17.759800
22.509694
30.955672
37.894845
47.279596
##ZVALUE=370
0.087619
0.122786
0.325441
0.136495
0.095963
0.174642
0.280738
0.223517
0.146627
0.230670
0.200868
0.203848
0.196695
0.217557
0.139475
0.118613
0.199676
-0.019670
0.245571
0.070930
0.292659
0.252724
0.319481
0.144839
0.380874
0.265837
0.050664
0.139475
0.209808
0.335574
0.258684
0.232458
0.363588
0.192523
0.241995
0.100732
0.169873
0.273585
0.242591
0.260472
0.393987
0.320673
0.332594
0.360608
0.333786
0.312924
0.324845
0.261664
0.384450
0.401735
0.375509
0.365973
0.391603
0.378489
0.252724
0.477433
0.451803
0.441670
0.498891
0.563860
0.601411
0.630617
0.664592
0.747442
0.791550
1.011491
1.269579
5.626678
18.696785
61.991811
116.541982
224.150419
327.064991
464.508533
539.767742
574.602485
543.966889
450.256467
340.355635
201.610923
116.620660
46.971440
22.607446
10.311604
7.917881
7.645488
8.075833
7.908940
8.238554
8.447766
8.774996
9.458661
10.046959
12.727976
15.270710
20.546913
##ZVALUE=375
0.157952
0.335574
0.205636
0.324845
0.014901
0.119805
0.187755
0.104904
0.126958
0.084639
0.288486
0.196695
0.109673
0.096560
0.155568
0.184774
0.189543
0.136495
0.101924
0.212789
0.048876
0.099540
0.240803
0.181794
0.155568
0.260472
0.124574
0.161529
0.186563
0.148416
0.237823
0.209808
0.176430
0.200868
0.136495
0.223517
0.176430
0.462532
0.305772
0.360608
0.444651
0.182986
0.151992
0.265837
0.300407
0.149608
0.321865
0.414848
0.303984
0.261664
0.401735
0.189543
0.425577
0.259876
0.365973
0.345707
0.377893
0.310540
0.381470
0.364780
0.341535
0.430942
0.404716
0.542998
0.623465
0.537634
0.647902
0.738502
1.039505
2.710819
9.476542
35.229921
75.504780
169.703960
265.972614
402.050018
491.903424
565.935969
575.767756
512.315631
419.321656
273.978710
175.541639
82.273483
41.447878
14.702678
8.450747
7.022619
7.173419
7.192492
7.375479
7.605553
7.480979
8.020997
8.494854
9.096861
##ZVALUE=380
0.195503
0.098944
0.168681
0.231862
0.164509
0.170469
-0.017881
0.149608
0.245571
0.126958
0.104904
0.219941
0.196695
0.213981
0.175834
0.156760
0.128746
0.149608
0.021458
0.131726
0.180602
0.041723
0.154972
0.144839
0.181794
0.162721
0.088811
0.221729
0.225902
0.203848
0.100732
0.164509
-0.119805
0.062585
0.133514
0.239611
0.031590
0.037551
0.129938
0.223517
0.132918
0.144839
0.215769
0.226498
0.270605
0.233650
0.176430
0.258684
0.238419
0.315905
0.144839
0.149608
0.220537
0.354648
0.279546
0.333786
0.273585
0.354648
0.385642
0.391603
0.267625
0.376701
0.368953
0.388622
0.416636
0.455976
0.514984
0.494719
0.566840
0.805855
0.871420
1.457930
5.625486
26.025772
59.156418
137.501955
222.746730
346.055627
443.300009
534.234643
553.044677
504.087806
430.390835
318.524837
221.667886
112.333894
59.492588
20.923615
10.265708
6.663799
6.579757
6.575584
6.767511
6.754994
7.237792
7.266998
##ZVALUE=385
0.227690
0.191927
0.186563
0.132918
0.195503
0.093579
0.184774
0.199676
0.046492
0.046492
0.124574
0.080466
0.115633
0.159740
-0.017881
0.283718
0.150800
0.258684
0.142455
0.058413
0.116825
0.189543
0.177622
0.151992
0.159740
0.134706
0.165701
0.114441
0.000596
0.183582
0.311732
0.269413
0.089407
0.201464
0.145435
0.213981
0.246763
0.296831
0.235438
0.225902
0.139475
0.132918
0.105500
0.248551
0.075698
0.193715
0.193715
0.168681
0.206828
0.269413
0.289679
0.174642
0.126958
0.216961
0.201464
0.236630
0.327826
0.298619
0.232458
0.398755
0.333786
0.336766
0.265837
0.325441
0.305772
0.450611
0.421405
0.520945
0.472665
0.521541
0.769496
0.741482
0.827909
1.201630
2.398491
14.190674
36.633611
93.357563
164.725780
286.424756
380.894542
488.519669
532.137752
524.309874
475.087762
366.693735
271.024704
152.372718
87.518692
36.320686
15.591979
6.950498
5.973577
5.996823
6.037951
6.031990
##ZVALUE=390
0.080466
0.227690
0.153780
0.219941
0.197887
0.089407
0.090599
0.161529
0.064969
-0.065565
0.103712
0.090599
0.143647
0.131726
0.117421
0.144839
0.069737
-0.033975
0.111461
0.163913
0.132918
0.082850
0.151992
0.112653
0.361800
0.273585
0.228882
0.175834
0.135899
0.134706
0.102520
0.160933
0.047684
0.024438
0.241995
0.177622
0.137687
0.330806
0.300407
0.316501
0.254512
0.217557
0.156760
0.117421
0.273585
0.278950
0.097752
0.166893
0.158548
0.276566
0.223517
0.292659
0.296831
0.213981
0.294447
0.303984
0.225902
0.154972
0.267625
0.258684
0.351667
0.398755
0.239611
0.215769
0.249743
0.422597
0.372529
0.410676
0.503659
0.659823
0.687838
0.563860
0.763535
0.719428
0.651479
0.673532
1.027584
7.525682
23.994446
70.382953
131.913424
244.005919
331.758857
432.685018
495.677590
531.021953
506.472588
422.767997
336.003900
212.533474
125.763416
50.343871
22.427440
8.192658
5.817413
5.258918
##ZVALUE=395
0.101924
0.310540
0.114441
0.175834
0.091791
0.103712
0.142455
0.158548
0.157952
0.250936
0.265837
0.232458
0.286698
0.230670
0.310540
0.095963
0.405908
0.224710
0.220537
0.225902
0.201464
0.268817
0.246763
0.290871
0.098944
0.206828
0.212789
0.121593
0.270605
0.326633
0.222921
0.291467
0.175834
0.231862
0.403523
0.319481
0.252724
0.170469
0.181794
0.137687
0.240803
0.201464
0.120997
0.299811
0.322461
0.357628
0.251532
0.394583
0.191927
0.339746
0.451803
0.421405
0.425577
0.288486
0.372529
0.346899
0.377893
0.271797
0.384450
0.346899
0.366569
0.338554
0.434518
0.338554
0.137687
0.502467
0.298619
0.543594
0.536442
0.418425
0.618696
0.760555
0.506639
0.585914
0.622869
0.733733
0.616908
0.807643
0.810623
3.673434
13.912916
48.297644
95.073581
188.884735
276.867747
399.357677
479.579568
541.067719
541.095734
475.671887
391.119719
257.556438
167.306662
80.544949
38.428903
13.815761
##ZVALUE=400
0.148416
0.194907
0.173450
0.233650
0.207424
0.077486
0.197887
0.158548
0.158548
0.231862
0.366569
0.266433
0.238419
0.102520
0.192523
0.234842
0.321865
0.234842
0.141859
0.035763
0.241995
0.334978
0.185966
0.299811
0.430942
0.046492
0.238419
0.257492
0.283718
0.151992
0.386834
0.398755
0.190735
0.204444
0.206828
0.293851
0.323653
0.337958
0.240803
0.347495
0.326633
0.302792
0.271797
0.302792
0.301600
0.383854
0.216961
0.296831
0.327826
0.310540
0.167489
0.302792
0.340939
0.246763
0.408888
0.250936
0.235438
0.329614
0.240803
0.321865
0.304580
0.381470
0.426769
0.374913
0.263453
0.348687
0.369549
0.409484
0.544786
0.542998
0.699759
0.525713
0.612736
0.730753
0.672936
0.512600
0.663996
0.724792
0.779629
0.946522
1.118779
2.338886
8.546710
33.695698
74.785948
175.486803
290.477872
462.122560
575.835705
683.186650
696.539879
611.525774
495.532751
325.132608
210.377574
103.799701
##END
