##TITLE=FQP00302
##FORMAT=SPECTACLE-ASCII V-1.2
##DATA TYPE=ULTRAVIOLET SPECTRUM
##SECOND TYPE=ULTRAVIOLET SPECTRUM
##DATE=01/09/18
##TIME=16:49:22
##SPECTROMETER/DATA SYSTEM=SPECTACLE
##XUNITS=NM EM
##YUNITS=ENERGY
##YFACTOR=1
##FIRSTX=220
##LASTX=410
##NPOINTS=96
##3DDATA=Equidistant
##ZUNITS=NM EX
##FIRSTZ=210
##LASTZ=400
##ZPOINTS=39
##XYDATA=(Y..Y)
##ZVALUE=210
1.981854
1.992583
2.026558
1.726747
2.077818
2.123713
2.306700
2.419949
1.930594
2.545714
1.704693
1.563430
2.277493
1.862645
1.653433
2.243519
2.006888
1.806617
2.064705
1.964569
2.531409
2.094507
2.353787
2.909899
2.935529
3.242493
2.945662
3.518462
3.843904
4.509687
3.875494
5.151629
4.849434
5.667806
5.142689
5.109906
5.205870
4.958510
5.284548
5.482435
5.189776
4.778504
4.489422
5.227923
4.936457
4.131794
3.755689
4.548430
4.446507
3.854632
3.716946
3.707409
4.308820
3.360510
4.229546
3.845692
3.989935
3.715754
4.421473
3.846884
3.883839
3.670454
3.357530
3.265738
2.964735
3.579855
3.385544
3.988743
4.982948
4.962683
4.481673
6.546974
6.885529
6.453991
6.886721
6.495714
6.670952
6.976724
6.453991
5.860925
5.084872
5.132556
5.407929
4.211664
3.829598
3.968477
4.088879
3.441572
2.892613
3.627539
3.781915
2.856851
3.186464
4.129410
3.881454
3.560781
##ZVALUE=215
5.385876
4.725456
4.223585
3.862977
3.723502
3.902912
3.884435
3.996491
4.798770
4.988909
3.920794
3.535748
3.586411
2.967715
1.984835
2.220869
2.320409
2.219677
1.985431
2.079606
2.380610
2.278686
2.487898
2.574921
3.744960
3.482699
4.589558
4.525781
6.986856
6.511807
6.351471
7.209778
7.334948
9.045601
9.202957
8.267760
8.819699
8.554459
7.990599
8.955598
7.801652
8.675456
7.350445
6.637573
6.784797
6.984472
6.214976
6.721616
5.837679
5.727410
5.674958
5.555749
6.166697
4.700422
5.657673
4.663467
4.899502
3.868937
4.849434
4.497766
3.948808
3.168583
4.084706
4.644990
4.613996
3.842711
4.102588
4.103780
3.863573
4.706979
5.720854
6.472468
5.991459
6.272793
6.497502
7.488728
6.574988
7.542968
5.855560
6.572604
6.234646
6.337762
5.984902
4.496574
4.780889
4.334450
4.111528
4.951954
3.780723
3.781915
3.600717
4.083514
4.010797
3.206730
5.123615
4.099607
##ZVALUE=220
13.343692
14.418960
15.403628
15.244484
14.811754
11.144876
12.143850
10.441542
9.928942
9.687543
9.664893
11.160970
11.142492
9.038448
7.691979
7.931590
4.713535
3.096461
2.944469
2.455711
2.457500
2.109408
2.732873
3.391504
3.294945
4.618764
5.703568
6.631613
7.679462
9.704828
10.379553
11.972785
12.764931
14.898777
12.777448
14.379621
14.348626
13.651848
14.192462
14.201999
13.546944
12.991428
11.398792
10.931492
10.888577
9.585619
9.866953
10.342598
8.423924
8.582473
7.812977
8.494854
7.946491
7.182956
6.571412
6.354451
7.293820
5.421638
5.964637
5.803704
5.786419
5.810857
5.212426
5.969405
5.428791
6.215572
5.297661
6.046891
6.588697
5.475879
5.605817
6.728768
7.311702
8.336902
7.893443
8.721948
8.638501
8.512735
8.212924
8.171797
8.484721
7.896423
6.567836
6.911755
6.878972
6.054640
5.893707
6.275773
5.825758
6.133914
6.116629
5.563498
6.135702
5.438924
5.417466
4.820824
##ZVALUE=225
23.192763
25.860667
32.035708
43.677688
48.898458
47.736764
43.267608
38.135648
31.658411
25.411844
21.709800
21.292567
22.163987
24.893880
25.939941
22.946000
20.487905
17.454624
13.041496
7.431507
5.957484
3.267527
3.311634
3.495812
3.525615
5.109906
6.958842
7.813573
9.763837
11.904836
14.022589
13.605952
15.188456
16.133785
17.782450
18.241405
18.870831
18.706918
17.879605
18.008947
16.815662
16.735792
15.787482
13.941526
14.942884
13.510585
12.791753
11.969805
10.922551
11.361837
10.968447
10.027885
10.264516
9.808540
8.801818
8.740425
8.466840
7.995963
8.368492
7.976890
7.940531
8.223653
6.998777
8.038878
7.566810
6.841421
8.350611
8.106828
7.072687
8.019805
8.822680
9.366870
9.333491
10.471940
10.808706
12.078881
11.007786
10.514855
10.230541
10.300875
9.653568
10.261536
10.160804
9.893775
7.791519
9.135604
8.774996
8.966923
10.517836
8.911490
9.509921
9.794831
8.100867
8.620620
8.503795
9.506941
##ZVALUE=230
20.114779
23.576617
34.889579
60.682893
80.981851
103.263855
116.898417
121.785998
113.982558
91.481805
73.079467
50.974488
43.830872
42.717457
44.350624
46.695471
51.774979
48.568845
43.211579
36.180615
26.311874
18.869638
9.894967
6.860495
5.060434
5.036592
6.102920
6.561875
8.169413
9.614825
9.620786
11.519790
14.301538
13.906956
14.508963
15.159845
16.619563
15.622973
15.848875
16.655922
16.911626
15.670657
14.785528
16.489625
13.112426
12.875795
12.092590
10.815859
12.076497
11.338592
11.174679
9.910464
10.160804
9.466410
10.802746
10.740757
10.017753
11.512637
9.247661
9.036660
10.317564
10.531545
9.918809
9.297729
9.927750
10.381937
9.693503
12.004972
10.369420
11.699796
13.386607
13.758540
15.261769
14.917850
15.096664
14.954805
14.863610
14.470816
17.128587
16.282797
17.268658
15.274882
14.350414
14.651418
15.466809
16.171932
15.518665
15.693903
15.244484
16.557574
15.257597
13.614893
14.710426
14.873743
15.276670
14.193654
##ZVALUE=235
7.620454
9.243488
16.563535
42.318702
70.262551
116.492510
160.342455
203.063488
227.352977
238.418579
215.544701
177.205801
126.316547
95.832944
70.568919
69.232583
71.232915
75.845718
80.731511
83.632469
76.150894
63.206553
52.868724
34.850836
24.864674
12.896657
10.692477
7.374883
6.538630
8.163452
7.671714
8.802414
9.406805
9.504557
11.505485
11.146665
12.765527
11.834502
11.953712
13.257861
11.304617
12.525916
13.348460
12.003779
11.268854
11.622906
11.311769
10.465980
11.297464
11.632442
11.314750
10.753870
11.615753
11.238456
10.749698
10.893941
11.093616
9.945631
10.637641
12.136698
11.006594
12.172461
12.207627
12.118816
13.031960
12.938976
14.751554
15.351772
15.129447
16.911626
18.264651
16.451478
17.539859
19.457936
21.838546
21.453500
19.937754
23.137927
22.008419
23.244619
23.820996
21.677613
23.530722
22.242665
23.286939
22.468567
22.531748
23.894906
22.208691
21.162629
21.841526
20.782948
23.333430
21.656752
21.481514
22.289753
##ZVALUE=240
1.897812
1.484752
3.520846
9.003878
30.818582
52.224994
112.088919
165.820718
256.875753
313.842893
370.295644
369.780660
347.953439
290.531516
226.217508
152.956843
116.659999
94.303489
94.994903
105.961561
115.747452
119.910836
119.355917
105.701685
84.148645
66.000819
47.795773
32.009482
18.927455
13.763905
9.466410
8.208752
7.748604
9.471774
9.602904
10.612607
9.866953
11.317730
10.795593
10.940433
11.064410
11.805892
11.077523
10.916591
10.976791
10.223985
11.897683
11.194944
11.217594
11.733770
12.072921
12.336969
12.566447
10.979772
11.809468
10.698438
11.473894
12.030602
12.392998
12.896657
14.096498
12.964606
13.643503
14.223456
13.552904
16.812682
16.080737
17.901659
18.402934
20.186901
21.147728
23.106933
21.906495
23.451447
24.101734
26.231408
28.896928
26.041865
27.403831
29.080510
27.532578
28.602481
29.648542
30.672550
30.893683
29.443502
29.514432
30.467510
30.345917
29.833913
28.363466
30.351877
30.114651
29.332638
29.467940
28.876662
##ZVALUE=245
1.275539
1.047850
1.145601
0.965595
2.748966
7.033944
23.923516
48.857927
116.912723
179.158449
289.661884
358.040929
424.761772
454.291701
438.458920
378.858447
305.972695
214.051604
149.507523
101.851821
95.333457
96.842647
114.899874
127.616525
133.631825
129.164457
113.941431
98.238587
73.161721
55.823922
41.938424
25.271773
16.846657
11.012554
10.840893
9.919405
9.755492
10.977983
11.684895
10.959506
12.324452
12.307763
10.579824
11.567473
12.276769
11.594892
12.000799
12.237430
11.981726
12.126565
11.864901
11.474490
12.525916
10.552406
10.914803
11.295676
10.796785
13.373494
11.477470
11.940598
12.341738
13.385415
13.330579
14.474988
14.529824
14.759898
15.674829
16.772747
18.434525
18.420815
18.735528
20.191669
21.307468
22.290945
23.218989
26.176572
24.941564
24.390817
26.950836
27.720928
28.608441
28.230548
28.080940
28.474927
29.047728
30.920506
30.174851
29.929876
30.376911
30.315518
31.187534
30.574799
30.606985
29.350519
29.091835
29.974580
##ZVALUE=250
0.735521
0.806451
0.798702
0.528693
0.612736
1.097918
1.691580
4.301667
17.999411
42.840838
105.200410
169.442892
252.525806
371.747017
450.361967
507.657528
511.668921
454.200506
385.257602
270.492435
193.278790
135.050416
91.128945
87.265968
107.067823
121.854544
139.950514
143.769979
139.540434
124.912858
110.309720
85.117817
65.849423
43.576956
29.960871
21.291971
16.512871
14.321804
15.327930
14.821887
15.311837
15.647411
14.966726
14.973879
14.476776
14.384985
14.296770
13.682842
13.659596
13.324618
13.843775
12.285709
13.180971
12.378693
12.591481
12.801886
11.717677
11.175871
12.910962
12.407899
13.450980
12.336969
12.535453
12.974739
13.285875
15.369654
14.581680
14.956594
15.851855
15.989542
17.701983
19.002557
19.528866
21.113753
21.822453
22.294521
23.417473
23.281574
23.678541
24.264455
25.242567
25.544763
25.347471
27.066469
27.524829
27.858615
28.878450
26.860833
29.412508
29.031634
28.276443
29.191971
28.036833
29.675961
29.941797
29.851794
##ZVALUE=255
0.445843
0.515580
0.614524
0.546575
0.681877
0.613928
0.739694
1.226664
0.888705
2.709627
12.260675
30.819774
66.771507
143.103600
231.080651
361.174941
448.776484
540.884733
572.037697
544.871688
474.891663
381.648540
246.488452
159.536004
102.563500
85.056424
88.634491
107.967854
132.853985
145.579576
155.693889
157.176852
142.970681
118.775964
98.407865
67.993999
52.151680
35.975575
28.067827
22.540689
21.479726
19.840598
19.708872
18.960834
18.144846
18.348694
17.786622
16.591549
17.245412
15.434623
15.459657
14.881492
14.877915
14.295578
13.560653
13.490915
14.222860
11.759996
12.685657
12.815595
12.240410
12.363791
12.935996
13.159513
12.825727
12.291670
13.884902
13.555884
14.180541
15.279651
15.211701
16.946793
18.424988
18.859506
19.758940
20.309687
20.700693
21.606684
21.572709
21.863580
23.573637
24.781823
23.577809
25.664568
24.606586
25.663972
26.521683
25.877953
26.892424
26.760697
26.260614
27.288795
26.323795
26.897788
26.835799
27.545691
##ZVALUE=260
0.691414
0.789762
0.822544
0.661612
0.994802
0.953674
0.697970
1.047850
1.193881
0.993609
1.070499
1.472831
6.507635
18.204451
53.109527
103.494525
211.673975
309.625864
409.078598
543.832779
610.656738
620.345473
564.098954
445.980430
327.752829
200.121999
136.879683
90.377927
80.038905
96.186996
116.392970
145.983696
162.198544
174.688697
170.549750
153.921843
134.931803
103.093982
83.035827
58.612823
44.433475
33.894777
30.604601
26.055574
24.451613
22.378564
22.500753
20.308495
19.609928
20.368695
18.800497
17.370582
16.934872
15.871525
16.340613
15.628934
14.127493
14.361739
14.220476
13.601780
13.844967
13.670921
12.509823
12.687445
13.646483
13.199449
13.279915
13.363957
14.755726
14.663935
15.603900
15.607476
16.362667
17.599463
17.556548
18.475652
19.377470
20.489693
19.713640
21.585822
21.447539
22.598505
22.965670
23.227930
23.341775
24.761558
23.496747
23.394823
25.607944
26.070476
26.201606
25.389791
25.569797
25.486946
25.371909
25.754571
##ZVALUE=265
0.777841
0.764728
0.817776
0.777841
0.945926
1.127720
0.658631
0.913739
0.903606
1.003742
1.211762
1.104474
1.224875
1.494884
2.840757
14.183521
35.591722
91.591477
159.119964
300.166607
418.844819
530.147552
648.662448
680.289865
621.929765
536.566973
400.990844
291.904807
168.029666
117.116570
83.435774
84.599853
108.137727
131.985545
164.626837
178.440809
188.037753
178.532004
163.825750
140.528679
109.098554
84.763765
59.950948
47.448874
35.741925
29.900670
25.760531
24.717450
23.637414
21.619797
20.861626
19.921660
18.778443
17.544627
16.633868
16.599894
15.148520
14.684796
13.874769
14.279485
13.503432
12.945533
12.773871
13.168454
12.622476
12.991428
13.006926
13.839602
13.421774
14.403462
14.147758
15.311837
16.226768
16.505718
16.943812
17.632842
18.312931
18.885732
20.410419
20.859838
20.087957
19.905567
21.840930
22.732615
22.881627
22.906661
22.853613
24.177432
23.899674
23.278594
24.053454
24.341941
23.328662
24.462938
25.157928
25.505424
##ZVALUE=270
0.529885
0.784993
0.749826
0.737906
0.575781
0.647902
0.616908
0.608563
0.892878
0.885725
0.883937
0.954866
0.748634
0.853539
1.196861
1.091957
1.874566
5.366802
16.689897
56.805611
114.512444
243.233442
365.981460
527.961850
635.240674
704.505444
692.171454
611.794591
513.971448
365.499854
257.149935
149.656534
102.347732
79.273582
85.926652
109.958649
135.990977
164.871812
179.615617
185.816884
179.176927
161.530972
137.338638
105.946660
82.347989
58.601499
43.712854
32.251477
26.398897
22.464991
21.462440
20.054579
19.032955
18.049479
16.961694
15.767813
15.009642
14.764667
13.879538
13.033748
13.037920
12.667775
12.970567
12.437701
12.245774
12.789965
12.536645
13.096929
13.277531
13.124943
13.491511
15.352964
15.064478
15.202761
16.291738
17.091632
17.814636
18.329620
18.247962
19.202828
19.433498
19.898415
20.312667
21.019578
20.903945
20.813942
21.199584
22.461414
23.226738
22.059679
22.695661
23.535490
23.089647
22.555590
22.532940
22.916794
##ZVALUE=275
0.627637
0.715852
0.321865
0.668764
0.740886
0.523925
0.588894
0.577569
0.706911
0.623465
0.661612
0.674725
0.673532
0.704527
1.019835
0.676513
1.081824
1.031756
1.153946
2.828836
11.358857
33.489466
95.832944
178.744793
337.512493
455.551744
602.905750
690.912008
726.925731
697.068572
647.679567
463.684797
333.448648
189.131498
118.763447
73.049664
65.786839
80.429912
100.789666
129.856467
150.518417
171.597600
179.028511
171.634555
154.967904
124.791861
101.576447
73.303580
56.472421
37.534833
28.800964
21.183491
18.254519
16.043782
15.239716
13.918877
13.474822
13.303757
13.100505
12.707710
12.121797
12.106895
12.383461
12.375712
12.901425
12.185574
12.160540
12.177825
12.929440
13.837814
13.818741
14.533997
14.919639
15.502572
16.451478
17.128587
17.290711
17.430782
17.848611
18.567443
19.374490
19.333959
20.137429
20.730495
20.124912
20.636916
20.614862
21.516681
22.302866
21.506548
21.676421
21.633506
21.212697
21.719933
21.412969
22.337437
##ZVALUE=280
0.495911
0.497699
0.422597
0.444651
0.521541
0.434518
0.426769
0.525713
0.893474
0.653863
0.647902
0.591874
0.695586
0.702739
0.642538
0.713468
0.536442
0.844598
0.783801
1.023412
1.151562
1.317859
6.975532
22.580624
75.413585
138.125420
258.923769
384.334922
546.851754
653.463006
720.933676
727.016926
656.411648
509.807467
383.655429
222.263932
136.912465
71.129799
50.909519
50.660968
66.195726
93.828440
118.109584
143.073797
157.743692
164.265633
160.760880
140.853524
121.939778
89.805722
69.690943
45.639873
31.783581
21.616817
16.107559
13.438463
12.416840
12.226701
11.628866
11.270642
11.663437
11.785626
11.492968
11.644959
11.684895
11.745691
11.829734
12.624860
12.851954
13.414621
13.671517
14.125705
14.886856
15.689731
15.477538
16.571879
16.717911
18.003583
18.515587
18.198490
18.454790
18.966794
19.363761
20.270944
19.524693
19.977689
19.773841
21.511912
20.634532
20.749569
21.380782
20.687580
20.934939
20.990968
21.715760
21.453500
##ZVALUE=285
0.573993
0.463724
0.554919
0.441670
0.463724
0.611544
0.567436
0.668764
0.517964
0.457764
0.450611
0.616908
0.472665
0.612736
0.544786
0.611544
0.733733
0.708699
0.677705
0.648499
0.915527
0.850558
1.110435
0.985861
3.457665
12.134910
40.834546
87.558627
193.187594
299.978852
460.097790
584.653616
684.379935
732.717514
696.025491
571.416616
452.504754
284.965634
180.452466
89.755654
51.810741
34.107566
38.934946
58.702826
78.942776
110.400915
129.569769
147.331953
153.545737
149.114728
138.133764
112.315416
91.966987
65.196753
45.759678
28.519630
19.823909
13.035536
11.881590
10.632873
10.694861
10.790825
10.846853
10.971427
11.628866
11.830926
12.402534
12.650490
13.481975
13.926625
14.432669
14.694929
15.364885
16.149879
17.041564
16.727448
16.683936
17.966628
17.343760
18.598437
18.841624
19.108653
20.353794
19.612908
20.430684
19.975901
20.755529
21.289587
20.761490
20.379424
20.699501
20.551682
20.411611
20.780563
20.914674
20.533800
##ZVALUE=290
0.475645
0.500679
0.425577
0.430942
0.397563
0.390410
0.410676
0.422597
0.319481
0.497699
0.576973
0.399947
0.537634
0.807643
0.639558
0.554919
0.588894
0.609756
0.769496
0.677705
0.613928
0.748634
0.767708
0.867844
0.865459
0.974536
1.438856
4.585981
22.702813
54.712892
110.264421
229.306817
354.181528
535.394549
642.742515
729.099512
725.792646
629.963875
516.796708
349.286795
232.787728
118.214488
65.193772
31.063557
25.673509
35.090446
49.999952
73.357821
94.167590
123.488903
137.763619
146.300793
145.165920
129.686594
111.103654
84.128976
63.650608
41.647553
29.210448
18.218756
13.665557
11.119843
10.619760
11.083484
10.633469
11.210442
12.053847
12.809634
12.960434
13.926625
14.799833
14.872551
15.669465
17.166734
16.992688
17.094612
17.441511
18.503666
19.589663
19.019842
19.478798
20.054579
20.597577
20.573735
20.252466
20.752549
21.087527
20.969510
21.084547
20.430684
20.623803
20.620823
20.383000
20.718575
20.404458
20.550489
##ZVALUE=295
0.312924
0.418425
0.501871
0.416636
0.260472
0.426769
0.400543
0.299811
0.557899
0.584722
0.423789
0.375509
0.519753
0.434518
0.444651
0.388622
0.338554
0.619888
0.403523
0.573993
0.467896
0.770688
0.681877
0.591874
0.798702
0.900626
1.072884
0.927448
1.077652
2.021790
7.284880
33.986568
78.857541
182.693005
294.569731
469.527841
585.168004
699.666739
720.220804
662.979484
569.086671
410.120487
285.360813
154.215693
86.924434
35.640597
21.282434
21.814704
29.448867
48.646927
65.712929
92.146993
111.005902
131.847858
139.060616
137.742758
125.105977
104.647875
85.396767
58.949590
43.378472
27.696490
20.654798
14.813542
13.062954
12.292862
12.719631
12.494922
12.717843
13.928413
15.048981
15.321970
15.819669
16.942620
17.478466
17.898679
18.623471
19.290447
19.432902
19.913912
20.255446
20.400882
20.555854
20.809770
21.045804
20.853877
21.885633
21.882653
21.352768
21.444559
21.338463
21.192431
20.437837
21.247864
20.771623
20.530820
##ZVALUE=300
0.326633
0.289679
0.243783
0.331998
0.212789
0.390410
0.209808
0.445843
0.271797
0.339746
0.321865
0.430942
0.439882
0.489950
0.370741
0.607967
0.363588
0.524521
0.582933
0.390410
0.528693
0.653863
0.486970
0.501871
0.699759
0.746846
0.826716
0.797510
0.881553
0.905991
1.157522
1.184940
4.273653
16.820431
59.617758
117.799640
241.326690
364.508629
527.030826
630.123019
707.611442
700.267553
609.705448
502.256751
330.585837
218.238831
111.418962
61.473846
25.789738
15.961528
18.762946
26.178956
42.810440
59.935451
84.993839
103.787780
125.045776
132.886767
130.532980
122.819543
102.673769
85.091591
62.306523
46.071410
30.414462
22.041798
16.771555
14.369488
14.193654
14.054775
14.914870
15.432835
16.264915
16.586781
17.390847
17.874837
18.627644
19.107461
20.035505
20.357966
20.726919
20.750761
21.767616
22.048950
21.584630
21.883845
22.437572
22.669435
22.280812
22.804737
22.276640
21.824837
21.947622
20.909905
21.356940
21.132827
##ZVALUE=305
0.456572
0.165701
0.346899
0.254512
0.305772
0.241995
0.523925
0.258684
0.426769
0.281930
0.342727
0.316501
0.269413
0.256896
0.314713
0.311732
0.302792
0.271797
0.460744
0.393987
0.397563
0.622869
0.681877
0.544786
0.565648
0.510812
0.616908
0.662804
0.613928
0.727773
1.023412
0.900626
1.043677
1.054406
1.738667
11.598468
32.672882
94.811916
170.236826
315.618515
439.564586
588.709712
673.191547
694.061518
653.543472
518.618822
403.344631
257.403851
161.462426
74.436665
37.447810
16.253591
12.468696
16.677976
24.764538
41.736960
58.176517
82.249641
100.780725
119.205713
125.346780
124.921799
117.373466
99.912882
82.469583
58.575869
44.962764
30.927658
23.093820
18.587708
16.715527
15.995502
16.901493
17.585754
18.097758
18.657446
18.955469
19.857883
20.412803
21.014810
20.556450
21.931529
22.555590
22.427440
22.990704
23.199916
22.604465
23.165941
22.785664
22.133589
22.809505
22.322536
21.974444
21.688938
21.908879
21.945834
##ZVALUE=310
0.253916
0.253916
0.180602
0.292659
0.196695
0.303984
0.323653
0.317693
0.293851
0.298619
0.323653
0.244975
0.300407
0.305772
0.425577
0.276566
0.294447
0.416636
0.458956
0.529885
0.486970
0.493526
0.470877
0.452995
0.518560
0.555515
0.492930
0.527501
0.507832
0.675917
0.495911
0.816584
0.790954
0.915527
0.845790
1.126528
1.235604
4.843473
16.601682
57.373643
112.193823
232.548714
352.041721
518.491864
618.327856
684.951544
678.774714
588.653684
485.848784
326.779485
217.173696
109.386444
59.135556
23.711920
13.100505
11.216998
15.231967
23.948550
34.828782
54.264665
71.454644
94.396472
108.498931
119.787455
120.851994
113.659501
100.935698
80.914497
63.191652
44.294000
34.304857
25.931001
21.384954
18.771887
18.475652
18.804669
19.136667
20.198822
19.964576
21.276474
21.721721
22.126436
22.998452
22.867918
23.414493
23.420453
23.546815
23.785830
22.913814
23.750663
23.724437
22.804737
22.689700
22.333860
22.532940
22.193789
##ZVALUE=315
0.247955
0.264645
0.218749
0.344515
0.288486
0.269413
0.137687
0.294447
0.378489
0.356436
0.201464
0.334978
0.232458
0.297427
0.314713
0.363588
0.409484
0.441670
0.370741
0.366569
0.331998
0.414848
0.280738
0.385642
0.518560
0.559688
0.533462
0.531673
0.524521
0.504851
0.666976
0.500679
0.769496
0.586510
0.723600
0.760555
0.655651
0.721812
0.953674
2.199411
8.052588
35.757422
76.842904
175.907612
282.485485
449.347496
555.491447
651.000738
672.361851
617.249608
529.329777
382.272005
269.995928
143.437982
79.782605
31.440854
15.573502
10.153651
10.721684
14.750957
20.758510
35.199523
47.848821
69.024563
85.111856
104.816556
113.547444
116.728544
109.094977
95.988512
80.282688
61.873794
48.186779
34.126639
27.641654
22.891760
20.877719
20.652413
20.832419
21.397471
21.334887
22.461414
22.477508
22.928715
23.865700
24.163723
23.270845
24.067760
23.704767
23.915768
23.785830
23.132563
23.216605
22.952557
22.974610
23.399591
##ZVALUE=320
0.178814
0.125766
0.154972
0.154972
0.352859
0.210404
0.197887
0.186563
0.267625
0.211596
0.149608
0.022650
0.047684
0.122786
0.100732
0.170469
0.189543
0.237823
0.165701
0.277758
0.365973
0.309944
0.307560
0.227690
0.244975
0.417829
0.308752
0.369549
0.293851
0.477433
0.375509
0.386834
0.255704
0.439882
0.456572
0.546575
0.526905
0.484586
0.583529
0.743866
0.833869
1.185536
3.581643
19.471645
50.432682
131.259561
215.708613
355.262756
470.065475
598.031878
650.843978
636.039972
574.754477
439.525843
322.803855
183.096528
106.415749
47.417879
23.174882
11.136532
9.179711
10.532737
13.606548
20.969510
30.328631
47.308803
62.989593
83.389878
97.096562
110.335946
111.599565
106.647611
95.911622
76.475739
63.484907
46.443939
36.387444
28.178692
24.929643
22.678971
22.322536
22.858977
22.750497
23.226738
23.581982
23.812652
24.134517
23.831725
23.608804
23.463964
23.210645
23.315549
23.179650
22.903681
23.078918
22.942424
##ZVALUE=325
0.171661
0.007749
0.180602
0.086427
0.043511
0.123978
0.181794
0.073910
0.077486
0.102520
0.269413
0.122786
-0.045896
0.141859
0.121593
0.043511
0.188947
0.140667
0.180602
0.262856
0.300407
0.144839
0.123978
0.302792
0.221729
0.172853
0.177622
0.132918
0.254512
0.288486
0.232458
0.271797
0.215769
0.395775
0.360608
0.285506
0.315905
0.378489
0.383854
0.423789
0.564456
0.546575
0.754595
0.904799
1.881719
12.495518
33.724904
88.481903
157.652497
297.022462
408.368707
542.605519
614.793897
640.510917
594.311953
472.182631
357.315540
218.330622
134.409666
60.727596
31.259656
13.334751
9.495616
9.668469
10.761619
15.189648
20.418763
31.859875
44.538975
64.560771
79.769492
96.632838
105.144978
106.724501
100.837946
88.519454
75.936913
58.110952
47.139525
35.061836
29.334426
25.345683
23.762584
23.605824
23.190975
23.109913
23.675561
23.341775
23.641586
23.345947
23.010969
23.324490
23.140907
23.229718
23.308992
22.814870
##ZVALUE=330
0.047684
0.110865
0.113845
0.141859
0.162721
0.215769
0.322461
0.324845
0.311732
0.313520
0.207424
0.363588
0.366569
0.376701
0.340939
0.299811
0.311732
0.238419
0.176430
0.366569
0.154972
0.320673
0.334978
0.375509
0.346899
0.509620
0.325441
0.374913
0.193715
0.471473
0.368953
0.456572
0.401735
0.455976
0.336766
0.442863
0.615716
0.454783
0.475645
0.460744
0.465512
0.697970
0.640750
0.757575
0.843406
0.866652
1.075864
5.343556
17.174482
58.499575
111.836791
222.829580
329.963565
472.445488
561.361909
618.366003
595.569015
506.698489
406.403542
263.903737
170.242786
81.675649
43.898821
18.909574
11.263490
9.662509
9.974837
11.822581
14.769435
22.071600
30.549765
45.211911
58.663487
78.345537
91.120601
101.072788
102.041960
96.699595
86.487532
71.454644
58.920979
44.969916
37.259459
30.193925
26.962757
24.205446
23.982525
23.049712
23.036599
23.150444
23.304820
22.569895
22.635460
22.286773
22.362471
22.136569
##ZVALUE=335
0.333786
0.356436
0.300407
0.307560
0.272989
0.311732
0.310540
0.189543
0.346899
0.329614
0.085831
0.218749
0.280738
0.341535
0.230670
0.449419
0.296831
0.263453
0.315905
0.317693
0.112653
0.361800
0.233650
0.215769
0.437498
0.404716
0.378489
0.323653
0.298619
0.303984
0.371933
0.494719
0.472665
0.488758
0.459552
0.529885
0.529885
0.540614
0.629425
0.571609
0.513792
0.493526
0.483990
0.662804
0.751615
0.763535
0.839829
0.883937
1.119971
2.378821
8.824468
35.952926
75.432658
168.218613
268.030763
413.283706
509.461761
586.841702
597.021580
532.791615
445.534587
308.657885
209.305882
111.679435
60.635805
24.054646
13.016462
9.814501
10.082722
11.120439
12.493730
16.116500
21.031499
31.702518
43.092966
60.312748
74.643493
88.169575
95.821619
97.140670
93.482733
81.111789
71.448684
57.326555
47.364831
37.153959
31.050444
26.538968
23.868680
22.730827
22.079945
21.840930
22.017956
21.847486
21.394491
21.340847
##ZVALUE=340
0.134706
0.215769
0.296831
0.128746
0.226498
0.141859
0.341535
0.276566
0.297427
0.135899
0.107884
0.346899
0.155568
0.187755
0.107884
0.175834
0.199676
0.125766
0.265837
0.255704
0.198483
0.269413
0.319481
0.210404
0.257492
0.320673
0.232458
0.190735
0.324845
0.244975
0.348687
0.527501
0.399947
0.416636
0.386834
0.393987
0.301600
0.324845
0.348687
0.289679
0.340939
0.545979
0.339746
0.590682
0.600815
0.532866
0.599623
0.643730
0.667572
0.817776
0.926852
1.110435
4.154444
21.309853
52.303672
128.556490
215.650797
347.935557
445.555449
546.786785
577.202439
542.138815
471.805930
350.556970
249.449611
132.519603
75.664520
33.475757
17.247796
10.449886
10.020733
10.734797
11.202693
13.434887
16.361475
23.083687
30.524731
43.219924
55.913925
73.047876
83.644986
91.433525
92.999935
87.914467
80.429912
67.808628
58.172941
44.330955
37.106872
29.873848
25.967956
22.314787
21.958947
20.970702
20.763874
20.659566
##ZVALUE=345
0.091791
0.193715
0.188947
0.297427
0.099540
0.243783
0.109673
0.207424
0.282526
0.233650
0.353456
0.190735
0.072718
0.283718
-0.005960
0.213981
0.294447
0.134706
0.099540
0.103712
0.278950
0.164509
0.169873
0.301600
0.256896
0.220537
0.346899
0.283718
0.236630
0.304580
0.124574
0.458956
0.257492
0.346899
0.361800
0.383854
0.232458
0.262856
0.350475
0.287890
0.367761
0.387430
0.448823
0.416636
0.364780
0.465512
0.449419
0.481606
0.440478
0.520945
0.559688
0.804663
0.859499
0.876784
1.829863
11.556745
34.127831
90.732574
155.408978
274.409652
375.375748
491.967797
543.836951
548.295975
500.960946
383.881927
288.592577
172.755718
100.014806
42.579770
22.077560
11.750460
10.441542
10.572672
11.061430
12.175441
13.132691
16.481876
21.153688
30.369759
40.155649
55.015683
64.839721
75.694919
82.872510
85.445642
82.919002
74.591637
66.347718
54.351687
45.166612
34.145713
28.711557
23.582578
21.904707
20.340681
##ZVALUE=350
-0.112653
-0.039935
0.164509
-0.112653
0.000000
0.028610
-0.044703
0.034571
-0.033975
-0.086427
-0.069737
0.047684
-0.242591
-0.018477
0.082850
-0.055432
-0.014901
0.039935
0.053644
0.014901
0.074506
-0.034571
-0.018477
-0.066757
-0.034571
0.044703
-0.080466
-0.044703
0.035763
0.028610
-65.498948
0.053644
-0.001788
0.011921
0.125766
0.092983
0.166893
0.159740
0.128746
0.157952
0.066757
0.003576
0.038743
0.067949
0.063777
0.154972
0.092983
0.211596
0.103712
0.244975
0.427961
0.348687
0.309944
0.309944
0.460744
0.602603
0.886917
5.665421
18.455982
58.036447
110.489726
216.726661
310.258865
430.474877
502.468944
535.498857
509.947538
420.531631
324.626565
193.895698
120.682716
58.544874
29.799938
12.782812
9.748936
9.863973
10.202527
10.767579
11.621714
13.316870
15.722513
20.905733
26.631951
36.986470
45.446754
59.148669
67.315698
75.521469
78.544617
75.916648
71.136951
60.061812
51.205754
40.211678
33.204556
26.388764
##ZVALUE=355
0.170469
0.166893
0.232458
0.107884
0.164509
0.039935
0.138879
0.057817
0.177622
0.191927
0.195503
0.149608
0.242591
0.112653
0.113845
0.216961
0.071526
0.134706
0.112653
0.255704
0.245571
0.125766
0.187755
0.180602
0.178814
0.199676
0.263453
0.339746
0.206828
0.275970
0.398755
0.342727
0.297427
0.290871
0.212789
0.332594
0.294447
0.194907
0.387430
0.332594
0.494719
0.300407
0.427961
0.327826
0.388622
0.436902
0.431538
0.525713
0.547767
0.361800
0.187755
0.414848
0.541806
0.510812
0.338554
0.509620
0.533462
0.747442
0.854731
2.061725
11.783838
32.371879
85.225701
148.559809
268.651843
361.574888
465.178490
510.654449
501.402617
445.069671
336.389542
243.983865
132.434964
75.986981
34.354925
17.955899
10.041595
9.418726
10.037422
9.913445
11.022687
11.576414
12.759566
14.485717
18.511415
23.343563
33.068657
41.037798
53.185821
60.524940
68.817735
70.483685
70.394874
65.327883
56.849718
49.074888
##ZVALUE=360
0.242591
0.243783
0.174642
0.280738
0.143647
0.011921
0.111461
0.205636
0.153780
0.189543
-0.006557
0.167489
0.110865
0.136495
0.221729
0.206828
0.304580
0.237823
0.259876
0.159740
0.198483
0.152588
0.033975
0.072718
0.197887
0.189543
0.192523
0.295639
0.249743
0.184774
0.246763
0.207424
0.358820
0.238419
0.248551
0.175834
0.273585
0.224710
0.225902
0.245571
0.294447
0.310540
0.349879
0.263453
0.362992
0.356436
0.423789
0.371933
0.310540
0.327826
0.414848
0.550747
0.544786
0.535846
0.579953
0.575781
0.492930
0.597835
0.533462
0.639558
0.793934
1.277924
4.342794
20.283461
48.472881
119.069815
193.363428
309.200883
398.535728
483.408570
499.431491
459.977984
390.579700
267.958641
180.736780
90.254545
49.083829
21.350980
11.904836
8.852482
8.982420
9.068847
9.460449
9.895563
10.434985
11.048913
12.510419
15.830994
19.759536
26.394725
34.327507
45.193434
52.685738
60.799718
64.115524
64.156651
##ZVALUE=365
0.230670
0.164509
0.035763
0.119805
0.149608
0.051856
0.198483
0.351667
0.310540
0.098944
0.097752
0.071526
0.181794
0.230670
0.153780
0.319481
0.316501
0.152588
0.220537
0.369549
0.352859
0.008941
0.268817
0.182986
0.195503
0.257492
0.208616
0.222921
0.074506
0.138879
0.256896
0.224710
0.180602
0.269413
0.297427
0.439882
0.214577
0.320673
0.338554
0.245571
0.286698
0.237823
0.263453
0.333786
0.294447
0.345707
0.330806
0.236630
0.408888
0.587702
0.426769
0.495911
0.353456
0.421405
0.384450
0.342727
0.355840
0.310540
0.532866
0.444651
0.637770
0.702739
0.799894
0.943542
2.102852
8.650422
33.128858
70.907474
159.844756
245.061517
364.078879
429.775715
476.599932
469.919443
399.953723
320.146680
208.192468
129.739642
59.822798
30.436516
12.512803
8.921623
8.175969
8.210540
8.534789
8.722544
8.781552
9.360909
10.040998
11.096597
13.392568
16.424656
22.748709
29.048920
39.054751
45.882463
##ZVALUE=370
0.132918
0.153780
0.163913
0.018477
0.245571
0.168681
0.141859
0.252724
0.170469
0.192523
0.179410
0.142455
0.044703
0.262856
0.259876
0.112653
0.117421
-0.029802
0.093579
0.235438
0.234842
0.068545
0.139475
0.050664
0.274777
0.258684
0.242591
0.194907
0.086427
0.251532
0.201464
0.077486
0.255704
0.252724
0.163913
0.145435
0.161529
0.285506
0.209808
0.385642
0.371933
0.292659
0.299811
0.241995
0.300407
0.375509
0.250936
0.298619
0.294447
0.322461
0.342727
0.281930
0.361800
0.296831
0.237823
0.314713
0.384450
0.505447
0.486970
0.421405
0.454783
0.469685
0.535846
0.565648
0.418425
0.722408
1.143813
6.355643
19.970536
59.272647
111.686587
208.620429
294.110775
404.865742
457.071662
468.040705
426.268578
331.836939
248.151422
142.392516
82.880855
36.009550
18.206835
8.890629
7.765889
7.555485
7.698536
7.801652
7.986426
8.256435
8.558631
9.270906
9.947419
12.080669
14.771819
19.756556
##ZVALUE=375
0.060797
0.193715
0.208616
0.094771
0.122786
0.075698
0.127554
0.092983
0.165701
0.174642
0.242591
0.184774
0.132918
0.308752
0.310540
0.108480
0.122786
0.071526
0.030994
0.110865
0.086427
0.135899
0.184774
0.182986
0.156760
0.248551
0.301600
0.193715
0.382662
0.328422
0.194907
0.159740
0.164509
0.208616
0.082850
0.189543
0.313520
0.064969
0.157952
0.247955
0.214577
0.071526
0.150800
0.292659
0.298619
0.267625
0.382662
0.266433
0.260472
0.249743
0.182986
0.277758
0.129938
0.250936
0.301600
0.336766
0.272989
0.453591
0.407696
0.512600
0.213981
0.361800
0.460744
0.382662
0.515580
0.428557
0.792742
0.715852
0.904799
2.780557
10.336637
35.998821
75.638890
162.252784
246.386528
358.387828
422.563553
458.971858
445.193648
366.288424
284.529924
175.398588
111.626983
56.916475
30.417442
12.155771
7.890463
6.871819
7.142425
7.182956
7.263422
7.373691
7.445812
7.731915
8.645654
9.223819
##ZVALUE=380
0.140667
0.186563
0.130534
0.135899
0.164509
0.181794
0.232458
0.082850
0.178814
0.063777
0.097752
0.132918
-0.026822
0.186563
0.073910
0.074506
0.293851
0.164509
-0.021458
0.224710
0.160933
0.279546
0.135899
0.222921
0.255704
0.149608
0.128746
0.156760
0.093579
0.161529
0.026822
0.275970
0.143647
0.104904
0.195503
0.169873
0.322461
0.228882
0.146627
0.176430
0.077486
0.111461
0.280738
0.020862
0.267625
0.235438
0.260472
0.248551
0.329614
0.343919
0.264645
0.299811
0.016689
0.270605
0.319481
0.161529
0.129938
0.309944
0.268817
0.249743
0.232458
0.308752
0.271797
0.310540
0.394583
0.487566
0.453591
0.329614
0.602603
0.581741
0.619888
1.364946
5.702972
25.980473
58.721900
132.441521
207.123756
315.523744
391.515493
449.948907
448.573828
389.311910
318.650603
214.264989
144.634843
73.296428
40.048957
16.640425
9.303689
6.460547
6.380677
6.423593
6.579757
6.784797
6.985664
7.299781
##ZVALUE=385
0.088811
0.155568
0.075698
0.136495
0.041723
0.100732
0.125766
0.186563
0.204444
0.137687
0.112653
0.144839
0.106692
0.096560
0.020862
0.024438
0.271797
0.184774
0.086427
0.265837
0.186563
0.067949
0.085831
0.116825
0.031590
0.104904
0.116825
0.005960
0.205636
0.121593
0.061989
0.198483
0.233650
0.302792
0.213981
0.167489
0.325441
0.414848
0.272989
0.371933
0.241995
0.173450
0.279546
0.105500
0.188947
0.326633
0.162721
0.104904
0.135899
0.148416
0.178814
0.372529
0.271797
0.271797
0.353456
0.374913
0.227690
0.247955
0.163913
0.234842
0.351667
0.303984
0.334978
0.332594
0.400543
0.285506
0.358820
0.410676
0.525713
0.631809
0.618696
0.588894
0.711679
0.851750
2.759695
13.433695
34.757853
91.162920
156.404972
265.849829
348.002911
423.118472
441.636443
415.391922
362.126827
266.868472
189.432502
105.602741
61.491728
26.782751
12.945533
6.353855
5.794764
5.555749
5.909801
6.033778
##ZVALUE=390
0.027418
0.014901
0.189543
0.169873
0.057817
0.108480
0.221729
0.273585
0.032783
0.147820
0.106692
0.105500
-0.015497
0.098944
-0.004768
0.040531
0.145435
0.175834
-0.043511
0.033975
0.267625
0.334978
0.101924
0.171661
0.194907
0.178814
0.033975
0.142455
0.243783
0.286698
0.111461
0.261664
0.285506
0.130534
0.131726
0.297427
0.246763
0.222921
0.263453
0.116825
0.308752
0.213981
0.105500
0.202656
0.376701
0.341535
0.305772
0.253916
0.187755
0.254512
0.202656
0.208616
0.136495
0.286698
0.396967
0.208616
0.155568
0.207424
0.290871
0.245571
0.211596
0.301600
0.210404
0.243783
0.297427
0.205636
0.319481
0.265837
0.399947
0.343919
0.397563
0.507832
0.678897
0.555515
0.679493
0.676513
1.285672
7.593632
23.033619
66.572428
122.648478
223.447680
303.952694
391.644835
432.466865
433.769822
398.095846
312.931538
239.027739
146.053433
86.591840
37.104487
18.986464
8.385777
5.689859
5.436540
##ZVALUE=395
0.027418
0.134706
0.202656
0.203848
0.204444
0.149608
0.086427
0.197887
0.201464
0.130534
0.214577
0.120997
0.003576
0.132918
0.109673
0.244975
0.122786
0.234842
0.126958
0.220537
0.237823
0.282526
0.265837
0.143647
0.220537
0.129938
0.149608
0.223517
0.335574
0.241995
0.182986
0.269413
0.214577
0.278950
0.315905
0.357628
0.308752
0.308752
0.268817
0.405908
0.241995
0.269413
0.338554
0.207424
0.224710
0.082850
0.236630
0.207424
0.330806
0.232458
0.270605
0.179410
0.319481
0.108480
0.251532
0.192523
0.171661
0.293851
0.291467
0.371933
0.253916
0.267625
0.298619
0.303984
0.330806
0.320673
0.203848
0.534654
0.412464
0.498891
0.543594
0.637770
0.591874
0.618696
0.607967
0.517964
0.577569
0.674725
0.804663
4.541874
15.706420
50.629973
92.716813
173.110962
249.344707
354.485512
414.542556
450.046659
434.086919
364.640951
286.802649
178.910494
112.886429
50.798655
25.721788
10.303855
##ZVALUE=400
0.042915
0.206828
0.142455
0.003576
0.121593
0.060797
-0.038743
0.030994
0.053644
0.087619
0.247955
0.150800
0.165701
0.203848
0.120997
0.121593
0.075698
0.175834
0.145435
0.226498
0.137687
0.098944
0.132918
0.155568
-0.005960
0.115633
0.187755
0.249743
0.236630
0.206828
0.311732
0.187755
0.308752
0.441670
0.439882
0.267625
0.360608
0.369549
0.267625
0.184774
0.106692
0.281930
0.289679
0.119805
0.250936
0.317693
0.403523
0.204444
0.287890
0.309944
0.202656
0.273585
0.216961
0.039935
0.235438
0.100732
0.174642
0.186563
0.101924
0.203848
0.154972
0.272989
0.205636
0.326633
0.338554
0.309944
0.314713
0.365973
0.379682
0.274777
0.543594
0.512600
0.394583
0.350475
0.502467
0.497699
0.478625
0.552535
0.565648
0.563860
0.730753
2.153516
8.335710
29.037595
61.583519
131.866932
205.621719
310.359001
378.708839
430.914760
433.738828
381.301641
312.160850
208.053589
137.061477
70.967674
##END
