##TITLE=FQP00602
##FORMAT=SPECTACLE-ASCII V-1.2
##DATA TYPE=ULTRAVIOLET SPECTRUM
##SECOND TYPE=ULTRAVIOLET SPECTRUM
##DATE=01/09/18
##TIME=16:16:16
##SPECTROMETER/DATA SYSTEM=SPECTACLE
##XUNITS=NM EM
##YUNITS=ENERGY
##YFACTOR=1
##FIRSTX=220
##LASTX=410
##NPOINTS=96
##3DDATA=Equidistant
##ZUNITS=NM EX
##FIRSTZ=210
##LASTZ=400
##ZPOINTS=39
##XYDATA=(Y..Y)
##ZVALUE=210
2.346635
2.177954
2.305508
2.174973
2.224445
2.775788
2.548695
2.942681
2.829432
2.385974
2.793670
1.957417
2.384782
2.350807
2.363920
2.157688
2.313852
2.638698
2.805591
2.312660
2.505779
2.985597
3.874898
3.567934
4.088879
3.306866
4.813671
5.747676
6.205440
6.513596
7.226467
8.278489
8.990765
10.535717
9.028912
10.592937
8.991957
10.206699
9.058714
9.353757
9.473562
9.294748
8.081794
8.520484
9.035468
8.931756
8.095503
7.914901
8.178949
7.668734
7.051826
6.961823
6.190538
7.102489
6.832480
6.892681
6.827712
7.223487
6.610751
6.278753
6.193519
5.907416
5.876422
6.031990
6.573796
5.928874
7.466674
6.891489
6.795526
9.053946
9.645820
11.480451
11.920929
12.745857
14.588833
14.994740
14.558434
15.668869
15.276670
13.892651
12.774467
12.982488
11.210442
9.384751
7.539988
8.111000
6.479621
5.843639
5.414486
4.711747
4.952550
5.941987
6.063581
5.625486
5.738735
6.559491
##ZVALUE=215
6.603599
5.561709
5.082488
4.624724
4.604459
4.831553
4.762411
5.111694
4.408956
4.495978
4.347563
4.498959
4.049540
2.629757
3.212690
2.827644
2.436638
2.932549
2.792478
2.661943
3.077984
2.986789
2.968907
3.161430
4.769564
5.634427
6.027818
8.366704
9.683967
11.044741
11.869669
13.218522
14.796853
15.081763
15.872717
17.001629
16.682744
16.408563
14.938712
16.101599
15.312433
15.606880
13.652444
14.074445
13.030767
11.562705
11.775494
11.465549
10.558963
9.442568
10.069609
9.616613
9.677410
7.827878
7.765889
7.624626
9.740591
8.563995
7.952452
7.614493
7.388592
7.540584
6.229877
6.242990
7.600784
8.276701
6.966591
6.988645
7.753968
8.267760
9.214878
9.059906
10.284781
12.073517
12.290478
12.768507
15.050769
14.576912
13.469458
12.599826
12.070537
11.474490
10.075569
8.651614
7.393956
6.975532
7.732511
5.312562
6.259680
5.915761
5.283952
4.687905
5.214810
5.676746
5.147457
5.395412
##ZVALUE=220
18.796921
19.706488
21.265745
20.685792
18.446445
16.380548
12.065768
10.759830
9.738803
9.752512
11.565685
12.450814
12.065768
11.130571
9.260774
7.261634
6.097555
4.588962
2.995729
2.871752
3.048778
3.794432
2.963543
4.168749
5.544424
6.497502
8.453727
11.187792
13.907552
16.393661
21.036863
23.431778
26.211739
29.274821
30.256510
30.577779
31.421781
31.519532
28.038621
27.763844
26.668906
23.882985
24.953485
22.941828
21.029711
21.124482
19.998550
17.864704
18.083453
16.097426
15.662909
15.253425
14.833808
13.399720
12.708902
13.745427
14.880896
13.669729
12.073517
12.091994
11.860728
10.237694
11.616945
11.934638
10.589957
10.925531
9.692907
11.081696
11.563897
11.506677
13.380647
13.473630
14.379621
17.418861
19.564629
18.521547
18.617511
18.475652
18.408895
17.503500
16.896725
16.799569
15.485883
13.844967
14.745593
10.928512
11.780858
9.784698
9.087920
8.900762
9.386539
8.808970
7.259846
8.217692
8.346438
8.332729
##ZVALUE=225
37.633777
39.579868
49.888492
64.342618
73.870420
70.709586
70.284605
62.029958
49.647689
39.610863
28.566718
25.120974
24.429560
26.367903
26.479959
24.652481
21.640658
18.472672
13.145804
9.110570
6.496906
5.349517
4.381537
4.267693
6.454587
7.604957
10.202527
14.812946
17.509460
22.733808
24.711490
28.158426
31.864643
34.906864
38.549900
37.331581
37.938952
37.309527
37.677884
38.277507
36.211610
35.182834
33.676624
31.767488
30.295849
28.446913
26.452541
26.494861
25.924444
23.788810
23.032427
21.292567
21.316409
20.803809
20.622611
18.689632
19.646883
17.237663
19.335747
16.918778
17.928481
16.751885
16.720891
17.466545
16.415715
17.084479
16.620755
15.464425
15.535951
16.932487
17.785430
20.065904
22.008419
23.135543
22.428632
23.998618
24.157763
27.601719
26.215911
24.809837
24.308562
21.490455
19.966960
19.507408
18.620491
17.303824
16.356707
15.231967
15.162826
13.482571
13.598800
13.250709
13.239980
12.532473
14.199615
13.898611
##ZVALUE=230
36.327839
37.760735
70.605874
97.566843
139.816999
170.413852
196.584463
197.866559
180.258751
146.173835
104.423761
75.059533
57.426691
45.467615
45.274496
49.861670
51.226616
49.204826
43.924451
36.035776
27.654767
21.314621
12.430549
10.433793
7.568598
7.876754
10.844469
12.042522
14.238954
17.478466
20.998716
26.341677
27.909875
29.439926
29.649734
33.430457
33.264756
35.180449
35.650730
34.413934
34.335852
31.682849
32.897592
30.827522
30.279756
27.573705
26.743412
27.833581
25.219917
25.841594
24.504662
22.722483
23.640990
23.308992
22.690892
22.956729
21.361709
21.216869
20.631552
21.664500
20.881891
22.632480
20.200610
20.774603
19.608736
19.865632
19.037724
22.908449
21.370649
20.408630
21.395683
23.699999
24.135709
25.258660
25.968552
27.462840
25.819540
25.584698
25.881529
25.038719
26.055574
24.062991
22.720695
24.026632
23.532510
22.517443
21.494627
19.858479
20.188689
20.391941
19.191504
18.830895
18.792748
18.577576
18.363595
19.175410
##ZVALUE=235
14.931560
17.565489
34.472942
78.964829
121.652484
190.712810
245.602727
306.764841
326.998830
324.958563
286.290646
227.009654
160.261989
118.421912
84.623694
76.549649
72.442889
79.397559
86.045861
88.387728
80.376863
66.824555
53.348541
34.319758
26.336908
17.082691
12.001991
10.415912
11.486411
13.488531
13.672709
15.122890
17.506480
18.260479
21.269917
21.443963
21.360517
24.195910
24.292469
24.630427
23.709536
22.562742
23.165941
22.444725
23.715496
21.544695
22.425652
22.151470
20.348430
20.220876
21.454692
21.709800
22.140741
21.897554
18.911958
21.843910
20.952821
20.339489
22.206903
21.162629
21.088719
22.358894
22.548437
22.888780
23.724437
21.626949
23.723841
24.824739
24.344921
24.998784
29.745698
29.287934
29.598475
30.526519
31.544566
32.782555
32.069683
33.564568
37.302971
33.701658
31.143427
33.151507
31.494498
28.889775
30.967593
29.403567
30.095577
28.717518
29.576421
30.781627
29.320717
28.585792
28.579831
28.646588
27.029514
28.261542
##ZVALUE=240
1.925826
2.476573
7.829666
18.551946
55.322647
97.680688
182.696581
265.307426
392.188430
461.387634
531.724691
526.682734
479.280949
387.864709
288.657546
187.383890
138.890743
104.821920
96.947551
101.354718
113.873482
120.047927
113.841891
102.989674
83.386898
66.363811
45.488477
36.000609
21.702647
18.073916
15.541911
13.859868
14.892817
15.009642
17.183423
17.247796
17.602444
20.417571
19.989610
20.286441
21.032691
20.483732
21.327734
21.542907
21.409988
20.136833
21.163821
20.871758
21.509528
20.830631
20.505786
21.605492
20.821691
21.884441
20.331740
21.976829
22.007823
22.712946
23.454428
22.832751
23.766756
24.439692
23.588538
24.323463
25.226474
24.924874
23.694634
28.091669
28.355718
29.962659
30.435920
33.901930
35.215616
37.002563
38.913488
40.065646
43.141842
41.343570
43.428540
41.916966
41.426420
40.937662
40.276647
38.556457
38.911700
39.725900
38.238764
38.525462
38.033724
37.619472
37.533641
35.930872
35.328865
35.260916
37.404895
37.526488
##ZVALUE=245
1.551509
1.562834
1.314878
1.686811
4.379749
13.205409
43.594837
86.051822
190.850496
291.565657
467.524529
603.423715
714.649558
762.729645
740.453601
611.872673
494.974852
339.488983
237.590671
148.243904
110.394955
101.482868
114.547610
128.293633
136.672854
127.752423
113.348961
99.474788
72.765946
59.712529
43.014884
29.878616
23.842454
20.088553
19.385815
19.612908
20.930767
22.695661
21.329522
22.568703
22.270679
23.452640
24.285913
22.875667
23.873448
22.096634
23.773909
22.980571
23.509860
24.883747
25.501847
23.209453
24.180412
22.199750
22.904873
22.092462
22.587776
23.490787
23.022890
24.051666
22.873878
22.826791
23.048520
25.326610
25.509000
24.582744
25.269985
26.715994
28.634667
29.229522
30.426979
32.755733
32.221675
35.845637
36.383867
36.766529
38.589835
38.656592
40.068626
40.206909
39.499998
40.502548
40.295720
39.467812
38.374662
38.681626
37.626624
39.432645
37.817955
38.281679
38.574934
38.018823
38.023591
36.819577
37.882924
34.409761
##ZVALUE=250
1.413822
1.415610
1.436472
1.774430
1.758933
1.821518
2.504587
6.870627
30.559897
63.174963
148.877501
243.891478
366.004705
531.349778
640.804768
733.581781
731.943846
665.810704
555.635691
386.688709
261.219740
175.065994
103.194714
90.797544
107.967854
118.605494
135.373473
143.571496
141.531825
134.032965
118.842721
95.597506
75.112581
53.675771
42.160749
35.239458
31.888485
30.497909
30.053854
30.033588
29.456615
29.734969
28.956532
29.964447
29.819608
28.579831
28.882623
27.777553
27.140975
26.842952
25.282502
26.715994
24.693608
25.596619
25.211573
25.099516
25.282502
24.009943
25.192499
24.761558
24.323463
24.168491
24.150610
22.481680
23.006797
25.966763
24.816990
25.933981
25.007725
27.532578
27.691722
29.025674
31.100512
31.795502
32.503605
32.922626
32.173991
33.953786
35.199523
36.179423
35.495758
36.800504
35.627484
36.281943
35.664439
35.915971
35.273433
35.343766
36.858916
35.768747
35.799742
36.006570
34.796000
35.644770
33.997893
34.516454
##ZVALUE=255
1.358986
1.142621
1.124740
1.148582
1.491904
1.077652
1.520514
1.426935
1.688600
4.377961
15.049577
51.317811
101.335645
213.455558
323.869586
499.340892
613.816977
724.727511
770.612955
716.398954
617.225766
497.367978
312.514901
195.736885
113.135576
88.693500
93.796849
111.096501
141.501427
159.277916
170.654655
170.346498
159.465671
132.755637
114.721656
88.829994
73.961616
57.955980
48.647523
42.513609
41.131973
40.195584
41.391850
40.182471
40.160418
37.771463
36.026835
36.129951
34.284592
34.399629
32.807589
31.182766
30.550957
30.648708
28.646588
28.454661
29.376745
25.788546
26.002526
26.694536
26.672482
25.288463
24.688840
24.473667
25.238991
24.288893
24.826527
25.026798
24.876595
25.820732
25.154948
26.434660
28.710961
28.894544
28.812885
29.611588
29.480457
31.413436
31.009912
31.205416
31.034946
31.532645
31.849742
30.851960
31.381845
31.580925
32.379627
33.809543
33.318996
33.479929
32.221675
32.201409
33.397675
33.019781
33.115745
33.074617
##ZVALUE=260
0.988841
1.058578
1.023412
1.178980
1.020432
1.244545
1.364946
1.275539
1.185536
1.640916
1.690984
2.227426
6.779432
30.126572
66.921711
156.637430
251.386762
408.283472
536.665916
689.988732
748.509765
763.982534
666.819811
550.934672
367.142558
253.645778
154.739618
108.959675
93.702674
107.151866
129.750967
164.490938
184.487700
198.516846
198.006630
181.438923
164.468884
134.558678
110.907555
89.491606
74.995756
65.023899
60.106516
54.058433
51.838756
49.155951
46.222806
45.277476
44.348836
40.652752
39.282441
37.541986
37.705898
34.808517
33.371449
31.893849
31.467676
30.364990
29.084682
28.398633
28.164983
26.925802
27.800798
27.550459
26.312470
25.308728
25.599599
24.814606
25.458932
25.261641
26.458502
26.899576
26.781559
28.855801
27.575493
28.109550
28.211474
29.457808
28.225780
29.411912
29.206872
29.658675
29.292703
29.801726
30.189753
29.630661
30.402541
28.579831
30.370951
30.821562
30.897856
31.131506
31.326413
31.504631
31.666756
30.452609
##ZVALUE=265
0.906587
0.978708
0.873804
0.752807
0.894666
1.058578
1.088977
1.233816
1.109838
1.234412
1.333952
1.572967
1.671910
1.909733
4.347563
15.871525
58.480501
120.944977
266.846418
420.001745
640.199780
798.257589
921.802521
912.700891
795.861483
663.690567
515.352488
324.584842
226.387978
142.613649
112.290978
114.888549
133.609772
165.960789
192.988515
216.549635
224.334598
216.022730
197.539926
173.501968
147.285461
118.120909
98.968744
78.739524
68.374872
59.099793
55.433512
53.083897
51.013827
46.778917
46.320558
43.620467
41.943789
39.445758
36.654472
35.897493
34.069419
33.077598
30.872822
30.580759
29.057860
28.820634
27.427673
27.526617
26.231408
26.316643
26.577711
24.927855
26.111603
26.161671
26.329756
26.962757
26.639700
26.850700
26.967525
28.700829
28.033853
28.072000
28.677583
28.711557
30.470490
28.524995
28.922558
29.421449
28.701425
28.956532
29.588938
28.999448
28.717518
30.511618
28.488636
30.713677
29.048920
29.624701
30.806661
29.575825
##ZVALUE=270
0.761747
0.905991
0.764728
0.949502
0.927448
0.989437
0.800490
0.926852
1.302958
1.100898
1.008511
1.259446
1.287460
1.596808
1.648664
2.009869
2.570748
11.985898
41.749477
146.717429
286.732912
484.383702
798.840523
996.318460
1015.674472
1015.674472
1015.674472
977.470875
728.579760
533.316731
368.998647
215.829611
148.909688
117.068887
123.957992
151.150823
176.591873
203.843713
219.524503
227.359533
221.494436
201.240778
175.200701
143.954754
116.773844
90.191960
74.210763
63.052773
55.240989
49.468875
47.393441
44.041872
42.161942
39.481521
37.032962
35.128593
34.235716
33.660531
30.474663
30.509830
29.008985
27.944446
26.616454
26.732683
25.212765
26.053786
25.384426
24.656653
25.587678
25.479794
25.730729
26.478767
27.104616
27.422905
27.247667
27.710795
28.262734
28.128624
27.739406
27.611852
27.323961
28.329492
28.265715
28.592944
27.693510
28.631687
27.762651
27.959943
27.300715
28.151870
28.443933
28.634667
27.738810
27.475953
27.372837
28.616786
##ZVALUE=275
0.737906
0.885725
0.718832
0.766516
0.913739
0.874996
0.779629
0.952482
1.041889
0.865459
1.053810
1.071692
1.135468
1.193881
1.268983
1.480579
1.372695
1.751781
2.030730
5.098581
25.734901
93.879700
279.970765
483.304858
806.726813
996.903777
1015.676856
1015.676856
1015.676856
1009.899974
868.850946
619.156957
443.781614
249.044895
165.046453
108.670592
98.374486
114.897490
133.137703
165.602565
184.778571
202.955008
208.349824
200.216770
182.684660
152.974725
127.294660
101.274848
80.815554
60.606599
49.182773
41.464567
38.215518
35.039783
33.802986
31.078458
30.573606
29.189587
27.625561
27.478933
26.000738
26.168823
25.613904
24.686456
24.937987
24.955869
24.000406
23.912787
23.676753
25.394559
25.248528
25.923848
26.212931
27.173758
26.966929
28.244853
28.258562
27.095675
28.181672
28.011799
27.012825
28.811693
28.019547
27.034879
28.494000
27.873516
27.495623
26.855469
27.412772
26.972890
27.790666
27.306676
27.555823
27.334690
27.954578
27.376413
##ZVALUE=280
0.821948
0.588894
0.801682
0.583529
0.748634
0.720620
0.689626
0.814795
0.637770
0.748634
0.952482
1.014471
1.114607
1.094937
0.972748
1.265407
1.217723
1.219511
1.376867
1.809597
1.880527
2.032518
14.151931
62.560439
212.704539
375.364423
639.298558
855.576992
1015.675664
1015.675664
1015.675664
1015.254855
886.703730
643.972754
464.177728
270.364881
172.270536
96.321702
69.986582
69.639683
84.891915
111.435652
133.270621
162.244439
174.205899
180.872679
173.703432
154.226422
136.158466
105.641484
82.785487
60.103536
47.373772
35.493970
30.329823
26.390553
25.444627
24.768710
24.455786
24.124980
24.638772
23.263693
23.228526
22.632480
22.907853
23.494959
23.219585
24.064779
24.002790
24.610758
23.470521
24.837852
24.364591
25.920868
25.358796
26.296973
26.747584
27.283430
26.924610
26.527643
27.884841
26.899576
27.261972
27.018785
27.309656
28.024912
27.157664
27.417541
27.168989
26.528835
26.147962
26.787519
26.367903
26.413798
26.532412
26.517510
##ZVALUE=285
0.540614
0.559688
0.380874
0.654459
0.516772
0.612736
0.549555
0.606775
0.678897
0.575781
0.525713
0.708699
0.708699
0.507832
0.749826
0.754595
0.984669
0.914931
1.044869
1.082420
1.125932
1.097918
1.427531
1.987815
5.584955
23.245811
92.027783
187.753439
381.904840
566.721559
744.754672
928.990841
995.951891
968.676805
878.207684
683.550835
529.238582
329.181552
207.305551
104.287863
63.137412
41.971803
46.577454
66.552758
85.773468
117.278695
136.795640
154.202580
160.800815
156.751871
145.400763
120.321512
98.633766
71.618557
54.982901
36.978722
29.035807
22.908449
20.858645
20.250678
19.917488
20.173788
20.680428
20.116568
20.862818
21.141768
21.509528
21.617413
22.470951
23.301840
23.072958
24.069548
24.805665
24.821758
25.397539
25.564432
26.725531
26.003718
26.200414
26.673675
25.892854
26.714802
27.851462
27.253628
27.169585
27.167797
27.589798
26.971698
26.479959
25.846958
25.545955
26.681423
25.453568
26.316643
25.643706
25.305748
##ZVALUE=290
0.498891
0.636578
0.577569
0.683665
0.546575
0.382662
0.446439
0.615716
0.443459
0.515580
0.699759
0.593662
0.597835
0.680685
0.733733
0.698566
0.860691
0.783801
0.886917
0.835657
1.124740
0.990629
1.056790
1.089573
1.252890
1.485944
2.207756
11.809468
37.772655
115.402937
211.295485
397.228599
560.969710
757.606030
864.190459
918.211937
885.425806
737.300515
592.476726
397.477746
261.435509
134.121776
75.142980
36.454797
28.656721
38.844943
53.341985
78.315735
99.889636
126.343966
142.574906
149.769783
148.624778
135.997534
116.629601
90.144873
70.326924
48.354864
36.800504
26.286840
21.861792
18.735528
18.998981
18.776655
18.721819
20.126700
19.953847
20.688772
21.442771
22.428632
22.768974
23.511648
23.608804
25.112629
25.132895
25.258660
25.980473
26.341677
26.582479
26.201606
26.531816
26.594996
27.367473
26.587844
27.195811
26.714802
26.848912
26.903749
26.999712
27.514696
26.436448
25.958419
26.496649
26.500821
25.581717
25.238991
##ZVALUE=295
0.490546
0.460744
0.339746
0.383854
0.404716
0.395775
0.666976
0.456572
0.673532
0.442863
0.446439
0.692606
0.671744
0.642538
0.576973
0.645518
0.668764
0.626445
0.622869
0.885725
0.848770
0.895858
0.819564
0.770688
1.000762
0.897646
1.130700
1.308918
1.685619
3.304482
20.557642
56.896806
121.420622
264.579654
403.169990
603.185892
731.526017
845.716000
862.991810
779.092908
657.916665
468.278527
321.579576
168.893933
94.930530
40.475726
24.829507
23.769736
31.199455
50.635934
69.145560
95.588565
115.633607
137.584805
146.250725
141.882896
129.948854
109.015703
90.178847
64.982772
49.251914
33.761859
25.733709
21.221638
18.481612
17.782450
18.062592
19.815564
19.323826
20.474792
20.792484
21.585822
22.224784
22.963881
24.366975
24.529696
24.634600
24.942756
25.427938
26.030540
26.217699
26.148558
27.320981
26.852489
26.785731
27.148724
27.348995
26.959777
27.220845
26.432872
26.680827
26.314855
26.205778
26.146770
26.010871
26.272535
##ZVALUE=300
0.379682
0.432730
0.422597
0.106692
0.464916
0.382662
0.413656
0.530481
0.585914
0.455976
0.712872
0.382662
0.490546
0.599623
0.513792
0.556707
0.615716
0.429749
0.587702
0.580549
0.599623
0.562668
0.612736
0.718832
0.888705
0.905991
1.039505
1.139641
1.259446
1.258850
1.146793
1.918674
5.103946
30.002594
73.193908
174.984932
284.614563
466.434956
605.513453
753.318667
812.533498
798.313618
709.739923
537.221432
392.098427
223.930478
132.553577
61.681867
32.691956
18.604994
19.463897
30.702949
42.583942
64.954758
84.698796
110.879540
125.442743
136.309862
133.844614
122.910738
109.106898
84.937811
68.246722
48.247576
35.965443
25.382638
21.654963
18.846989
18.847585
19.201636
20.243526
21.223426
21.844506
21.732450
22.849441
23.392439
24.149418
24.829507
24.984479
25.450587
26.033521
26.456714
26.912689
26.574731
26.299953
27.658939
27.393699
26.968718
27.356744
26.289821
26.165843
26.613474
26.192665
26.499629
26.086569
25.752783
##ZVALUE=305
0.347495
0.399947
0.377893
0.370741
0.447631
0.320673
0.387430
0.366569
0.387430
0.440478
0.276566
0.424981
0.481606
0.560880
0.542998
0.311732
0.512600
0.417829
0.490546
0.622869
0.512600
0.626445
0.613928
0.644922
0.556707
0.641942
0.661612
0.864863
0.822544
0.921488
1.019835
1.176596
1.157522
1.459718
3.124475
11.724830
46.305656
101.615787
224.692822
346.312523
531.646013
659.441948
778.411627
802.510977
728.608966
615.112782
438.816547
309.977531
168.576837
93.599558
38.192868
20.663738
14.581680
18.117428
27.669668
40.562749
62.652826
81.041455
104.690790
116.403699
127.411485
128.482580
117.476583
105.158687
82.188845
65.926909
47.235489
36.254525
25.855899
22.441745
20.696521
20.752549
21.158457
21.065474
21.817684
22.458434
23.921728
24.517775
24.980903
25.908947
26.204586
25.579929
27.382970
27.289987
27.527809
27.393699
27.216673
27.343631
27.492642
27.571917
27.321577
27.243495
26.847720
26.505589
25.895834
25.999546
##ZVALUE=310
0.509620
0.519753
0.628829
0.586510
0.501871
0.628829
0.404716
0.504851
0.494719
0.711679
0.435710
0.470877
0.513792
0.622869
0.462532
0.647902
0.666976
0.731945
0.575781
0.715852
0.630617
0.665784
0.679493
0.636578
0.829697
0.740886
0.723600
0.865459
1.060963
0.988841
0.890493
0.962615
1.080632
1.071692
1.368523
1.444817
1.624823
5.852580
18.919706
67.022443
132.833719
272.548795
404.359698
589.122772
710.034966
791.620612
779.519677
676.371455
557.732582
372.631550
248.782635
125.501752
67.668557
26.799440
15.059710
13.014674
16.079545
25.087595
36.554933
56.073666
73.256493
96.077919
110.055804
120.834708
122.474432
114.567876
102.491975
82.882643
66.834688
48.400760
38.261414
29.465556
25.855899
22.375584
22.755861
23.210645
23.851991
24.654865
25.212765
25.133491
26.427507
27.500987
27.134418
28.266907
27.958751
28.187633
27.734637
27.634501
28.237700
28.247833
27.461648
27.741790
27.560592
27.049780
26.581883
26.843548
##ZVALUE=315
0.379682
0.335574
0.387430
0.274777
0.341535
0.317693
0.530481
0.260472
0.188947
0.305772
0.378489
0.433922
0.395775
0.267625
0.377893
0.332594
0.505447
0.273585
0.402927
0.462532
0.444651
0.454783
0.341535
0.623465
0.677705
0.374913
0.517964
0.582933
0.671744
0.566840
0.650883
0.828505
0.694990
0.955462
0.933409
0.909567
0.855923
1.121759
1.153946
2.620816
9.754896
43.046474
93.486905
210.565925
331.877470
522.688627
647.082925
757.938027
780.197978
715.155005
615.193844
441.616774
308.063626
164.820552
91.482997
35.839677
17.943978
11.015534
11.677742
16.670823
22.590756
36.889911
49.766898
70.530772
87.162852
105.336905
115.743876
117.682815
111.658573
97.463727
82.497001
63.102841
50.556660
37.567616
30.282736
26.050806
25.454760
24.309754
23.889542
24.763942
25.889874
26.445985
27.283430
27.104616
27.537942
28.039813
29.082894
28.408766
28.241873
28.290749
27.797818
27.591586
27.459860
27.202964
27.621984
26.958585
##ZVALUE=320
0.325441
0.267625
0.185966
0.202656
0.382662
0.285506
0.448823
0.319481
0.455976
0.456572
0.330806
0.342727
0.425577
0.430942
0.403523
0.389814
0.311732
0.514984
0.431538
0.409484
0.346899
0.419617
0.407696
0.447631
0.638962
0.578761
0.617504
0.489950
0.612736
0.716448
0.588894
0.607967
0.566840
0.749826
0.880957
0.767708
0.827909
0.801682
0.971556
0.993609
1.201630
1.712441
4.520416
24.809837
60.778856
153.120756
255.621672
420.837998
555.293560
701.487660
759.743452
748.171806
671.276450
513.184667
375.009775
209.907889
122.537613
53.434968
26.195645
12.382865
10.546446
11.978745
14.937520
22.501945
30.812621
49.345493
64.409971
84.725618
98.608732
110.998750
113.521814
108.805895
98.358989
79.595447
65.316558
48.178434
39.951801
31.554699
28.603673
26.086569
26.148558
26.727915
26.884675
27.299523
27.275681
27.474761
27.877688
28.025508
27.702451
27.580857
27.687550
27.463436
27.552843
27.497411
27.249455
27.037859
##ZVALUE=325
0.326633
0.460744
0.288486
0.332594
0.299811
0.317693
0.321865
0.332594
0.353456
0.382662
0.334978
0.267625
0.419617
0.319481
0.407696
0.477433
0.333786
0.327826
0.459552
0.353456
0.410676
0.427961
0.400543
0.546575
0.380874
0.559688
0.493526
0.591874
0.503659
0.527501
0.561476
0.584722
0.584722
0.680685
0.713468
0.598431
0.704527
0.845790
0.879765
0.911951
0.998974
1.036525
1.044869
0.962615
2.309680
14.544725
39.499402
103.636980
186.819434
349.572897
483.184457
641.650558
723.775029
745.980740
692.862868
544.251800
410.339832
253.421664
154.428482
70.198774
35.830736
15.338659
10.821819
10.876656
11.958480
15.602708
21.302700
34.047961
46.573877
65.631866
81.450939
98.102689
107.303858
109.342933
103.912950
90.649724
78.090429
61.118603
50.199628
38.724542
33.188462
28.847456
28.027892
27.246475
26.837587
27.389526
27.354956
27.794838
27.523637
27.308464
27.561784
27.654767
27.526617
27.046800
26.948452
26.623607
##ZVALUE=330
0.324845
0.251532
0.229478
0.265837
0.278950
0.321865
0.425577
0.351667
0.363588
0.279546
0.279546
0.393987
0.156760
0.480413
0.436902
0.430942
0.199676
0.349879
0.345707
0.331998
0.373721
0.208616
0.535846
0.377893
0.340939
0.471473
0.474453
0.253916
0.514984
0.374913
0.534654
0.492930
0.674725
0.552535
0.701547
0.584722
0.643730
0.671744
0.656843
0.700951
0.650883
0.860691
0.797510
0.872612
0.917912
0.933409
1.354814
6.153584
20.572543
69.722533
134.105682
266.253948
390.031934
560.767651
666.213036
729.507804
700.111985
586.399436
470.714569
307.794809
198.863745
94.996691
50.583482
21.113753
12.548566
10.878444
11.146665
12.756586
15.893579
23.187995
32.264590
47.107935
61.139464
80.215931
92.517734
102.931857
105.033517
98.703504
90.302825
73.836446
61.869621
46.971440
40.273666
33.576488
29.890537
28.272867
27.196407
26.579499
26.442409
26.280880
26.623607
26.437640
26.344657
26.324987
26.268959
26.578903
##ZVALUE=335
0.162721
0.247955
0.208616
0.375509
0.180602
0.251532
0.427961
0.323653
0.269413
0.302792
0.307560
0.228882
0.142455
0.304580
0.295639
0.351667
0.334978
0.386834
0.326633
0.393987
0.192523
0.395775
0.341535
0.345707
0.415444
0.385642
0.427961
0.446439
0.576973
0.437498
0.487566
0.468493
0.509620
0.464916
0.322461
0.380874
0.498891
0.559688
0.579953
0.618696
0.555515
0.724792
0.733733
0.517964
0.848770
0.935793
0.903606
1.037717
1.080632
2.808571
10.520816
41.801929
88.896751
197.261572
315.974951
490.015745
601.407886
690.526962
699.049830
624.776483
525.863767
359.899998
247.058868
129.200816
71.275830
27.646422
14.969707
11.048913
11.042953
12.009740
13.559461
17.592907
22.936463
33.681989
45.200586
62.417984
75.763464
89.931488
97.006559
99.200606
94.991922
83.306432
73.933601
59.961677
50.226450
40.294528
34.436584
29.890537
27.466416
26.265979
25.753975
25.299788
25.461912
25.642514
25.227666
25.151968
##ZVALUE=340
0.327826
0.358820
0.159740
0.285506
0.259876
0.384450
0.320673
0.230670
0.337958
0.358820
0.212789
0.290871
0.164509
0.415444
0.260472
0.204444
0.282526
0.294447
0.218749
0.252724
0.287890
0.272989
0.285506
0.537634
0.361800
0.308752
0.239611
0.349879
0.283718
0.340939
0.422597
0.315905
0.414848
0.318885
0.453591
0.531673
0.404716
0.428557
0.477433
0.528693
0.544786
0.584722
0.501871
0.604987
0.479817
0.665784
0.724792
0.792742
0.767708
0.898838
0.949502
1.493692
4.926920
25.586486
62.517524
153.301954
257.975459
422.112942
535.782576
648.525953
685.433745
645.165443
557.802916
413.644910
290.751457
154.655576
86.982846
38.407445
19.200444
11.562705
11.045933
11.752844
12.712479
14.641881
17.728806
24.513602
31.842589
45.694709
57.617426
75.274706
84.879994
92.851520
94.334483
89.552999
82.200766
70.233941
59.155822
47.198534
39.992929
32.718778
28.393865
25.970936
25.011897
24.716854
24.430752
24.442673
##ZVALUE=345
0.442863
0.322461
0.328422
0.346899
0.182986
0.171661
0.142455
0.340939
0.290871
0.424981
0.263453
0.352859
0.220537
0.390410
0.205636
0.348687
0.266433
0.347495
0.331998
0.333786
0.354648
0.269413
0.403523
0.349879
0.259876
0.391603
0.317693
0.393987
0.260472
0.278950
0.316501
0.326633
0.348687
0.344515
0.518560
0.386834
0.422597
0.510812
0.421405
0.306964
0.359416
0.393987
0.468493
0.484586
0.424981
0.597835
0.592470
0.742674
0.872612
0.647902
0.771880
0.931621
1.040697
1.078844
2.194643
13.486743
38.728714
103.086829
182.006955
330.546498
446.417928
583.342910
647.967458
652.270913
593.118668
455.145836
337.405801
200.440884
115.613937
49.014688
25.291443
13.104677
11.325479
11.476874
11.993647
13.282895
14.495850
17.616749
22.410750
31.402707
41.454434
56.785941
66.566467
78.667998
85.400939
88.121891
85.631609
77.816844
69.289804
57.069659
47.076941
37.378669
31.535625
26.788712
24.636984
23.493767
##ZVALUE=350
0.376701
0.402927
0.410676
0.293851
0.306964
0.353456
0.349879
0.542998
0.397563
0.271797
0.278950
0.361800
0.486970
0.184774
0.359416
0.421405
0.334978
0.319481
0.349879
0.332594
0.403523
0.485778
0.262856
0.308752
0.355840
0.374913
0.326633
0.364780
0.446439
0.362992
0.568628
0.518560
0.552535
0.429749
0.567436
0.569820
0.529885
0.412464
0.538826
0.603795
0.522733
0.642538
0.458956
0.652671
0.484586
0.502467
0.552535
0.778437
0.702739
0.569820
0.925660
0.820756
0.888705
0.962615
0.876784
1.017451
1.920462
5.660653
25.303960
58.576465
143.306851
238.306522
386.379957
495.500565
609.193444
639.524460
600.378513
514.999628
359.581709
242.653489
125.671625
72.088838
31.346679
16.500950
10.991693
11.067986
11.683702
11.946559
13.096929
14.151931
17.934442
21.839738
29.084682
37.332773
49.552917
59.531927
71.577430
77.567697
81.474781
79.386830
72.707534
64.666867
53.658485
44.701695
35.288930
30.006766
##ZVALUE=355
0.331998
0.296831
0.403523
0.226498
0.154972
0.234842
0.199676
0.381470
0.377893
0.182986
0.424981
0.301600
0.307560
0.274777
0.281930
0.289679
0.238419
0.404716
0.405908
0.304580
0.223517
0.420809
0.096560
0.206828
0.294447
0.312924
0.409484
0.333786
0.311732
0.315905
0.253916
0.484586
0.324845
0.370741
0.335574
0.378489
0.408888
0.401735
0.386834
0.359416
0.403523
0.453591
0.244975
0.551939
0.477433
0.481606
0.352859
0.462532
0.426769
0.627637
0.496507
0.641942
0.594854
0.717640
0.755787
0.714660
0.902414
0.863671
1.085997
2.290606
13.900995
37.990808
100.224614
177.468657
321.881771
433.620811
559.969544
615.848899
603.826642
529.621840
390.663743
285.344720
163.457990
92.557669
39.524436
20.367503
11.218786
10.344982
10.894537
10.998845
11.794567
12.680888
13.903975
15.872717
20.164847
25.290847
34.316778
42.542815
53.781867
62.189698
69.920421
72.911978
72.188973
67.573786
58.846474
51.281452
##ZVALUE=360
0.183582
0.297427
0.191927
0.216961
0.351667
0.246763
0.167489
0.283718
0.206828
0.257492
0.302792
0.322461
0.189543
0.244975
0.336766
0.331998
0.255704
0.439882
0.262856
0.268817
0.457764
0.332594
0.292659
0.326633
0.296831
0.332594
0.287890
0.365973
0.324845
0.338554
0.433922
0.376701
0.390410
0.238419
0.301600
0.242591
0.392795
0.337958
0.272989
0.372529
0.433922
0.322461
0.268817
0.386834
0.422597
0.469685
0.448823
0.434518
0.496507
0.479817
0.464916
0.516772
0.598431
0.510812
0.697970
0.655651
0.647902
0.805855
0.895858
0.769496
1.031756
1.700521
5.106926
23.397803
57.203770
140.779614
230.348706
368.877649
478.530526
580.720901
601.363778
554.988980
469.163656
321.421623
215.914845
108.566880
58.191419
24.746656
13.205409
9.598732
9.636879
9.997487
10.424852
11.189580
11.436939
12.762547
14.321804
17.170906
21.176934
28.644800
35.471916
46.400428
54.188967
62.380433
65.729618
66.534877
##ZVALUE=365
0.177622
0.252724
0.098944
0.243783
0.338554
0.293851
0.165701
0.248551
0.245571
0.244975
0.243783
0.238419
0.163913
0.171661
0.111461
0.200868
0.305772
0.274777
0.161529
0.438690
0.248551
0.163913
0.295639
0.429749
0.221729
0.254512
0.200868
0.083447
0.255704
0.347495
0.395775
0.313520
0.395775
0.346899
0.346899
0.274777
0.294447
0.465512
0.432730
0.307560
0.404716
0.348687
0.398755
0.361800
0.334978
0.253916
0.354648
0.473857
0.442863
0.401735
0.386834
0.289679
0.456572
0.496507
0.527501
0.459552
0.471473
0.597835
0.679493
0.642538
0.733733
0.807643
0.912547
1.139641
2.077818
12.740493
34.900904
93.159676
170.283914
307.464004
411.221981
525.275469
575.894713
561.190844
495.325923
360.392928
257.514715
143.884420
79.264641
32.393932
16.025901
9.236932
9.056926
9.061694
9.332895
9.615421
9.844899
10.640621
11.087656
12.751818
14.476776
18.833876
23.442507
32.463670
39.387941
49.140453
##ZVALUE=370
0.317693
0.293851
0.516772
0.411868
0.358820
0.392795
0.398755
0.452995
0.407696
0.530481
0.398755
0.420809
0.312924
0.328422
0.503659
0.355840
0.511408
0.595450
0.394583
0.456572
0.518560
0.541806
0.343919
0.536442
0.660419
0.462532
0.462532
0.506639
0.519753
0.503659
0.711679
0.556707
0.508428
0.417829
0.489950
0.605583
0.467896
0.553727
0.570416
0.748634
0.634789
0.591874
0.464916
0.458956
0.519753
0.597835
0.523925
0.485778
0.524521
0.475645
0.446439
0.756979
0.648499
0.651479
0.793934
0.613928
0.599623
0.716448
0.604987
0.819564
0.684857
0.846982
0.862479
1.036525
1.010895
1.200438
1.800656
6.860495
22.112727
71.328878
130.930543
244.674683
352.059603
484.764576
548.454523
560.131669
513.306856
405.016541
300.989747
173.809528
101.196766
43.336749
21.943450
10.561943
8.468628
8.439422
8.385777
8.959770
9.237528
9.677410
9.723902
10.442734
11.277795
13.592839
15.898943
21.097660
##ZVALUE=375
0.354648
0.285506
0.256896
0.353456
0.361800
0.317693
0.261664
0.219941
0.271797
0.328422
0.349879
0.350475
0.292659
0.385642
0.297427
0.381470
0.373721
0.414848
0.331998
0.361800
0.397563
0.310540
0.345707
0.235438
0.206828
0.388622
0.360608
0.392795
0.535846
0.434518
0.479817
0.410676
0.595450
0.411868
0.394583
0.491738
0.377893
0.473857
0.348687
0.385642
0.293851
0.360608
0.486970
0.459552
0.446439
0.573993
0.564456
0.545979
0.593662
0.478625
0.489950
0.327826
0.509620
0.422597
0.341535
0.564456
0.631809
0.540614
0.459552
0.687838
0.684857
0.543594
0.741482
0.687838
0.719428
0.869632
0.956655
0.902414
1.116991
3.293753
11.666417
41.360855
88.957548
193.756819
295.148492
431.986451
511.704683
559.144616
539.419651
446.352959
346.981883
213.350654
135.921836
69.097877
36.622882
14.491677
9.044409
7.663965
7.655621
7.826686
8.132458
8.530617
8.612871
9.077787
9.387732
10.390878
##ZVALUE=380
0.155568
0.107884
0.235438
0.149608
-0.028610
0.038743
0.069737
0.183582
0.161529
0.273585
0.294447
0.231862
0.252724
0.246763
0.299811
0.126958
0.129938
0.235438
0.225902
0.054836
0.167489
0.151992
0.167489
0.269413
0.238419
0.240803
0.105500
0.345707
0.247955
0.212789
0.266433
0.315905
0.309944
0.114441
0.293851
0.160933
0.321865
0.449419
0.270605
0.256896
0.207424
0.352859
0.213981
0.259876
0.372529
0.213981
0.335574
0.336766
0.382662
0.406504
0.382662
0.561476
0.293851
0.327826
0.271797
0.377893
0.369549
0.342727
0.485778
0.331998
0.446439
0.485778
0.503659
0.418425
0.470877
0.520945
0.415444
0.532866
0.725985
0.808835
0.962615
1.708865
6.141663
29.265881
68.380833
157.426000
247.391462
378.522873
470.986962
544.638634
544.478893
472.723842
389.444828
271.981955
184.708834
92.868805
49.727559
19.921660
10.503531
7.142425
6.843805
7.226467
7.422566
7.327795
7.740855
8.083582
##ZVALUE=385
0.187755
0.310540
0.209808
0.099540
0.299811
0.303984
0.094771
0.252724
0.294447
0.097752
0.210404
0.059605
0.107884
0.244975
0.298619
0.307560
0.147820
0.187755
0.273585
0.217557
0.239611
0.223517
0.234842
0.176430
0.128746
0.246763
0.240803
0.297427
0.255704
0.355840
0.036955
0.247955
0.373721
0.381470
0.252724
0.326633
0.346899
0.494719
0.411868
0.394583
0.229478
0.300407
0.409484
0.239611
0.276566
0.490546
0.500679
0.364780
0.358820
0.307560
0.400543
0.332594
0.388622
0.392795
0.395775
0.456572
0.314713
0.363588
0.353456
0.314713
0.266433
0.359416
0.423789
0.402927
0.391603
0.435710
0.303984
0.493526
0.653863
0.723600
0.865459
0.818968
0.920892
1.104474
2.841949
16.572475
42.558908
106.453896
185.889006
319.685936
418.772697
513.505936
538.267493
508.792996
446.251631
329.001546
234.368443
130.682588
75.576901
32.671690
15.378594
7.215738
6.278753
6.467700
6.626844
6.505847
##ZVALUE=390
0.219941
0.258684
0.084639
0.221729
0.046492
0.257492
0.215769
0.115633
0.159740
0.144839
0.395775
0.234842
0.189543
0.162721
0.288486
0.258684
0.128746
0.199676
0.090599
0.028610
0.322461
0.241995
0.097752
0.186563
0.326633
0.230670
0.168681
0.161529
0.250936
0.370741
0.273585
0.307560
0.354648
0.382662
0.241995
0.225902
0.347495
0.428557
0.494719
0.311732
0.295639
0.366569
0.260472
0.284910
0.259876
0.488758
0.226498
0.327826
0.282526
0.191927
0.483990
0.295639
0.254512
0.257492
0.188947
0.229478
0.226498
0.310540
0.508428
0.339746
0.524521
0.395775
0.340939
0.379682
0.378489
0.551939
0.399947
0.550747
0.579953
0.575781
0.691414
0.632405
0.760555
0.710487
0.962615
0.832677
1.756549
6.777644
30.912757
71.381927
161.414742
250.407457
371.697545
456.888676
529.160500
536.996722
481.898785
402.766466
279.114842
189.105868
99.872947
52.564740
20.269752
9.584427
6.077886
5.840659
##ZVALUE=395
0.218749
0.209808
0.138879
0.198483
0.068545
0.045896
0.186563
0.252724
0.112653
0.224710
0.122786
0.089407
0.119805
0.281930
0.138879
0.056624
0.132918
0.034571
0.282526
0.058413
0.246763
0.241995
0.153780
0.285506
0.338554
0.271797
0.433922
0.389814
0.289679
0.321865
0.325441
0.491738
0.426769
0.290871
0.296831
0.456572
0.490546
0.624657
0.276566
0.445843
0.510812
0.260472
0.279546
0.324845
0.475645
0.336766
0.308752
0.371933
0.308752
0.330806
0.403523
0.296831
0.423789
0.466704
0.410676
0.389814
0.268817
0.300407
0.275970
0.343919
0.345707
0.399947
0.298619
0.469685
0.380874
0.441670
0.540614
0.587702
0.459552
0.456572
0.572801
0.660419
0.733733
0.645518
0.706911
0.698566
0.701547
0.775456
1.050830
4.570484
17.588735
59.347749
111.128688
206.187963
300.540924
430.158973
504.064560
549.449921
533.036590
451.032519
354.273915
222.193599
138.577819
62.964559
31.232834
12.030602
##ZVALUE=400
-0.144839
-0.204444
-0.092983
0.042915
-0.005960
0.010729
0.059605
-0.019670
-0.077486
-0.246763
0.048876
0.016689
-0.114441
-0.111461
-0.144839
65.465569
0.057817
-0.078678
-0.080466
0.019670
-0.023842
-0.000596
-0.124574
-0.165701
-0.110865
-0.003576
0.043511
0.102520
0.154972
0.221729
0.117421
0.207424
0.133514
0.088811
0.186563
0.244975
0.238419
0.319481
0.211596
0.226498
0.271797
0.088811
0.283718
0.059605
0.236630
0.227690
0.273585
0.092983
0.007749
0.219941
0.060797
0.005960
0.112653
0.047684
-0.041723
0.195503
0.119805
-0.030994
0.065565
-0.142455
0.192523
0.027418
0.107884
0.164509
0.140667
0.097752
0.124574
0.185966
0.300407
0.379682
0.316501
0.502467
0.237823
0.240803
0.240803
0.343919
0.339746
0.255704
0.416636
0.563860
0.594854
2.194643
8.606911
32.203794
70.157647
156.561732
246.245861
377.386808
461.449623
529.742837
537.569523
472.502708
387.915969
258.590579
170.763731
88.123679
##END
