##TITLE=QP00352
##FORMAT=SPECTACLE-ASCII V-1.2
##DATA TYPE=ULTRAVIOLET SPECTRUM
##SECOND TYPE=ULTRAVIOLET SPECTRUM
##DATE=01/09/18
##TIME=17:11:16
##SPECTROMETER/DATA SYSTEM=SPECTACLE
##XUNITS=NM EM
##YUNITS=ENERGY
##YFACTOR=1
##FIRSTX=220
##LASTX=410
##NPOINTS=96
##3DDATA=Equidistant
##ZUNITS=NM EX
##FIRSTZ=210
##LASTZ=400
##ZPOINTS=39
##XYDATA=(Y..Y)
##ZVALUE=210
2.518892
1.827478
1.969934
2.165437
1.951456
2.196431
2.994537
2.624989
2.382994
2.215505
2.630949
2.287626
1.677871
2.067685
2.564788
2.374649
2.462864
2.582669
2.371669
2.156496
2.669692
2.667904
3.425479
3.800988
3.514886
3.718734
3.229976
4.104972
4.366636
4.394650
3.805757
4.413724
4.827976
4.288554
5.789995
4.492998
5.852580
4.565716
5.852580
5.229712
5.996823
5.629659
5.518794
6.533861
6.257892
7.128716
8.165836
6.898642
6.727576
7.711649
7.148981
7.503629
7.217526
8.336902
8.604527
7.402897
8.666515
8.934736
8.773804
8.680820
9.263754
8.970499
8.554459
9.203553
8.611679
10.476708
10.168552
12.107491
12.857914
16.374588
21.046996
23.011565
25.805831
29.938817
31.814575
31.553507
33.193827
34.667850
33.427477
31.028986
27.406812
23.399591
20.469427
16.620755
15.651584
13.546944
10.766983
10.288954
10.832548
7.989407
9.374619
8.574724
8.299947
8.292794
7.453561
9.838939
##ZVALUE=215
5.718470
4.908442
4.936457
4.789829
4.629493
4.265904
4.031658
4.260540
4.633665
5.222559
5.431771
4.643798
3.597736
2.695918
2.822876
2.950430
2.409816
2.941489
2.955794
2.801418
3.080964
3.548861
3.500581
3.073812
3.874898
3.615618
3.975630
4.756451
4.558563
4.489422
5.337000
5.285740
6.229877
5.629659
5.547404
5.340576
6.029606
5.848408
6.598830
5.973577
5.819798
6.373525
6.681681
6.813407
6.889701
6.614923
7.586479
7.722974
7.672906
7.209778
7.614493
8.227825
8.293986
8.679628
8.080602
9.194613
8.649826
9.660721
8.126497
9.033680
8.717775
9.173751
9.275675
10.523796
9.041429
9.378791
11.140704
10.950565
11.513829
16.181469
17.317533
22.332668
26.069880
27.797818
29.532909
29.546618
31.896830
30.987859
29.963851
27.745962
23.301840
21.684766
21.102428
17.389655
15.136600
11.396408
12.588501
10.510683
9.887815
9.395480
8.636713
8.789897
8.809566
8.624792
8.446574
7.820725
##ZVALUE=220
18.926859
19.191504
20.959973
23.054481
20.752549
18.070936
15.741587
12.758970
11.291504
10.257959
12.204647
11.712909
11.535883
11.097789
8.889437
8.204579
5.997419
4.153848
3.730655
3.691912
3.165603
3.887415
3.896952
3.950000
3.982782
3.684759
4.765987
4.692674
5.329847
5.237460
6.123781
5.718470
5.899668
6.461740
6.142855
6.072521
5.848408
6.482601
6.694794
6.104708
6.332994
7.300973
6.261468
7.115602
6.887913
7.865429
8.084774
8.270741
8.155704
8.039474
9.528995
11.096597
9.781718
10.122657
10.243654
11.208653
10.494590
10.704994
11.511445
10.446906
11.798739
10.473728
11.303425
11.172891
11.476874
10.984540
11.450648
11.965632
14.283657
16.201735
16.800761
22.307634
25.574565
27.130842
27.797818
29.296875
30.479431
29.681921
28.031468
24.704933
24.571419
21.780729
20.884871
17.970800
15.639663
13.059974
11.778474
11.216998
10.496974
10.261536
9.670854
8.258820
8.829832
9.336472
9.481907
9.921789
##ZVALUE=225
32.364726
37.153959
48.927665
61.435699
70.852637
70.498586
65.291524
53.550601
41.274428
30.226707
25.399923
24.127960
27.302504
25.661588
27.239919
23.549795
22.181869
16.415715
12.927651
8.115768
6.142855
5.042553
3.981590
4.014969
5.225539
4.397631
5.056858
5.084872
4.928708
5.872846
5.605817
7.060766
5.774498
6.307960
7.468462
7.158518
7.820725
7.078648
7.100701
7.767677
8.188486
7.149577
7.816553
8.832812
9.192824
9.346604
8.243918
9.342432
9.594560
10.093451
11.278987
10.923743
11.924505
10.648966
12.067556
11.537671
12.613535
12.173653
13.476610
12.176633
13.254881
13.428926
12.809634
12.370944
14.355779
14.332533
15.610456
14.327765
15.769601
19.935966
21.049976
22.805929
25.332570
27.086735
29.660463
28.249621
27.612448
26.844740
25.622845
24.183989
23.769736
20.731688
18.866658
17.783642
16.854405
15.412569
14.578700
12.247562
12.703538
11.014938
11.244416
10.736585
11.938810
11.320710
11.281967
11.395812
##ZVALUE=230
28.076768
30.972958
53.071976
90.522766
122.075677
149.528980
172.136426
170.421600
155.242682
130.181909
94.276667
69.558620
51.601529
43.694973
45.784712
48.483610
52.363873
48.812628
46.526790
36.634803
30.221939
19.088984
13.233423
7.865429
5.921721
5.353689
5.787611
6.103516
6.762743
6.727576
6.782413
6.726980
7.122755
6.896853
7.796884
7.062554
7.209778
6.788969
7.440448
7.119775
8.212924
8.440614
7.228851
7.638931
6.956458
7.865429
8.869767
8.573532
8.302927
10.074973
11.637807
10.638833
11.598468
11.351705
12.674928
11.879802
13.235807
13.358593
13.058782
14.945865
13.887882
14.601946
14.183521
14.411807
12.701750
13.860464
13.857484
15.520453
17.752647
17.745495
18.823743
25.272965
24.641752
28.103590
26.553869
26.043653
27.858615
23.168921
24.599433
23.423433
22.497773
19.461513
17.354488
17.354488
15.988946
16.205907
15.239716
13.903975
14.789701
12.678504
14.752746
14.578700
13.296604
12.133718
12.240410
12.637973
##ZVALUE=235
9.975433
9.754896
28.469563
59.974790
114.728808
169.386864
245.644450
307.679772
346.486568
351.061821
308.422446
254.088640
189.523697
123.435855
90.361834
74.781775
74.786544
82.256794
82.721710
84.083676
79.113841
69.055557
52.124858
37.468672
22.681952
14.402866
9.541512
7.323623
6.477833
5.917549
5.484819
6.990433
7.529855
7.272959
7.843971
7.885695
7.853508
8.865595
8.441806
8.635521
7.289648
8.441806
9.345412
8.908510
8.386970
8.699894
9.045601
9.617805
8.796453
10.452867
10.249615
11.938810
10.928512
12.035966
12.895465
12.513995
13.692975
13.795495
13.400912
14.621615
13.954639
13.976693
15.774965
15.151501
14.915466
15.829802
15.850663
17.614961
20.797849
21.625757
22.621751
24.694800
27.064681
28.971434
28.512478
28.595924
29.561520
28.119683
28.419495
25.884509
23.556948
22.002459
22.222996
21.456480
19.751787
18.375516
18.450618
19.051433
16.784668
16.158819
17.234683
17.486811
17.121434
17.573833
17.794967
17.380714
##ZVALUE=240
1.453757
4.208684
12.742877
35.562515
40.081739
79.901814
223.196745
262.694955
454.050899
497.667789
564.183593
566.570759
526.161790
419.532657
324.625969
233.302712
137.478709
105.199814
94.579458
104.553699
119.245648
119.465590
108.656883
105.956793
85.208416
65.172911
46.759844
31.877756
19.383430
9.764433
8.722544
8.413792
7.965565
8.554459
6.523728
7.990599
6.948709
8.942485
7.730722
8.255839
8.046627
8.914471
8.294582
8.084774
8.377433
9.254813
9.235740
9.470582
9.761453
9.928942
10.708570
10.488629
10.112524
11.214614
11.618733
12.243986
12.548566
12.847781
13.168454
12.920499
14.133453
14.175773
13.507605
16.160607
16.051531
16.471744
16.149879
18.231869
19.590855
22.615790
23.053885
27.180910
27.878881
29.519796
32.842755
31.941533
31.303763
29.077530
32.457709
29.275417
28.176904
27.364492
25.304556
24.789572
25.534630
21.990538
22.301674
23.090839
22.716522
21.607876
20.665526
21.933913
20.249486
19.886494
20.449758
20.926595
##ZVALUE=245
1.270771
1.480579
1.715422
1.145601
3.717542
9.881854
33.122897
76.952577
174.233913
273.512006
435.022712
553.048849
646.967888
686.967969
662.477612
559.703708
454.740524
305.117965
215.538740
135.789514
105.075836
101.473927
111.663938
126.374960
130.625963
127.936602
114.544630
97.653866
72.466731
52.431822
37.168860
21.875501
13.561845
8.376837
6.509423
6.360412
7.224679
6.659627
7.583499
6.718636
6.650686
7.408857
7.749796
7.136464
7.610917
7.733703
7.691979
8.696914
8.988976
9.199977
9.882450
9.446740
9.748936
9.708405
9.267926
11.074543
10.950565
10.998845
11.193752
12.189746
11.426806
11.710525
12.672544
13.131499
14.007688
13.038516
14.874935
15.371442
17.978549
19.900799
20.620823
23.507476
24.058819
26.508570
27.988553
28.851628
26.869774
27.288795
27.245879
25.836825
25.229454
24.205446
22.695661
23.454428
22.367835
20.838976
22.233725
21.047592
20.844936
20.205975
21.361709
20.234585
19.937754
19.771457
20.997524
20.104647
##ZVALUE=250
1.419783
1.510978
1.461506
1.548529
1.478791
1.366735
1.964569
6.464720
27.945638
62.006712
155.032873
265.600681
403.447747
579.206944
694.252849
799.379945
798.094869
715.597868
603.886843
414.299965
283.297896
189.294815
109.771490
98.875761
106.980801
122.959614
136.404634
143.149495
136.038661
121.312737
105.288625
77.332854
57.893991
35.866499
23.528934
12.964606
9.658933
6.963611
6.781816
6.351471
6.355643
7.019639
6.057620
6.855726
6.831884
7.161498
6.639957
7.211566
7.792711
8.843541
8.578897
8.454919
8.644462
8.658767
8.726716
9.264946
10.148883
10.686517
10.019541
10.062456
9.825826
11.403561
10.922551
11.062622
12.140870
12.160540
13.634562
12.948513
15.214682
16.461611
17.701983
19.767880
20.568967
22.552609
22.951961
24.011731
23.163557
23.306608
24.305582
21.982789
22.716522
22.809505
20.418763
20.126700
19.957423
18.809438
20.392537
19.284487
19.228458
19.612908
19.833446
18.968582
19.234419
18.890500
18.824935
18.987656
##ZVALUE=255
0.808835
1.060963
1.137853
1.162887
1.256466
0.886917
1.373887
1.544952
2.064705
4.214644
19.940734
48.546791
104.779005
234.285593
369.746685
581.023693
735.100508
890.522599
946.324468
904.706717
792.323947
634.787679
397.191644
254.342556
139.427781
100.721717
92.548728
103.700757
129.334927
142.163634
149.880648
142.311454
132.266879
106.892586
85.022449
55.800676
37.908554
22.416711
14.005899
8.168817
6.547570
6.491542
6.527901
6.498694
6.130934
6.714463
6.156564
7.236600
7.285476
7.026792
7.632971
7.866621
7.362962
8.613467
8.751750
8.257627
9.073615
8.764863
9.937882
10.009408
10.266900
10.250807
9.796619
11.249781
10.797977
10.952950
10.933876
12.139678
12.323856
14.227629
15.434623
16.930699
19.078851
18.760562
21.260977
20.102859
20.063519
21.046996
20.871758
19.319654
18.403530
19.995570
18.712878
18.009543
17.708540
18.083453
17.652512
18.054843
17.761588
17.519593
16.922951
19.326806
17.778873
18.322468
17.372966
18.270612
##ZVALUE=260
0.836849
0.980496
1.270771
0.995994
1.019835
1.094937
1.103878
1.305938
1.218915
1.234412
1.521707
2.549887
8.138418
33.400655
79.420805
191.068649
320.296884
530.264974
713.580847
939.498544
1015.650630
1015.650630
943.409801
780.786872
520.280004
356.227756
204.107761
127.820969
86.675882
86.317658
103.669763
127.842426
147.628784
157.373548
154.178739
134.638548
114.395618
82.344413
62.404871
39.834976
24.313927
13.191700
9.784698
7.070899
6.583929
6.720424
6.952882
7.293820
6.587505
7.470846
7.492900
7.755756
7.940531
8.139610
8.792877
8.434653
8.736849
8.847713
8.792877
9.504557
9.826422
9.986758
9.383559
10.096431
9.965897
10.549426
10.479689
11.350513
12.057424
14.014840
14.688969
15.948415
16.970634
17.954707
19.058585
18.189549
19.200444
18.301606
18.626451
17.115474
17.049909
16.866922
16.574860
16.240478
16.166568
16.267896
16.181469
16.170740
16.835928
17.610788
16.663671
16.027689
16.465783
16.361475
17.144680
15.949607
##ZVALUE=265
0.791550
0.929832
0.969768
0.780821
1.035929
1.059771
1.050830
1.212955
1.138449
1.124740
1.393557
1.270771
1.764894
2.015829
4.099607
24.275780
61.350465
156.065822
277.622938
527.798533
749.951005
971.512794
1015.674472
1015.674472
1015.674472
957.076550
707.553625
504.362583
284.717679
169.619918
103.233457
72.881579
81.191659
112.698674
134.910941
152.960420
162.365437
151.391625
138.674974
108.845830
86.347461
58.258772
38.596988
21.569729
13.966560
8.358955
7.828474
6.759763
7.040501
7.191896
7.737875
7.623434
7.516742
8.495450
8.155704
8.982420
8.427501
9.140968
8.876920
9.253621
9.244680
9.222627
8.883476
10.365844
9.992719
9.498596
10.048747
10.714531
11.364818
12.273788
13.038516
14.637709
14.931560
15.615821
16.333461
16.710758
16.345978
16.123652
15.889406
15.163422
15.254617
15.185475
14.302731
14.828444
13.849735
14.755726
14.803410
14.566779
15.403628
15.383959
16.219616
15.369654
15.360713
15.038848
15.571713
16.751885
##ZVALUE=270
0.914931
0.673532
0.668764
0.987649
1.034737
1.025796
0.744462
0.939965
1.102686
0.938773
1.208782
1.231432
1.269579
1.349449
1.663566
1.565814
2.847910
8.646846
42.290688
97.597837
250.483751
432.461500
767.655969
996.725559
1015.674472
1015.674472
1015.674472
1015.674472
988.202691
682.185888
452.191830
231.436491
138.163567
74.078441
65.331459
85.853934
108.361840
139.479637
152.337551
162.676573
153.283477
137.417912
116.703510
82.708597
61.147809
35.804510
24.118423
14.812946
10.120869
8.335710
8.294582
8.151531
7.991791
8.265972
8.671880
8.026958
8.722544
9.513497
9.787679
9.446740
9.610653
9.270906
10.380745
9.654760
9.459853
9.671450
10.101795
10.736585
10.864735
11.564493
12.547970
13.231635
14.145970
15.077591
15.151501
15.676618
15.176535
16.527772
14.781952
14.929771
14.787912
14.145970
13.734698
13.743639
14.313459
13.204813
13.562441
13.402700
13.549924
13.945699
13.908744
14.199615
14.772415
13.826489
14.931560
13.876557
##ZVALUE=275
0.871420
0.892878
0.787973
0.703931
0.841618
0.700951
0.777841
0.986457
0.817776
0.873804
0.899434
0.970960
1.099706
1.259446
1.358986
1.220703
1.285672
1.507998
1.816750
4.848838
20.826459
61.378479
180.654526
345.415473
651.651025
901.117921
1015.674472
1015.674472
1015.674472
1015.674472
1015.675068
891.884565
628.580451
333.400965
186.867714
84.709525
56.923628
62.308908
81.331730
109.457970
130.409002
151.969790
158.181787
151.179433
138.112903
107.088685
87.253451
60.526729
42.380691
25.613904
17.620921
11.075735
9.282827
8.775592
8.311868
8.553863
8.431673
8.266568
9.048581
8.935928
9.711981
9.736419
9.023547
9.369850
9.530783
9.724498
10.117888
10.976791
10.901690
11.608601
12.409687
13.098717
13.659596
14.263988
14.495850
15.151501
14.827847
15.421510
14.265776
14.059544
14.144778
13.707876
12.711883
12.951493
13.075471
12.826920
13.057590
13.053417
13.795495
13.516545
13.217926
13.108850
13.499856
13.245940
13.321638
13.585687
##ZVALUE=280
0.644922
0.660419
0.920892
0.808835
0.789762
0.875592
0.567436
0.714660
0.844598
0.854731
0.940561
0.923872
0.865459
1.189709
0.909567
1.130700
1.139641
1.291633
1.405478
1.641512
1.827478
2.191663
11.975765
42.805672
142.926574
272.806883
528.775454
786.405802
1015.668511
1015.668511
1015.668511
1015.668511
1015.668511
1011.691689
772.621036
442.061424
259.210467
117.933750
63.825846
46.539903
57.422519
82.987547
107.115507
133.284926
147.854686
152.084827
148.973465
130.767822
113.867521
83.397627
60.927868
39.112568
26.950836
16.924739
12.425780
9.646416
9.318590
9.095669
9.429455
8.957982
9.217858
9.249449
9.686947
9.523630
9.402633
10.091662
10.351539
10.406971
10.645986
11.659861
11.779666
12.929440
14.056563
15.179515
15.085936
14.904737
14.690757
14.839768
14.414787
13.107657
13.257861
13.004541
12.946725
13.060570
13.073683
12.981892
12.963414
12.826920
13.005733
12.838840
13.006926
12.456775
12.944937
12.614727
12.708902
12.556911
##ZVALUE=285
0.593662
0.591874
0.426769
0.672936
0.854731
0.694990
0.784993
0.873804
0.682473
0.651479
0.639558
0.812411
0.713468
0.723600
1.058578
0.916719
1.130700
0.980496
1.119971
1.300573
1.404881
1.532435
1.933575
2.043843
6.049871
21.445751
78.078508
170.018673
384.872556
614.621639
967.541933
1015.670896
1015.670896
1015.670896
1015.670896
1015.670896
989.344716
631.531477
395.990014
183.828473
91.578960
41.426420
37.127733
55.527687
76.103806
106.564760
124.012828
145.129561
150.975585
146.232843
134.251714
110.398531
90.323687
62.370896
44.584870
27.614832
18.932819
12.098551
10.242462
9.303689
9.529591
9.197593
9.153485
9.441972
9.617805
10.042787
10.114908
10.634661
11.356473
11.489987
12.195706
13.094544
13.351440
13.623834
13.643503
13.875961
13.752580
13.638735
13.732910
13.109446
13.104677
12.526512
12.426972
13.003945
13.130903
12.797713
12.804866
12.735724
12.420416
12.682676
12.657642
12.809634
12.385845
12.482405
12.246966
12.542605
##ZVALUE=290
0.729561
0.797510
0.799894
0.815988
0.952482
0.839829
0.885725
0.940561
0.981688
0.954866
0.919700
0.961423
1.118779
0.958443
1.080632
1.345873
1.305938
1.301765
1.206994
1.173615
1.510978
1.403689
1.524687
1.794696
2.085567
2.135634
2.992749
8.611679
44.461489
105.185509
211.025476
461.839437
739.864707
1015.918851
1015.918851
1015.918851
1015.918851
1015.918851
1015.918851
856.565833
562.518835
277.373791
140.247941
52.752495
30.896664
35.632849
51.120520
73.274970
94.636679
120.830536
136.103630
146.891475
144.393444
132.083893
111.115575
83.816648
62.195659
41.515827
28.665662
18.639565
13.598800
10.445714
9.521842
9.143949
9.545684
10.056496
10.212660
10.559559
10.758638
11.279583
11.967421
12.285709
12.759566
14.030933
13.803840
13.403893
13.574958
13.612509
13.779998
12.993813
12.810826
12.979507
12.894869
12.577772
12.695789
12.582541
12.487769
12.913942
12.841821
12.904406
12.449622
12.322664
12.387633
12.265444
12.465715
12.294650
##ZVALUE=295
0.586510
0.609756
0.753999
0.600815
0.626445
0.579953
0.502467
0.675917
0.519753
0.638962
0.741482
0.611544
0.675917
0.732541
0.911951
0.776649
0.931621
0.767708
0.951886
0.906587
1.126528
1.022816
1.060963
1.213551
1.462698
1.262426
1.721978
1.821518
2.251863
4.232526
15.167594
68.161488
163.213611
395.075679
644.799471
1008.957624
1015.674472
1015.674472
1015.674472
1015.674472
1015.674472
1015.674472
768.316984
413.071513
222.867727
76.581836
34.559965
23.065805
30.626655
48.781633
66.808462
93.738437
111.718774
131.456852
139.443874
136.645436
124.789476
104.029775
85.124969
58.769584
43.508410
27.412772
19.322634
13.419986
10.966659
9.260774
9.526610
9.588599
10.239482
10.508895
10.928512
12.119412
12.737513
13.238788
13.317466
13.466477
12.774467
13.201833
13.229847
12.879968
12.856722
12.530684
13.301969
12.999773
12.596846
13.094544
12.570620
12.578964
12.680888
12.502670
12.554526
12.119412
12.147427
12.416840
12.445450
12.356639
##ZVALUE=300
0.464916
0.693798
0.497699
0.681877
0.463724
0.582933
0.554919
0.716448
0.708699
0.734925
0.536442
0.665784
0.570416
0.713468
0.746846
0.628829
0.683665
0.815988
0.738502
0.792742
0.843406
0.994802
0.919700
1.006722
1.221895
1.312494
1.337528
1.265407
1.414418
1.647472
2.015829
2.236962
9.854436
36.198497
127.955675
255.945921
533.431768
812.307596
1015.674472
1015.674472
1015.674472
1015.674472
1015.674472
1015.674472
961.376429
650.158525
337.641835
178.836584
58.282614
24.865866
20.588636
27.867556
43.343902
59.575438
85.298419
103.179812
125.090480
131.825805
131.317973
121.876597
101.968646
83.941817
59.941411
45.110583
28.295517
20.562410
14.053583
11.808872
10.941625
11.044741
11.815429
12.046695
12.199879
12.403727
13.035536
12.918711
12.852550
13.216734
12.988448
12.939572
12.694597
12.274981
13.379455
12.614727
12.737513
12.936592
12.356639
12.850761
12.726784
12.797713
13.285875
12.709498
12.482405
12.579560
12.430549
12.596846
##ZVALUE=305
0.633597
0.559688
0.481606
0.438690
0.813603
0.437498
0.481606
0.529885
0.604987
0.575781
0.629425
0.545979
0.748634
0.532866
0.653863
0.628829
0.629425
0.753999
0.639558
0.810623
0.948906
0.915527
1.089573
1.016855
1.114607
0.924468
1.155734
1.219511
1.367927
1.314878
1.443624
1.597404
1.805425
2.062917
4.030466
27.324557
77.239871
226.914883
412.327647
765.619874
1015.674472
1015.674472
1015.674472
1015.674472
1015.674472
1015.674472
1015.675068
733.239651
454.458594
199.824572
93.419552
27.869940
16.844869
18.751621
26.201606
42.336583
59.021711
82.125664
100.009441
117.725730
126.898885
124.429464
115.104914
97.115636
81.501603
58.601499
42.760968
26.939511
20.017624
14.576912
13.348460
12.233853
12.594461
13.048649
12.576580
12.923479
12.785792
12.391806
12.669563
12.955666
12.853742
13.193488
13.155937
13.431907
13.325810
12.792945
12.968779
13.435483
13.062954
13.161898
13.382435
12.494922
12.072921
12.709498
12.329817
12.692809
##ZVALUE=310
0.534654
0.528693
0.643730
0.544786
0.395775
0.618696
0.439882
0.590682
0.334978
0.484586
0.422597
0.516772
0.694990
0.458956
0.617504
0.763535
0.746846
0.707507
0.610948
0.778437
0.797510
0.699759
0.748634
0.776649
0.950694
0.926852
1.016855
0.910759
1.189709
1.271963
1.323819
1.357794
1.727939
1.687407
1.937747
2.204776
2.563596
11.149645
41.826963
147.745013
292.840004
614.417791
935.521722
1015.669703
1015.669703
1015.669703
1015.669703
1015.669703
1015.669703
925.078988
630.813837
324.352980
172.878504
57.048798
22.198558
13.275743
16.391873
25.657415
35.385489
53.726435
71.267486
94.211698
107.155442
118.111968
119.981766
111.970901
98.497868
79.075694
60.599446
41.270852
31.041503
20.527840
16.774535
14.015436
13.137460
12.743473
12.741685
12.858510
12.632608
12.578964
12.716651
13.291836
12.950897
12.920499
13.269782
13.481975
13.412833
13.178587
13.279915
12.925863
12.877584
12.800694
13.120770
12.389421
12.508631
12.703538
##ZVALUE=315
0.447631
0.334978
0.324845
0.359416
0.457764
0.642538
0.437498
0.428557
0.381470
0.488758
0.499487
0.504851
0.419617
0.472665
0.625849
0.655651
0.583529
0.609756
0.649691
0.506639
0.758767
0.446439
0.673532
0.666976
0.723600
0.832677
0.672936
0.919700
0.929832
1.000762
0.926852
1.109838
1.032948
1.268983
1.174808
1.339912
1.824498
2.081990
2.317429
4.087687
26.206970
76.993704
234.527588
432.531834
842.173696
1015.608907
1015.608907
1015.608907
1015.608907
1015.608907
1015.608907
1015.608907
694.173574
425.588489
194.255710
90.307593
25.517941
13.253689
12.729764
15.445948
22.974610
32.167435
48.937798
66.300631
88.233948
101.374984
111.429691
114.460588
104.185939
92.337728
71.414709
57.750940
40.959716
30.659437
21.401644
17.277598
14.261603
13.041496
12.875795
12.367964
12.318492
12.646914
13.060570
12.824535
13.020635
13.132691
13.159513
13.389587
13.028979
12.836456
13.086796
12.957454
12.591481
12.250543
12.704730
13.081431
##ZVALUE=320
0.471473
0.488758
0.504851
0.480413
0.420809
0.387430
0.482798
0.490546
0.535846
0.489950
0.422597
0.494719
0.333786
0.456572
0.621676
0.597835
0.779629
0.593662
0.735521
0.482798
0.582933
0.618696
0.592470
0.710487
0.673532
0.763535
0.886917
0.705719
0.968575
1.016855
0.997782
1.040697
1.070499
1.217723
1.387596
1.487732
1.516938
1.799464
2.005696
1.984835
2.297759
3.284812
10.511875
59.723854
156.849623
418.586731
710.892677
1015.669703
1015.669703
1015.669703
1015.669703
1015.669703
1015.669703
1015.669703
967.111588
533.457994
298.332572
124.943852
54.245591
16.708970
11.824965
12.199879
14.502406
21.294951
29.564500
46.652555
61.828494
81.411600
96.032619
106.658936
108.194947
102.286935
91.346502
73.288679
57.618618
40.527582
30.647516
21.279454
16.931891
14.467835
13.203621
12.727976
13.010502
13.172626
13.589859
13.530850
13.285875
13.082623
13.190508
13.194680
13.028979
12.974739
13.146996
12.829900
13.005733
12.661815
##ZVALUE=325
0.408888
0.420809
0.547767
0.393987
0.380874
0.410676
0.396967
0.482798
0.522733
0.493526
0.523925
0.490546
0.495911
0.583529
0.636578
0.390410
0.663996
0.551939
0.441670
0.626445
0.630617
0.672936
0.597835
0.633597
0.760555
0.663996
0.731945
0.861883
0.757575
0.992417
0.860691
0.863671
1.061559
1.007915
1.111627
1.137853
1.341701
1.236796
1.623631
1.797676
1.924634
2.103448
2.311468
2.538562
5.565882
36.754608
102.721453
281.502604
518.134832
968.703628
1015.681028
1015.681028
1015.681028
1015.681028
1015.681028
1015.681028
1015.681028
736.392736
428.906679
172.327757
77.411532
23.491979
12.959838
11.103749
11.812449
15.252829
19.943714
30.668974
42.864680
62.667727
77.670813
92.964768
101.119876
102.646947
97.092986
82.356930
69.567561
51.318407
39.751530
27.103424
21.167994
16.011000
14.841557
13.547540
13.498664
13.090968
13.115406
12.682676
12.992620
12.998581
13.030767
12.507439
13.022423
13.055801
12.830496
12.372732
##ZVALUE=330
0.439882
0.512600
0.477433
0.410676
0.398755
0.514984
0.537634
0.485778
0.546575
0.504851
0.384450
0.606775
0.566840
0.511408
0.553727
0.568628
0.654459
0.577569
0.604987
0.606775
0.546575
0.453591
0.729561
0.656843
0.632405
0.623465
0.583529
0.753999
0.887513
0.738502
0.857711
0.876784
0.833869
0.935793
1.043677
1.191497
1.271963
1.187921
1.339912
1.479983
1.509786
1.811981
1.805425
2.070665
2.125502
2.756715
3.287792
17.517805
57.885647
196.529627
386.017561
812.978745
1015.674472
1015.674472
1015.674472
1015.674472
1015.674472
1015.674472
1015.674472
1006.800532
660.722852
291.033983
138.940811
44.619441
18.290877
10.819435
10.444522
11.802912
14.395714
20.718575
29.167533
44.038892
57.162642
76.040626
87.843537
96.493959
97.287893
90.854764
79.701543
63.242912
51.449537
35.852790
28.103590
20.834804
17.222762
14.721751
13.445616
13.117790
12.678504
12.572408
12.716651
12.752414
12.563467
12.088418
12.446642
12.045503
##ZVALUE=335
0.396967
0.387430
0.296831
0.378489
0.402927
0.503659
0.617504
0.449419
0.419617
0.416636
0.585914
0.375509
0.427961
0.389814
0.477433
0.410676
0.428557
0.428557
0.593662
0.372529
0.637770
0.617504
0.635982
0.775456
0.587702
0.698566
0.664592
0.702739
0.571609
0.727773
0.702739
0.695586
0.753999
0.866652
0.924468
0.870824
0.936985
1.078844
1.016855
1.250505
1.345873
1.427531
1.516938
1.692772
1.765490
1.977682
2.048612
2.445579
2.890825
8.340478
33.096671
131.717920
276.483893
614.432693
977.513790
1015.674472
1015.674472
1015.674472
1015.674472
1015.674472
1015.674472
1015.675068
866.664648
450.342894
233.869553
76.518655
28.658509
12.247562
11.095405
10.977983
12.370944
15.587807
19.819736
29.720664
40.591955
57.476759
69.281459
82.708597
89.112520
90.116858
85.647702
73.129535
62.950850
47.721863
37.981868
27.359724
22.021532
17.118454
14.887452
13.150573
12.372732
12.144446
12.298822
11.851788
12.333989
11.817813
##ZVALUE=340
0.467896
0.376701
0.479817
0.332594
0.411868
0.429749
0.433922
0.489950
0.435710
0.523925
0.490546
0.620484
0.562668
0.506639
0.449419
0.508428
0.609756
0.544786
0.616908
0.635982
0.619888
0.725985
0.773668
0.733733
0.661612
0.730753
0.714660
0.631809
0.770688
0.896454
0.914931
0.868440
0.910759
0.882745
0.868440
0.882745
0.900626
0.974536
1.250505
1.140833
1.456738
1.464486
1.628995
1.428723
1.818538
1.851916
2.087951
2.077818
2.323985
2.833605
3.302693
5.337596
16.936660
91.238618
229.066014
576.363802
964.816809
1015.674472
1015.674472
1015.674472
1015.674472
1015.674472
1015.674472
1015.674472
1015.674472
602.262020
316.018462
115.992427
42.725801
15.394688
12.633801
12.546778
12.704730
13.681650
15.918612
21.235943
28.141737
39.629936
52.196980
67.743659
77.366829
85.215569
85.837841
81.535578
73.536634
60.197711
50.010681
36.482811
28.444529
21.164417
17.240644
14.239550
13.045669
12.150407
11.793971
12.135506
##ZVALUE=345
0.452995
0.350475
0.474453
0.515580
0.449419
0.441670
0.401735
0.417829
0.367761
0.425577
0.472665
0.407696
0.303984
0.694990
0.486970
0.657439
0.513792
0.442863
0.646710
0.604987
0.873804
0.573993
0.677705
0.446439
0.729561
0.688434
0.732541
0.719428
0.883937
0.702739
0.828505
0.874996
0.819564
0.986457
0.836849
1.089573
0.992417
0.914931
1.097918
1.176000
1.072884
1.294613
1.482964
1.660585
1.728535
1.806617
2.058744
2.261996
2.433658
2.619624
2.921820
3.260970
3.846884
4.764795
8.534789
55.445433
166.290998
478.516817
887.697935
1015.674472
1015.674472
1015.674472
1015.674472
1015.674472
1015.674472
1015.674472
1015.674472
832.845569
440.141559
161.051750
68.501830
22.806525
14.867783
13.508797
13.045669
13.055801
13.027787
15.266538
18.915534
27.682781
36.832690
50.579906
60.677528
71.771741
76.777935
80.200434
77.315569
68.682432
59.953928
48.007965
37.650466
27.273893
21.519661
16.606450
14.312863
12.678504
##ZVALUE=350
0.577569
0.515580
0.444651
0.513792
0.528693
0.451803
0.656843
0.652671
0.765920
0.611544
0.596642
0.597835
0.739694
0.703931
0.564456
0.638962
0.819564
0.576973
0.720620
0.732541
0.699759
0.757575
0.793934
0.882745
0.755787
0.736713
0.787973
1.009703
0.968575
0.797510
1.079440
0.832677
1.065731
1.239777
1.090765
1.098514
1.040697
1.299977
1.305938
1.148582
1.414418
1.470447
1.454949
1.578927
1.822710
1.842976
2.055764
2.319813
2.325773
2.739429
2.976656
3.247857
3.476739
4.222989
4.490614
5.434752
7.165670
32.674670
116.233826
439.963937
921.002626
1015.632749
1015.632749
1015.632749
1015.632749
1015.632749
1015.632749
1015.632749
1015.632749
981.304646
576.106906
242.999792
107.526779
31.348467
17.220974
14.553666
13.588667
12.883544
12.733936
13.412833
15.240908
20.064712
25.144815
34.667850
42.519569
54.997802
63.639879
71.036816
74.703693
71.389675
65.811872
56.197643
46.404600
35.435557
28.416514
21.144748
##ZVALUE=355
0.665784
0.725985
0.853539
0.736713
0.900626
0.905991
0.757575
0.734925
0.822544
0.974536
0.956655
0.847578
0.913739
1.052618
0.718832
0.973940
1.030564
0.957847
1.130700
0.852942
1.168847
1.070499
0.983477
0.999570
1.066923
0.985861
1.126528
1.011491
1.167655
1.215935
1.105666
1.249909
1.252890
1.266599
1.299977
1.412630
1.308918
1.369715
1.591444
1.417994
1.624823
1.714826
1.813769
1.780987
2.131462
2.140999
2.319813
2.622604
2.567768
2.890825
3.254414
3.464818
3.643632
3.856421
4.463792
4.722476
5.372763
6.015897
6.934404
17.475486
61.830878
279.751420
666.005611
1015.674472
1015.674472
1015.674472
1015.674472
1015.674472
1015.674472
1015.674472
1015.674472
1015.674472
952.703953
365.375876
155.428648
45.620799
21.635890
15.938878
14.917850
13.818741
13.649464
13.448596
13.760924
15.297532
17.746687
23.970604
30.163527
40.124655
48.511624
59.296489
65.552592
69.083571
67.380667
62.282681
55.753589
45.794845
##ZVALUE=360
0.846982
0.889897
1.006722
1.097918
1.104474
1.047850
1.009703
1.052618
1.021624
0.998974
1.050830
1.099706
1.062751
1.038909
1.274943
1.073480
1.170635
1.214743
1.248717
1.222491
1.241565
1.214743
1.280904
1.310706
1.201630
1.349449
1.324415
1.475811
1.378655
1.331568
1.484752
1.572967
1.580715
1.681447
1.696944
1.594424
1.729727
1.831651
1.902580
1.974702
2.018809
2.002716
2.085567
2.297759
2.371669
2.343655
2.588630
2.538562
3.034472
3.118515
3.400445
3.691912
3.822446
4.141927
4.434586
4.654527
4.905462
5.576611
6.095767
7.194877
7.924438
11.653900
29.175878
143.984556
393.039584
1015.674472
1015.674472
1015.674472
1015.674472
1015.674472
1015.674472
1015.674472
1015.674472
1015.674472
1015.674472
694.340467
300.953984
89.657903
34.668446
18.065572
16.490817
14.803410
13.976693
13.353825
12.998581
13.342500
14.010668
16.753674
20.164847
26.637912
33.600926
43.735504
51.630735
58.823824
62.279701
62.745810
##ZVALUE=365
1.090765
0.977516
0.838637
1.112819
1.224875
1.126528
1.134872
1.150966
1.108646
1.077652
0.972748
1.122952
1.085997
1.166463
1.293421
1.160502
1.288652
1.417994
1.349449
1.231432
1.161695
1.247525
1.326799
1.228452
1.403689
1.381636
1.569986
1.522899
1.464486
1.567602
1.447797
1.589656
1.633763
1.605749
1.579523
1.679659
1.593828
1.787543
1.585484
1.989603
2.089739
2.025962
1.967549
1.909733
2.126694
2.416968
2.152920
2.442598
2.670884
2.796650
2.827644
3.039837
3.285408
3.368855
3.604889
3.846884
4.233718
4.585981
4.745722
5.483627
6.073713
6.808639
7.892847
9.124875
13.854504
58.817863
179.651380
613.294840
1015.666723
1015.666723
1015.666723
1015.666723
1015.666723
1015.666723
1015.666723
1015.666723
1015.666723
1015.666723
631.540418
173.379779
57.251453
19.519925
15.902519
14.496446
13.850927
12.824535
12.076497
11.903644
11.714697
12.708902
14.383793
18.086433
22.638440
30.851960
37.262440
46.388507
##ZVALUE=370
0.947714
1.062751
0.999570
1.100898
1.109838
1.185536
1.330972
1.233816
0.990629
1.013875
1.196861
1.136661
1.135468
1.133680
1.189709
1.221895
1.241565
1.244545
1.200438
1.346469
1.156926
1.395941
1.340508
1.353621
1.443624
1.339912
1.294613
1.340508
1.295805
1.454949
1.436472
1.471639
1.455545
1.559854
1.399517
1.521707
1.545548
1.556873
1.536608
1.558661
1.755953
1.697540
1.911521
2.023578
2.151728
1.916885
2.046824
2.118945
2.286434
2.351999
2.388954
2.281666
2.522469
2.631545
2.859831
3.069639
3.026724
3.336668
3.608465
3.916621
4.258752
4.618764
5.116463
5.972981
6.218553
7.161498
8.964539
28.674006
89.157820
356.293917
850.640535
1015.741825
1015.741825
1015.741825
1015.741825
1015.741825
1015.741825
1015.741825
1015.741825
1015.741825
982.335806
320.384502
110.092759
30.159950
16.312599
13.770461
13.096929
12.234449
11.625886
11.209846
11.070967
11.220574
11.886954
13.749599
15.901923
20.986795
##ZVALUE=375
0.969768
0.959635
0.971556
0.949502
0.845790
0.736713
0.971556
1.029968
0.849962
0.910759
0.729561
0.958443
0.933409
0.884533
1.015663
0.933409
0.930429
0.913739
0.909567
0.999570
1.072884
1.054406
1.077652
1.078844
1.030564
1.115799
1.108646
1.138449
1.035929
1.306534
1.119971
1.142621
1.268983
1.385808
1.197457
1.165867
1.225471
1.266599
1.148582
1.349449
1.327991
1.457930
1.380444
1.521707
1.550913
1.515746
1.564622
1.633763
1.678467
1.802444
1.808405
1.877546
1.925826
2.020597
2.070665
2.298951
2.449751
2.465844
2.665520
2.825856
2.916455
3.299713
3.355742
3.787875
4.235506
4.500747
5.270839
6.050467
7.139444
18.041730
55.983663
192.258358
438.307524
1015.674472
1015.674472
1015.674472
1015.674472
1015.674472
1015.674472
1015.674472
1015.674472
1015.674472
1015.675068
904.803872
373.326540
72.453618
21.801591
13.207793
12.318492
11.349916
10.764599
10.579824
10.415912
10.317564
10.283589
10.836720
##ZVALUE=380
0.665784
0.704527
0.550747
0.648499
0.670552
0.659823
0.684857
0.637770
0.596642
0.576973
0.619888
0.832677
0.791550
0.462532
0.700951
0.590682
0.723600
0.761747
0.677705
0.760555
0.762939
0.828505
0.809431
0.873804
0.782609
0.774860
0.768900
0.797510
0.866652
0.814795
0.983477
0.810623
1.059771
0.844598
0.934601
0.831485
1.012683
0.937581
0.969768
0.979900
1.173615
1.041889
1.109838
0.993609
1.016855
1.145601
1.043677
1.222491
1.133680
1.182556
1.470447
1.444817
1.489520
1.478791
1.611710
1.693964
1.937747
1.661777
1.878738
1.926422
2.210736
2.162457
2.443790
2.627969
2.676845
3.082752
3.382564
3.757477
4.382730
5.069971
5.872846
9.083748
27.270913
126.008391
290.374756
721.196532
1015.674472
1015.674472
1015.674472
1015.674472
1015.674472
1015.674472
1015.674472
1015.674472
1015.674472
1015.675068
640.249848
173.332691
48.340559
13.203621
10.357499
9.320974
8.659959
8.764863
8.445978
7.981658
##ZVALUE=385
0.386834
0.276566
0.366569
0.421405
0.365973
0.393987
0.319481
0.459552
0.444651
0.445843
0.443459
0.405908
0.376701
0.335574
0.442863
0.341535
0.467896
0.238419
0.272989
0.282526
0.349879
0.475645
0.424981
0.506639
0.466704
0.455976
0.576973
0.362992
0.307560
0.488758
0.360608
0.492930
0.506639
0.434518
0.474453
0.460744
0.561476
0.477433
0.631809
0.469685
0.569820
0.579953
0.552535
0.659823
0.579953
0.663996
0.730753
0.795722
0.857711
0.620484
0.689626
0.826716
0.908971
0.926852
1.054406
1.042485
1.092553
1.236796
1.089573
1.215935
1.402497
1.288652
1.391768
1.446605
1.777411
1.772642
1.817942
2.120733
2.297759
2.736449
3.050566
3.318787
3.685951
4.612803
12.715459
75.899959
192.049742
481.312871
853.433609
1015.674472
1015.674472
1015.674472
1015.674472
1015.674472
1015.674472
1015.674472
1015.674472
641.139746
377.227664
160.267949
66.253543
14.953613
7.736683
6.669760
6.447434
6.317496
##ZVALUE=390
0.278950
0.261664
0.341535
0.439882
0.260472
0.337958
0.391603
0.491738
0.353456
0.432730
0.344515
0.379682
0.373721
0.356436
0.382662
0.421405
0.344515
0.536442
0.368953
0.315905
0.341535
0.266433
0.339746
0.342727
0.344515
0.500679
0.363588
0.379682
0.368953
0.349879
0.379682
0.523925
0.585914
0.516772
0.439882
0.503659
0.304580
0.247955
0.369549
0.550747
0.527501
0.513792
0.482798
0.469685
0.632405
0.732541
0.682473
0.543594
0.607967
0.704527
0.830889
0.649691
0.679493
0.767708
0.712872
0.791550
0.769496
0.834465
0.772476
0.892878
0.910759
1.013875
1.078844
1.194477
1.211762
1.470447
1.575947
1.666546
1.642704
2.078414
2.162457
2.194643
2.137423
2.511740
2.776980
2.824664
5.599856
40.415525
129.024982
395.030975
736.892819
1015.725732
1015.725732
1015.725732
1015.725732
1015.725732
1015.725732
1015.725732
1015.725732
656.708479
366.113782
140.362978
63.198805
18.013716
7.604957
5.560517
##ZVALUE=395
0.251532
0.296831
0.284910
0.334978
0.399947
0.130534
0.355840
0.278950
0.420809
0.304580
0.411868
0.195503
0.336766
0.332594
0.232458
0.288486
0.363588
0.448823
0.342727
0.265837
0.436902
0.396967
0.184774
0.278950
0.325441
0.275970
0.335574
0.355840
0.477433
0.320673
0.382662
0.286698
0.469685
0.494719
0.354648
0.491738
0.431538
0.408888
0.309944
0.420809
0.447631
0.446439
0.618696
0.421405
0.448823
0.543594
0.424981
0.580549
0.388622
0.550747
0.553727
0.603795
0.490546
0.620484
0.539422
0.648499
0.567436
0.623465
0.595450
0.653863
0.784993
0.793934
0.905991
0.901818
0.878572
1.045465
1.112819
1.210570
1.458526
1.575947
1.759529
1.697540
1.900792
1.915693
2.004504
1.976490
2.245903
2.307892
3.688931
13.608932
83.840489
208.023787
491.193533
823.964477
1015.674472
1015.674472
1015.674472
1015.674472
1015.674472
1015.674472
1015.674472
875.930786
441.295505
223.077536
74.227452
29.387474
##ZVALUE=400
0.280738
0.468493
0.350475
0.333786
0.444651
0.166893
0.190735
0.300407
0.355840
0.305772
0.400543
0.379682
0.267625
0.199676
0.333786
0.256896
0.281930
0.249743
0.221729
0.479817
0.423789
0.241995
0.327826
0.525713
0.338554
0.290871
0.445843
0.469685
0.482798
0.442863
0.415444
0.448823
0.376701
0.386834
0.397563
0.423789
0.367761
0.362992
0.499487
0.508428
0.374913
0.424981
0.481606
0.440478
0.568628
0.588894
0.538826
0.378489
0.524521
0.552535
0.608563
0.439882
0.655651
0.637770
0.575781
0.572801
0.634789
0.753999
0.606775
0.809431
0.851750
0.878572
0.748634
0.735521
1.066923
0.917912
1.030564
1.146793
1.483560
1.405478
1.537800
1.489520
1.546741
1.594424
1.512766
1.548529
1.766682
1.698732
1.905560
2.276897
2.587438
8.595586
35.583973
147.748590
318.172574
707.062483
1015.674472
1015.674472
1015.674472
1015.674472
1015.674472
1015.674472
1015.674472
947.621465
610.789657
296.582580
##END
