##TITLE=QP00601
##FORMAT=SPECTACLE-ASCII V-1.2
##DATA TYPE=ULTRAVIOLET SPECTRUM
##SECOND TYPE=ULTRAVIOLET SPECTRUM
##DATE=01/09/18
##TIME=15:52:41
##SPECTROMETER/DATA SYSTEM=SPECTACLE
##XUNITS=NM EM
##YUNITS=ENERGY
##YFACTOR=1
##FIRSTX=220
##LASTX=410
##NPOINTS=96
##3DDATA=Equidistant
##ZUNITS=NM EX
##FIRSTZ=210
##LASTZ=400
##ZPOINTS=39
##XYDATA=(Y..Y)
##ZVALUE=210
2.300739
2.417564
2.551675
2.239943
2.863407
2.609491
2.594590
3.187656
3.218651
3.023744
2.689958
3.197789
3.517866
3.306866
3.035665
3.060699
4.033446
4.397631
3.971457
4.189610
5.624890
6.009936
5.458593
6.314516
7.502437
6.103516
6.831884
7.754564
6.947517
8.219481
7.872581
7.971525
9.137988
8.852482
8.422732
8.832812
8.725524
9.797812
10.869503
10.620952
10.457635
9.643435
11.714697
10.886788
11.983514
12.707710
11.895895
12.137890
11.852980
11.654496
12.500882
12.512803
12.456775
12.401938
12.223721
13.227463
13.244748
13.417602
13.922453
14.912486
13.311505
15.035868
14.429688
13.669729
13.821721
15.670657
17.342567
18.633604
22.292733
26.194453
31.134486
36.257505
43.622851
48.999786
57.578683
59.655905
64.452887
65.386891
63.393712
59.051514
57.305694
52.943826
44.787526
38.938522
30.882955
24.094582
20.543933
16.659498
17.386675
13.771653
13.614893
14.540553
13.567805
16.466975
13.748407
13.939738
##ZVALUE=215
11.524558
10.021925
9.978414
7.851720
7.036924
6.896853
5.667806
4.746914
6.063581
5.215406
6.020665
5.927682
5.561709
3.850460
4.058480
4.114509
4.688501
4.712939
4.632473
5.026460
5.389452
5.412698
4.701614
6.232858
7.504821
7.135868
8.152723
8.712411
8.982420
7.784963
8.394718
8.240938
9.613633
9.365678
9.944439
10.432601
10.160804
9.742975
11.817813
12.053847
10.544658
11.398792
10.618567
12.267828
11.876822
11.834502
12.195706
12.318492
11.178851
11.653900
12.183785
12.901425
12.666583
14.299750
11.997819
13.333559
14.434457
13.855696
14.019608
14.793873
15.384555
14.372468
14.786720
15.085936
15.408993
15.703440
17.453432
18.151999
21.675825
24.186969
27.985573
32.355785
36.226511
42.913556
48.134923
49.828887
51.383972
53.107738
49.640536
50.547719
44.827461
44.359565
40.864944
34.597516
29.156804
25.710464
21.117926
18.455982
17.421842
15.609860
14.268756
13.434887
12.879968
14.891624
15.156865
14.353991
##ZVALUE=220
38.429499
42.381883
46.671629
47.835708
43.351650
36.946535
30.853748
22.487640
16.894937
14.993548
14.387965
14.968514
13.735890
13.208985
10.967851
9.446740
6.995797
7.148981
5.467534
5.216599
6.153584
6.337762
5.894899
6.643534
8.394718
7.622838
7.438660
8.754730
11.643767
9.598732
9.149909
9.907484
10.089874
10.594726
12.103915
11.316538
10.402799
12.351871
11.818409
12.577772
13.123751
11.918545
12.592673
11.752844
13.859868
12.595654
14.743805
14.714599
14.517903
14.925599
15.189648
16.109943
15.642643
15.820861
15.867949
15.112758
17.245412
16.853809
15.096664
16.909838
16.801953
17.193556
17.302632
19.803643
17.971992
17.873645
18.837452
22.548437
24.173856
27.117729
31.608939
38.820505
42.128563
52.143931
57.682991
63.752532
66.113472
66.322684
65.691471
64.521432
60.399771
54.586530
50.058961
42.626858
34.322739
27.886629
24.393797
22.090673
20.116568
19.196868
18.057823
17.618537
16.169548
17.609596
14.820695
17.248988
##ZVALUE=225
61.379671
65.787435
85.788965
114.989877
125.962496
122.324824
115.323663
88.561773
65.664649
45.381784
34.185648
28.314590
25.652647
27.485490
27.915835
26.377439
22.592545
19.579530
14.744997
13.372898
9.486675
9.144545
7.941723
7.509589
7.953644
7.886887
8.951426
9.668469
8.289814
8.305907
9.211898
8.883476
9.985566
9.091496
10.182858
10.658503
10.131598
10.894537
9.301901
11.342764
11.265874
11.206865
10.992885
10.867715
11.221766
10.244846
10.687709
10.795593
10.850430
10.677576
10.848641
9.468794
10.909438
10.804534
11.258721
10.415912
11.725426
11.026859
10.115504
10.894537
11.438727
11.752844
11.498928
12.259483
12.760758
13.328791
11.696815
14.320612
16.217828
17.196536
19.618869
23.721457
26.186705
28.960705
31.853914
32.529831
33.824444
31.698942
31.216741
31.047463
28.367639
26.428699
23.319721
20.405650
17.827749
16.476512
14.772415
14.605522
15.248656
13.412833
14.676452
12.912750
14.995933
13.234615
12.868643
14.988780
##ZVALUE=230
34.455657
39.396882
71.283579
108.070970
139.964819
174.162984
195.438862
200.616717
181.453824
142.972469
111.797452
76.020956
56.398511
46.428442
48.339963
50.544739
51.493645
47.840476
45.247674
36.376715
30.267835
18.671751
12.887716
9.033680
7.934570
6.120801
6.646514
6.490946
6.472468
7.266998
7.597804
7.185936
7.837415
7.866621
7.456541
8.608699
7.928610
7.430911
7.802844
9.028912
9.001493
10.001659
9.729862
9.498000
9.404421
11.031628
8.978844
9.726882
10.827780
10.722876
10.507703
10.814667
11.516809
11.557937
11.930466
11.906624
13.474822
14.212728
13.129711
13.535619
13.509989
14.803410
14.103651
14.557838
14.579892
16.530752
18.100739
18.129945
20.709634
23.062825
24.055839
28.121471
31.106472
34.668446
36.372542
34.883618
35.942793
34.937859
36.211610
31.705499
28.462410
29.485822
26.644468
25.965571
24.015903
23.414493
24.006963
22.359490
21.079779
20.648837
21.704435
19.347668
19.694567
22.623539
19.409657
19.386411
##ZVALUE=235
10.864735
12.010932
32.378435
60.527921
124.999881
181.144476
289.222002
376.672745
454.386473
477.558970
434.587598
365.682840
274.686813
173.344612
121.405721
84.318519
76.035857
78.518987
84.181428
87.082982
80.694556
70.530772
52.436590
39.028525
23.253560
18.804669
10.143518
9.058714
7.706881
7.690787
8.701682
8.035898
7.777810
7.934570
8.617640
8.840561
9.263754
9.513497
9.623766
9.630919
9.569526
10.442734
10.571480
11.069775
10.447502
11.051893
11.103749
13.392568
12.325644
11.463761
10.999441
12.589693
13.506413
12.967587
14.105439
14.609694
14.665723
15.269518
15.618801
17.077923
17.365813
16.596913
18.648505
17.995834
18.755794
21.481514
21.095872
23.545623
25.612712
28.434992
31.938553
36.227703
38.075447
43.300986
43.137670
46.177506
46.664476
46.937466
45.001507
42.923689
43.541789
41.041970
40.202737
40.500760
36.315918
35.019517
33.793449
32.950640
32.082796
32.449961
29.689670
29.083490
30.428767
29.551983
29.555559
31.757951
##ZVALUE=240
1.882911
2.248883
5.099773
15.222430
44.295788
86.568594
181.999803
299.536586
498.214960
663.319826
822.976828
855.123997
824.349523
666.498542
507.074594
307.122469
206.222534
126.483440
101.594925
104.448795
114.616752
120.462775
114.473701
104.754567
82.755685
68.690777
47.625899
33.669472
20.650625
13.863444
10.283589
9.556413
8.166432
8.811951
9.774566
9.033680
9.636879
9.440780
9.648800
9.599924
8.306503
11.207461
11.094809
10.124445
10.180473
12.237430
11.091828
11.519790
12.132525
12.125969
12.724996
13.735890
14.069676
14.280677
14.156699
14.884472
14.069676
16.181469
15.217662
17.761588
16.676784
18.835664
18.718839
20.646453
22.104979
22.575855
22.877455
24.852753
27.171969
30.597448
32.125711
36.354661
38.544536
43.921471
41.337609
44.985414
47.072768
46.558976
48.654675
46.375990
45.611858
42.771697
43.488741
41.894913
42.043924
41.205883
37.888885
38.315654
37.259459
38.283467
35.906434
37.794709
35.825968
36.524534
35.950541
35.350919
##ZVALUE=245
1.634955
1.249909
1.607537
1.493692
2.856851
14.689565
32.918453
91.156960
170.653462
272.946954
442.948937
579.818487
699.843764
724.616647
672.843456
589.954853
434.324741
323.403478
227.342844
140.428543
106.499791
102.218986
110.183954
126.751661
134.189725
124.785900
111.664534
92.957616
72.725415
48.653483
36.096573
20.491481
13.624430
9.893775
6.833673
7.272959
7.210970
7.465482
7.419586
8.223653
6.917715
7.668734
7.797480
7.876754
7.486939
8.955598
9.512901
8.489490
9.510517
8.145571
9.435415
10.224581
9.653568
11.199713
11.031628
11.474490
12.396574
12.142658
13.041496
12.393594
14.573932
14.590621
14.338493
15.700459
17.711520
17.655492
19.610524
23.380518
24.384856
24.372935
28.441548
30.055642
32.688975
35.357475
37.393570
38.120747
39.138794
37.697554
37.092566
38.212538
35.813451
35.884976
37.515759
36.083460
36.729574
34.630895
34.361482
34.068823
34.104586
35.562515
34.557581
36.392808
34.818649
36.298633
34.077764
34.694672
##ZVALUE=250
1.348853
1.330972
1.362562
1.314878
1.388788
1.682639
2.399683
6.558895
30.676723
70.520639
173.291564
288.114548
429.346561
642.569661
788.253546
940.699577
995.971560
968.769789
891.329646
703.518987
518.620014
365.168452
224.891901
149.363875
116.050839
125.018954
133.722425
141.730905
136.890411
121.428967
107.808709
79.410672
57.710409
35.358667
23.515821
13.558865
9.603500
8.833408
8.168817
8.265972
7.162690
8.015633
7.907748
8.554459
8.519888
8.680820
8.846521
8.178949
9.013414
9.455681
10.170937
9.255409
10.038614
10.584593
10.099411
10.486841
11.353493
11.411905
11.745691
11.849999
13.044477
13.502836
14.212728
14.917850
15.111566
17.281771
17.896891
18.210411
20.185709
24.174452
25.020838
27.439594
28.589964
30.685663
33.631921
35.894513
35.218000
35.731792
34.895539
34.688711
33.661723
34.052730
33.738613
31.240582
31.734705
32.884479
32.039881
32.758713
31.755567
32.235980
32.164454
32.517910
32.951832
33.647418
30.887723
32.690763
##ZVALUE=255
1.143813
1.065731
1.250505
1.208782
1.141429
1.756549
1.305938
1.576543
1.995564
4.186630
20.169616
54.105520
117.308497
258.836746
406.507850
646.663904
818.010569
1002.367735
1015.674472
1015.674472
1014.407873
877.947807
600.025654
407.377481
218.480825
147.006512
107.574463
109.361410
127.667785
143.052936
148.521662
146.368742
131.487846
107.905865
84.540844
55.910945
39.510727
22.805929
13.863444
9.693503
8.290410
7.880926
7.684827
7.656813
7.520914
7.888675
7.297993
8.430481
7.579923
8.736849
8.468628
8.882880
9.323955
8.315444
9.500980
9.135604
10.215640
10.043979
10.341406
10.885000
10.968447
11.251569
11.500716
11.993647
13.681650
14.039874
14.632940
16.035438
17.446876
19.818544
21.380782
21.752715
25.345683
26.333928
26.387572
27.898550
28.437972
28.352737
27.822852
28.106570
28.879642
29.319525
27.646422
28.316975
27.720928
28.351545
28.345585
28.541684
29.129982
29.512644
28.594732
29.507875
28.023720
29.510856
29.980540
28.353930
##ZVALUE=260
1.117587
1.109838
1.049638
0.864863
1.129508
0.974536
1.278520
1.216531
1.335740
1.485944
1.419783
2.328753
7.960796
33.092499
78.136921
197.885633
332.188010
564.184785
752.710700
994.465947
1015.674472
1015.674472
966.449976
781.822801
512.506962
351.912975
200.359821
126.288533
84.080696
83.723664
99.209547
129.501820
143.739581
157.306790
151.911974
136.858821
112.742782
82.261562
60.124993
36.663413
24.726987
14.859438
10.440946
8.379817
8.405447
7.701516
7.645488
7.833838
8.449554
8.826852
8.506775
8.149743
8.897781
8.876920
9.253621
10.199547
9.746552
9.726882
9.980798
10.125637
10.619760
11.182427
12.053847
13.179779
12.524724
14.246702
14.175773
15.626550
16.604662
16.936660
18.915534
19.556880
21.935701
23.209453
23.427606
24.482608
24.896860
24.937987
24.945736
25.550723
24.922490
24.566650
24.261475
26.273727
25.232434
25.773644
24.817586
27.401447
25.700927
26.587844
26.760697
26.928782
27.315617
28.389692
27.062893
27.397871
##ZVALUE=265
0.760555
0.933409
1.059771
0.862479
1.135468
0.721812
1.074672
1.059771
1.285672
1.274943
1.129508
1.436472
1.755953
1.737475
4.177690
21.667480
58.683753
146.093965
269.733667
513.708591
733.531713
944.721699
1015.674472
1015.674472
1015.674472
924.699903
674.383640
472.349524
255.837440
157.013535
88.790655
72.442889
82.842708
113.515854
136.535764
155.268908
159.760714
152.209997
136.064887
110.220909
84.800720
58.511496
39.084554
23.514628
16.415715
11.223555
9.563565
8.696914
9.349585
9.555817
9.343624
9.800792
10.120869
9.956956
10.169744
10.764599
10.885000
10.845661
11.114478
11.429787
11.660457
12.502670
11.676550
12.774467
13.532639
14.630556
14.500618
15.208721
15.918612
17.818809
18.942952
19.831657
21.815896
21.964908
23.230910
22.643805
25.105476
22.709966
23.917556
24.885535
23.100972
24.228692
24.928451
23.609996
25.005937
24.625659
25.139451
25.310516
24.432540
25.333762
24.972558
26.517510
25.960803
26.064515
25.791526
25.845766
##ZVALUE=270
0.658631
0.833869
0.914931
0.862479
0.814795
0.959635
0.855923
0.951886
1.055598
1.068711
1.114607
1.194477
1.162887
1.337528
1.490712
1.874566
2.265573
9.833574
30.957460
104.264617
209.242702
372.076631
671.623945
912.247896
1015.690565
1015.690565
1015.690565
1015.690565
888.775587
659.312010
448.595881
230.700970
131.440759
69.620609
63.863993
86.299777
111.684799
136.642456
153.051615
160.693526
158.171654
137.212873
116.134882
85.601807
62.451959
40.635467
27.314425
18.453598
14.083982
11.029840
10.850430
10.694861
10.946989
11.238456
12.048483
11.778474
11.800528
13.051629
12.173653
13.273954
13.199449
12.675524
13.784766
14.078617
13.606548
14.343858
15.211701
15.793443
16.790628
18.091798
18.244982
20.053983
20.389557
22.015572
21.849871
21.864772
22.348762
23.267865
23.784637
23.936629
22.624731
23.172498
23.687482
23.758411
24.091601
23.448467
23.766756
24.023652
24.269819
24.288893
24.572611
23.580790
24.228692
25.002956
23.842454
25.075674
##ZVALUE=275
0.823736
0.840425
0.692606
0.887513
0.734925
0.675917
0.767708
0.694990
0.805855
0.765920
0.964999
0.890493
1.078844
1.000762
1.091957
1.236796
1.325607
1.452565
1.854897
4.997849
18.490553
53.942800
165.120959
314.462781
595.591664
828.468800
1015.667915
1015.667915
1015.667915
1015.667915
1015.667915
827.927589
581.665635
300.172567
172.553658
79.766512
54.785609
62.651634
81.808567
113.337636
132.445693
153.546929
157.497525
152.533650
138.571858
111.068487
89.290738
62.613487
45.967698
29.334426
20.953417
14.774799
13.575554
12.484789
12.348890
13.139844
13.433695
13.450980
13.111830
13.891459
14.325976
14.536977
15.358925
14.800429
15.021563
14.958978
16.230941
16.888976
17.618537
18.377900
20.357966
20.121932
21.181703
21.845698
22.531748
22.228956
21.802783
22.967458
23.428798
23.263693
23.306608
22.974610
22.821426
22.965670
23.995638
23.761988
23.025870
23.671985
23.154616
22.146702
23.761988
23.472905
22.897720
22.686720
23.605824
23.711920
##ZVALUE=280
0.674725
0.679493
0.603795
0.728965
0.789762
0.767708
0.717640
0.808835
0.711679
0.711679
0.647902
0.801682
0.669956
1.043677
0.849962
0.935793
0.755787
1.154542
1.596808
1.691580
1.714826
2.059937
12.007952
42.311549
138.011575
264.707804
499.062538
736.164451
1015.668511
1015.668511
1015.668511
1015.668511
1015.668511
959.800482
627.086759
408.024788
206.759572
112.624764
52.842498
43.984652
60.835481
80.141425
108.318925
130.821466
152.159929
154.719949
149.234533
133.339763
110.067725
85.455775
59.538484
43.306947
26.598573
18.923879
13.390779
11.417866
10.089874
10.002851
10.400414
10.956526
11.336803
12.184978
11.895895
12.362599
12.412667
13.700724
13.616681
13.835430
15.014410
15.273690
16.517639
18.339753
18.813610
19.867420
20.441413
20.911694
21.008849
21.064878
21.098852
21.261573
21.532774
22.080541
20.942688
21.703839
21.569729
21.750927
21.656752
22.683740
22.866726
22.409558
21.787882
22.198558
22.070408
22.245646
22.375584
22.789836
##ZVALUE=285
0.681877
0.758767
0.670552
0.592470
0.752807
0.733733
0.797510
0.653863
0.815988
0.724792
0.753999
0.810623
0.808835
0.741482
0.977516
0.791550
0.865459
0.908971
1.023412
1.280904
1.093745
1.283884
1.785755
1.914501
6.100535
21.855831
83.358884
181.252956
402.102470
623.605847
962.321758
1015.674472
1015.674472
1015.674472
1015.674472
1015.674472
857.315660
528.899431
331.424475
157.903433
83.154440
40.387511
37.721992
55.900812
76.901913
106.262565
126.031637
144.393444
150.237679
145.544410
134.400725
109.704733
90.063810
62.379837
43.764710
26.446581
19.509792
13.419986
11.414886
11.660457
10.794997
11.371970
11.318922
11.904836
12.237430
12.941957
13.506413
14.667511
15.126467
16.256571
17.000437
18.510818
18.787980
19.760728
19.935966
20.622611
20.196438
20.951629
21.669865
21.551847
21.521449
21.115541
22.328496
21.311641
21.615624
21.259785
21.596551
21.215677
21.834970
22.706985
21.919608
22.274852
21.981001
21.601915
22.100806
21.850467
##ZVALUE=290
0.363588
0.412464
0.528693
0.426769
0.576973
0.708699
0.631809
0.655651
0.551939
0.642538
0.718832
0.771880
0.521541
0.642538
0.471473
0.741482
0.805855
0.848770
0.705719
0.935793
0.911951
1.099706
1.263618
1.090765
1.454949
1.629591
2.546906
8.686781
46.145916
113.223791
209.646821
477.074981
751.098990
1015.546918
1015.546918
1015.546918
1015.546918
1015.546918
1015.546918
708.938837
455.905795
224.909782
114.406943
43.071508
27.689934
35.086870
49.676895
74.017644
94.238520
122.504830
135.632753
146.522522
144.152641
127.681494
111.212730
83.521605
61.891675
42.024851
29.350519
19.356608
14.812946
12.390614
12.329817
12.525916
12.648702
13.232827
13.088584
14.118552
14.779568
15.942454
17.237663
17.600656
18.639565
18.886924
19.959807
20.630956
19.730926
20.970702
20.891428
21.182895
21.404624
21.161437
21.885633
21.455884
21.805763
21.263957
21.997690
21.582842
21.860600
21.918416
21.990538
21.674633
21.588802
21.088719
20.729899
20.874739
##ZVALUE=295
0.524521
0.541806
0.468493
0.488758
0.467896
0.663996
0.673532
0.553727
0.653863
0.609756
0.750422
0.777841
0.762939
0.586510
0.727773
0.635982
0.837445
0.755787
0.949502
1.060963
1.118779
1.113415
1.268983
1.257658
1.468658
1.270771
1.560450
1.529455
2.128482
3.860593
14.542937
68.722963
165.439844
412.721634
666.596889
1015.673876
1015.673876
1015.673876
1015.673876
1015.673876
1015.673876
914.014578
634.794831
332.587957
176.784992
62.809587
30.882955
22.551417
30.474663
48.209429
66.215992
92.818737
112.044811
131.138563
138.495564
136.630535
124.396682
104.208589
85.757971
60.477853
45.032501
28.988719
21.969676
16.319752
13.839602
13.542771
14.020801
14.327765
14.941692
16.052723
17.175674
18.334985
19.575953
19.325614
20.030737
20.497441
20.535588
20.724535
21.308661
21.467805
21.661520
21.636486
21.478534
22.193789
22.581816
22.137761
21.996498
21.868944
22.152662
21.848679
22.240877
21.189451
21.547675
21.040440
21.181703
21.358728
##ZVALUE=300
0.511408
0.512600
0.522733
0.693798
0.527501
0.584722
0.658631
0.573993
0.477433
0.741482
0.477433
0.753999
0.523925
0.745654
0.738502
0.851750
0.791550
0.699759
0.795722
0.771880
0.854731
0.823736
1.182556
1.104474
1.047850
1.123548
1.349449
1.369715
1.517534
1.458526
2.020597
2.506971
6.609559
41.073561
110.611916
304.901004
537.339449
949.192643
1015.674472
1015.674472
1015.674472
1015.674472
1015.674472
1015.674472
826.868415
461.367965
267.475843
114.538670
50.965548
21.610856
19.218922
29.476881
40.766001
63.840747
83.024502
108.255744
122.717619
133.353472
133.050680
120.780468
105.635524
81.483722
63.529611
44.963956
33.217669
22.581816
18.266439
16.397834
15.605688
16.356707
17.053485
18.573999
19.008517
19.583702
20.365715
21.045804
20.880699
21.141768
22.085905
21.966696
21.287799
22.035837
22.382736
22.205710
22.524595
22.175908
22.266507
22.517443
22.040606
22.627711
21.884441
21.927953
21.611452
20.913482
21.406412
21.090508
##ZVALUE=305
0.591874
0.498891
0.598431
0.500679
0.554919
0.491738
0.521541
0.547767
0.533462
0.517964
0.556707
0.540614
0.676513
0.680685
0.720620
0.686646
0.684857
0.764728
0.779629
0.703931
0.728965
0.867844
1.002550
0.823736
1.117587
0.998974
1.090765
1.278520
1.375675
1.420975
1.593828
1.783967
1.893640
2.228618
4.189610
25.776625
73.511600
224.431753
424.784422
827.123523
1015.678644
1015.678644
1015.678644
1015.678644
1015.678644
1015.678644
1015.678644
657.153726
397.191644
174.756646
80.225468
26.747584
15.877485
19.718409
26.509762
43.148994
58.862567
83.691478
101.578832
118.467808
126.596689
124.844909
118.778944
100.194812
82.978606
60.752630
45.978427
32.826662
25.342703
20.190477
18.496513
18.298626
19.060969
19.770861
20.838976
20.989776
20.716786
20.750761
21.427870
21.868944
22.078753
22.583604
22.657514
22.622943
23.050904
23.162961
22.809505
22.888780
22.234917
22.652745
22.627711
22.037625
22.336841
21.928549
22.000670
21.760464
##ZVALUE=310
0.430942
0.470877
0.470877
0.352859
0.519753
0.443459
0.476837
0.400543
0.358820
0.456572
0.712872
0.545979
0.591874
0.591874
0.643730
0.636578
0.547767
0.661612
0.591874
0.603795
0.865459
0.786781
0.754595
0.773668
0.880957
0.821948
1.106858
0.858903
1.121759
1.077652
1.329780
1.225471
1.312494
1.683831
1.706481
2.286434
2.645850
11.779666
41.390657
140.935779
289.503932
625.911951
964.803696
1015.637517
1015.637517
1015.637517
1015.637517
1015.637517
1015.637517
917.422771
595.890880
286.184549
144.811869
49.777627
20.790696
13.923645
17.235875
25.163889
36.656857
55.709481
72.417855
95.149875
109.356642
120.889544
121.739507
113.855004
101.482868
81.812739
65.058470
45.751929
35.807490
27.722716
23.373961
20.726919
19.798875
20.494461
20.575523
21.389723
21.719933
21.621585
21.355748
22.345781
22.549629
22.555590
23.217797
23.380518
23.492575
23.400784
22.825599
23.054481
23.225546
22.498965
22.072792
22.088885
21.352768
21.877885
##ZVALUE=315
0.544786
0.515580
0.543594
0.611544
0.761747
0.597835
0.527501
0.675917
0.712872
0.818968
0.516772
0.686646
0.768900
0.808835
0.571609
0.668764
0.703931
0.643730
0.882745
0.825524
0.823736
0.921488
0.735521
0.827909
0.941753
0.995994
1.063943
1.104474
1.236796
1.194477
1.233816
1.291633
1.367927
1.286864
1.697540
1.731515
1.914501
2.205968
2.347827
5.203485
19.986629
87.930560
199.622512
473.143458
805.884004
1015.821695
1015.821695
1015.821695
1015.821695
1015.821695
1015.821695
1015.821695
761.415958
382.892489
201.608539
70.232749
29.081702
14.027953
13.636947
17.565489
23.328662
36.858916
50.114989
69.773793
86.364746
106.174946
113.394856
117.225647
109.701753
95.930696
81.780553
63.085556
50.370693
35.979748
29.846430
24.028420
21.529794
21.250844
21.550655
21.668673
22.520423
22.462606
22.851825
23.168921
23.002625
23.825765
23.212433
23.933649
23.179650
23.504496
23.556948
22.997856
22.892952
22.359490
22.021532
22.510886
##ZVALUE=320
0.362992
0.407696
0.567436
0.421405
0.617504
0.442863
0.552535
0.542998
0.443459
0.411868
0.521541
0.426769
0.614524
0.495911
0.582933
0.527501
0.615716
0.530481
0.546575
0.514984
0.571609
0.559688
0.656843
0.705719
0.813603
0.861883
0.742674
0.799894
0.744462
0.886917
0.988841
1.076460
1.171827
1.055598
1.335740
1.308918
1.271963
1.616478
1.597404
1.813769
2.275705
2.611876
9.300709
53.350925
137.567520
358.770490
605.157614
991.335511
1015.674472
1015.674472
1015.674472
1015.674472
1015.674472
1015.674472
960.552096
519.543886
288.821459
120.209455
52.731633
17.648935
11.957884
13.167858
15.747547
22.593737
31.775832
49.386621
63.569546
83.563924
98.212957
109.816790
111.595988
105.267763
95.808506
76.972842
62.506795
47.152638
36.682487
28.810501
25.713444
23.167729
22.521615
22.241473
22.720695
23.214817
22.702813
23.435950
23.147464
23.297668
23.560524
23.295879
22.991896
22.908449
22.814870
23.066998
22.767782
22.966862
##ZVALUE=325
0.362992
0.354648
0.227690
0.474453
0.461936
0.482798
0.355840
0.448823
0.398755
0.424981
0.504851
0.556707
0.772476
0.356436
0.459552
0.412464
0.583529
0.591874
0.585914
0.607967
0.536442
0.753999
0.604987
0.631809
0.657439
0.608563
0.745654
0.693798
0.842810
0.631809
0.843406
0.825524
0.779629
0.832677
0.898838
1.188517
1.184940
1.405478
1.370907
1.474619
1.482964
1.890659
2.070665
2.266765
4.852414
35.842657
96.416473
259.974599
464.488864
864.214897
1015.674472
1015.674472
1015.674472
1015.674472
1015.674472
1015.674472
1013.733745
623.126626
374.800563
162.452459
72.923899
22.199750
12.653470
11.731982
12.735724
16.584992
22.316575
32.902956
46.345592
65.502524
80.855489
97.757578
105.346441
106.501579
101.477504
88.444948
75.776577
57.868958
47.056675
35.191774
29.475689
24.964809
23.675561
23.327470
22.937655
22.653937
23.046732
23.265481
22.771955
22.744536
23.335814
22.803545
22.475719
22.160411
22.783875
22.336841
##ZVALUE=330
0.338554
0.366569
0.319481
0.365973
0.345707
0.466704
0.283718
0.273585
0.324845
0.374913
0.440478
0.463724
0.426769
0.418425
0.447631
0.479817
0.548959
0.575781
0.511408
0.525713
0.542998
0.746846
0.492930
0.393987
0.509620
0.538826
0.547767
0.574589
0.741482
0.728965
0.772476
0.561476
0.692606
1.059771
0.847578
0.906587
0.955462
0.879765
1.131892
1.080632
1.241565
1.433492
1.402497
1.785755
1.794696
2.086759
3.695488
15.562773
78.143477
187.866688
426.630974
678.893924
1015.634537
1015.634537
1015.634537
1015.634537
1015.634537
1015.634537
1015.634537
943.688750
516.615510
286.500454
109.718442
45.487881
15.185475
11.885762
11.929870
12.933612
17.176867
23.304820
35.130978
45.545697
62.827468
76.686740
92.499852
99.595785
102.222562
98.294616
84.394813
72.348714
56.372881
46.383739
35.795569
30.786991
25.984645
24.133921
23.206472
22.896528
22.804737
22.570491
22.243857
22.501945
22.294521
22.205710
21.821856
22.139549
##ZVALUE=335
0.331998
0.449419
0.424981
0.440478
0.555515
0.509620
0.513792
0.591874
0.449419
0.402927
0.508428
0.516772
0.468493
0.572801
0.643730
0.397563
0.555515
0.383854
0.539422
0.561476
0.551939
0.523925
0.438690
0.352859
0.476837
0.531673
0.824928
0.786781
0.882745
0.711679
0.869632
0.845790
0.683665
0.731945
0.899434
0.748634
1.003742
0.968575
1.176596
1.114607
1.130700
1.277924
1.356602
1.556873
1.531839
1.835823
2.064705
2.289414
2.828836
8.974671
38.506985
159.643888
339.407921
726.547837
1015.688777
1015.688777
1015.688777
1015.688777
1015.688777
1015.688777
1015.688777
1015.688777
761.940479
396.041870
203.034878
64.449906
25.285482
13.093948
12.437701
13.554692
15.043616
18.069744
22.536516
34.043789
43.814778
61.684847
73.847771
87.680817
95.302463
95.369816
92.058778
80.166459
69.395900
56.722760
47.012568
36.994815
30.923486
26.268959
24.576783
22.672415
21.868944
21.404624
21.441579
21.411777
21.663904
20.972490
##ZVALUE=340
0.353456
0.473857
0.427961
0.323653
0.286698
0.388622
0.367761
0.331998
0.423789
0.372529
0.452995
0.350475
0.410676
0.324845
0.340939
0.428557
0.333786
0.279546
0.352859
0.459552
0.539422
0.505447
0.475645
0.440478
0.402927
0.486970
0.659823
0.480413
0.520945
0.488758
0.552535
0.649691
0.601411
0.701547
0.558496
0.806451
0.799894
0.713468
0.764728
0.928640
0.907779
1.131892
1.037717
1.191497
1.278520
1.268983
1.425743
1.405478
1.754761
1.924634
2.193451
3.504753
12.614727
70.910454
177.516937
445.663929
738.649964
1015.674472
1015.674472
1015.674472
1015.674472
1015.674472
1015.674472
1015.674472
764.219761
389.829874
210.501552
83.303452
34.503937
14.456511
12.823939
12.459755
13.403893
15.294552
17.921925
24.363995
31.406879
44.530630
55.962801
73.028803
83.500743
90.776682
91.516972
85.809827
79.347491
67.498684
56.400895
43.363571
36.114454
28.792620
25.053620
22.287965
21.459460
21.104813
20.471811
20.489693
##ZVALUE=345
0.359416
0.324845
0.200868
0.458956
0.279546
0.378489
0.450611
0.391603
0.528693
0.337958
0.416636
0.331998
0.461936
0.326633
0.405908
0.304580
0.281930
0.271797
0.346899
0.521541
0.443459
0.480413
0.528693
0.521541
0.551939
0.385642
0.469685
0.444651
0.582933
0.557899
0.449419
0.601411
0.531673
0.632405
0.633597
0.654459
0.579953
0.752807
0.729561
0.669956
0.911951
0.871420
0.803471
0.860691
0.916719
0.876784
1.189709
1.166463
1.313686
1.392961
1.439452
1.604557
2.064705
2.337694
5.120635
33.958554
99.283457
271.559954
499.460697
925.907493
1015.674472
1015.674472
1015.674472
1015.674472
1015.674472
1015.674472
936.241746
527.460575
300.327539
121.166706
51.363707
18.318892
13.397932
12.806654
12.847781
13.570786
14.628768
17.480850
21.203756
30.553937
39.719939
54.538846
64.690709
76.876879
82.737803
85.376501
82.466602
74.421763
65.294504
53.847432
43.820739
33.964515
28.871894
23.875833
21.500587
19.898415
##ZVALUE=350
0.390410
0.189543
0.267625
0.311732
0.420809
0.296831
0.263453
0.382662
0.475645
0.364780
0.449419
0.401735
0.375509
0.439882
0.281930
0.359416
0.489950
0.307560
0.318885
0.390410
0.491738
0.545979
0.530481
0.450611
0.391603
0.482798
0.441670
0.491738
0.555515
0.563860
0.716448
0.697970
0.495911
0.524521
0.600815
0.579953
0.610948
0.677705
0.665784
0.691414
0.714660
0.564456
0.827909
0.882745
1.008511
0.992417
1.072884
0.962615
1.137853
1.160502
1.134872
1.324415
1.356602
1.621842
1.838803
2.053976
3.397465
18.901825
60.084462
196.229815
375.307798
753.859878
1015.674472
1015.674472
1015.674472
1015.674472
1015.674472
1015.674472
1015.375853
628.994703
381.159782
170.905590
78.206658
23.319721
13.650656
12.362599
11.986494
12.081861
12.761950
14.472604
16.275644
21.674633
27.067661
36.775470
45.331717
58.494806
67.855716
75.159669
77.616572
76.368451
70.590973
59.854984
50.848722
40.170550
33.427477
26.384592
##ZVALUE=355
0.282526
0.455976
0.320673
0.239611
0.448823
0.394583
0.438690
0.376701
0.314713
0.351667
0.401735
0.561476
0.552535
0.341535
0.499487
0.326633
0.520945
0.542998
0.455976
0.349879
0.444651
0.497699
0.438690
0.554919
0.363588
0.410676
0.442863
0.468493
0.365973
0.527501
0.464916
0.516772
0.471473
0.264645
0.545979
0.744462
0.562668
0.534654
0.572801
0.702739
0.899434
0.661612
0.847578
0.694990
0.705719
0.974536
0.872612
0.964999
0.866652
1.065731
1.259446
1.194477
1.300573
1.309514
1.455545
1.785755
1.861453
2.203584
2.514720
10.386705
39.403439
146.617889
300.864577
627.612472
957.829952
1015.674472
1015.674472
1015.674472
1015.674472
1015.674472
1015.675068
826.935768
524.484515
228.023529
109.021664
33.432841
15.624762
11.427999
11.090636
11.539459
11.526942
12.406707
13.370514
15.724897
18.925667
24.875998
31.907558
42.090416
51.095486
60.486794
67.183971
70.990920
69.033504
64.221621
57.374835
47.568679
##ZVALUE=360
0.395775
0.370741
0.344515
0.272989
0.420809
0.428557
0.476837
0.492930
0.485778
0.347495
0.324845
0.467896
0.216961
0.575781
0.379682
0.369549
0.443459
0.501871
0.519753
0.544786
0.537634
0.576973
0.474453
0.518560
0.600815
0.469685
0.666976
0.444651
0.572801
0.524521
0.600815
0.727773
0.705719
0.660419
0.700951
0.601411
0.763535
0.830889
0.514984
0.672936
0.613928
0.779629
0.848770
0.668764
1.000762
0.670552
0.955462
0.926852
1.006722
1.142621
0.975728
1.133680
1.236796
1.309514
1.367927
1.472831
1.622438
1.687407
1.781583
2.056956
2.319813
3.670454
15.027523
75.545907
186.333656
455.379486
745.140910
1015.674472
1015.674472
1015.674472
1015.674472
1015.674472
1015.674472
940.957069
621.819496
310.087800
156.327486
50.712824
20.987988
11.095405
10.743737
10.843873
10.767579
11.462569
11.506677
11.993647
13.281703
16.589761
20.223856
26.915669
34.355521
44.530630
51.894784
60.171485
63.957572
63.685775
##ZVALUE=365
0.471473
0.303984
0.462532
0.402927
0.578761
0.268817
0.308752
0.309944
0.370741
0.268817
0.248551
0.392795
0.317693
0.421405
0.417829
0.537634
0.334978
0.506639
0.509620
0.423789
0.421405
0.649691
0.557899
0.533462
0.523925
0.530481
0.557899
0.613928
0.621676
0.623465
0.438690
0.560880
0.613928
0.574589
0.539422
0.636578
0.587702
0.774860
0.513792
0.689626
0.784993
0.841618
0.908971
0.756979
0.766516
0.806451
0.960827
1.023412
1.026988
0.951886
0.910759
1.099706
1.153946
1.305938
1.105666
1.342893
1.237988
1.525879
1.690984
1.966953
1.842976
2.236962
2.578497
2.914667
6.044507
39.682984
115.022659
306.571722
571.256876
999.702811
1015.674472
1015.674472
1015.674472
1015.674472
1015.674472
1015.674472
813.689828
428.195596
223.473907
74.071884
29.215813
11.578798
10.036826
9.807944
9.914637
10.123849
10.251999
10.297894
10.816455
11.982918
13.707876
17.736554
21.931529
30.429959
37.235618
46.170950
##ZVALUE=370
0.421405
0.373721
0.321865
0.357628
0.362992
0.516772
0.372529
0.371933
0.475645
0.383854
0.432730
0.445843
0.514984
0.410676
0.456572
0.455976
0.318885
0.329614
0.583529
0.501871
0.338554
0.418425
0.387430
0.414848
0.577569
0.486970
0.296831
0.490546
0.380874
0.490546
0.299811
0.505447
0.671744
0.598431
0.615716
0.620484
0.530481
0.701547
0.648499
0.508428
0.724792
0.562668
0.680685
0.662804
0.732541
0.692606
0.792742
0.699759
0.842810
0.862479
0.933409
0.905991
0.829697
0.913739
0.999570
0.923872
1.198649
1.211762
1.240969
1.379848
1.410842
1.665950
1.824498
1.963973
2.186894
2.553463
3.696680
18.322468
65.972805
231.522918
446.001887
846.699476
1015.681624
1015.681624
1015.681624
1015.681624
1015.681624
1015.681624
985.779762
553.934574
304.573774
115.479827
51.774979
17.477870
10.239482
9.154677
9.199977
9.009838
8.878708
9.367466
9.339452
9.970665
10.511875
12.506843
15.273690
20.136833
##ZVALUE=375
0.318885
0.190735
0.347495
0.182986
0.392795
0.260472
0.327826
0.262856
0.216961
0.357628
0.298619
0.349879
0.364780
0.321865
0.432730
0.357628
0.362992
0.322461
0.269413
0.389814
0.311732
0.445843
0.238419
0.330806
0.370741
0.373721
0.511408
0.556707
0.419617
0.322461
0.417829
0.479817
0.356436
0.514984
0.629425
0.416636
0.644922
0.468493
0.702739
0.677705
0.668764
0.538826
0.591874
0.735521
0.519753
0.604987
0.691414
0.599623
0.644922
0.502467
0.582933
0.731945
0.718832
0.837445
0.779629
0.905991
0.884533
0.950694
0.987649
0.940561
1.021624
1.304746
1.312494
1.499653
1.589656
1.571774
1.993775
2.329946
3.055930
8.060932
46.699643
121.766925
325.500965
597.790480
1015.674472
1015.674472
1015.674472
1015.674472
1015.674472
1015.674472
1015.675068
779.196620
417.689681
228.207707
84.243417
33.698678
11.714697
8.852482
8.355975
8.117557
8.404851
8.216500
8.532405
8.837581
9.228587
9.383559
##ZVALUE=380
0.452995
0.401735
0.280738
0.256896
0.385642
0.414848
0.268817
0.409484
0.204444
0.297427
0.197887
0.255704
0.392795
0.378489
0.313520
0.372529
0.279546
0.420809
0.299811
0.353456
0.287890
0.426769
0.482798
0.397563
0.586510
0.328422
0.434518
0.357628
0.358820
0.374913
0.339746
0.425577
0.470877
0.419617
0.544786
0.466704
0.379682
0.477433
0.605583
0.537634
0.535846
0.559688
0.580549
0.377893
0.478625
0.520945
0.538826
0.592470
0.585914
0.566840
0.707507
0.609756
0.653863
0.715852
0.563860
0.714660
0.683665
0.895858
0.765920
0.731945
0.886917
1.050830
1.087785
1.168847
1.231432
1.565814
1.562834
1.690984
2.019405
2.452731
2.801418
4.714727
18.549562
94.575882
224.302411
532.753468
869.645476
1015.674472
1015.674472
1015.674472
1015.674472
1015.674472
1015.675068
968.741775
647.740960
306.880474
150.247812
47.654510
18.723607
8.767843
7.968545
7.512569
7.552505
7.723570
7.867813
7.876754
##ZVALUE=385
0.246763
0.161529
0.211596
0.178814
0.350475
0.332594
0.262856
0.402927
0.398755
0.371933
0.338554
0.456572
0.299811
0.449419
0.400543
0.251532
0.259876
0.092983
0.439882
0.395775
0.286698
0.413656
0.468493
0.431538
0.500679
0.377893
0.286698
0.409484
0.302792
0.435710
0.484586
0.285506
0.332594
0.305772
0.357628
0.462532
0.490546
0.441670
0.346899
0.360608
0.459552
0.501871
0.414848
0.485778
0.440478
0.451803
0.435710
0.590682
0.588894
0.571609
0.621676
0.495911
0.608563
0.715852
0.647902
0.739694
0.802875
0.812411
0.799894
0.746846
0.928640
0.901818
0.928640
0.898838
1.133680
1.039505
1.326799
1.318455
1.605749
1.760721
1.998544
2.301931
2.705455
3.291965
8.262396
52.377582
141.030550
369.646549
660.433769
1015.674472
1015.674472
1015.674472
1015.674472
1015.674472
1015.674472
1015.674472
903.221965
481.361747
262.417793
100.656748
37.981868
10.606647
7.331967
7.137656
7.068515
7.088780
##ZVALUE=390
0.214577
0.206828
0.186563
0.259876
0.173450
0.302792
0.312924
0.304580
0.398755
0.494719
0.307560
0.387430
0.239611
0.354648
0.283718
0.279546
0.287890
0.283718
0.302792
0.402927
0.256896
0.442863
0.341535
0.319481
0.419617
0.340939
0.314713
0.403523
0.376701
0.114441
0.401735
0.376701
0.455976
0.370741
0.371933
0.456572
0.426769
0.495911
0.384450
0.239611
0.479817
0.404716
0.567436
0.386834
0.451803
0.470877
0.497699
0.399947
0.491738
0.519753
0.396967
0.434518
0.594854
0.587702
0.443459
0.577569
0.570416
0.617504
0.547767
0.786781
0.728965
0.839829
0.801682
0.903606
0.950694
0.976920
1.156926
1.274943
1.388788
1.579523
1.853704
1.992583
1.925826
2.186894
2.181530
2.398491
3.805757
22.775531
76.185465
255.280733
497.021675
953.527689
1015.674472
1015.674472
1015.674472
1015.674472
1015.674472
1015.674472
1003.952622
621.180534
357.081890
144.977570
66.694617
19.566417
8.659959
6.567836
##ZVALUE=395
0.280738
0.301600
0.261664
0.232458
0.255704
0.345707
0.240803
0.285506
0.250936
0.222921
0.430942
0.343919
0.311732
0.387430
0.345707
0.145435
0.297427
0.215769
0.352859
0.254512
0.368953
0.256896
0.277758
0.280738
0.375509
0.412464
0.195503
0.280738
0.309944
0.360608
0.419617
0.387430
0.305772
0.380874
0.380874
0.375509
0.283718
0.214577
0.431538
0.377893
0.356436
0.375509
0.401735
0.425577
0.397563
0.255704
0.502467
0.505447
0.504851
0.430942
0.363588
0.511408
0.396967
0.649691
0.637770
0.703931
0.553727
0.519753
0.647902
0.535846
0.649691
0.878572
0.794530
0.694990
0.863671
1.002550
0.929832
1.131892
1.342893
1.529455
1.553893
1.535416
1.661777
1.514554
1.841784
1.756549
2.052784
2.350807
2.820492
15.584826
59.116483
210.863352
409.929752
781.984925
1015.669703
1015.669703
1015.669703
1015.669703
1015.669703
1015.669703
1015.669703
771.214962
462.680459
191.442966
88.231564
27.806759
##ZVALUE=400
0.188947
0.197887
0.045896
0.168681
0.303984
0.214577
0.216961
0.160933
0.198483
0.270605
0.332594
0.369549
0.061989
0.139475
0.225902
0.369549
0.144839
0.232458
0.409484
0.163913
0.195503
0.218749
0.142455
0.333786
0.334978
0.294447
0.153780
0.177622
0.212789
0.404716
0.309944
0.330806
0.421405
0.445843
0.264645
0.338554
0.379682
0.343919
0.513792
0.486970
0.404716
0.282526
0.494719
0.254512
0.268817
0.594854
0.341535
0.418425
0.487566
0.411868
0.581741
0.394583
0.545979
0.536442
0.568628
0.638962
0.547767
0.503659
0.531673
0.720620
0.596642
0.532866
0.737906
0.681877
0.804663
0.926852
0.945926
1.073480
1.148582
1.426935
1.508594
1.606941
1.455545
1.587868
1.607537
1.654625
1.663566
1.861453
2.012849
2.305508
2.677441
9.231567
35.891533
133.402944
285.871625
633.239746
974.263549
1015.642881
1015.642881
1015.642881
1015.642881
1015.642881
1015.642881
932.928920
587.289929
280.897617
##END
