##TITLE=QP00351
##FORMAT=SPECTACLE-ASCII V-1.2
##DATA TYPE=ULTRAVIOLET SPECTRUM
##SECOND TYPE=ULTRAVIOLET SPECTRUM
##DATE=01/09/18
##TIME=17:07:39
##SPECTROMETER/DATA SYSTEM=SPECTACLE
##XUNITS=NM EM
##YUNITS=ENERGY
##YFACTOR=1
##FIRSTX=220
##LASTX=410
##NPOINTS=96
##3DDATA=Equidistant
##ZUNITS=NM EX
##FIRSTZ=210
##LASTZ=400
##ZPOINTS=39
##XYDATA=(Y..Y)
##ZVALUE=210
2.236962
2.615452
1.605749
2.355576
2.381802
2.148747
2.035499
2.226830
2.387762
2.136827
1.656413
2.313852
2.675653
2.435446
2.089739
2.845526
2.552867
2.723932
2.736449
2.915859
3.204942
2.861619
3.676414
3.886819
3.792644
3.544688
3.734827
4.028678
4.309416
4.248619
5.082488
4.169941
4.609823
4.663467
5.583763
5.926490
6.262660
5.412698
6.085634
5.628467
5.866885
6.530881
6.693602
6.179810
6.714463
6.627440
7.069707
7.572770
7.641912
7.485747
7.323623
7.141829
8.161664
7.360578
7.344484
7.910728
8.382797
8.053780
7.965565
8.915663
8.608699
9.620786
8.432865
8.058548
9.790659
8.767843
9.320974
10.905862
12.149811
14.896989
17.112494
19.900799
22.732615
29.092431
28.985739
28.901696
30.400753
30.667782
28.947592
27.708411
25.552511
21.840930
19.554496
17.433763
14.502406
13.113618
10.944605
11.143684
9.108782
9.427667
8.856654
8.735657
8.520484
8.574724
8.873940
8.526444
##ZVALUE=215
5.921721
5.376935
6.087422
4.533529
5.353689
4.735589
4.299879
4.754663
5.488992
5.505681
4.967451
4.585981
3.784895
2.752542
2.919436
2.671480
3.080964
2.915859
2.383590
2.999902
3.400445
3.671646
3.579855
3.208518
3.470778
3.873706
4.428625
4.560947
4.803538
4.705787
5.663633
4.768968
5.203485
5.144477
5.419850
6.021857
6.028414
6.886721
7.175803
6.865859
6.174445
7.545948
7.415414
8.242726
7.240772
8.265972
7.884502
8.661747
8.237958
8.047819
8.851886
9.600520
9.540915
8.909702
9.191632
9.793639
9.942651
9.882450
10.469556
10.526776
9.812713
9.772778
10.187626
10.349751
10.450482
10.212660
11.639595
11.618733
15.089512
15.492439
19.203424
20.638704
26.451945
27.327538
30.376911
30.174851
30.070543
30.065775
28.095841
29.563904
28.718710
24.156570
21.816492
19.898415
16.452670
13.498664
12.715459
11.445880
10.470748
9.943843
9.453893
9.726882
9.530783
8.814931
9.925961
9.215474
##ZVALUE=220
18.277764
17.583966
22.798777
22.060871
18.680692
17.792583
14.208555
10.807514
11.083484
9.456873
11.895895
11.638999
13.067722
10.610819
10.172725
8.102655
5.300641
4.014969
3.987551
3.855824
2.966523
3.353953
3.413558
3.940463
4.208684
4.164577
4.586577
4.738569
4.790425
4.765987
5.462766
5.907416
6.566644
6.482601
6.313920
7.249713
7.139444
7.771850
8.075833
7.994771
8.167624
8.132458
7.711649
8.174777
8.618832
7.910728
8.892417
8.952618
8.208752
9.393692
8.992553
10.445714
9.026527
10.417700
10.192990
10.149479
10.614991
10.800958
11.070967
9.955764
9.977818
10.586977
10.244846
11.112690
11.127591
9.627938
11.739731
11.177659
12.664795
14.847517
15.738606
20.328760
21.952987
23.124814
26.273727
29.966831
28.386712
28.535724
29.771924
27.753711
25.121570
21.503568
20.107627
15.984774
15.085936
12.411475
10.617971
10.180473
9.072423
8.766651
8.456707
8.601546
7.882714
7.956624
8.874536
8.722544
##ZVALUE=225
32.623410
34.361482
48.345923
58.704615
64.283609
63.996911
62.820911
51.274896
40.351748
31.177998
24.976730
24.321675
22.918582
28.258562
26.553869
24.703741
21.802783
17.006993
11.952519
9.200573
5.406737
4.061460
4.569888
3.879666
3.923774
4.539490
5.029440
4.737973
5.415678
5.910993
6.243587
6.065965
6.219745
7.764697
7.269979
7.061958
7.827878
8.445978
8.559823
8.470416
7.753968
7.860661
8.304715
8.223653
8.897781
8.634925
8.728504
8.612871
9.594560
9.287000
10.188818
10.931492
9.279847
10.643601
10.979772
10.043979
10.844469
11.146665
10.085702
11.272430
10.747910
11.128783
10.990500
11.750460
10.725856
11.327863
11.217594
12.452602
12.918711
14.343858
16.699433
17.791986
19.240975
24.618506
23.389459
23.392439
23.834705
23.885965
22.852421
21.337867
20.614862
17.162561
16.721487
13.954639
15.419722
12.411475
10.639429
11.639595
12.416840
10.815859
9.994507
9.869933
10.027885
9.133816
9.856820
9.530783
##ZVALUE=230
28.389692
29.278994
51.936507
87.367892
117.924809
145.033598
161.823630
168.559551
153.101683
126.496553
91.872811
64.488649
49.336553
42.417645
43.883920
50.266981
52.268505
49.554706
43.290854
38.805604
29.239655
18.301606
13.303757
8.050799
6.241798
5.065799
4.971623
5.486608
6.198883
6.234646
6.358624
5.911589
6.814599
7.207990
7.250905
8.254647
8.120537
8.407831
8.489490
8.627772
8.905530
8.755922
8.156896
8.682609
8.382797
8.650422
8.389950
8.844733
8.129478
9.866953
11.470914
11.144876
9.380579
10.423660
10.728836
10.687709
11.124611
12.597442
12.140870
13.260841
11.628866
13.439655
12.690425
13.090968
13.706684
14.231801
14.415979
15.035868
16.995668
17.400980
17.336607
18.343925
21.913648
22.042990
23.207664
26.279688
24.709702
24.640560
25.077462
23.068786
21.058917
20.160675
17.624497
16.673803
16.506910
14.371872
13.912916
13.744831
13.044477
14.395714
11.824965
11.231899
12.632608
14.023781
12.577772
12.016892
##ZVALUE=235
10.573864
12.012720
23.738742
61.253905
100.560784
164.547563
220.728517
286.391973
322.174430
325.607657
292.998552
240.412951
166.228414
124.616623
87.890625
75.800419
73.044896
80.294609
85.140467
83.261728
79.314709
64.795613
50.588846
35.273433
24.761558
14.064908
9.919405
6.826520
6.769896
6.510615
5.825758
6.393790
6.505847
6.490946
7.891655
7.605553
8.261800
7.864833
7.675886
8.037686
9.052753
8.115768
7.369518
8.504987
8.150935
7.558465
8.845925
9.102821
9.277463
8.772612
9.329915
8.775592
9.790659
9.460449
9.886622
10.754466
10.987520
10.975599
11.333823
11.161566
11.114478
12.967587
14.243722
12.368560
12.983680
14.068484
13.465881
14.581680
15.859604
16.704798
18.578768
20.508766
24.412870
25.571585
25.878549
27.078986
26.861429
28.712749
26.663542
24.048686
23.052692
23.014545
20.121932
19.885898
17.734766
17.587543
17.835498
15.289783
17.377734
15.724897
15.495420
15.396476
14.993548
15.809536
14.889836
15.155673
##ZVALUE=240
1.608729
1.415610
4.723668
13.206601
32.892823
81.924796
141.325593
252.336860
339.926481
455.406904
517.340899
523.691773
482.278466
380.869508
301.673412
196.972489
140.971541
110.820532
97.536445
101.843476
114.589930
120.959878
114.996433
103.461742
82.756877
68.412423
45.849681
33.559799
17.563701
12.300611
7.623434
6.998777
7.034540
7.181764
7.087588
7.352829
7.504821
7.758737
7.066727
7.620454
7.149577
8.669496
8.882880
8.167624
7.489920
8.726716
9.331703
8.841753
8.443594
8.860826
8.939505
9.169579
9.158850
9.405613
10.496974
9.771585
11.803508
11.390448
11.400580
11.537671
11.230707
11.854768
13.246536
13.343692
13.190508
14.478564
15.306473
15.633702
17.223954
19.946694
21.006465
23.276806
23.766756
27.538538
28.131604
29.854774
29.454827
28.603673
28.323531
26.542544
24.333596
24.322867
22.906661
23.589730
20.452738
18.793941
18.358827
19.528866
19.951463
19.346476
18.644929
18.959641
18.607974
17.699599
19.077659
19.730926
##ZVALUE=245
1.172423
1.475811
1.397729
1.466870
3.851652
9.175539
34.051538
72.831511
168.188810
266.030431
412.757993
521.546006
611.962676
657.140017
628.050566
531.450510
429.006815
294.714570
206.175447
130.142570
109.560490
100.141764
113.127828
127.564669
135.082603
128.593445
114.949942
96.578598
71.822405
51.859617
37.249923
21.810532
14.388561
8.703470
6.602407
6.960630
7.063746
6.772876
7.095933
6.805658
6.713867
6.759763
7.369518
7.893443
7.943511
6.858706
7.457733
7.545948
7.890463
7.656813
8.856654
7.174611
8.240938
9.772778
8.931756
9.946823
10.132790
10.806918
10.655522
10.352731
10.643601
10.979772
11.917949
11.869669
12.761950
14.085770
13.606548
13.955832
15.742779
18.051863
19.723773
21.136999
24.009943
24.869442
25.582910
26.478767
26.267767
27.854443
24.718642
23.913980
23.967624
22.896528
23.005605
20.879507
20.974874
20.485520
19.970536
20.855665
18.746853
20.635724
19.639730
18.701553
18.817782
18.923879
18.282533
18.405914
##ZVALUE=250
1.163483
1.460910
1.071692
1.101494
1.266599
1.473427
2.352595
6.643534
27.037859
60.324669
155.275464
250.021815
375.437737
551.636815
669.707656
769.805908
792.232752
721.768737
628.970861
456.755757
324.351788
222.671628
136.220455
105.795860
108.289719
122.260451
136.920810
138.959885
135.396719
124.044418
105.728507
79.705715
57.703853
34.728646
22.965670
11.834502
8.997917
7.123947
6.523728
5.892515
6.492734
6.396770
6.798506
6.397963
6.230474
7.329583
6.542802
7.073879
6.874800
7.346869
6.532669
7.810593
8.251667
8.034706
8.039474
8.242726
7.928610
8.591413
8.728504
8.673668
8.586645
9.889603
9.581447
10.121465
10.175705
11.275411
11.827946
12.642741
14.809966
15.026927
15.878677
19.613504
19.117594
20.569563
21.613836
23.366809
22.961497
23.764968
24.391413
21.849871
22.213459
22.534728
20.871758
18.598437
19.495487
19.617677
18.303990
18.450618
18.756986
18.477440
18.126965
18.181801
18.797517
17.599463
17.873645
17.808676
##ZVALUE=255
1.080632
1.261830
1.317859
1.283884
1.522899
1.237988
1.379848
1.717806
1.591444
3.506541
18.228889
47.487617
98.973513
221.346617
342.626572
545.969009
687.165856
845.246911
893.895030
865.205526
765.371919
621.438622
403.096676
261.630416
144.569874
105.070472
94.070435
102.818608
128.958821
141.564608
147.412419
145.732760
133.022666
105.641484
85.421801
57.661533
39.107800
21.070838
13.577938
8.536577
6.440878
7.023811
6.711483
6.370544
6.570816
6.185770
6.534457
6.507635
6.500483
6.617904
6.188750
6.918907
6.577969
6.480813
7.888675
6.854534
7.120967
7.491708
8.144975
8.555651
8.386970
8.252859
9.078979
9.644628
9.580851
10.592937
11.060834
11.712909
12.167692
13.026595
14.044642
15.169978
16.261935
17.744899
18.785596
19.744635
19.306540
19.812584
19.475818
17.834902
18.451810
18.404722
18.288493
18.655658
17.792583
17.214417
17.098784
17.378926
17.091632
16.662478
16.813874
17.507672
18.534660
16.316772
15.954971
16.910434
##ZVALUE=260
0.936985
1.016855
1.057982
0.889897
0.973940
1.290441
1.253486
1.438856
1.240969
1.256466
1.555681
1.932979
9.362698
28.957725
81.313848
158.464909
327.783823
480.995774
641.451478
854.430795
970.233679
991.588831
911.500454
716.016889
538.759828
323.207974
209.773779
114.592910
85.534453
87.363720
105.329752
130.323768
148.525834
154.320002
151.273608
133.142471
113.836527
83.474517
62.926412
37.087798
25.922656
14.229417
8.874536
6.849766
6.208420
6.326437
6.163716
6.959438
6.378889
6.771684
6.208420
7.460713
7.165670
7.548928
7.064939
7.369518
7.324815
7.649660
7.445812
7.399917
7.268786
8.404851
8.419752
8.085966
8.633733
9.176731
10.029674
10.155439
10.877848
11.866689
12.612939
13.747811
14.457703
15.659928
16.041994
16.931891
17.065406
16.236901
16.306639
15.228987
16.539693
15.737414
15.761852
15.190840
14.673471
15.772581
15.160441
15.261769
15.883446
15.736818
15.867949
15.527606
15.369654
15.567541
16.709566
15.801787
##ZVALUE=265
0.763535
0.361800
0.797510
0.839829
0.870824
0.970960
0.846982
1.155734
1.213551
1.119971
1.398921
1.455545
1.378655
1.496673
3.904700
19.397736
53.591728
134.981871
238.911510
455.101728
648.381710
830.779672
1011.791825
1015.668511
983.418822
858.855844
646.659732
465.330482
262.277722
159.092546
100.034475
75.269938
82.747936
113.217831
131.947994
155.348778
158.299804
148.740411
138.012767
110.538602
86.757541
56.559443
38.800836
21.266937
14.583468
8.496642
7.609725
6.849766
6.419420
6.063581
7.015467
7.063746
7.417798
7.202625
7.268786
7.558465
7.331967
7.452965
7.339716
7.524490
8.156896
7.258654
8.108616
8.627772
8.229613
8.997917
8.901954
9.663701
9.932518
11.057854
11.439919
12.981892
14.005899
14.969707
15.453696
15.495420
15.906692
16.468763
15.602708
14.956594
14.595985
14.106631
14.401674
14.250875
14.105439
13.996959
14.288425
14.649630
14.966726
14.692545
14.745593
15.262961
15.153885
14.414787
15.527606
14.669895
##ZVALUE=270
1.013875
0.832677
0.804663
0.871420
0.599623
0.851750
0.923872
0.861883
1.068711
1.089573
1.089573
1.179576
1.093745
1.176596
1.250505
1.511574
1.965761
9.637475
29.965639
98.444819
197.901726
355.225801
624.395609
841.530561
1015.674472
1015.674472
1015.674472
1015.674472
861.796737
664.189458
460.578799
246.073008
146.202445
74.990988
66.164732
86.150765
106.449723
137.641430
153.183937
160.380602
155.548453
134.373903
114.811659
84.532499
61.934590
36.663413
23.751855
14.729500
10.230541
7.986426
7.218719
6.859899
7.741451
7.483959
7.426739
7.170439
7.709861
8.064508
7.711649
7.729530
7.282495
7.548928
7.915497
8.025765
8.123517
8.589625
8.290410
9.443760
9.964705
10.842681
11.781454
11.929870
12.867451
14.700890
13.790727
14.106631
14.187694
14.153719
13.736486
13.128519
12.916923
13.656616
12.661815
12.877584
13.070703
12.561679
13.455749
12.520552
12.841821
13.802648
13.337731
12.944937
12.832880
14.168620
13.827682
13.648868
##ZVALUE=275
0.715852
0.740886
0.931621
0.561476
0.705719
0.915527
0.770688
0.948906
1.083612
1.008511
0.905991
0.839829
1.171827
0.976920
1.142621
1.225471
1.447797
1.653433
1.710653
4.744530
19.107461
52.895546
158.636570
298.319459
568.061471
781.530738
1015.674472
1015.674472
1015.674472
1015.674472
1015.674472
808.840990
579.386950
307.711959
177.994967
80.650449
55.282712
61.006546
81.240535
111.594796
132.050514
152.414441
156.646967
153.935552
137.555003
108.275414
87.412596
59.751868
41.888952
24.303794
16.707778
10.410547
7.954836
7.443428
7.595420
7.081628
7.346869
7.427931
7.667542
7.207990
7.879734
7.987618
8.226633
8.665919
8.325577
8.676648
8.747578
9.680986
9.408593
10.161996
11.395812
11.650920
12.749434
13.022423
13.862848
14.324784
14.005899
13.503432
13.854504
13.357997
13.389587
12.587905
12.888908
12.466908
12.762547
12.692809
12.610555
12.401938
12.324452
12.517571
12.163520
12.517571
11.911988
12.926459
12.860894
12.641549
##ZVALUE=280
0.592470
0.610948
0.842810
0.662804
0.710487
0.856519
0.811815
0.820756
0.681877
0.757575
0.807643
0.751615
0.987649
1.046658
1.040697
1.002550
1.421571
1.018643
1.595616
1.681447
1.573563
2.351999
12.126565
41.752458
127.409697
234.583616
455.269814
677.194595
979.720950
1015.674472
1015.674472
1015.674472
1015.674472
917.483568
684.626698
396.820903
240.816474
111.796856
60.301423
45.336485
55.949688
82.602501
105.324984
130.422711
146.216750
153.732896
147.839785
129.350424
111.615658
81.764460
61.986446
39.411783
26.685596
15.484691
11.415482
8.553863
7.522702
7.557869
7.958412
7.705688
7.722974
8.205771
8.216500
8.501410
8.494854
8.817911
8.698702
9.260774
10.001659
10.183454
10.696650
10.990500
11.999607
12.648702
13.460517
13.559461
13.433695
13.575554
13.149977
12.492537
12.396574
12.074709
12.773871
12.314916
12.587905
11.860728
12.452602
11.653900
12.312531
12.233853
11.585951
12.433529
12.742877
12.592673
12.067556
12.330413
##ZVALUE=285
0.519753
0.715852
0.623465
0.622869
0.615716
0.620484
0.850558
0.782609
0.863671
0.822544
0.622869
0.737906
0.933409
0.843406
1.024604
1.139641
0.895858
1.115799
1.036525
1.143813
1.551509
1.416802
1.504421
1.858473
6.469488
20.543933
70.578456
153.834820
337.715745
530.386567
754.657984
1015.678644
1015.678644
1015.678644
1015.678644
1015.678644
882.021785
571.125746
371.974707
188.035965
103.030801
44.450760
36.895871
54.413676
76.045990
104.986429
123.889446
143.498778
151.314735
145.952702
133.863688
109.301805
87.350607
61.208606
42.388439
25.054812
16.885996
11.290908
9.252429
8.018613
7.760525
7.863641
8.030534
8.364916
8.205771
8.742809
8.634925
9.378791
9.533763
10.503531
10.640621
11.228919
11.903644
11.642575
12.470484
12.476444
12.425780
12.304783
12.311935
11.915565
11.426806
11.722445
12.172461
12.195706
11.538863
11.962652
11.974573
11.855960
11.886954
11.779666
12.052655
11.827946
11.462569
11.179447
11.867881
11.669993
##ZVALUE=290
0.543594
0.597835
0.800490
0.683665
0.532866
0.614524
0.522733
0.564456
0.619888
0.912547
0.710487
0.493526
0.872612
0.788569
0.848770
0.718832
0.823736
0.720620
1.018643
0.998974
1.062751
1.136661
1.161695
1.436472
1.777411
1.755953
2.853870
9.410977
45.778751
106.928945
258.317590
449.709892
693.976879
1015.674472
1015.674472
1015.674472
1015.674472
1015.674472
1015.674472
732.967854
486.793518
237.776637
119.494796
42.346716
28.205514
35.526752
50.281882
73.079467
95.257759
121.258497
137.068629
147.925615
145.521760
128.785968
110.780001
80.374479
61.183572
39.769411
27.794838
16.632676
12.227893
9.530783
8.602738
8.133650
8.462667
8.799434
8.695722
8.949637
9.382963
10.210872
10.877848
11.139512
11.858940
11.668801
12.729764
12.508631
12.178421
12.328625
11.860728
11.751652
12.019873
11.709929
11.656880
12.004972
12.245774
11.558533
11.560917
11.936426
11.576414
11.439919
11.412501
11.931658
11.534691
11.366606
11.690855
11.721849
##ZVALUE=295
0.555515
0.514984
0.683665
0.631809
0.588894
0.749826
0.487566
0.605583
0.574589
0.442863
0.809431
0.926852
0.658631
0.812411
0.588894
0.679493
0.751615
0.715852
0.791550
0.860691
1.034737
1.000762
1.130700
1.049638
1.158714
1.519918
1.380444
1.700521
1.967549
4.292727
25.074482
69.630742
197.599530
364.349484
683.277845
943.948627
1015.674472
1015.674472
1015.674472
1015.674472
1015.675068
885.595083
537.097454
333.129764
149.834752
71.650743
28.091669
21.442771
31.807423
45.493841
68.629980
89.798570
113.522410
128.735900
138.418674
136.660933
122.094750
106.049776
81.158876
62.295794
40.355921
27.762651
17.889738
12.921691
9.258986
8.830428
8.601546
8.728504
9.445548
9.741783
10.796785
10.653734
11.250973
11.432767
11.918545
12.395978
12.368560
12.069941
11.822581
12.058616
11.702776
11.952519
11.411905
11.841655
11.734962
11.429787
11.576414
11.558533
11.689663
11.664629
11.495948
11.645555
11.843443
11.106730
11.258721
11.610985
##ZVALUE=300
0.422597
0.482798
0.495911
0.591874
0.564456
0.612736
0.593662
0.549555
0.487566
0.580549
0.522733
0.649691
0.620484
0.702739
0.816584
0.821948
0.709891
0.835657
0.680685
0.728965
0.721812
0.854731
0.826716
1.002550
0.822544
1.060963
1.056790
1.328588
1.403689
1.655817
2.016425
2.452731
11.140704
38.761497
136.183500
264.562964
547.932982
820.614696
1015.674472
1015.674472
1015.674472
1015.674472
1015.674472
1015.602946
698.554516
456.632972
231.460929
123.431683
44.698715
21.305680
19.244552
26.664734
43.005943
59.552789
83.572865
103.415847
126.044750
130.917430
131.327510
122.657418
100.636482
83.106756
59.949756
44.219494
26.857853
18.841624
13.366938
10.437965
10.244846
9.891987
10.351539
10.851622
10.888577
11.622906
11.806488
11.392832
11.523962
11.550784
11.484623
11.811852
11.999607
11.816621
11.950731
11.980534
11.837482
11.897683
11.858940
11.743903
11.874437
11.582971
11.583567
11.415482
11.227727
11.389852
11.330843
11.184812
##ZVALUE=305
0.527501
0.525713
0.417829
0.446439
0.526905
0.705719
0.658631
0.492930
0.513792
0.646710
0.654459
0.620484
0.522733
0.687838
0.606775
0.622869
0.667572
0.799894
0.703931
0.754595
0.886917
0.917912
0.907779
0.937581
0.843406
0.955462
1.085997
1.018643
1.086593
1.269579
1.412630
1.585484
1.678467
2.119541
4.634857
31.679869
85.333586
233.715773
413.972735
749.782920
1006.062627
1015.674472
1015.674472
1015.674472
1015.674472
1015.674472
961.177945
603.159666
364.247561
155.346990
73.536634
25.610924
15.716553
18.921494
26.784539
42.072535
58.812499
81.503987
100.077987
116.689801
126.483440
123.601556
114.145875
97.441673
80.457926
57.304502
41.886568
26.337504
19.204617
13.783574
12.396574
11.847615
11.596680
12.014508
11.698604
12.069941
11.986494
12.215972
11.886954
11.964440
11.939406
12.084842
12.412667
11.994839
11.909604
12.320876
12.511611
12.378693
12.323856
11.886954
11.917949
11.714697
11.708736
11.827946
11.394620
11.643767
##ZVALUE=310
0.376701
0.383854
0.286698
0.266433
0.332594
0.496507
0.434518
0.304580
0.455976
0.312924
0.264645
0.460744
0.408888
0.467896
0.505447
0.497699
0.547767
0.623465
0.425577
0.608563
0.388622
0.734925
0.558496
0.605583
0.702739
0.844598
0.931621
0.858903
0.960827
1.035929
1.103878
1.209974
1.101494
1.490712
1.598597
2.036691
2.714396
10.080934
54.412484
124.057531
299.754739
522.808433
928.411484
1015.546918
1015.546918
1015.546918
1015.546918
1015.546918
1015.546918
917.267799
522.440672
302.746892
120.710731
52.030683
18.021464
12.981892
16.630888
23.008585
36.267638
49.952865
71.254969
89.743733
107.563734
117.083788
118.341446
112.295747
94.188452
78.983903
56.310892
41.379929
27.565956
20.585656
15.073419
14.214516
12.493730
11.931658
11.620522
12.069941
11.873841
11.803508
12.072921
12.158751
11.791587
12.078881
11.965632
12.348890
12.038946
11.954904
12.178421
12.447834
12.161732
12.105703
11.811852
12.237430
11.581779
11.280775
##ZVALUE=315
0.374913
0.490546
0.465512
0.310540
0.605583
0.528693
0.521541
0.588894
0.560880
0.382662
0.436902
0.513792
0.663996
0.451803
0.474453
0.508428
0.553727
0.649691
0.609756
0.637770
0.556707
0.607967
0.803471
0.798702
0.768900
0.785589
0.991821
1.027584
0.883937
1.056790
1.255870
0.967979
1.315475
1.151562
1.479983
1.380444
1.754761
2.048612
2.137423
6.534457
27.690530
110.430717
232.703686
511.296988
832.860470
1015.681624
1015.681624
1015.681624
1015.681624
1015.681624
1015.681624
1015.681624
744.499564
393.680930
208.466649
74.718595
30.588508
12.791753
12.407899
15.783906
21.406412
34.759641
48.380494
68.059564
83.678961
103.538632
111.662745
113.583803
106.113553
90.124607
75.521469
57.482719
43.543577
29.441714
21.054745
16.058683
13.649464
12.095571
12.231469
11.981726
11.885762
12.034774
11.727810
12.459755
12.327433
12.474656
12.653470
12.294650
12.488961
12.042522
12.395978
12.350678
12.177825
11.944771
11.699796
11.741519
##ZVALUE=320
0.499487
0.448823
0.357628
0.338554
0.460744
0.366569
0.411868
0.484586
0.404716
0.470877
0.545979
0.502467
0.529885
0.512600
0.635982
0.645518
0.661612
0.587702
0.528693
0.641942
0.512600
0.517964
0.582933
0.734925
0.557899
0.740886
0.769496
0.905991
0.849962
0.922680
1.106858
1.105666
1.074672
1.197457
1.385808
1.302958
1.411438
1.446605
1.704693
1.732707
2.022982
3.323555
14.489889
78.813434
179.485679
413.590670
670.337677
1015.674472
1015.674472
1015.674472
1015.674472
1015.674472
1015.674472
1015.674472
933.900476
490.558743
270.482898
107.122660
49.261451
17.422438
11.311769
11.551976
13.504624
20.413995
28.890967
46.553612
60.887933
80.145001
95.025897
105.623603
108.501911
101.819634
89.786649
70.866942
57.101846
41.342974
29.901862
20.742416
16.751885
13.069510
12.382865
12.322664
12.158751
12.332797
12.107491
12.090802
12.024641
12.417436
12.460947
12.598634
11.877418
12.283921
11.895895
12.243986
11.944771
11.863708
##ZVALUE=325
0.417829
0.581741
0.420809
0.380874
0.481606
0.441670
0.438690
0.482798
0.462532
0.488758
0.540614
0.585914
0.515580
0.568628
0.485778
0.521541
0.503659
0.421405
0.487566
0.627637
0.535846
0.596642
0.736713
0.842810
0.595450
0.742674
0.778437
0.654459
0.869632
0.963807
0.963807
0.784993
1.016855
1.122952
0.963807
1.130700
1.254678
1.196861
1.427531
1.361966
1.482964
1.743436
1.896620
2.258420
6.391406
26.312470
103.105903
215.005875
483.930707
803.411603
1015.708447
1015.708447
1015.708447
1015.708447
1015.708447
1015.708447
998.051763
691.965818
351.935625
187.418461
67.494512
28.526783
11.362433
10.151863
10.886788
13.106465
20.194650
28.533936
45.734644
60.916543
79.934597
91.947913
100.459456
102.395415
94.782710
86.271763
68.165660
53.453445
37.062764
27.568936
18.917918
16.069412
13.358593
12.807846
12.467504
12.150407
12.170672
12.493730
12.108684
11.854768
12.096763
11.999607
11.772513
11.968613
11.695623
11.173487
##ZVALUE=330
0.360608
0.355840
0.499487
0.325441
0.428557
0.428557
0.517964
0.500679
0.562668
0.502467
0.416636
0.451803
0.603795
0.506639
0.456572
0.499487
0.519753
0.517964
0.496507
0.543594
0.468493
0.632405
0.613928
0.627637
0.708699
0.617504
0.648499
0.709891
0.664592
0.820756
0.820756
0.759959
0.905991
0.808835
1.020432
0.908971
1.100898
1.226664
1.171827
1.105666
1.323819
1.358986
1.493692
1.637936
2.031922
2.186894
3.671646
22.507906
68.053603
204.515457
375.342965
722.228885
1011.717916
1015.681028
1015.681028
1015.681028
1015.681028
1015.681028
1015.681028
829.240680
517.225862
238.375664
123.774409
43.358803
16.645789
9.788871
9.751916
11.256933
13.479590
20.336509
28.026700
42.293668
55.699944
74.135661
85.357428
95.882416
95.633864
88.643432
78.655481
62.838793
49.639940
34.425855
27.231574
20.230412
16.650558
13.452768
12.367964
12.289882
12.101531
11.949539
11.584759
11.577606
11.553764
11.409521
11.474490
11.517406
##ZVALUE=335
0.205636
0.326633
0.511408
0.351667
0.194907
0.570416
0.392795
0.301600
0.312924
0.330806
0.382662
0.397563
0.370741
0.376701
0.465512
0.527501
0.415444
0.611544
0.337958
0.555515
0.612736
0.542998
0.469685
0.712872
0.445843
0.425577
0.527501
0.568628
0.559688
0.803471
0.761747
0.584722
0.804663
0.730753
0.726581
0.626445
0.687838
0.910759
0.972748
0.937581
1.051426
1.185536
1.253486
1.257658
1.400709
1.638532
1.842976
2.000928
2.403855
8.762479
37.535429
145.986676
293.824673
603.608489
919.405818
1015.674472
1015.674472
1015.674472
1015.674472
1015.674472
1015.674472
942.723751
622.587800
314.317942
158.900619
51.145554
21.140575
10.654926
9.456873
9.692907
10.601878
13.711452
18.484592
28.682947
38.970709
55.121779
67.655444
80.499649
87.274909
89.484453
84.354877
72.856545
61.726570
47.997832
37.992597
26.581883
20.423532
15.641451
13.575554
12.033582
11.495948
11.071563
10.852814
11.014938
10.756850
10.990500
##ZVALUE=340
0.308752
0.218749
0.343919
0.450611
0.321865
0.457764
0.377893
0.404716
0.403523
0.261664
0.429749
0.331998
0.278950
0.452995
0.434518
0.360608
0.446439
0.411868
0.388622
0.326633
0.469685
0.554919
0.426769
0.418425
0.536442
0.421405
0.594854
0.662804
0.583529
0.636578
0.655651
0.640750
0.747442
0.674725
0.597835
0.837445
0.712872
0.850558
0.680685
0.854731
0.975728
0.847578
1.084805
1.078844
1.220703
1.268983
1.360774
1.561642
1.831651
1.805425
2.043843
3.568530
12.693405
67.096949
163.994431
408.692956
691.993833
1015.674472
1015.674472
1015.674472
1015.674472
1015.674472
1015.674472
1015.675068
773.324966
378.371477
201.950669
77.926517
30.738711
11.679530
9.733438
9.778738
9.978414
10.985732
13.186932
19.305944
26.338696
38.140416
50.260425
65.799952
75.954795
83.773732
83.547831
79.343915
71.621537
58.460832
47.369599
34.582615
27.059913
19.533634
15.449524
12.537837
11.403561
11.182427
10.710955
10.508895
##ZVALUE=345
0.375509
0.348687
0.222921
0.231862
0.146627
0.275970
0.387430
0.299811
0.425577
0.434518
0.219941
0.303984
0.373721
0.340939
0.434518
0.363588
0.354648
0.466704
0.349879
0.532866
0.527501
0.345707
0.575781
0.401735
0.515580
0.435710
0.506639
0.508428
0.558496
0.446439
0.460744
0.595450
0.490546
0.457764
0.708699
0.680685
0.558496
0.630617
0.579953
0.818968
0.743866
0.821948
0.767708
0.993609
0.822544
0.894666
1.126528
1.192689
1.146793
1.329780
1.412630
1.594424
1.925826
2.275705
5.162954
34.350753
98.297596
263.296962
476.365685
874.142647
1015.674472
1015.674472
1015.674472
1015.674472
1015.674472
1015.674472
929.374695
524.718761
284.058452
103.748441
44.194460
16.134977
10.336637
9.987950
9.430647
9.560585
10.069609
12.683868
16.519427
25.138855
34.481883
48.819780
58.811903
70.101619
75.063705
77.938437
74.844956
66.102743
57.498813
45.227408
35.108924
25.437474
19.440651
14.514923
12.567639
10.882616
##ZVALUE=350
0.412464
0.401735
0.326633
0.286698
0.317693
0.337958
0.485778
0.412464
0.349879
0.392795
0.538826
0.442863
0.460744
0.388622
0.429749
0.461936
0.534654
0.332594
0.448823
0.435710
0.415444
0.388622
0.539422
0.348687
0.520945
0.435710
0.477433
0.663996
0.503659
0.616908
0.528693
0.553727
0.549555
0.402927
0.529885
0.435710
0.422597
0.723600
0.664592
0.662804
0.705719
0.787973
0.856519
0.903606
0.875592
0.976920
0.845790
0.934601
1.107454
1.120567
1.360774
1.498461
1.550913
1.614690
1.875758
2.274513
3.092885
16.352534
55.287480
179.988742
350.337029
719.031692
1011.298895
1015.674472
1015.674472
1015.674472
1015.674472
1015.674472
1015.675068
673.766732
398.270488
174.297690
76.489449
20.773411
11.181831
9.013414
8.932948
8.613467
8.780956
9.709597
11.737943
16.127825
21.792650
31.311512
40.710568
52.802563
61.160922
68.211555
71.406960
68.503618
63.719749
52.647591
43.992996
33.385754
25.768876
18.658638
##ZVALUE=355
0.382662
0.349879
0.392795
0.367761
0.404716
0.308752
0.282526
0.302792
0.440478
0.510812
0.412464
0.485778
0.431538
0.512600
0.373721
0.390410
0.517964
0.389814
0.374913
0.376701
0.465512
0.463724
0.616908
0.504851
0.594854
0.495911
0.541806
0.460744
0.487566
0.657439
0.502467
0.582933
0.726581
0.590682
0.672936
0.615716
0.582933
0.550747
0.451803
0.651479
0.660419
0.715852
0.604987
0.841618
0.789762
0.831485
0.770688
1.011491
1.084805
1.024604
1.152754
1.368523
1.274943
1.443624
1.219511
1.488924
1.835823
2.129674
2.351999
7.552505
27.083755
107.913017
230.599642
499.109626
798.788667
1015.674472
1015.674472
1015.674472
1015.674472
1015.674472
1015.674472
769.282579
474.778414
205.089450
95.936656
32.081604
13.267994
8.822680
8.291602
7.954836
8.085966
8.342862
8.624792
10.564923
13.056993
19.322634
26.029944
36.408901
44.794679
54.792762
60.895681
64.314604
63.219666
57.185888
50.100684
40.158629
##ZVALUE=360
0.193715
0.404716
0.316501
0.460744
0.417829
0.323653
0.291467
0.396967
0.495911
0.371933
0.361800
0.425577
0.471473
0.323653
0.459552
0.439882
0.518560
0.502467
0.344515
0.472665
0.525713
0.309944
0.491738
0.373721
0.487566
0.536442
0.531673
0.454783
0.426769
0.457764
0.498891
0.520945
0.598431
0.393987
0.495911
0.626445
0.489950
0.400543
0.631809
0.594854
0.384450
0.644922
0.746846
0.729561
0.782609
0.843406
0.834465
0.894666
0.834465
0.873804
0.907779
0.959635
1.131892
1.136661
1.170635
1.333952
1.416802
1.430511
1.630783
1.894832
2.073646
3.797412
12.876987
63.113570
156.343579
382.396579
629.770756
984.176993
1015.633941
1015.633941
1015.633941
1015.633941
1015.633941
947.016478
625.425577
294.111967
148.264766
50.448775
19.088984
8.560419
7.824898
7.376671
7.689595
7.271767
7.463694
7.829666
9.221435
11.674762
14.922619
21.638870
29.168725
39.777756
46.932697
55.150986
57.770610
57.968497
##ZVALUE=365
0.373721
0.279546
0.331998
0.229478
0.388622
0.337958
0.364780
0.411868
0.382662
0.360608
0.437498
0.518560
0.449419
0.280738
0.366569
0.413656
0.385642
0.349879
0.361800
0.360608
0.469685
0.547767
0.626445
0.611544
0.594854
0.454783
0.629425
0.465512
0.645518
0.478625
0.602603
0.494719
0.487566
0.416636
0.493526
0.539422
0.510812
0.631809
0.653863
0.661612
0.632405
0.639558
0.657439
0.714660
0.580549
0.636578
0.788569
0.729561
0.893474
0.832677
0.788569
0.931621
1.086593
1.202822
1.129508
1.308918
1.170635
1.304746
1.430511
1.553893
1.593828
1.975894
2.160668
2.707839
5.468726
31.938553
92.449784
259.370804
473.842621
864.039660
1015.674472
1015.674472
1015.674472
1015.674472
1015.674472
1015.674472
770.342946
417.170525
223.290920
77.406764
29.748678
9.806752
7.632971
7.367730
7.105470
6.869435
6.853938
6.559491
7.037520
7.911921
9.426475
13.456941
18.115640
25.159717
32.143593
41.013956
##ZVALUE=370
0.198483
0.307560
0.433922
0.318885
0.294447
0.436902
0.363588
0.391603
0.298619
0.416636
0.328422
0.311732
0.368953
0.419617
0.294447
0.282526
0.431538
0.424981
0.340939
0.440478
0.391603
0.390410
0.484586
0.309944
0.515580
0.447631
0.437498
0.507832
0.388622
0.536442
0.441670
0.428557
0.670552
0.432730
0.548959
0.590682
0.551939
0.501871
0.597835
0.570416
0.669956
0.582933
0.524521
0.689626
0.670552
0.616908
0.628829
0.723600
0.538826
0.718832
0.816584
0.933409
0.848770
0.981688
0.981688
0.854731
0.945926
1.047850
1.048446
1.252890
1.252890
1.477599
1.640916
1.709461
1.833439
2.396703
3.472567
21.542907
72.202682
223.049521
407.144427
759.388804
1015.674472
1015.674472
1015.674472
1015.674472
1015.674472
1015.674472
909.458995
497.115850
271.900892
101.517439
45.776963
15.132427
7.828474
6.800890
6.443858
6.169677
6.248951
6.119609
6.022453
6.096959
6.925464
8.554459
11.159778
16.291738
##ZVALUE=375
0.348687
0.286698
0.382662
0.255704
0.276566
0.327826
0.371933
0.381470
0.146627
0.233650
0.308752
0.263453
0.371933
0.365973
0.389814
0.355840
0.272989
0.502467
0.373721
0.375509
0.291467
0.393987
0.301600
0.241995
0.346899
0.228882
0.294447
0.283718
0.460744
0.375509
0.384450
0.289679
0.478625
0.395775
0.474453
0.459552
0.595450
0.488758
0.445843
0.368953
0.539422
0.544786
0.453591
0.469685
0.570416
0.496507
0.638962
0.508428
0.621676
0.642538
0.679493
0.763535
0.606775
0.804663
0.731945
0.810623
0.902414
0.815988
0.896454
1.046658
1.033545
1.067519
1.363754
1.262426
1.320839
1.618862
1.786947
2.166629
2.653003
9.509921
37.332773
132.805705
280.238390
600.327849
912.219882
1015.674472
1015.674472
1015.674472
1015.674472
1015.674472
1012.745500
644.490719
392.977595
176.329613
84.417462
25.102496
10.587573
6.578565
6.428957
6.077886
5.974770
5.876422
5.813837
5.515814
5.826950
6.198883
##ZVALUE=380
0.305772
0.415444
0.391603
0.388622
0.304580
0.235438
0.350475
0.311732
0.391603
0.279546
0.298619
0.356436
0.330806
0.290871
0.336766
0.189543
0.284910
0.456572
0.366569
0.296831
0.351667
0.294447
0.416636
0.371933
0.462532
0.423789
0.212789
0.476837
0.488758
0.415444
0.384450
0.375509
0.404716
0.359416
0.294447
0.434518
0.500679
0.337958
0.505447
0.564456
0.426769
0.527501
0.487566
0.513792
0.475645
0.373721
0.398755
0.493526
0.593662
0.609756
0.566840
0.692606
0.501871
0.591874
0.544786
0.609756
0.811815
0.657439
0.621676
0.569820
0.980496
0.972748
0.948906
1.043677
1.103878
1.250505
1.316667
1.553893
1.633763
2.213717
2.387762
4.521608
17.166734
88.241696
206.294656
495.826006
818.539858
1015.674472
1015.674472
1015.674472
1015.674472
1015.674472
1015.674472
934.163928
618.104935
294.688940
145.265460
48.069954
17.712712
7.380843
5.987883
5.816817
5.570650
5.529523
5.248785
5.585551
##ZVALUE=385
0.272989
0.364780
0.225902
0.330806
0.250936
0.245571
0.204444
0.143647
0.216961
0.265837
0.208616
0.218749
0.207424
0.258684
0.388622
0.292659
0.356436
0.422597
0.247955
0.263453
0.352859
0.286698
0.318885
0.318885
0.266433
0.324845
0.317693
0.280738
0.369549
0.308752
0.431538
0.249743
0.544786
0.293851
0.384450
0.328422
0.336766
0.336766
0.293851
0.553727
0.325441
0.310540
0.590682
0.454783
0.410676
0.385642
0.376701
0.502467
0.544786
0.538826
0.530481
0.663996
0.665784
0.509620
0.573993
0.697970
0.708699
0.660419
0.572801
0.640750
0.660419
0.826716
0.845790
0.936985
0.932813
0.994802
1.266599
1.272559
1.455545
1.658797
1.880527
2.159476
2.154708
2.689958
7.950664
51.135421
138.250589
354.089737
619.604588
1015.672684
1015.672684
1015.672684
1015.672684
1015.672684
1015.672684
1001.204848
707.947016
372.142792
205.216408
81.685781
31.749606
8.733869
5.723834
5.197525
5.197525
4.766583
##ZVALUE=390
0.266433
0.230670
0.264645
0.217557
0.236630
0.272989
0.094771
0.341535
0.282526
0.218749
0.222921
0.314713
0.241995
0.125766
0.268817
0.229478
0.330806
0.211596
0.199676
0.296831
0.305772
0.344515
0.255704
0.204444
0.299811
0.365973
0.278950
0.349879
0.318885
0.355840
0.128746
0.342727
0.370741
0.384450
0.252724
0.463724
0.408888
0.459552
0.525713
0.611544
0.468493
0.349879
0.414848
0.347495
0.286698
0.547767
0.466704
0.560880
0.284910
0.526905
0.328422
0.457764
0.531673
0.541806
0.545979
0.573993
0.714660
0.723600
0.768900
0.713468
0.617504
0.802875
0.722408
0.906587
0.863671
0.928640
0.896454
1.180768
1.393557
1.779795
1.698732
1.794696
2.037883
1.982450
2.126694
2.278686
4.017949
24.560690
83.414912
261.870623
506.602526
967.469811
1015.666723
1015.666723
1015.666723
1015.666723
1015.666723
1015.666723
994.591713
594.594479
326.043963
124.985576
52.428842
13.464689
6.636977
5.338788
##ZVALUE=395
0.357628
0.285506
0.264645
0.252724
0.317693
0.292659
0.116825
0.254512
0.406504
0.258684
0.182986
0.167489
0.420809
0.205636
0.129938
0.355840
0.176430
0.256896
0.270605
0.385642
0.307560
0.292659
0.362992
0.397563
0.257492
0.540614
0.453591
0.263453
0.274777
0.217557
0.355840
0.285506
0.309944
0.386834
0.189543
0.224710
0.402927
0.359416
0.437498
0.339746
0.237823
0.508428
0.524521
0.466704
0.522733
0.542998
0.657439
0.616908
0.573993
0.442863
0.540614
0.463724
0.547767
0.593662
0.665784
0.686646
0.633597
0.778437
0.703931
0.882745
0.659823
0.750422
0.787973
0.789762
0.831485
0.972748
1.114607
1.367927
1.575947
1.511574
1.576543
1.585484
1.812577
1.730919
1.699924
2.012849
2.152920
2.330542
2.772808
14.309883
55.991411
203.212500
404.648781
790.900588
1015.673876
1015.673876
1015.673876
1015.673876
1015.673876
1015.673876
1015.673876
794.444680
481.537580
207.036734
90.380907
26.340485
##ZVALUE=400
0.205636
0.379682
0.190735
0.272989
0.343919
0.290871
0.441670
0.236630
0.294447
0.335574
0.466704
0.302792
0.267625
0.255704
0.280738
0.332594
0.277758
0.140667
0.185966
0.353456
0.204444
0.423789
0.261664
0.380874
0.264645
0.244975
0.348687
0.350475
0.351667
0.398755
0.289679
0.460744
0.412464
0.437498
0.415444
0.467896
0.463724
0.507832
0.404716
0.550747
0.451803
0.449419
0.513792
0.470877
0.325441
0.409484
0.554919
0.635982
0.466704
0.570416
0.563860
0.616908
0.690818
0.543594
0.518560
0.705719
0.804663
0.648499
0.620484
0.748634
0.669956
0.758767
0.842810
0.928640
0.998974
1.085997
1.105666
1.191497
1.274943
1.518726
1.522899
1.821518
1.756549
1.556873
1.508594
1.663566
1.768470
1.835823
1.957417
2.372861
2.782941
7.881522
36.563873
148.821473
307.822824
648.774505
977.448821
1015.715599
1015.715599
1015.715599
1015.715599
1015.715599
1015.715599
995.079875
656.859875
305.931568
##END
