##TITLE=QP00602
##FORMAT=SPECTACLE-ASCII V-1.2
##DATA TYPE=ULTRAVIOLET SPECTRUM
##SECOND TYPE=ULTRAVIOLET SPECTRUM
##DATE=01/09/18
##TIME=15:56:02
##SPECTROMETER/DATA SYSTEM=SPECTACLE
##XUNITS=NM EM
##YUNITS=ENERGY
##YFACTOR=1
##FIRSTX=220
##LASTX=410
##NPOINTS=96
##3DDATA=Equidistant
##ZUNITS=NM EX
##FIRSTZ=210
##LASTZ=400
##ZPOINTS=39
##XYDATA=(Y..Y)
##ZVALUE=210
2.381802
2.292991
1.795888
2.010465
2.306700
2.156496
2.454519
2.613664
2.612472
2.391934
2.713799
2.435446
2.289414
2.130866
2.182722
2.593994
2.977848
3.091693
3.818870
3.540516
4.222989
3.497601
3.992915
4.203916
4.314780
4.846454
4.429817
5.334616
4.471540
5.573630
6.073713
4.935861
5.928874
7.307529
6.001592
6.262660
7.036924
7.295609
6.989837
6.529689
6.818771
8.085966
7.637739
8.281469
8.111596
8.314848
8.695722
7.523894
8.649826
9.698868
8.850694
10.200739
9.937882
9.238720
9.667873
10.695457
10.592937
10.557771
10.952950
10.592937
10.760427
10.095835
11.455417
11.168718
11.474490
12.583733
13.073683
15.835762
18.435717
21.819472
25.096536
31.035542
34.044981
39.898753
39.186478
43.479800
42.823553
44.869781
43.380857
41.858554
39.536953
35.819411
32.582879
26.567578
23.698807
19.142628
15.767813
13.381839
12.424588
11.348724
10.964870
11.803508
11.898875
11.800528
11.015534
13.506413
##ZVALUE=215
5.579591
7.392764
6.654859
5.607605
5.358458
4.674792
4.697442
4.781485
4.084706
5.236864
4.574656
4.542470
3.684759
3.989935
3.708601
3.280640
2.795458
3.190637
4.053712
3.771782
3.697872
4.290938
3.935695
4.759431
5.126595
5.409718
5.986691
5.666614
6.294847
5.708933
6.742477
6.847978
6.471872
6.581545
7.770658
6.621480
6.803870
8.041859
8.352995
8.790493
8.275509
8.169413
7.760525
8.597970
9.544492
9.710789
9.284616
10.120869
10.075569
10.017753
10.977983
10.750890
11.172891
11.431575
10.625720
9.836555
10.889769
11.367798
11.228919
11.923909
12.351871
11.477470
13.426542
11.654496
12.743473
13.452768
13.970733
15.923977
18.080473
19.393563
25.289655
28.543472
32.459497
36.427975
38.091540
41.810870
43.948889
43.530464
40.961504
40.464997
37.449598
33.153892
32.765865
23.701787
23.382902
19.894838
16.831756
15.067458
12.791753
12.586713
12.605786
13.248920
12.107491
13.057590
11.952519
13.691783
##ZVALUE=220
21.013618
22.994876
26.368499
25.810599
27.110577
20.217896
16.716719
12.798905
11.579990
11.345744
12.294650
12.630820
12.115836
11.669993
9.213686
8.183718
6.255507
5.690455
4.198551
4.203916
4.436970
4.503727
4.845858
5.574822
5.616546
5.911589
5.265474
5.816817
6.808639
6.738901
6.493926
6.565452
7.454753
7.164478
8.109808
6.671548
7.774830
8.398890
8.370876
8.833408
9.434819
8.953810
8.875728
8.943677
9.212494
9.803772
10.662675
10.135770
10.139942
10.830760
10.498762
11.411905
11.287928
12.463927
11.812449
12.131929
11.633635
13.563633
12.502670
12.078881
13.514757
12.295842
11.732578
13.289452
13.745427
14.687777
12.934804
15.631914
17.686486
20.292997
24.026632
27.663708
31.769872
34.190416
38.786530
37.836432
37.218928
39.284825
40.537715
37.227869
36.337972
32.707453
30.809641
28.736591
25.527477
18.673539
17.413497
15.229583
16.102791
14.597774
13.423562
13.050437
12.203455
12.805462
12.996793
13.009906
##ZVALUE=225
35.098791
39.906502
52.429438
67.289472
75.275898
77.803731
72.098970
57.617426
45.966506
36.786795
28.093457
23.939610
25.183558
25.617480
26.451945
26.626587
21.081567
17.771721
11.801720
9.086728
7.665753
5.846620
4.657507
4.706979
5.092621
5.464554
5.992651
6.416440
7.581711
6.509423
6.745458
7.534623
7.847548
8.478761
8.512735
8.622408
8.995533
8.532405
8.691549
9.321570
7.806420
9.965897
10.217428
9.172559
8.829832
10.443926
10.715723
11.101961
10.135770
12.071729
10.763407
10.848641
12.330413
11.397600
14.275908
12.757778
13.230443
12.279749
12.495518
13.744831
13.861656
13.563633
13.874769
13.457537
15.334487
14.820695
15.025735
15.198588
18.715858
19.465685
21.887422
27.201772
26.838779
31.454563
31.900406
34.771562
32.486916
30.648708
31.424761
27.953982
25.943518
23.953915
22.755861
19.545555
18.064976
20.398498
17.976761
16.993880
15.309453
14.753938
15.173554
16.656518
14.872551
15.140772
14.289618
15.975833
##ZVALUE=230
34.228563
38.884878
62.345862
104.337931
142.219663
181.726813
201.340914
206.572413
191.342831
159.437656
109.827518
79.878569
53.389668
46.300888
46.897531
49.914718
53.191781
52.514672
48.484802
37.992597
28.464794
19.435883
14.254451
7.874966
7.995963
5.717874
6.331801
5.874634
6.466508
7.823706
7.183552
7.792711
7.990599
8.252859
9.114742
8.710623
9.470582
9.201765
10.150671
10.725856
9.730458
10.096431
9.103417
10.856986
10.873675
9.692907
10.027885
10.420680
11.169910
11.327863
11.345744
11.975765
12.590885
13.442636
11.981726
12.756586
12.837648
13.885498
15.282631
14.456511
15.558600
15.539527
16.987920
16.936660
15.907884
17.625690
19.187927
20.750761
21.547675
25.127530
26.500821
31.057000
32.747984
36.915541
37.496686
38.383603
36.963820
38.623810
36.386847
34.132600
33.315420
31.897426
28.273463
25.938749
26.329756
24.127960
24.668574
22.281408
22.715926
21.293759
23.119450
22.655725
22.637844
22.296906
22.962689
22.128820
##ZVALUE=235
11.516809
13.217926
34.083724
87.262988
145.722628
247.762799
324.090719
423.452854
470.201969
490.066409
430.397987
343.427658
234.075785
165.917873
107.409954
84.935427
75.938702
80.538988
85.920691
89.152455
79.461932
64.749718
53.012967
39.313436
26.396513
16.763806
12.532473
7.847548
8.486509
7.352829
7.510781
8.710623
9.969473
8.987784
9.384751
9.966493
8.670688
8.899570
9.728670
9.502769
10.717511
10.662675
10.306835
10.558963
11.825562
10.722876
10.685921
11.233687
11.001825
11.169910
11.354685
13.525486
12.656450
13.370514
14.394522
14.515519
15.547872
15.351772
15.600920
15.565753
16.562939
17.521977
17.892718
17.584562
20.295978
20.698905
20.622611
21.641850
25.812984
28.370619
30.500889
33.705831
35.281777
37.798882
40.161610
41.547418
44.150949
42.543411
39.424896
39.881468
39.256811
36.818981
35.335422
33.179522
33.228993
33.500791
31.503439
30.594468
30.466914
30.674934
29.583573
28.062463
30.159950
29.072762
27.851462
29.235482
##ZVALUE=240
2.570748
2.133846
4.363656
16.843677
37.260652
89.045763
151.894689
271.587968
379.337668
493.508577
543.787479
554.931760
502.929688
401.004553
321.322680
236.349702
151.683688
112.901926
99.476576
104.246736
111.815929
122.156739
116.738677
104.790926
81.202984
66.810846
48.980713
29.997826
20.307899
14.657974
9.020567
6.810427
6.776452
6.743670
7.034540
6.965995
8.368492
8.582473
8.171797
8.886456
7.786751
8.059740
8.862615
8.898973
7.949471
8.843541
10.145903
8.986592
10.750890
10.254979
10.838509
10.653734
11.608601
12.255907
12.641549
12.036562
13.977885
13.387799
13.637543
16.022921
17.370582
17.188787
16.656518
18.881559
21.266937
20.083785
22.617579
25.377870
25.581717
29.052496
30.053854
33.796430
36.565661
40.482879
42.925477
41.032434
41.636825
41.602850
43.111444
41.067600
43.432713
38.729906
39.753914
37.865639
37.383437
35.305619
37.804842
34.709573
35.256743
33.190846
34.872890
34.194589
32.087564
35.225749
34.071803
35.057664
##ZVALUE=245
1.124740
1.297593
1.339912
1.607537
2.887845
12.827516
33.388734
90.293884
163.807869
304.934978
428.291559
590.677857
676.415563
709.216595
681.824684
569.579005
460.382700
312.029719
217.526555
130.803585
106.442571
102.892518
117.496848
131.492615
135.798454
127.671957
112.983584
96.394420
68.600774
52.802563
33.299923
21.620989
14.302731
9.302497
8.395910
7.088780
6.374717
7.109642
7.038713
8.042455
7.933974
7.879734
8.512735
8.551478
7.971525
8.455515
8.803606
9.384751
9.178519
9.008646
10.159612
11.069775
10.026693
9.854436
11.663437
11.670589
11.952519
12.441874
12.805462
13.553500
12.325644
14.816523
15.295744
16.102791
18.706918
19.280910
19.226670
22.463799
22.473931
25.102496
27.384758
31.319857
33.289790
36.937594
38.203597
39.766431
39.732456
39.017797
42.134523
39.628744
38.453937
38.779974
37.542582
36.893487
35.926700
35.293698
37.748814
36.030412
35.294890
35.844445
34.864545
35.095811
34.092665
35.634637
34.183860
34.892559
##ZVALUE=250
1.200438
1.181960
1.179576
1.179576
1.112819
1.740456
2.193451
7.049441
29.382706
65.923929
170.604587
279.516578
423.538685
625.968575
758.137703
858.745575
862.061977
775.174499
650.251508
444.756746
305.007696
193.635821
116.423965
102.318525
107.179880
122.727752
136.403441
141.531825
136.895776
125.834942
100.961924
81.009865
59.501529
34.690499
24.184585
12.372732
9.639859
6.787777
7.054806
6.829500
7.396936
8.284450
7.593632
7.770658
7.168651
7.793903
8.459687
8.083582
8.353591
9.209514
8.728504
10.117888
9.292960
9.945631
10.107756
10.591745
11.142492
10.965466
11.857748
12.052655
13.328791
12.363791
13.297796
13.269782
15.891790
15.851855
17.813444
19.174814
21.258593
23.714900
25.026798
26.839972
28.572679
33.239722
32.092929
34.220815
36.013722
36.965609
34.901500
35.394430
34.274459
34.507513
34.208894
33.788681
35.106540
32.091737
32.614470
32.207966
32.765865
34.902692
32.823682
33.094883
32.758713
33.181906
34.277439
32.002926
##ZVALUE=255
1.049638
1.020432
1.094937
1.257658
1.083612
1.279712
1.285672
1.460910
1.939535
3.290772
16.921759
47.363639
127.223730
223.816633
397.066474
555.488467
772.971511
889.429450
958.985686
913.657546
809.733868
598.814487
435.366631
245.716572
153.655410
95.764995
92.154741
111.332536
126.419663
143.412948
150.756836
145.434737
131.691694
105.629563
83.934665
56.425929
39.837956
21.544695
14.649630
9.412766
7.178783
7.231832
6.919503
8.214712
7.357597
7.478595
7.515550
8.281469
7.698536
8.166432
7.910728
8.571744
8.884668
9.734631
9.160638
9.225607
9.180903
10.380745
10.696650
11.188984
10.895729
12.284517
12.447834
13.010502
14.028549
14.040470
14.635921
16.757846
18.085837
19.884706
19.842982
22.803545
25.644898
28.197765
28.880835
29.670000
29.070973
29.007792
30.070543
29.629469
28.576851
29.866695
29.862523
28.080940
28.943419
30.040741
29.652715
29.252768
30.391812
28.933883
30.618906
28.941631
28.854609
29.671788
30.139685
29.862523
##ZVALUE=260
0.805855
0.782609
1.070499
0.872612
0.989437
0.861883
1.004934
1.178980
1.529455
1.410842
1.702905
2.511740
7.274747
32.200813
75.758696
187.738538
313.598514
534.852743
715.394020
938.030481
1015.622020
1015.622020
943.408608
783.782005
532.000661
366.437435
210.974813
133.975744
85.800886
86.096525
103.030801
131.863952
146.587491
157.840848
152.830482
136.056542
112.989545
84.090829
62.040687
37.415624
25.512576
15.008450
10.521412
8.075833
7.686615
6.738901
7.364750
7.441640
8.216500
7.984638
8.283854
8.772612
8.419752
8.749962
8.486509
9.054542
9.666681
9.873509
9.781718
10.226965
10.829568
10.813475
11.007786
11.247993
12.758970
13.953447
13.860464
15.157461
16.694665
16.935468
19.200444
21.363497
20.740628
25.643706
25.485754
26.595592
25.609732
26.301742
26.557446
26.951432
26.555657
26.680827
26.762486
25.896430
28.435588
26.864409
26.898980
26.572943
27.915835
26.776791
28.041601
27.520657
27.553439
26.872754
28.182864
28.382540
##ZVALUE=265
0.884533
0.748634
0.861883
0.816584
1.093745
1.115799
1.124740
1.004934
1.274943
1.081824
1.224875
1.310706
1.556873
1.840591
5.255938
30.144453
76.088905
187.954903
320.350528
582.400560
791.924000
990.530849
1015.674472
1015.674472
1015.674472
955.652595
711.209774
494.569540
270.235538
161.581635
101.989508
74.721575
81.889629
114.226937
135.714412
156.419873
162.434578
153.480768
139.648914
111.180544
88.472962
58.545470
40.716529
23.672581
16.115904
11.101961
9.325743
8.993745
8.630753
8.929968
8.265972
8.951426
9.244680
9.299517
9.824634
9.544492
9.767413
10.371804
10.235906
10.225773
10.931492
12.233853
11.292696
12.771487
12.033582
12.867451
13.855696
14.273524
15.634894
17.181635
18.638968
19.183755
22.942424
22.858977
24.289489
24.009943
24.825931
24.377704
25.445819
25.383830
25.307536
24.734735
25.000572
24.459958
25.094748
25.552511
25.855899
25.966763
26.564598
26.363730
25.822520
27.068853
26.395917
25.882721
27.278662
27.392507
##ZVALUE=270
0.924468
1.021624
1.076460
0.857711
0.995994
0.951886
1.148582
1.159906
1.105666
1.148582
1.213551
1.452565
1.581907
1.565814
1.666546
1.752973
2.897978
14.994740
58.385730
202.397704
380.157828
617.707968
974.036455
1015.676856
1015.676856
1015.676856
1015.676856
1015.676856
917.904377
683.791637
468.120575
246.979594
141.049623
71.956515
65.346956
87.857842
111.529827
141.443610
153.428912
161.896944
160.232782
140.856504
118.142962
86.388588
63.876510
39.096475
27.826428
17.097592
13.051629
9.855628
9.640455
10.114908
9.859800
9.735823
10.342598
10.310411
10.170937
11.200905
10.600686
11.517406
11.153817
11.989474
12.019873
12.397766
13.192892
13.812780
14.652610
15.643835
15.903711
17.175674
18.672943
20.163655
20.878911
22.434592
23.888946
23.291707
24.022460
24.089813
24.702549
24.135709
24.390817
24.759769
23.176670
24.828911
25.347471
24.276972
24.829507
25.511980
26.095510
25.613904
25.002956
25.838614
25.888681
25.666952
24.962425
25.143623
##ZVALUE=275
0.957847
0.776649
0.656843
0.747442
1.041889
0.944734
0.926852
0.897646
0.968575
1.123548
1.112819
1.291633
1.299977
1.404881
1.355410
1.644492
1.760721
1.915693
2.100468
5.564690
22.957921
81.337690
296.581984
568.074584
989.157557
1015.682817
1015.682817
1015.682817
1015.682817
1015.682817
1015.682817
898.274779
627.071857
336.932540
193.361640
88.949800
60.963631
65.580606
82.688928
113.230944
136.836767
154.463649
161.113739
153.973699
140.286684
110.619664
90.689659
61.814785
45.066476
28.408766
20.086765
14.043450
11.929870
10.905862
10.720491
11.236668
11.159778
11.473894
12.058616
12.422800
12.647510
13.237000
13.476610
13.253689
13.211966
14.364719
14.736652
16.052723
16.960502
18.535852
19.430518
20.800829
22.109747
23.239851
23.945570
23.535490
24.329424
24.957657
24.322867
24.659634
24.376512
24.338961
24.851561
23.349524
23.166537
24.540424
24.372935
24.342537
24.318695
24.043918
24.037957
24.704933
23.436546
24.145842
24.223924
25.044680
##ZVALUE=280
0.810623
0.775456
0.920892
0.848770
0.879765
0.889897
0.738502
0.953674
0.994802
0.967979
0.971556
1.026988
1.280904
1.143813
1.320839
1.331568
1.766682
1.997948
1.923442
1.908541
2.301931
3.248453
11.210442
56.515932
161.675811
474.876761
814.656019
1015.674472
1015.674472
1015.674472
1015.674472
1015.674472
1015.674472
1015.674472
792.032480
434.535742
256.634951
112.382770
62.542558
47.584772
59.602857
87.117553
109.591484
135.658979
152.443647
157.758594
152.740479
132.564902
116.222501
87.443590
66.708922
43.355823
30.096769
19.473433
15.099645
13.030767
11.606812
12.354851
12.308955
13.155937
12.922883
13.409853
14.066696
14.175773
14.045835
15.003681
15.471578
16.607642
17.187595
17.985702
19.027591
20.691752
22.067428
22.106767
23.772717
23.665428
24.350882
24.189949
23.895502
24.139881
23.289919
24.029613
24.151802
23.884773
23.394823
24.114847
23.443699
23.889542
24.208426
23.564696
23.462772
23.527741
24.642944
23.528934
23.616552
23.979545
##ZVALUE=285
0.842810
0.775456
0.876784
0.823736
0.976920
0.860691
0.982881
0.946522
0.990629
1.011491
0.902414
1.050830
1.275539
1.110435
1.329780
1.502633
1.613498
1.600981
1.642704
1.809597
2.137423
2.229810
2.526641
2.949834
7.762909
27.409792
97.208023
217.549801
557.229519
961.914659
1015.728712
1015.728712
1015.728712
1015.728712
1015.728712
1015.728712
1015.728712
677.594543
388.920903
172.517896
88.987947
42.893887
40.377975
58.842897
78.298450
110.488534
129.329562
147.084594
153.403878
149.915814
136.776567
113.427639
91.848969
65.383911
46.494603
29.586554
21.681786
16.352534
14.347434
13.753772
13.888478
13.973713
14.764667
14.872551
15.067458
15.500784
16.075969
17.287731
18.008947
19.045472
20.018816
20.866990
21.789670
23.342967
23.611784
24.518967
23.901463
24.511814
23.561716
23.674965
23.484826
23.424625
23.865700
23.605824
24.042726
23.565888
24.592876
23.155808
23.962855
23.473501
23.592710
23.616552
23.454428
23.417473
23.687482
22.521615
##ZVALUE=290
0.599623
0.691414
0.809431
0.800490
0.605583
0.750422
0.865459
0.676513
0.824928
0.785589
0.743866
0.763535
0.803471
1.042485
0.919700
0.844598
1.052618
1.177788
1.348853
1.292825
1.194477
1.594424
1.655817
1.634955
2.017617
2.629757
3.448725
10.669827
55.779815
144.604445
293.788910
643.168688
975.527763
1015.674472
1015.674472
1015.674472
1015.674472
1015.674472
1015.674472
806.008577
514.457822
249.015689
130.532980
50.656796
31.643510
37.925839
51.535964
74.509978
95.451474
123.326778
137.153864
147.460699
147.244930
133.486986
113.066435
86.573958
65.031648
45.260787
32.595992
22.000670
17.773509
14.986992
14.079809
14.583468
14.629960
14.660954
15.214682
16.563535
16.801953
18.563867
18.329620
19.563437
20.574927
21.220446
22.088885
22.024512
22.809505
22.756457
22.133589
22.210479
21.983981
23.139715
22.765994
22.471547
22.967458
23.341775
23.132563
21.899939
22.369623
23.128986
22.582412
22.493601
22.460818
22.109747
22.253990
22.836924
##ZVALUE=295
0.458956
0.595450
0.520945
0.491738
0.506639
0.536442
0.635982
0.703931
0.715852
0.785589
0.715852
0.867844
0.628829
0.632405
0.611544
0.733733
0.944734
0.851750
0.932813
1.039505
1.001954
1.102686
1.034737
1.310706
1.294613
1.523495
1.747608
1.834631
2.380610
4.595518
25.806427
74.726939
175.078511
421.521664
678.212643
1015.674472
1015.674472
1015.674472
1015.674472
1015.674472
1015.674472
982.903838
687.264800
348.548889
189.733505
68.030953
32.647848
24.838448
31.345487
48.668981
67.884922
94.168782
112.954974
133.013725
142.315626
139.177442
126.908422
106.088519
87.429881
61.493516
47.027469
30.569434
22.636652
17.877817
15.314817
14.873743
15.191436
16.006827
15.992522
17.615557
18.407702
19.161701
20.358562
20.592809
21.341443
21.630526
22.644997
22.139549
22.121668
22.370815
22.466779
22.440553
22.993684
22.581816
22.536516
22.813678
23.050904
23.076534
23.177862
23.097992
23.121834
22.113919
22.593737
22.113919
22.813678
22.203922
##ZVALUE=300
0.560880
0.488758
0.556707
0.420809
0.717640
0.655651
0.485778
0.602603
0.598431
0.597835
0.633597
0.668764
0.805855
0.689626
0.637770
0.711679
0.721812
0.817776
0.823736
0.805855
0.906587
0.972748
1.023412
0.792742
1.275539
1.197457
1.319647
1.418591
1.528859
1.767874
2.108812
2.454519
13.261437
49.798489
168.304443
324.058533
650.160909
965.300798
1015.674472
1015.674472
1015.674472
1015.674472
1015.674472
1015.674472
878.241658
571.000576
276.702642
140.137672
48.889518
23.189783
21.609664
28.974414
44.232607
60.880780
85.793734
106.222630
126.225948
135.000944
133.077502
124.919415
105.571747
87.004900
64.475536
48.477650
32.719970
24.527907
18.720627
17.053485
16.145706
17.625690
18.673539
18.843412
19.475818
20.236969
20.973682
21.178722
21.101832
21.617413
22.357702
22.546649
22.771955
22.809505
22.797585
23.165941
22.494793
23.035407
22.922754
22.846460
22.640824
22.798777
22.759438
22.048950
22.774935
22.145510
21.263957
21.852851
##ZVALUE=305
0.530481
0.617504
0.448823
0.542998
0.546575
0.672936
0.569820
0.573993
0.552535
0.599623
0.576973
0.681877
0.675917
0.743866
0.626445
0.771880
0.737906
0.827909
0.937581
0.858903
0.760555
0.807643
1.000762
0.927448
1.032948
1.139641
1.133680
1.189709
1.451969
1.385808
1.724958
1.835823
1.960993
2.369881
4.813671
37.675500
108.021498
298.990607
524.170995
937.145948
1015.684009
1015.684009
1015.684009
1015.684009
1015.684009
1015.684009
1015.683413
683.466792
417.061448
177.407861
84.631443
27.772784
17.022491
19.861460
27.001500
43.569803
59.051514
83.161592
100.492835
119.484663
126.759410
126.640797
118.138790
101.443529
83.539486
60.877800
46.599507
32.643676
26.183724
20.674467
19.240975
19.229650
20.020604
20.796657
21.105409
21.059513
21.733642
22.122860
21.889806
22.624731
22.568703
22.728443
22.983551
22.836924
23.163557
23.241639
23.360848
23.619533
23.603439
22.737980
22.702813
23.050904
22.873878
22.311807
21.775961
21.437407
##ZVALUE=310
0.547767
0.427961
0.607967
0.505447
0.603795
0.487566
0.696778
0.628829
0.656843
0.659823
0.538826
0.608563
0.627637
0.726581
0.616908
0.722408
0.799894
0.712872
0.555515
0.765920
0.705719
0.762939
0.754595
0.887513
0.979900
0.941753
1.018643
1.120567
1.158714
1.333952
1.373887
1.636744
1.646876
1.767874
1.995564
2.243519
3.093481
10.930896
70.063472
172.643661
424.425602
710.221529
1015.674472
1015.674472
1015.674472
1015.674472
1015.674472
1015.674472
1015.674472
976.438522
567.591786
335.991979
139.813423
61.412454
19.935966
14.295578
18.380880
24.835467
38.043857
51.936507
74.315667
92.365742
110.336542
119.601488
121.257901
115.920901
101.045966
85.568428
63.244700
47.806501
34.857988
28.424859
23.430586
21.642447
21.330714
21.363497
21.104813
21.024942
21.633506
21.746755
22.467971
23.251772
22.995472
23.547411
23.896694
24.160743
23.748875
23.661852
23.635626
23.596883
23.023486
23.222566
22.658706
22.613406
22.278428
22.654533
##ZVALUE=315
0.765920
0.528693
0.503659
0.604987
0.672936
0.528693
0.592470
0.486970
0.469685
0.540614
0.632405
0.456572
0.649691
0.462532
0.498891
0.785589
0.584722
0.605583
0.842810
0.746846
0.739694
0.845790
0.845790
0.733733
0.880957
0.784993
0.803471
1.051426
1.116991
1.060963
1.205802
1.361966
1.330972
1.522899
1.584888
1.686811
1.937747
2.211928
2.670884
5.795956
24.152994
113.786459
262.781978
599.522591
956.346989
1015.674472
1015.674472
1015.674472
1015.674472
1015.674472
1015.674472
1015.674472
863.194466
452.134609
242.855549
84.624887
33.860803
14.270544
13.562441
17.636418
23.743510
37.748814
50.514936
71.299672
87.918639
106.877685
114.962459
117.077827
111.397505
96.091628
82.876682
63.290000
50.395727
36.736727
29.532909
24.773479
22.603869
22.053719
21.585822
22.209883
22.325516
22.845864
23.154616
23.288727
23.315549
23.581982
23.552775
23.930669
24.253726
23.689866
23.552775
23.505688
23.684502
22.719502
23.202896
22.868514
##ZVALUE=320
0.482798
0.564456
0.537634
0.624657
0.480413
0.623465
0.368953
0.416636
0.415444
0.558496
0.578761
0.561476
0.436902
0.507832
0.513792
0.466704
0.687838
0.562668
0.550747
0.656843
0.720620
0.835657
0.844598
0.865459
0.705719
0.718832
0.707507
0.695586
0.805855
0.795722
1.125932
1.237988
1.141429
1.236796
1.410842
1.393557
1.524687
1.547933
1.825690
2.070665
2.373457
3.279448
10.029674
56.639910
151.551962
409.237742
692.140460
1015.674472
1015.674472
1015.674472
1015.674472
1015.674472
1015.674472
1015.674472
1015.674472
623.165965
361.201763
151.159763
68.075657
19.982457
12.863874
13.705492
16.500950
22.872686
32.720566
49.384832
64.672828
83.271861
99.623799
110.501647
114.540458
109.163523
98.866820
79.453588
64.397454
47.980547
37.571788
29.152632
25.707483
24.029613
22.794604
22.695661
23.242831
23.227930
23.508668
23.897886
24.284720
23.841858
23.594499
23.896694
23.583770
23.772717
22.540689
23.092628
23.548603
23.189783
##ZVALUE=325
0.366569
0.361800
0.333786
0.508428
0.405908
0.524521
0.358820
0.498891
0.509620
0.414848
0.571609
0.523925
0.495911
0.514984
0.566840
0.597835
0.428557
0.555515
0.541806
0.577569
0.708699
0.702739
0.689626
0.654459
0.567436
0.730753
0.819564
0.880957
0.850558
0.885725
0.776649
0.924468
0.941753
1.030564
1.059771
1.198649
1.459718
1.431704
1.418591
1.532435
1.590848
1.985431
2.211928
2.684593
5.996823
45.889616
121.775866
307.750702
542.913675
977.305770
1015.674472
1015.674472
1015.674472
1015.674472
1015.674472
1015.674472
1015.674472
721.722841
427.532792
177.849531
80.627799
26.134849
13.673902
12.175441
13.363957
17.499924
22.292733
33.596754
46.082735
66.167712
81.533790
96.293688
105.957985
108.767748
102.794766
89.388490
76.845884
59.203506
48.003793
36.146641
30.096769
25.765896
23.756623
23.467541
22.990704
23.134947
23.312569
23.527741
23.401976
22.995472
22.743940
22.846460
22.682548
23.070574
22.845864
22.389889
##ZVALUE=330
0.361800
0.332594
0.369549
0.548959
0.643730
0.590682
0.538826
0.511408
0.431538
0.521541
0.327826
0.591874
0.410676
0.699759
0.461936
0.285506
0.509620
0.549555
0.707507
0.624657
0.609756
0.623465
0.578761
0.757575
0.535846
0.620484
0.735521
0.689626
0.635982
0.779629
1.018643
0.884533
0.771880
1.045465
1.021624
0.908971
1.222491
1.241565
1.105666
1.310706
1.543760
1.713634
1.747608
1.986623
2.091527
2.619624
3.513694
17.780662
66.298842
235.213041
452.563763
905.261636
1015.674472
1015.674472
1015.674472
1015.674472
1015.674472
1015.674472
1015.675068
960.579515
633.288026
304.493904
154.316425
52.266717
21.367669
12.291670
12.568831
14.298558
16.735792
24.296641
32.495856
47.088861
60.795546
80.755949
92.955828
102.687478
103.161931
97.405910
88.049769
71.455836
59.481859
44.064522
37.250519
30.540824
27.076602
24.462938
23.822784
23.313761
22.794604
22.893548
22.970438
22.076964
22.461414
22.213459
22.346973
22.437572
##ZVALUE=335
0.527501
0.435710
0.400543
0.526905
0.457764
0.463724
0.457764
0.365973
0.440478
0.479817
0.428557
0.396967
0.463724
0.462532
0.630617
0.486970
0.620484
0.720620
0.549555
0.533462
0.361800
0.507832
0.496507
0.493526
0.578761
0.536442
0.742674
0.589490
0.762939
0.747442
0.683665
0.785589
0.651479
0.948906
1.016855
0.903606
1.056790
0.955462
1.127720
1.341701
1.237988
1.155734
1.388788
1.601577
1.825690
2.178550
2.203584
2.435446
2.783537
7.811785
31.961799
147.937536
331.022739
765.683651
1015.672684
1015.672684
1015.672684
1015.672684
1015.672684
1015.672684
1015.672684
1015.672684
763.698816
408.383608
218.129754
75.739622
31.060576
13.945699
13.120770
13.836622
15.220642
18.598437
23.604631
34.523606
45.099854
62.161684
74.648857
88.827610
95.617771
97.980499
93.107820
81.044436
70.626736
57.820678
47.875643
37.185550
31.002760
26.352406
24.072528
22.169948
22.003651
22.136569
22.031665
21.352768
21.662712
21.862984
##ZVALUE=340
0.405908
0.466704
0.478625
0.484586
0.442863
0.271797
0.540614
0.521541
0.577569
0.489950
0.505447
0.312924
0.352859
0.392795
0.395775
0.419617
0.417829
0.450611
0.387430
0.563860
0.521541
0.626445
0.441670
0.464916
0.545979
0.583529
0.563860
0.570416
0.596642
0.642538
0.769496
0.763535
0.783801
0.739694
0.820756
0.968575
1.004934
0.838637
0.882745
0.873804
1.008511
1.007915
1.176596
1.218915
1.391768
1.464486
1.625419
1.915693
2.108812
2.321601
2.583861
4.123449
15.436411
82.547665
212.710500
549.618602
922.407508
1015.673876
1015.673876
1015.673876
1015.673876
1015.673876
1015.673876
1015.673876
885.137916
454.725623
254.752636
104.904771
42.002797
15.655756
13.493896
13.582706
14.593601
16.157627
18.504858
24.573803
31.596422
44.551492
56.591630
73.143840
83.191991
90.616941
92.033744
86.524487
80.448985
67.390800
56.997538
44.253469
36.762953
29.266477
25.535822
22.663474
21.775961
20.689964
20.570755
20.753741
##ZVALUE=345
0.381470
0.302792
0.350475
0.443459
0.363588
0.479817
0.331998
0.413656
0.591874
0.510812
0.353456
0.393987
0.361800
0.443459
0.567436
0.521541
0.359416
0.472665
0.420809
0.633597
0.559688
0.557899
0.496507
0.573993
0.548959
0.461936
0.482798
0.579953
0.613928
0.674725
0.605583
0.692606
0.823736
0.927448
0.663996
0.687838
0.948906
0.779629
1.001954
0.812411
0.942945
1.007915
1.110435
0.972748
1.122952
1.188517
1.338720
1.395941
1.468658
1.807809
1.834631
1.918674
2.290606
2.691746
5.755424
42.038560
123.640895
339.438915
624.345541
1015.675664
1015.675664
1015.675664
1015.675664
1015.675664
1015.675664
1015.675664
1015.675664
612.958670
347.144604
141.996741
61.261654
20.921826
14.451742
13.518929
13.630986
14.295578
14.875531
17.445683
21.582842
30.991435
40.306449
54.855943
65.361857
76.041818
82.749724
85.269809
83.009601
75.178742
66.326857
54.146647
44.453740
34.223795
29.173493
24.027824
21.904707
20.378828
##ZVALUE=350
0.405908
0.483990
0.438690
0.365973
0.325441
0.506639
0.371933
0.427961
0.404716
0.506639
0.475645
0.519753
0.344515
0.647902
0.498891
0.549555
0.408888
0.336766
0.530481
0.538826
0.547767
0.400543
0.323653
0.455976
0.570416
0.553727
0.655651
0.607967
0.664592
0.716448
0.629425
0.634789
0.709891
0.648499
0.595450
0.696778
0.734925
0.740886
0.716448
0.801682
0.875592
0.929832
1.033545
0.998974
1.051426
0.921488
1.017451
1.032948
1.182556
1.487732
1.552701
1.456738
1.788735
2.032518
2.160668
2.380610
3.589988
18.729568
66.114664
228.557587
457.145572
952.404737
1015.678644
1015.678644
1015.678644
1015.678644
1015.678644
1015.678644
1015.678644
697.697997
417.391658
187.647939
86.516738
26.600957
14.476776
13.018847
12.666583
12.667775
13.129711
14.714599
16.770959
21.723509
27.243495
36.699772
46.290755
59.063435
67.403913
75.836778
78.864694
76.462626
71.362853
60.402751
51.483512
40.048957
33.214688
27.061701
##ZVALUE=355
0.379682
0.386834
0.356436
0.314713
0.504851
0.569820
0.458956
0.566840
0.342727
0.648499
0.594854
0.499487
0.405908
0.279546
0.382662
0.401735
0.545979
0.538826
0.427961
0.486970
0.474453
0.523925
0.546575
0.568628
0.546575
0.569820
0.605583
0.474453
0.716448
0.663996
0.623465
0.612736
0.708699
0.712872
0.686646
0.831485
0.607967
0.673532
0.933409
0.709891
0.851750
0.782609
0.879765
0.905991
0.939965
1.005530
1.104474
1.168847
1.154542
1.322627
1.395941
1.425743
1.530647
1.759529
1.699924
2.282858
2.190471
2.435446
2.941489
9.531975
37.444830
149.865746
315.465927
682.451725
1015.674472
1015.674472
1015.674472
1015.674472
1015.674472
1015.674472
1015.675068
982.779860
615.384579
254.162550
115.087628
34.317970
16.326904
12.229681
12.108684
12.172461
12.457967
12.889504
14.016628
15.931726
19.214749
24.990439
31.614900
42.326450
50.530434
61.582923
68.137646
71.038604
69.926977
64.154863
57.463646
48.147440
##ZVALUE=360
0.348687
0.493526
0.351667
0.567436
0.661612
0.543594
0.407696
0.543594
0.528693
0.559688
0.423789
0.511408
0.472665
0.467896
0.483990
0.506639
0.512600
0.573993
0.567436
0.676513
0.439882
0.582933
0.650883
0.618696
0.490546
0.602603
0.581741
0.708699
0.646710
0.790954
0.783801
0.822544
0.728965
0.723600
0.779629
0.679493
0.558496
0.983477
0.864863
0.901818
0.832677
0.881553
0.922680
0.914931
1.007915
0.992417
1.008511
1.176596
1.028776
1.076460
1.201630
1.211762
1.366735
1.484752
1.666546
1.687407
1.755953
1.820922
2.199411
2.466440
2.927780
4.623532
14.974475
71.983933
177.475810
459.106565
779.883862
1015.674472
1015.674472
1015.674472
1015.674472
1015.674472
1015.674472
1015.674472
840.250850
392.287970
196.164846
67.130923
26.114583
11.986494
11.420846
11.389852
11.420846
11.571646
11.638999
12.217760
13.818741
16.958714
20.486712
27.572513
34.073591
45.019984
52.403808
60.236454
63.765645
64.873695
##ZVALUE=365
0.450611
0.467896
0.429749
0.527501
0.426769
0.555515
0.389814
0.495911
0.415444
0.475645
0.385642
0.603795
0.664592
0.588894
0.475645
0.567436
0.458956
0.546575
0.590682
0.456572
0.499487
0.502467
0.613928
0.615716
0.513792
0.602603
0.537634
0.736713
0.569820
0.635982
0.530481
0.674725
0.681877
0.806451
0.656843
0.752807
0.849962
0.935793
0.758767
0.703931
0.755787
0.838637
0.736713
0.918508
0.941753
0.822544
1.055598
1.064539
1.297593
1.015663
1.233816
1.440644
1.284480
1.446605
1.399517
1.378655
1.699924
1.600981
1.703501
2.067685
2.176762
2.555847
2.757907
3.359914
6.226897
36.311746
106.253624
296.311975
546.817780
977.177620
1015.674472
1015.674472
1015.674472
1015.674472
1015.674472
1015.675068
1015.674472
599.500537
312.536955
105.573535
39.509535
13.350844
10.773540
10.664463
10.381937
10.543466
10.649562
10.564923
10.874867
12.050867
13.608932
17.796755
22.105575
29.932857
37.064552
46.495795
##ZVALUE=370
0.387430
0.449419
0.386834
0.482798
0.552535
0.445843
0.446439
0.333786
0.438690
0.471473
0.489950
0.518560
0.432730
0.400543
0.425577
0.504851
0.476837
0.420809
0.393987
0.392795
0.499487
0.496507
0.542998
0.508428
0.570416
0.429749
0.596642
0.461936
0.477433
0.528693
0.612736
0.736713
0.625849
0.487566
0.645518
0.650883
0.718832
0.722408
0.861883
0.704527
0.809431
0.783801
0.828505
0.786781
0.790954
0.800490
0.772476
0.779629
0.858903
0.977516
1.018643
1.059771
1.129508
1.161695
1.187921
1.032948
1.184940
1.300573
1.250505
1.484752
1.613498
1.672506
2.142787
2.176762
2.518892
2.855659
3.910661
18.798709
65.127611
213.938951
403.908491
784.420967
1015.674472
1015.674472
1015.674472
1015.674472
1015.674472
1015.674472
1015.675068
821.178555
446.660519
159.221888
65.602660
19.866824
10.969639
9.923577
9.430647
9.290576
9.336472
9.509921
9.599924
10.258555
10.897517
12.585521
15.535951
20.845532
##ZVALUE=375
0.384450
0.328422
0.265837
0.489950
0.384450
0.457764
0.436902
0.424981
0.348687
0.467896
0.601411
0.489950
0.533462
0.453591
0.527501
0.401735
0.480413
0.440478
0.445843
0.419617
0.452995
0.283718
0.449419
0.401735
0.386834
0.338554
0.400543
0.389814
0.367761
0.609756
0.647902
0.544786
0.503659
0.607967
0.597835
0.564456
0.645518
0.613928
0.518560
0.693798
0.492930
0.559688
0.673532
0.677705
0.712872
0.701547
0.603795
0.723600
0.674725
0.769496
0.842810
0.894666
0.784993
0.922680
0.962615
1.051426
1.050830
1.068711
1.288652
1.098514
1.303554
1.376867
1.504421
1.695752
1.636744
1.875758
2.016425
2.576709
3.222823
10.811687
41.668415
154.556632
324.897766
703.333616
1013.515592
1015.673876
1015.673876
1015.673876
1015.673876
1015.673876
1015.673876
994.699597
666.417480
310.041904
151.116848
43.751597
15.396476
9.179711
8.718967
8.639693
8.570552
8.510947
8.750558
8.889437
9.121895
9.711981
##ZVALUE=380
0.327826
0.320673
0.279546
0.297427
0.288486
0.263453
0.221729
0.212789
0.270605
0.324845
0.323653
0.223517
0.322461
0.305772
0.299811
0.261664
0.411868
0.391603
0.226498
0.448823
0.271797
0.303984
0.408888
0.490546
0.434518
0.475645
0.242591
0.316501
0.310540
0.250936
0.384450
0.359416
0.252724
0.420809
0.379682
0.507832
0.450611
0.368953
0.520945
0.522733
0.675917
0.539422
0.516772
0.465512
0.492930
0.455976
0.658631
0.550747
0.537634
0.502467
0.563860
0.716448
0.587702
0.820756
0.749826
0.728965
0.870824
0.752807
0.951886
1.023412
1.105666
1.165867
1.155734
1.271963
1.186728
1.409650
1.549721
1.817942
1.993775
2.324581
2.883673
5.264878
21.469593
108.393431
255.153775
591.176748
948.222876
1015.622020
1015.622020
1015.622020
1015.622020
1015.622020
1015.622020
1015.622020
866.888762
438.452959
223.114491
70.863962
26.175976
9.950995
8.036494
7.734895
7.965565
7.780790
7.803440
7.902980
##ZVALUE=385
0.312924
0.325441
0.311732
0.299811
0.288486
0.304580
0.361800
0.321865
0.372529
0.203848
0.283718
0.463724
0.236630
0.310540
0.315905
0.446439
0.382662
0.361800
0.279546
0.476837
0.435710
0.388622
0.286698
0.270605
0.307560
0.375509
0.303984
0.328422
0.400543
0.265837
0.277758
0.411868
0.384450
0.596642
0.520945
0.469685
0.331998
0.426769
0.382662
0.609756
0.452995
0.507832
0.459552
0.584722
0.623465
0.573993
0.649691
0.542998
0.513792
0.731945
0.682473
0.697970
0.766516
0.624657
0.738502
0.793934
0.790954
0.765920
0.874996
0.971556
0.987649
1.048446
1.013875
1.058578
1.056790
1.192689
1.445413
1.396537
1.458526
1.881719
2.165437
2.517700
2.660751
3.275871
9.260774
56.698918
157.293677
411.096811
724.979639
1015.674472
1015.674472
1015.674472
1015.674472
1015.674472
1015.674472
1015.674472
1012.586951
610.881448
356.809497
144.496560
53.472519
12.267828
7.780790
7.059574
7.347465
7.054806
##ZVALUE=390
0.297427
0.255704
0.162721
0.379682
0.128746
0.214577
0.084639
0.088811
0.220537
0.324845
0.342727
0.227690
0.294447
0.281930
0.404716
0.349879
0.399947
0.425577
0.375509
0.553727
0.311732
0.357628
0.405908
0.207424
0.500679
0.351667
0.409484
0.296831
0.423789
0.303984
0.366569
0.348687
0.406504
0.279546
0.458956
0.462532
0.405908
0.475645
0.494719
0.412464
0.574589
0.529885
0.632405
0.387430
0.361800
0.629425
0.730753
0.671744
0.469685
0.432730
0.591874
0.523925
0.592470
0.598431
0.593662
0.705719
0.686646
0.664592
0.835657
0.849962
0.735521
0.754595
0.930429
0.946522
0.903606
1.054406
1.182556
1.444817
1.515746
1.811981
1.925826
1.866817
2.144575
2.341866
2.417564
2.676845
4.820824
29.968619
98.568797
312.545896
594.816804
1015.674472
1015.674472
1015.674472
1015.674472
1015.674472
1015.674472
1015.674472
1015.674472
764.579773
456.060767
194.895864
86.913705
21.918416
8.937716
7.092953
##ZVALUE=395
0.304580
0.287890
0.264645
0.216961
0.216961
0.322461
0.339746
0.254512
0.199676
0.270605
0.373721
0.386834
0.331998
0.408888
0.301600
0.264645
0.368953
0.179410
0.338554
0.274777
0.455976
0.345707
0.254512
0.292659
0.340939
0.257492
0.348687
0.393987
0.317693
0.330806
0.375509
0.493526
0.582933
0.400543
0.228882
0.373721
0.257492
0.426769
0.376701
0.494719
0.495911
0.521541
0.552535
0.469685
0.582933
0.541806
0.717640
0.473857
0.442863
0.578761
0.543594
0.557899
0.575781
0.488758
0.666976
0.600815
0.563860
0.754595
0.693798
0.825524
0.750422
0.762939
0.810623
0.917912
0.977516
0.982881
1.202822
1.349449
1.411438
1.651645
1.647472
1.829863
1.990795
1.980662
2.049804
1.954436
2.103448
2.495646
3.907681
16.720891
98.160505
229.104757
517.587662
848.752856
1015.674472
1015.674472
1015.674472
1015.674472
1015.674472
1015.674472
1015.674472
982.517004
540.326834
291.862488
103.354454
42.089820
##ZVALUE=400
0.321865
0.248551
0.129938
0.333786
0.216961
0.393987
0.295639
0.378489
0.362992
0.275970
0.275970
0.354648
0.248551
0.226498
0.434518
0.432730
0.426769
0.128746
0.380874
0.312924
0.396967
0.207424
0.294447
0.252724
0.308752
0.318885
0.197887
0.292659
0.268817
0.361800
0.514984
0.356436
0.356436
0.470877
0.435710
0.363588
0.405908
0.408888
0.477433
0.461936
0.346899
0.448823
0.416636
0.522733
0.291467
0.403523
0.540614
0.486970
0.523925
0.648499
0.527501
0.395775
0.600815
0.621676
0.631809
0.586510
0.620484
0.819564
0.730753
0.782609
0.664592
0.746846
0.847578
0.873804
0.942945
1.045465
1.096725
1.394749
1.284480
1.426935
1.658797
1.643896
1.750588
1.799464
1.615882
1.892447
1.806617
1.895428
2.197623
2.385974
3.005862
6.661415
46.439767
138.060451
393.795967
697.513819
1015.674472
1015.674472
1015.674472
1015.674472
1015.674472
1015.674472
1015.674472
1015.674472
615.963936
369.797945
##END
