##TITLE=QP0065
##FORMAT=SPECTACLE-ASCII V-1.2
##DATA TYPE=ULTRAVIOLET SPECTRUM
##SECOND TYPE=ULTRAVIOLET SPECTRUM
##DATE=01/09/18
##TIME=16:53:08
##SPECTROMETER/DATA SYSTEM=SPECTACLE
##XUNITS=NM EM
##YUNITS=ENERGY
##YFACTOR=1
##FIRSTX=220
##LASTX=410
##NPOINTS=96
##3DDATA=Equidistant
##ZUNITS=NM EX
##FIRSTZ=210
##LASTZ=400
##ZPOINTS=39
##XYDATA=(Y..Y)
##ZVALUE=210
1.966953
1.522899
2.220869
2.059937
2.473593
2.429485
2.317429
2.436638
2.316833
2.419949
1.530647
1.890659
2.164841
2.033710
2.028942
2.174973
1.898408
2.461672
2.490878
2.393723
3.029704
2.181530
3.004670
3.470778
3.430843
2.793670
3.454685
3.698468
3.747940
3.383756
3.645420
3.761649
3.620982
4.160404
3.880858
4.140735
3.980994
4.370809
4.284978
4.226565
4.239678
4.657507
5.031824
5.027652
3.967881
6.219745
5.786419
4.656911
5.599856
5.342960
4.484653
5.064607
4.917979
5.132556
5.603433
5.374551
5.340576
5.425811
5.456805
6.022453
6.567836
5.198717
5.279779
5.273819
5.851984
5.367994
5.994439
6.126761
6.653666
7.807612
10.179877
11.621714
13.761520
15.587807
17.074943
19.487739
19.167662
19.730926
19.209981
16.567707
17.902851
16.762614
15.124679
11.924505
9.956956
8.366704
7.382631
6.380677
5.186796
6.079674
6.317496
6.137490
5.746484
6.011724
6.232858
5.894899
##ZVALUE=215
5.647540
5.115867
4.912615
4.937649
4.393458
4.104972
4.246831
4.383922
5.092621
4.578829
4.867911
4.760623
4.064441
3.610849
2.455711
3.141761
2.425909
2.476573
2.710819
2.928972
2.707839
2.782941
2.973676
3.671646
3.357530
3.329515
3.665686
3.768802
4.044771
3.728867
4.087687
4.458427
4.017949
3.952980
4.149675
3.593564
4.551411
4.719496
5.301833
4.634857
4.836917
5.326867
5.564690
5.269647
5.012751
5.436540
5.266666
4.280806
5.091429
5.595684
4.974604
4.753470
5.502701
6.992817
5.310774
5.523562
5.408525
6.192923
5.879998
5.702972
5.620718
5.640984
4.985929
5.096793
6.059408
6.371737
5.972981
6.938577
7.771850
8.331537
11.275411
11.442900
14.382601
14.728904
18.580556
18.553734
20.165443
20.239949
18.622875
19.403696
18.561482
15.234947
14.017820
13.615489
10.845661
8.021593
7.804632
6.864667
6.187558
5.399585
5.866885
5.689859
6.092787
6.418824
5.779862
5.289912
##ZVALUE=220
17.171502
16.080737
18.220544
18.931627
17.473698
14.546514
12.973547
10.257959
10.529757
9.844899
11.825562
10.975599
11.713505
10.818839
9.216666
7.342696
4.878640
3.200769
2.795458
3.385544
3.001690
3.099442
3.208518
3.006458
4.354715
3.599524
3.529787
4.155636
4.660487
4.319549
4.070997
4.339814
4.808903
5.264878
4.863739
5.158782
4.639626
4.929900
5.433559
5.207658
5.652905
4.832745
5.265474
6.523728
5.770922
5.002618
5.216599
5.503893
4.683733
5.717874
5.938411
6.039739
5.883574
5.784631
5.958676
6.404519
5.813837
5.127788
6.701946
5.772710
6.484985
5.832911
5.364418
6.408691
7.436872
7.279515
6.683469
7.217526
7.446408
8.666515
10.184646
11.436939
13.908744
14.694929
15.383959
15.779734
15.677810
14.413595
13.918877
12.513995
12.546778
11.446476
11.781454
10.218620
9.225607
7.858872
7.553697
6.400943
6.403923
5.848408
6.416440
5.974770
5.283952
5.888939
5.676746
5.881786
##ZVALUE=225
31.017661
30.604601
40.110946
52.317977
57.213902
56.483746
52.306652
43.202639
34.614801
26.743412
22.915602
22.137761
22.890568
27.153492
24.777651
23.028851
19.874573
14.582872
13.253689
7.852912
5.831718
3.927946
3.416538
3.565550
4.527569
3.850460
4.247427
4.542470
4.485846
5.031824
4.743934
5.350709
5.572438
5.908608
5.473495
5.636811
5.335808
5.941987
5.732775
4.610419
6.274581
5.290508
5.859733
5.640984
5.816817
6.405711
5.877614
5.859733
6.063581
5.826950
6.519556
5.894899
6.374717
5.949736
5.851984
6.739497
6.670952
6.460547
7.546544
7.340908
6.807446
7.098913
7.640719
7.284880
7.463694
7.179976
8.863807
9.933710
9.223819
9.419918
11.669993
13.043880
14.787912
14.574528
15.673637
16.021729
15.853643
16.160607
15.038848
14.143586
12.597442
13.124943
11.882782
10.577440
9.754896
8.300543
7.810593
8.319616
8.156896
7.603765
7.158518
6.918907
7.048845
7.119775
7.428527
7.664561
##ZVALUE=230
25.089979
26.988983
43.226480
70.307851
95.736980
117.851496
137.726665
137.007833
128.961802
112.205744
82.063675
61.137676
46.256781
43.300986
44.610500
49.533844
48.087835
51.471591
43.115616
34.866929
26.608706
18.427968
10.855794
7.407665
4.986525
5.173683
4.465580
3.963709
5.379915
5.538464
5.897880
5.556941
5.805492
6.226897
6.134510
6.133914
6.471872
7.215738
6.777644
6.793737
6.801486
6.027818
5.810857
6.368756
5.934834
6.616712
6.716847
6.240606
6.347895
6.811619
5.992651
6.842613
7.806420
7.547736
7.687807
7.211566
7.436872
8.042455
8.351803
6.959438
8.413792
8.235574
8.992553
8.185506
8.471608
9.956956
11.042953
11.560917
11.967421
14.232993
15.770793
16.512871
16.590953
16.761422
19.463897
19.618869
18.776655
17.963648
17.128587
16.213655
15.269518
13.930798
13.374686
13.862848
12.394786
12.882948
10.997653
10.739565
10.658503
10.824800
9.736419
10.065436
10.131598
10.733604
10.138750
10.206699
##ZVALUE=235
8.881688
8.881688
23.103952
47.927499
89.168549
132.274628
194.931626
238.169432
277.399421
275.185704
249.365568
210.306644
156.237483
114.709735
84.633827
68.916678
68.303943
79.022646
85.384846
87.589622
79.194903
67.512989
50.073862
36.903620
23.273826
15.159845
9.345412
7.056594
5.156994
5.741715
4.994869
5.804896
5.790591
5.420446
5.620718
6.125569
5.531907
6.746650
6.052852
6.528497
6.394982
6.261468
6.492734
6.192923
5.939603
6.840825
6.125569
6.539822
6.320477
7.687807
8.368492
7.053614
6.990433
7.260442
7.664561
8.175969
6.732941
8.034706
8.171797
9.094477
9.783506
8.068681
10.084510
9.764433
10.547638
11.367798
11.070967
12.980700
13.896823
14.662743
16.270876
18.660426
19.113421
20.985603
21.302700
19.408464
21.118522
20.741820
21.100640
18.335581
17.993450
18.620491
16.374588
16.370416
15.423894
16.041994
14.215708
13.289452
14.202595
14.278889
14.118552
14.510751
13.045669
12.713671
12.787580
12.925863
##ZVALUE=240
1.482964
1.298785
4.940629
12.128949
31.411648
62.394738
129.825473
197.983980
303.344727
379.421711
435.813665
444.896817
410.920978
333.004594
265.525579
174.766779
131.290555
105.148554
95.949769
102.659464
108.869672
119.639635
114.998817
105.195642
85.079670
65.474510
46.812892
31.978488
18.221736
12.868643
9.009838
6.130934
6.633997
6.057620
6.286502
6.430745
6.606579
6.438494
5.503893
6.040931
6.326437
6.151795
5.726814
6.408691
5.599856
6.487966
6.913543
6.380677
6.613731
7.064939
6.426573
6.700754
6.941557
7.890463
8.343458
8.911490
8.201599
8.657575
8.170605
9.902716
9.868741
10.402799
10.440946
10.155439
10.427833
11.684895
12.421608
14.320612
14.299750
13.988614
17.719865
20.115972
21.854639
22.827983
24.961829
24.295449
24.225712
23.481846
22.030473
22.437572
21.832585
22.112727
19.921660
19.148588
19.799471
18.320680
19.382834
17.635822
18.148422
17.592907
16.721487
16.946793
14.712811
15.214682
16.405582
17.140508
##ZVALUE=245
1.131892
1.123548
1.852512
1.643896
3.491640
9.260774
31.126738
64.774752
144.869685
226.737857
360.338688
450.493693
516.227484
550.060868
534.835458
442.473888
363.933444
249.696970
177.973509
117.904544
96.684694
101.576447
112.983584
129.221678
132.529736
124.173760
111.818910
96.805692
68.926811
50.001740
30.384660
21.152496
12.687445
7.303953
7.191896
5.480647
5.424619
5.971789
5.641580
5.987883
6.278753
5.819798
6.188750
6.362796
5.497932
5.822778
6.504655
5.643964
6.261468
6.700754
6.293654
6.205440
6.831884
7.159710
7.078648
7.367730
7.671714
7.189512
7.194877
8.974671
7.620454
9.154677
8.838773
10.332465
9.872913
10.856986
11.326671
12.052655
13.174415
14.266968
14.563799
16.011000
18.580556
19.409657
21.756887
20.986795
22.701621
20.873547
20.661950
19.098520
18.921494
19.277930
19.924641
18.447638
18.675923
15.881658
17.212629
17.097592
17.386675
17.308593
17.440915
16.947985
17.431974
17.108917
17.685890
17.197728
##ZVALUE=250
1.223683
0.864863
1.335740
1.278520
1.476407
1.598597
1.809597
5.828738
24.881959
54.496527
132.032633
217.589736
322.852731
467.742682
567.562580
640.206933
645.885468
580.009818
485.127568
348.743796
236.129761
158.931613
106.747746
94.245672
106.039643
122.391582
137.133598
141.222477
132.747889
123.596787
103.191733
78.833699
57.016611
34.386516
21.059513
11.465549
6.928444
5.350709
5.406737
5.364418
5.384684
5.673766
5.426407
4.955530
5.639791
5.254745
5.916953
5.453825
4.990697
5.677938
5.689859
5.488992
5.528927
5.593896
5.792975
5.732775
6.079674
6.311536
5.912781
6.671548
6.488562
7.340908
7.249713
7.918477
8.697510
9.044409
8.074641
10.576844
10.226965
11.716485
12.665987
13.832450
14.826655
14.717579
16.596913
17.572641
18.115640
16.671419
17.927885
17.692447
17.449856
16.650558
16.642809
16.397834
16.175508
16.216636
14.789701
16.128421
15.091896
16.629696
16.743541
15.397668
14.846921
16.611814
14.569759
15.984774
##ZVALUE=255
0.894666
1.268983
1.056790
1.165867
1.084805
1.171827
1.248717
1.204610
1.597404
3.409982
14.618635
40.824413
83.365440
187.547803
294.764638
468.290448
592.461824
708.207488
741.993785
718.794465
616.783500
499.025583
317.533016
209.259987
119.707584
92.820525
89.607835
103.916526
128.251910
139.712691
148.983002
146.423578
132.038593
105.916858
84.128976
54.615736
37.628412
20.203590
12.721419
7.200837
5.776882
4.991889
5.465746
4.994869
5.022883
5.368590
5.719662
5.408525
4.745722
5.431771
4.991889
5.005598
5.487800
5.514622
5.341768
5.560517
4.948974
5.437732
5.924702
5.058646
5.867481
6.132722
6.160736
6.294847
7.446408
7.736683
7.913709
8.769631
8.624792
9.412766
10.763407
11.865497
13.161898
13.115406
14.930964
14.738441
15.192628
15.419722
15.148520
13.769865
13.971925
14.000535
13.887882
14.212728
15.124679
13.425946
14.469624
14.571548
15.034676
14.709830
14.191866
13.710856
14.472604
15.086532
14.781952
14.813542
##ZVALUE=260
0.814795
0.867844
0.926852
0.749826
0.864863
1.095533
0.842810
1.025796
1.085997
1.138449
1.509786
2.192855
5.445480
26.632547
59.885979
147.520900
243.961811
413.348675
550.000668
725.519657
806.852579
814.379454
718.146563
597.616434
393.058658
273.085833
161.009431
106.382966
79.727769
83.992481
100.051761
127.667785
145.660639
156.441927
150.922537
131.529570
110.384822
81.999898
59.359670
37.007928
22.683740
12.845993
8.042455
6.052852
6.014705
5.127788
5.206466
5.047917
5.186796
5.109906
4.643798
4.815459
4.969835
5.094409
5.039573
5.268455
5.307794
4.592538
5.662441
4.678965
5.433559
5.275607
6.027818
6.190538
6.450415
6.441474
7.393956
7.629991
7.640719
9.033680
9.808540
11.383891
11.278987
12.872815
13.231635
13.717413
13.301969
12.582541
12.965798
13.549924
12.607574
13.265610
13.272762
13.537407
13.419986
13.681650
13.601780
12.943745
13.574958
13.179779
13.415813
13.472438
13.906956
14.103651
13.666749
13.838410
##ZVALUE=265
0.887513
1.166463
0.777841
0.659823
0.631809
0.973940
0.644922
0.822544
1.017451
1.000762
1.121759
1.188517
1.038909
1.648664
3.217459
17.649531
44.131875
114.617944
205.063820
397.975445
561.982989
721.426010
880.210996
909.477472
825.358629
704.692006
519.566536
363.451838
204.936862
126.996636
83.246827
68.916678
81.668496
111.126900
132.562518
151.381493
158.300996
150.360465
135.136843
107.877851
86.902976
54.737926
38.571954
20.876527
12.941957
7.422566
5.828738
5.139709
4.884601
4.911423
5.116463
5.066991
4.909635
5.291700
5.105734
4.910827
5.091429
5.610585
5.208850
5.423427
5.250573
5.567670
5.350709
5.437732
6.172657
6.648898
6.279945
7.207990
7.703900
8.362532
8.887649
10.017753
10.542870
11.450648
10.602474
11.439919
11.596680
10.894537
11.690855
11.751652
11.546612
12.144446
11.327863
11.728406
11.586547
12.173653
11.763573
11.561513
12.399554
12.718439
12.338758
12.497902
12.362599
12.151599
13.223886
12.387633
##ZVALUE=270
0.804663
0.574589
0.925660
0.689626
0.697970
0.913739
0.822544
0.906587
0.696778
0.815988
1.004934
0.892878
0.992417
0.933409
0.999570
1.388788
1.661777
8.341670
25.192499
80.935955
165.376663
297.109485
530.877709
708.951950
916.735530
985.293984
972.465873
870.564580
675.927997
500.412583
333.301425
177.058578
103.308558
60.197711
62.019825
85.929632
107.966661
135.880709
153.076649
160.503983
153.858662
136.960745
115.575790
83.737969
61.290860
35.429597
22.798777
12.935996
8.566976
6.245971
5.422831
5.312562
5.124807
5.306602
5.204678
5.800724
5.278587
5.223751
5.104542
5.438924
6.078482
5.861521
5.609989
5.700588
6.028414
5.904436
6.107688
6.993413
7.058978
7.514954
8.165836
9.445548
9.259582
10.467768
10.684729
10.413527
10.387897
11.008978
10.486841
10.366440
10.926723
10.386705
10.874867
10.787845
10.799766
10.834932
11.090636
11.449456
11.164546
11.316538
11.014938
10.982752
11.785626
10.981560
11.004806
11.792779
##ZVALUE=275
0.503659
0.825524
0.613928
0.759959
0.696778
0.881553
0.553727
0.680685
0.846982
0.729561
0.742674
0.740886
0.938773
0.689626
0.873804
1.076460
1.216531
1.264811
1.415610
4.725456
16.480684
44.122934
130.485892
250.615478
478.470922
659.579635
876.227617
1000.331640
1015.695930
994.228721
809.176564
628.230572
437.190533
224.342942
130.873919
63.921809
48.140883
58.913827
79.659820
109.093785
130.185485
149.343610
157.348514
150.097609
135.309696
108.228922
85.682869
58.580637
40.551424
23.462772
14.605522
8.205771
6.526709
5.298853
5.006790
5.433559
4.918575
5.543828
5.748868
5.562901
5.568862
6.015897
5.651712
6.340742
6.078482
6.359816
6.344914
6.832480
7.171631
7.697940
8.416772
8.259416
9.109974
9.973645
9.961724
9.643435
10.431409
10.173917
10.298491
9.862781
10.172725
10.201931
10.177493
9.840727
10.598898
10.139942
10.516644
10.625720
10.404587
10.413527
10.515451
10.391474
10.952950
10.276437
10.472536
11.263490
##ZVALUE=280
0.631809
0.686646
0.615716
0.531673
0.522733
0.705719
0.532866
0.662804
0.771880
0.654459
0.620484
0.620484
0.719428
0.798702
0.770688
0.977516
0.724792
1.011491
1.119971
1.208782
1.236796
2.055764
10.730624
34.679770
106.490850
193.638802
369.714499
545.334816
791.754723
941.346884
1015.674472
1015.674472
945.434570
712.019801
511.568785
288.089514
169.966817
77.678561
45.435429
41.295886
55.570006
81.527829
106.536746
133.841634
148.173571
153.863430
147.651434
128.144622
109.112859
81.264973
59.889555
37.748814
25.374889
14.145970
9.400845
6.501675
5.517602
5.879998
5.092621
5.567670
5.975962
5.714893
5.686879
6.139874
6.260872
6.181598
6.655455
6.957650
7.255673
7.584691
8.424520
8.314848
9.343624
9.565949
9.708405
9.974837
9.751916
10.209680
10.058880
10.401607
10.136962
10.147691
9.900928
9.683967
9.637475
10.533929
9.826422
10.313988
10.208488
10.034442
10.588765
9.666681
9.940863
9.666681
10.271668
9.753704
##ZVALUE=285
0.494719
0.437498
0.732541
0.663996
0.276566
0.503659
0.557899
0.568628
0.339746
0.559688
0.800490
0.687838
0.651479
0.640750
0.656843
0.942945
0.921488
0.883937
0.850558
1.044869
0.913739
1.154542
1.125932
1.464486
4.904866
17.025471
57.779551
118.539929
263.002515
417.868495
603.197813
860.196948
1000.507474
1015.674472
1015.674472
838.806629
649.735928
392.018557
242.788792
111.856461
59.038997
32.349825
34.663677
53.281784
73.285699
105.208755
124.668479
141.411424
151.254535
142.424703
131.028891
106.969476
87.002516
59.557557
41.017532
23.163557
14.865994
9.349585
6.634593
5.679727
5.968809
5.634427
5.523562
5.760789
6.061792
6.271601
6.561875
7.097721
7.225871
8.024573
8.020997
8.321404
8.856654
9.275675
9.588599
9.769797
9.733438
9.501576
9.878874
9.776950
9.611845
9.614825
9.717941
9.753704
9.694695
9.753704
9.798408
9.518862
9.677410
9.753704
9.957552
9.944439
9.766817
9.862781
9.723902
10.019541
##ZVALUE=290
0.446439
0.451803
0.368953
0.434518
0.426769
0.640750
0.582933
0.544786
0.634789
0.648499
0.529885
0.490546
0.898838
0.700951
0.717640
0.888705
0.730753
0.587702
0.790954
0.705719
0.808835
0.934601
0.808835
1.020432
1.154542
1.374483
1.888871
7.154942
34.414530
77.211857
180.159807
313.059688
493.087769
764.617920
936.169028
1015.674472
1015.674472
933.471918
763.386488
510.281920
330.137610
161.599517
82.215667
33.319592
24.907589
33.668876
48.096776
73.851943
94.040632
121.254921
136.368871
145.912766
141.743422
127.678514
108.526945
79.452991
58.066845
37.216544
25.499463
15.102625
10.517836
7.549524
6.550550
6.390810
6.370544
6.793737
6.347895
6.922483
7.536411
7.842779
8.351803
8.643866
8.972883
9.321570
9.446740
9.644628
9.648800
9.500980
10.022521
9.378791
9.736419
9.951591
9.505749
9.707808
9.961724
9.823442
9.774566
9.706616
9.890795
9.788871
10.211468
10.147691
10.107756
9.785891
9.683967
9.288788
##ZVALUE=295
0.240803
0.333786
0.417829
0.318885
0.318885
0.224710
0.285506
0.561476
0.270605
0.441670
0.477433
0.485778
0.510812
0.576973
0.421405
0.567436
0.568628
0.375509
0.587702
0.653863
0.687838
0.683665
0.661612
0.853539
0.842810
0.833869
0.986457
1.163483
1.689792
2.842546
15.495420
43.060780
125.105977
237.784982
458.839536
649.859905
905.797482
1015.588641
1015.588641
1015.588641
870.723724
673.810840
411.885977
256.793499
112.473965
54.301620
22.292733
19.969940
30.699968
44.083595
69.147944
88.516474
111.470819
126.768947
138.351917
135.782957
118.231773
103.432536
78.854561
60.491562
38.794875
26.113987
15.880466
10.784864
7.883906
6.694794
6.882548
6.954670
7.602572
7.563829
7.965565
8.324981
8.904934
9.264946
9.444952
9.554625
9.686947
9.823442
9.849668
10.167956
9.335876
9.689927
9.704828
9.705424
9.861588
9.999871
10.004640
9.940863
9.848475
9.651780
9.452701
8.987784
9.542704
9.223819
9.824634
9.575486
##ZVALUE=300
0.432730
0.311732
0.466704
0.422597
0.566840
0.464916
0.438690
0.502467
0.524521
0.492930
0.381470
0.521541
0.439882
0.292659
0.583529
0.641942
0.756979
0.610948
0.557899
0.646710
0.646710
0.677705
0.742674
0.711679
0.858903
0.869632
0.883937
0.949502
1.200438
1.379848
1.353621
1.688600
6.855726
24.519563
83.521605
168.398023
351.897478
539.104939
812.411904
979.578495
1015.674472
1015.674472
1000.250578
832.494497
556.415915
370.712876
183.893442
94.071627
32.592416
17.003417
18.170476
26.202798
42.531490
58.728456
82.660913
101.532936
121.652484
130.181909
127.631426
119.941831
99.775791
81.511736
59.010983
42.684674
25.619864
17.352700
11.187792
8.858442
7.801652
7.922649
8.187890
8.874536
9.105802
9.338856
9.474754
9.744763
9.658933
9.972453
10.028481
10.160804
10.131598
10.005832
9.950995
10.174513
9.911656
10.239482
10.112524
10.116696
9.871721
10.046959
9.866953
9.675622
9.565949
9.707808
9.414554
9.803772
##ZVALUE=305
0.433922
0.589490
0.383854
0.409484
0.350475
0.598431
0.349879
0.443459
0.356436
0.338554
0.342727
0.381470
0.521541
0.392795
0.635982
0.588894
0.502467
0.488758
0.474453
0.389814
0.645518
0.579953
0.496507
0.481606
0.817776
0.845790
0.821948
0.750422
1.104474
1.070499
1.141429
1.226664
1.336932
1.503825
2.859831
17.591715
48.951507
137.737989
254.262686
478.492975
683.341026
951.227546
1015.674472
1015.674472
1015.674472
924.883485
721.429586
450.630784
280.649662
126.187801
59.929490
20.218492
13.286471
16.754866
24.128556
40.406585
56.027770
79.543591
97.257495
115.892887
123.501420
123.205781
114.419460
94.898939
77.741742
54.924488
39.664507
25.309920
17.620921
12.002587
10.304451
9.448528
9.670854
9.829998
9.744763
9.535551
9.731650
9.963512
10.145903
10.202527
9.921789
10.480881
10.379553
10.123849
10.405779
10.414720
10.335445
10.159612
10.192990
10.409951
10.420680
9.960532
9.800792
9.642839
9.636879
9.520650
##ZVALUE=310
0.380874
0.291467
0.506639
0.445843
0.392795
0.359416
0.474453
0.474453
0.425577
0.436902
0.496507
0.506639
0.457764
0.574589
0.528693
0.442863
0.363588
0.573993
0.504851
0.530481
0.457764
0.716448
0.462532
0.453591
0.554919
0.564456
0.712872
0.679493
0.953674
0.994802
0.944734
0.883937
0.990629
1.190901
1.129508
1.354814
1.610518
7.335544
25.649667
91.727972
182.576776
377.883911
573.291779
846.686959
1015.105844
1015.674472
1015.674472
1015.674472
898.757577
606.929660
403.959751
199.855566
102.895498
35.130978
15.087724
11.055470
14.022589
23.110509
33.303499
52.099824
68.685412
92.075467
105.540752
116.962790
117.816925
109.001994
97.356439
74.869990
59.144497
39.686561
28.892756
18.658638
14.550686
11.251569
10.425448
10.083914
10.149479
10.268688
10.207891
10.277629
10.128617
10.477901
10.321736
10.245442
10.580420
10.686517
10.545850
10.664463
10.528564
10.450482
10.322928
9.829998
9.719729
9.797812
9.805560
9.556413
##ZVALUE=315
0.435710
0.286698
0.264645
0.379682
0.409484
0.268817
0.391603
0.394583
0.506639
0.398755
0.423789
0.377893
0.502467
0.419617
0.319481
0.530481
0.329614
0.511408
0.501871
0.475645
0.516772
0.579953
0.581741
0.508428
0.689626
0.564456
0.715852
0.772476
0.761747
0.783801
0.715852
0.721812
0.966787
0.782609
0.883937
1.087785
1.209974
1.348853
1.843572
3.833771
14.460683
60.672760
131.151676
295.762420
482.828617
786.055923
990.500450
1015.674472
1015.674472
1015.674472
1015.674472
780.426860
545.678735
293.028951
157.289505
55.068731
22.594929
9.928942
10.505915
14.202595
20.659566
33.193827
47.005415
66.439509
83.213449
102.173686
110.909939
113.195777
105.201602
89.390874
74.373484
54.902434
41.165948
26.852489
19.258857
13.863444
11.948943
10.269880
10.615587
10.353923
10.496974
10.582805
10.593534
10.476708
10.499954
10.464787
10.295510
10.262728
10.292530
10.624528
10.227561
10.545850
10.183454
10.188818
9.743571
9.983778
##ZVALUE=320
0.356436
0.200868
0.330806
0.428557
0.328422
0.331998
0.357628
0.300407
0.390410
0.330806
0.463724
0.417829
0.333786
0.418425
0.422597
0.530481
0.552535
0.453591
0.552535
0.424981
0.471473
0.607967
0.589490
0.474453
0.517964
0.714660
0.457764
0.449419
0.597835
0.696778
0.706911
0.442863
0.612736
0.672936
0.919700
0.778437
0.998974
1.153946
1.330972
1.274943
1.407862
2.059937
6.492734
36.782622
91.357827
234.707594
384.335518
631.513596
843.651891
1015.674472
1015.674472
1015.674472
1015.674472
874.106884
637.074709
358.784795
207.525492
87.877512
38.508773
12.529492
9.016991
10.000467
12.393594
19.102693
27.262568
44.016838
59.755445
80.309510
92.007518
105.240941
106.906891
101.275444
90.616941
70.723891
54.925680
37.853718
27.922988
18.621683
14.560819
11.717677
10.920763
10.510683
10.564923
10.191798
10.521412
10.111928
10.478497
10.389686
10.115504
10.183454
10.485649
10.356903
10.472536
10.030866
9.975433
9.717941
##ZVALUE=325
0.340939
0.367761
0.321865
0.517964
0.323653
0.364780
0.299811
0.357628
0.256896
0.199676
0.259876
0.407696
0.383854
0.186563
0.380874
0.369549
0.224710
0.425577
0.469685
0.349879
0.347495
0.446439
0.431538
0.488758
0.569820
0.487566
0.527501
0.449419
0.540614
0.400543
0.679493
0.530481
0.675917
0.506639
0.631809
0.679493
0.795722
1.070499
1.125932
1.117587
1.048446
1.313686
1.274943
1.718998
3.217459
22.849441
62.363744
168.021917
296.295881
534.097552
738.618970
993.008018
1015.674472
1015.674472
1015.674472
945.476890
723.267794
438.265800
272.045732
125.932693
59.982538
18.083453
9.888411
8.827448
9.745955
12.700558
17.882586
28.179884
41.256547
60.957670
74.187517
90.362430
97.570419
100.420713
94.884634
80.622435
66.996813
49.101710
37.132502
24.985671
18.698573
13.774633
11.784434
10.952950
10.560751
10.192990
10.140538
10.299683
10.217428
10.113716
9.929538
9.680986
9.714961
9.820461
10.093451
10.053515
##ZVALUE=330
0.334978
0.331998
0.421405
0.381470
0.109673
0.230670
0.268817
0.321865
0.238419
0.404716
0.362992
0.431538
0.361800
0.457764
0.377893
0.242591
0.336766
0.352859
0.443459
0.399947
0.434518
0.437498
0.306964
0.428557
0.418425
0.464916
0.443459
0.480413
0.463724
0.596642
0.468493
0.549555
0.644922
0.730753
0.689626
0.609756
0.739694
0.981688
0.812411
0.902414
1.010895
1.019835
0.936985
1.199841
1.287460
1.490712
2.003908
10.001659
33.351779
114.856958
220.035911
433.757901
623.084903
899.998546
1015.673876
1015.673876
1015.673876
1015.673876
910.580754
613.730550
404.231548
193.611979
100.408792
34.421682
13.947487
8.759499
8.401871
9.729862
12.153983
19.475818
26.715994
40.964484
55.137873
73.698759
84.568858
94.458461
94.109774
87.873936
78.270435
60.841441
47.651529
32.978654
25.066733
18.412471
15.151501
12.139678
10.958910
10.285974
10.214448
9.882450
9.782910
9.561777
9.364486
9.679794
9.479523
9.534955
##ZVALUE=335
0.268817
0.305772
0.333786
0.386834
0.167489
0.246763
0.176430
0.312924
0.361800
0.204444
0.206828
0.246763
0.369549
0.391603
0.355840
0.123978
0.359416
0.330806
0.441670
0.349879
0.299811
0.325441
0.448823
0.577569
0.369549
0.413656
0.421405
0.555515
0.528693
0.518560
0.553727
0.475645
0.442863
0.581741
0.510812
0.626445
0.670552
0.653863
0.721812
0.772476
0.854731
0.864863
0.803471
0.734925
1.028776
1.247525
1.048446
1.424551
1.626611
4.207492
16.201735
68.814754
147.405863
321.721435
510.221720
789.467692
988.734961
1015.669703
1015.669703
1015.669703
941.126943
670.951605
466.561913
252.511501
139.053464
51.089525
20.355582
8.939505
8.400679
8.702874
9.879470
12.630820
17.437935
27.568936
37.550926
54.681897
66.540837
80.701709
86.129904
87.497830
83.507895
70.596933
60.232878
45.399666
35.583973
25.055408
19.035935
13.846755
12.182593
10.367632
9.736419
9.691715
9.297729
9.157658
9.122491
9.158850
##ZVALUE=340
0.124574
0.241995
0.322461
0.199676
0.314713
0.216961
0.395775
0.317693
0.171661
0.309944
0.368953
0.290871
0.407696
0.249743
0.330806
0.516772
0.411868
0.139475
0.362992
0.400543
0.413656
0.347495
0.374913
0.363588
0.331998
0.320673
0.438690
0.367761
0.446439
0.433922
0.352859
0.384450
0.518560
0.522733
0.351667
0.434518
0.500679
0.504851
0.450611
0.532866
0.635982
0.572801
0.619888
0.790954
0.765920
0.801682
0.865459
1.032948
1.180768
1.260638
1.363754
2.183914
7.860661
40.861964
99.893808
251.871943
419.135690
676.065683
882.640481
1015.674472
1015.674472
1015.674472
1003.088951
778.395534
560.542941
309.291482
179.421902
74.886680
30.379891
10.325909
8.510947
8.385777
8.835793
9.678602
12.142658
17.855763
24.689436
37.103891
48.947930
64.800978
74.761510
82.406998
83.149672
77.822804
70.843697
56.869984
46.495795
33.249855
25.379658
18.240809
13.823509
10.869503
10.039806
9.076595
8.937716
8.746982
##ZVALUE=345
0.297427
0.280738
0.227690
0.390410
0.169873
0.288486
0.327826
0.229478
0.351667
0.172853
0.162721
0.266433
0.231862
0.229478
0.310540
0.387430
0.220537
0.438690
0.131726
0.245571
0.368953
0.330806
0.351667
0.465512
0.326633
0.267625
0.347495
0.424981
0.456572
0.523925
0.376701
0.424981
0.354648
0.301600
0.443459
0.495911
0.520945
0.551939
0.576973
0.679493
0.593662
0.535846
0.601411
0.677705
0.661612
0.594854
0.680685
0.835657
0.808835
0.911951
1.258850
1.116991
1.359582
1.352429
4.458427
17.752647
73.749423
152.462721
325.075984
502.223969
778.274536
974.411964
1015.674472
1015.674472
1015.674472
893.764496
619.047880
419.682860
202.965736
104.143620
35.529733
15.345812
8.584857
8.253455
8.059740
8.277893
9.170771
11.153817
16.487837
22.695661
34.853816
44.324994
58.364868
67.149997
74.937940
77.646971
73.787570
67.724586
55.121779
44.313669
31.893849
24.169683
16.670823
13.153553
10.561943
9.649992
##ZVALUE=350
0.274777
0.218749
0.132918
0.096560
0.245571
0.289679
0.193715
0.203848
0.273585
0.330806
0.289679
0.360608
0.299811
0.385642
0.454783
0.321865
0.243783
0.276566
0.364780
0.396967
0.331998
0.149608
0.325441
0.260472
0.332594
0.383854
0.542998
0.443459
0.341535
0.531673
0.487566
0.327826
0.373721
0.378489
0.399947
0.467896
0.400543
0.388622
0.428557
0.485778
0.671744
0.476837
0.536442
0.712872
0.557899
0.668764
0.729561
0.792742
0.807643
0.744462
0.922680
0.882745
0.950694
1.179576
1.307726
1.518726
2.782941
10.468960
47.985911
108.147860
253.504515
413.893461
662.637949
847.156644
1015.674472
1015.674472
1015.674472
948.244929
669.604540
464.699864
244.206786
138.136744
55.760741
22.667646
9.017587
7.887483
7.613897
7.300973
7.405877
8.407831
10.782480
14.272928
20.850897
28.400421
40.165782
49.936771
61.182976
67.258477
69.934726
68.133473
61.683655
53.464770
40.969849
32.498837
22.686720
17.610788
##ZVALUE=355
0.271797
0.284910
0.254512
0.259876
0.186563
0.145435
0.194907
0.234842
0.172853
0.220537
0.299811
0.339746
0.251532
0.311732
0.315905
0.291467
0.295639
0.389814
0.392795
0.309944
0.353456
0.334978
0.236630
0.359416
0.336766
0.380874
0.239611
0.292659
0.407696
0.403523
0.423789
0.404716
0.508428
0.371933
0.384450
0.393987
0.407696
0.341535
0.596642
0.574589
0.494719
0.492930
0.617504
0.539422
0.566840
0.647902
0.665784
0.727773
0.640750
0.750422
0.721812
0.601411
0.884533
0.872612
0.882745
0.945926
1.257658
1.471639
1.635551
6.060600
23.795962
90.011954
180.623531
358.675718
542.975664
798.563957
935.829878
1015.674472
1015.674472
901.468992
744.090676
512.712598
336.464643
155.270696
76.085925
23.781657
10.453463
7.215738
6.922483
6.596446
6.761551
7.017851
7.840991
9.633899
12.611747
18.434525
25.111437
35.529733
43.880939
54.377913
60.449839
63.661933
62.378645
56.965947
50.194860
39.976835
##ZVALUE=360
0.243783
0.305772
0.346899
0.184774
0.062585
0.199676
0.233650
0.237823
0.269413
0.249743
0.354648
0.323653
0.330806
0.324845
0.364780
0.241995
0.136495
0.240803
0.284910
0.354648
0.282526
0.246763
0.335574
0.325441
0.369549
0.392795
0.336766
0.259876
0.285506
0.333786
0.281930
0.575781
0.499487
0.329614
0.380874
0.501871
0.376701
0.424981
0.305772
0.258684
0.340939
0.628829
0.606775
0.683665
0.558496
0.700951
0.572801
0.752807
0.566840
0.606775
0.523925
0.811815
0.770688
0.635982
0.822544
0.973940
1.045465
1.021624
1.081824
1.400709
1.420975
2.372861
9.254813
47.096610
112.978816
270.322561
432.171822
673.377514
852.001905
1011.178493
1015.675664
957.195759
812.509656
565.810800
387.217999
197.420716
106.115937
40.158629
16.122460
7.218719
6.605983
6.336570
6.501675
6.426573
6.281734
7.052422
7.866621
10.710955
14.381409
21.176934
27.927756
38.748980
46.063662
54.387450
56.746602
56.986809
##ZVALUE=365
0.140667
0.234842
0.255704
0.241995
0.264645
0.417829
0.349879
0.260472
0.192523
0.235438
0.247955
0.305772
0.201464
0.258684
0.378489
0.431538
0.331998
0.396967
0.239611
0.295639
0.380874
0.266433
0.454783
0.151992
0.386834
0.325441
0.475645
0.413656
0.376701
0.326633
0.259876
0.449419
0.377893
0.233650
0.425577
0.323653
0.437498
0.492930
0.304580
0.483990
0.484586
0.374913
0.497699
0.323653
0.556707
0.436902
0.489950
0.556707
0.605583
0.793934
0.701547
0.529885
0.638962
0.943542
0.778437
0.860691
0.740886
0.953674
1.127720
1.055598
1.233816
1.286864
1.596808
1.816750
3.564954
24.079680
70.404410
184.888840
336.048603
592.325926
775.205493
959.994793
1015.673876
1008.791924
891.103745
657.754540
475.701690
270.135999
149.967670
55.586696
22.242665
8.022785
6.210804
6.041527
5.924702
5.979538
5.812645
5.621910
6.250739
7.153749
8.752942
12.661815
17.413497
24.640560
31.432509
40.629506
##ZVALUE=370
0.313520
0.167489
0.366569
0.357628
0.151992
0.333786
0.347495
0.319481
0.323653
0.341535
0.360608
0.351667
0.383854
0.457764
0.325441
0.347495
0.228882
0.282526
0.359416
0.296831
0.436902
0.320673
0.433922
0.338554
0.397563
0.222921
0.425577
0.379682
0.320673
0.554919
0.429749
0.354648
0.318885
0.472665
0.453591
0.496507
0.501871
0.339746
0.412464
0.457764
0.398755
0.502467
0.396967
0.641942
0.589490
0.542998
0.493526
0.465512
0.529885
0.542998
0.545979
0.753999
0.460744
0.594854
0.686646
0.817776
0.782609
0.731945
0.872612
0.790954
1.158714
0.969768
1.029968
1.224875
1.397729
1.415610
2.551675
8.968711
51.335692
127.223730
300.077796
471.922755
723.119974
896.782875
1015.730500
1015.730500
965.909958
801.689029
539.579988
353.600979
167.825818
87.027550
32.463670
13.174415
6.486773
5.669594
5.716681
5.463958
5.516410
5.418658
5.396605
5.819798
6.572604
7.963777
11.571646
15.105605
##ZVALUE=375
0.253916
0.410676
0.330806
0.282526
0.216961
0.127554
0.067949
0.094771
0.042915
0.182986
0.201464
0.303984
0.256896
0.307560
0.250936
0.329614
0.448823
0.307560
0.155568
0.358820
0.146627
0.146627
0.252724
0.200868
0.427961
0.181794
0.164509
0.379682
0.404716
0.163913
0.383854
0.203848
0.423789
0.263453
0.345707
0.378489
0.357628
0.286698
0.325441
0.404716
0.275970
0.443459
0.423789
0.379682
0.354648
0.250936
0.268817
0.497699
0.450611
0.407696
0.360608
0.381470
0.522733
0.551939
0.495911
0.391603
0.592470
0.554919
0.715852
0.584722
0.679493
0.709891
0.844598
0.707507
0.970960
0.859499
1.019835
1.269579
1.731515
4.933476
29.591918
76.380968
200.686455
349.612832
597.120523
786.534548
985.146761
1015.674472
1015.674472
907.578468
660.971999
478.609800
271.713734
158.526897
62.609911
26.952624
8.034706
5.496740
5.301833
5.433559
5.339980
5.148649
5.449653
5.208850
5.429983
5.869865
##ZVALUE=380
0.198483
0.095963
0.104904
0.175834
0.097752
0.123978
0.194907
0.165701
0.147820
0.320673
0.120997
0.244975
0.198483
0.235438
0.376701
0.152588
0.321865
0.252724
0.146627
0.339746
0.179410
0.024438
0.203848
0.445843
0.265837
0.195503
0.336766
0.322461
0.102520
0.317693
0.262856
0.189543
0.276566
0.209808
0.190735
0.393987
0.294447
0.334978
0.348687
0.257492
0.243783
0.303984
0.350475
0.310540
0.297427
0.435710
0.282526
0.394583
0.296831
0.257492
0.477433
0.430942
0.416636
0.433922
0.396967
0.675917
0.454783
0.453591
0.588894
0.567436
0.419617
0.551939
0.691414
0.853539
0.860691
0.761747
0.977516
0.952482
1.276731
1.567602
1.903772
2.877712
16.136765
49.860477
154.989958
285.418630
547.117591
778.782964
1015.387774
1015.674472
1015.674472
1015.674472
838.732719
635.598898
382.432938
226.001740
98.354816
45.601726
13.093948
6.462932
5.271435
4.988909
5.111694
5.253553
5.266666
5.306602
##ZVALUE=385
0.270605
0.169873
0.117421
0.151992
0.225902
0.133514
0.162721
0.314713
0.209808
0.141859
0.143647
0.083447
0.157952
0.301600
0.193715
0.253916
0.321865
0.219941
0.223517
0.100732
0.243783
0.229478
0.273585
0.104904
0.112653
0.183582
0.131726
0.184774
0.224710
0.274777
0.284910
0.163913
0.337958
0.252724
0.192523
0.238419
0.311732
0.347495
0.142455
0.239611
0.348687
0.308752
0.268817
0.448823
0.386834
0.258684
0.309944
0.408888
0.220537
0.302792
0.348687
0.464916
0.381470
0.287890
0.311732
0.412464
0.534654
0.544786
0.553727
0.426769
0.571609
0.551939
0.533462
0.592470
0.635982
0.795722
0.682473
0.924468
1.034737
1.189709
1.394749
1.348853
1.535416
2.043843
6.741881
36.159754
92.471838
249.565840
428.887606
723.969936
929.538012
1015.674472
1015.674472
1015.674472
940.686464
688.197017
495.038629
278.981924
163.854957
69.936514
29.103756
8.200407
5.803704
5.339980
5.080700
5.256534
##ZVALUE=390
0.137687
0.093579
0.092983
0.127554
0.131726
0.127554
0.154972
0.100732
0.199676
0.095963
0.114441
0.244975
0.229478
0.129938
0.127554
0.092983
0.148416
0.298619
0.079870
0.112653
0.094771
0.338554
0.228882
0.236630
0.387430
0.269413
0.165701
0.268817
0.139475
0.277758
0.184774
0.227690
0.151992
0.363588
0.265837
0.329614
0.323653
0.176430
0.203848
0.275970
0.268817
0.294447
0.259876
0.224710
0.278950
0.166893
0.267625
0.206828
0.464916
0.411868
0.324845
0.534654
0.314713
0.494719
0.292659
0.386834
0.444651
0.424981
0.378489
0.323653
0.490546
0.492930
0.376701
0.496507
0.695586
0.586510
0.837445
0.756979
0.974536
1.033545
1.134872
1.166463
1.369715
1.256466
1.438856
1.552701
3.075600
21.552444
67.739487
201.458931
372.437835
660.378933
867.157578
1015.672684
1015.672684
1015.672684
998.737812
789.572597
609.044433
382.899642
232.256651
101.234913
48.160553
15.016794
7.109642
5.246997
##ZVALUE=395
0.314713
0.260472
0.162721
0.403523
0.192523
0.133514
0.083447
0.207424
0.199676
0.307560
0.222921
0.249743
0.242591
0.188947
0.285506
0.215769
0.233650
-0.008941
0.227690
0.323653
0.202656
0.336766
0.271797
0.226498
0.253916
0.199676
0.273585
0.182986
0.288486
0.176430
0.306964
0.411868
0.285506
0.447631
0.410676
0.408888
0.444651
0.419617
0.381470
0.248551
0.307560
0.410676
0.285506
0.445843
0.503659
0.259876
0.360608
0.489950
0.467896
0.446439
0.468493
0.219941
0.381470
0.473857
0.406504
0.535846
0.499487
0.565648
0.506639
0.438690
0.558496
0.397563
0.617504
0.525713
0.671744
0.686646
0.843406
0.971556
0.925660
1.058578
1.139641
1.167655
1.239777
1.252890
1.403689
1.391768
1.396537
1.546741
2.085567
13.083816
48.930645
157.443881
291.970968
547.617674
787.320733
1015.725732
1015.725732
1015.725732
1015.725732
991.404653
777.579546
486.115813
300.000906
134.397745
65.565705
21.647811
##ZVALUE=400
0.120997
0.150800
0.310540
0.130534
0.206828
0.043511
0.261664
0.190735
0.320673
0.004768
0.177622
0.296831
0.167489
0.212789
0.252724
-0.015497
0.219941
0.255704
0.278950
0.235438
0.178814
0.014901
0.162721
0.213981
0.136495
0.166893
0.156760
0.136495
0.242591
0.182986
0.196695
0.373721
0.254512
0.325441
0.386834
0.429749
0.380874
0.363588
0.252724
0.213981
0.260472
0.233650
0.283718
0.218749
0.270605
0.152588
0.302792
0.419617
0.376701
0.441670
0.352859
0.453591
0.261664
0.307560
0.474453
0.444651
0.290871
0.430942
0.312924
0.454783
0.517964
0.444651
0.655651
0.648499
0.714660
0.637770
0.715852
0.735521
0.752807
0.848770
0.936985
1.057982
1.083612
1.127720
0.996590
1.199841
0.944734
1.132488
1.361966
1.370907
1.571774
6.116629
24.995804
93.453526
192.660689
409.365892
620.165467
900.768638
1015.674472
1015.674472
1015.674472
992.136002
821.895599
551.054478
370.528698
196.162462
##END
