##TITLE=FQP00351
##FORMAT=SPECTACLE-ASCII V-1.2
##DATA TYPE=ULTRAVIOLET SPECTRUM
##SECOND TYPE=ULTRAVIOLET SPECTRUM
##DATE=01/24/18
##TIME=17:27:08
##SPECTROMETER/DATA SYSTEM=SPECTACLE
##XUNITS=NM EM
##YUNITS=ENERGY
##YFACTOR=1
##FIRSTX=220
##LASTX=410
##NPOINTS=96
##3DDATA=Equidistant
##ZUNITS=NM EX
##FIRSTZ=210
##LASTZ=400
##ZPOINTS=39
##XYDATA=(Y..Y)
##ZVALUE=210
1.579523
1.642704
1.723766
1.495481
1.856685
2.346635
2.062917
2.121925
2.119541
1.968741
2.045631
2.089739
2.056956
2.421737
2.120733
2.498627
2.362728
2.262592
3.270507
2.976656
3.156662
2.567768
3.410578
3.865957
4.330873
4.425645
4.411936
4.701614
4.626513
4.127622
4.694462
4.437566
5.106926
5.805492
5.472898
4.918575
5.192757
5.171895
5.714893
5.975962
4.813671
5.585551
6.786585
5.609989
5.473495
5.610585
6.794930
5.351901
6.138682
6.266832
6.047487
6.308556
6.386638
6.558895
6.293654
6.392598
6.764531
6.130934
6.043911
7.467866
6.942749
7.257462
6.170869
6.924868
7.307529
6.567836
7.585883
8.698702
8.773804
10.174513
11.553764
13.789535
16.650558
20.145774
20.101666
22.504926
23.681521
23.930669
25.148988
21.877885
19.843578
19.664764
16.356707
14.185905
11.189580
9.800792
7.597804
6.555915
7.262826
6.862879
6.950498
6.379485
6.187558
7.109642
6.802678
7.379651
##ZVALUE=215
5.101562
5.386472
5.741715
5.197525
4.118681
3.754497
4.179478
4.363656
4.366636
3.814697
4.540682
4.018545
3.298521
3.447533
3.126860
2.136827
2.495646
2.966523
3.561974
3.124475
3.253818
3.513694
4.206896
3.679991
3.933907
4.586577
4.410744
5.551577
5.335808
5.631447
5.425811
6.146431
6.932616
6.057620
6.510615
6.379485
7.202625
7.248521
6.797910
6.001592
6.986856
6.307960
7.266998
8.091927
6.667972
7.700920
6.352663
6.977916
7.113814
7.142425
6.581545
6.661415
6.920695
6.885529
6.863475
6.842613
6.942749
6.678700
6.801486
6.969571
7.423759
8.627772
7.747412
8.237958
6.992817
8.267760
8.964539
9.348989
9.128451
12.225509
13.525486
16.646981
19.430518
20.709634
22.474527
23.654699
27.170777
28.290749
27.407408
27.131438
25.244951
24.875998
19.414425
18.493533
13.476610
11.948943
9.949803
8.952618
7.645488
7.425547
6.883740
6.678700
7.559657
6.521940
7.048845
6.191730
##ZVALUE=220
19.245744
17.338991
22.236705
23.088455
21.222830
17.517805
15.249848
10.405779
10.008812
8.805990
8.771420
10.119677
10.182858
10.141730
7.892847
6.776452
5.087852
3.641844
4.065633
3.415942
3.646612
3.776550
4.804730
4.529953
4.768968
5.335808
5.692840
6.115437
7.593632
6.166697
7.129908
7.793903
7.886887
7.474422
8.769631
9.084940
8.803606
7.578731
8.791685
8.615851
8.680820
8.384585
8.170605
7.394552
7.653832
8.450747
7.573962
7.506609
7.560849
7.276535
7.312894
8.006692
7.571578
8.010864
8.004904
8.373857
7.355809
6.895661
7.411838
7.456541
7.548928
7.631779
8.187890
8.233786
7.949471
8.316636
8.986592
9.698868
11.218786
12.926459
14.117956
15.984774
18.492937
19.554496
23.427606
23.762584
25.249720
27.563572
26.742816
28.408766
26.063919
24.718642
20.721555
18.889904
14.331937
11.941791
9.042621
7.686615
7.004738
7.616878
7.580519
7.968545
7.511973
6.678700
7.401705
7.613897
##ZVALUE=225
31.453967
33.071637
47.170520
57.627559
67.030787
70.940852
64.981580
49.449801
38.040876
27.995706
23.583770
19.588470
23.343563
23.947954
24.313927
21.284819
20.232797
14.589429
11.575818
8.357763
7.207990
5.571842
4.590750
4.233718
4.620552
5.956888
6.401539
7.024407
7.784963
7.941723
9.032488
9.829998
9.400845
10.661483
11.650920
11.364818
9.828806
9.727478
11.014938
8.818507
9.229779
9.975433
10.031462
8.559823
7.962584
8.862615
7.903576
8.490682
7.435679
7.570982
7.274747
6.643534
6.875992
7.508993
6.243587
7.603765
6.976724
7.471442
6.301999
7.657409
7.206798
6.663799
7.558465
7.968545
6.962419
8.477569
8.832812
8.618832
8.661747
10.989904
11.004806
12.081861
13.728738
14.230609
14.589429
15.527606
16.204715
15.357733
15.472770
14.765859
14.591813
12.725592
11.672974
11.160970
9.879470
8.832812
7.660985
7.648468
8.341670
7.709861
7.548928
7.082820
7.257462
7.849932
7.682443
6.931424
##ZVALUE=230
34.656525
35.030842
62.686801
91.294646
131.202936
156.681538
177.693963
173.819661
147.452950
125.412941
85.694790
63.752532
48.568845
40.151477
42.500496
44.005513
49.052835
48.118830
43.542981
33.911467
25.183558
20.241737
12.508631
8.609891
5.417466
5.711913
6.979704
7.485747
7.969737
8.781552
8.626580
9.436607
9.889603
11.315942
9.969473
10.972619
10.890961
10.830760
10.245442
9.614825
10.142922
9.518862
9.446740
8.677840
9.058714
8.451939
8.724928
7.323623
8.498430
7.761717
8.162856
9.120703
8.364916
7.966757
7.819533
8.331537
7.880926
8.486509
8.888841
8.467436
9.601712
9.413958
8.860826
9.175539
9.857416
10.466576
10.130405
10.646582
11.531711
11.798739
14.150739
13.643503
14.904737
15.672445
16.734600
17.390847
18.126965
16.711950
17.347932
16.293526
16.576648
13.219714
13.781786
12.954473
12.657642
12.532473
11.785626
11.244416
11.039972
10.112524
10.341406
10.434985
11.312962
10.023713
11.395812
10.082722
##ZVALUE=235
15.434623
19.463897
39.187670
85.931420
133.943558
197.985768
254.661441
317.419767
343.573689
342.418551
298.354626
239.321589
161.905885
122.725964
83.830953
65.984726
70.135593
73.662996
78.568459
80.905557
74.734688
62.876940
51.778555
36.329627
23.850799
15.084743
11.650920
9.451509
8.891821
9.430647
10.420680
9.219646
10.717511
9.939671
10.213852
10.275841
9.610653
10.438561
9.067655
9.912848
9.962916
9.134412
8.838773
9.265542
9.346604
9.343624
8.813739
8.086562
9.976625
8.481741
8.398890
8.055568
9.725690
8.736849
8.583665
10.057688
8.643866
9.887815
8.426905
10.026693
9.300709
9.926558
10.426641
11.130571
10.900497
10.915995
11.638999
11.569858
13.348460
15.267730
16.484857
18.094778
18.030405
18.600821
20.845532
20.432472
22.242665
21.321774
21.556616
20.017624
19.897819
19.872785
19.910932
17.123818
16.658902
15.954971
16.944408
17.728806
15.597939
15.826821
14.583468
15.246868
14.575720
16.141534
13.762712
14.386773
##ZVALUE=240
1.898408
1.965761
7.879734
21.639466
59.337616
105.863810
191.433430
275.572538
398.975611
472.554564
523.716807
512.359738
460.003614
364.016891
283.666849
182.190537
134.666562
101.169944
91.743469
99.043846
107.464790
114.056468
112.572908
101.383924
81.632733
67.283511
49.248934
35.036802
22.055507
17.289519
13.077855
11.416674
12.078881
11.487603
11.763573
10.908842
10.596514
10.662675
10.651946
11.152625
10.514855
10.030866
10.273457
9.276867
9.841919
9.039640
9.353757
9.638667
8.808970
9.341836
9.252429
9.120703
9.652972
9.242892
8.753538
10.885596
9.680986
9.739995
10.989904
10.614991
10.709763
12.265444
12.282729
12.032986
12.032986
13.824701
12.541413
14.194846
15.623569
17.411709
17.876625
19.984841
20.986795
22.279620
21.732450
22.630692
23.536682
24.454594
22.694468
24.458766
23.158789
21.855831
22.170544
21.345615
19.904971
20.623803
19.071698
20.478964
20.198822
21.676421
19.438863
18.771887
18.303990
18.938780
18.364787
17.547607
##ZVALUE=245
1.191497
1.272559
1.263618
1.708865
4.491806
15.288591
48.947930
95.227957
199.928880
288.482904
433.678627
523.035526
592.371821
628.987551
583.495498
487.107635
396.744609
272.160769
191.026926
120.546818
101.765990
96.762776
113.971829
124.981999
127.320886
128.864646
112.755895
98.812580
77.069998
57.795644
42.547584
27.509928
20.176768
14.950633
13.440847
12.278557
11.719465
11.002421
10.459423
10.808706
10.186434
11.145473
9.717941
9.614825
9.677410
9.483695
9.460449
9.398460
8.977652
9.347796
8.873940
8.922815
9.341836
7.995963
8.890629
8.418560
8.831620
9.135604
8.967519
9.770989
10.391474
10.263920
9.610653
10.057688
10.808706
10.727644
10.375977
13.384819
13.933778
14.910698
15.137792
16.664863
18.494725
19.255877
20.346642
20.268559
22.330880
22.415519
20.805597
22.849441
20.935535
21.147728
19.915700
19.556880
20.374656
18.708706
19.139647
20.928979
18.677711
19.939542
19.732714
18.793941
19.826889
20.645857
18.378496
18.566847
##ZVALUE=250
1.494884
1.666546
1.373887
1.245737
1.523495
1.332760
2.741814
7.679462
32.541752
69.217682
154.670477
249.836445
358.495712
514.110923
614.756942
687.955022
667.314529
600.714684
509.541631
359.670520
242.223740
166.583657
105.126500
95.106959
105.610490
124.049783
139.043927
139.893889
136.430860
125.124454
109.976530
84.192753
65.086484
41.820407
28.784871
18.607974
15.442967
11.459589
11.373758
12.492537
10.765791
11.099577
10.650754
9.985566
9.970665
9.325743
8.659959
9.134412
9.204745
9.288788
9.121895
8.278489
8.735657
7.220507
8.298755
8.526444
7.912517
8.315444
8.305907
8.503795
9.316802
9.127855
8.991957
8.841753
9.147525
10.059476
9.976625
11.289716
10.830760
13.160706
13.764501
15.917420
15.724897
17.765760
17.785430
19.409657
19.757748
18.570423
19.075871
20.507574
19.226670
18.569827
20.560622
18.091798
19.595623
19.132495
19.148588
18.214583
18.103719
19.337535
18.397570
17.262697
20.005703
18.128753
19.117594
18.273592
##ZVALUE=255
0.816584
0.683665
1.021624
0.768900
1.047850
0.786781
0.906587
1.349449
1.407862
4.028678
26.359558
66.861510
135.490894
275.890827
422.518849
636.935830
778.002739
903.145671
935.669541
857.374668
721.311569
566.999912
350.727439
226.472616
124.070644
94.614625
91.797709
105.180740
133.384466
143.042803
150.221586
147.056580
133.527517
109.579563
84.836483
57.073832
42.312741
25.781989
18.225908
13.678670
11.843443
11.452436
11.044741
10.557771
9.662509
9.403825
9.179711
8.969903
9.540915
9.012818
9.012818
8.436441
8.478761
8.595586
7.148981
7.464886
7.407665
7.643700
7.483959
8.265972
7.540584
8.317828
7.848740
8.487701
8.182526
9.454489
8.625984
10.418892
10.159612
11.343956
12.534857
12.944937
14.376640
15.757680
15.773773
16.149879
16.204715
17.687678
17.064810
16.496778
17.056465
17.827749
16.008615
16.181469
15.926957
16.056895
16.465783
16.786456
16.902685
16.625524
16.903877
17.361641
17.336607
16.415715
16.881824
18.388629
##ZVALUE=260
0.631809
0.870824
0.442863
0.580549
0.908971
0.670552
0.889897
0.773668
0.906587
1.369715
1.431704
2.248883
8.287430
44.527650
103.087425
239.847898
380.938649
611.199737
782.522559
978.523493
1015.291810
1015.291810
890.511870
717.284679
474.203825
318.073630
183.464885
121.068954
84.005594
86.900592
101.127625
129.187703
146.320462
153.699517
149.130821
131.422877
113.882422
86.372495
64.346790
40.342808
27.531981
17.255545
13.725758
10.898709
10.458827
9.632707
9.702444
9.846687
9.011626
9.445548
9.351969
8.415580
7.988811
8.091927
8.312464
7.572770
7.507801
7.383823
7.659793
7.348657
7.913709
7.573962
7.286668
7.091761
7.655621
8.001924
8.127689
8.507967
9.258986
10.287762
10.468960
11.572838
11.934638
12.447834
12.560487
13.645887
14.233589
14.012456
14.323592
14.871955
14.225841
14.298558
14.758706
13.530850
13.988614
14.757514
14.436841
14.690757
15.054941
15.282631
14.925599
15.817881
14.666915
15.257597
15.978813
15.790462
##ZVALUE=265
0.391603
0.436902
0.463724
0.497699
0.746846
0.707507
0.691414
0.762939
0.836849
0.775456
1.035929
1.217723
1.074672
1.328588
4.383922
24.044514
59.304833
149.833560
257.682800
464.404821
641.369820
806.167722
943.706036
978.624821
873.779655
754.397511
558.573604
388.796926
215.325952
135.761499
81.611872
71.488619
81.627965
114.005804
131.304860
152.061582
155.071616
149.175525
135.076642
107.137561
84.833503
58.366656
41.718483
23.798943
16.761422
11.603832
10.101795
9.040833
8.257627
8.653998
8.031726
8.440614
7.697940
7.091761
7.215738
7.076859
7.137656
7.037520
6.738901
7.296801
6.941557
6.824732
7.015467
6.717443
6.912947
7.467866
7.905960
7.659793
8.285642
8.716583
8.859634
9.944439
10.647774
10.814667
10.855794
12.093782
11.608601
12.315512
12.310743
11.723638
12.320876
12.089610
12.670755
12.718439
13.135672
13.571978
13.453960
12.981892
12.965798
13.659596
13.453960
14.100671
13.301969
13.883710
14.407635
14.362931
##ZVALUE=270
0.674725
0.449419
0.266433
0.541806
0.552535
0.605583
0.421405
0.356436
0.808835
0.623465
0.766516
0.907779
0.958443
0.991821
1.313686
1.367927
1.850724
8.008480
24.830699
80.856681
159.610510
281.684995
502.444506
678.624511
871.355534
947.580934
934.785008
851.963758
669.250488
498.468876
351.831913
188.975930
108.695626
65.577626
63.947439
85.653663
107.141733
135.538578
151.091814
156.557560
150.247812
133.556724
112.160444
82.783699
59.420466
37.489533
25.323629
16.324520
11.852980
8.824468
7.934570
7.835627
7.689595
7.185936
7.252693
6.868839
7.183552
6.715655
6.926656
6.579757
6.583929
6.869435
6.872416
6.491542
6.587505
6.882548
6.870627
7.279515
7.486939
8.052588
9.049773
8.805990
9.462833
10.218620
10.313988
10.460615
11.455417
10.820627
11.103749
11.215806
11.200905
11.060834
12.208819
11.438727
11.974573
11.404753
11.736751
12.305975
12.649894
12.324452
12.966990
12.311935
13.218522
12.945533
12.276769
13.073683
##ZVALUE=275
0.696778
0.758767
0.705719
0.538826
0.522733
0.588894
0.508428
0.693798
0.876784
0.789762
0.682473
0.820756
0.963807
1.066923
0.916719
1.170635
1.353621
1.461506
1.376867
3.989935
13.796687
39.993525
120.953918
232.144594
437.227488
605.278015
807.675719
929.904580
988.276005
945.629478
795.710683
629.158020
450.250506
239.610672
139.931440
67.934990
50.837994
59.933662
78.894496
107.307434
126.537681
146.393776
151.815414
144.782662
131.752491
104.384422
82.627535
57.993531
41.090846
24.451613
16.206503
10.211468
8.483529
7.188916
6.893873
7.002950
6.708503
6.707907
6.887913
6.648898
6.698966
6.487966
7.295609
6.833673
7.489920
6.812811
7.710457
7.466674
7.550716
8.863807
9.114742
9.145737
9.686947
10.775924
10.304451
11.023879
10.671616
10.952950
10.605454
11.444688
11.036992
11.136532
11.004806
11.192560
10.850430
11.774898
11.175871
11.468530
11.736751
11.800528
11.497736
11.761785
11.458993
12.007952
12.360811
12.525916
##ZVALUE=280
0.432730
0.409484
0.458956
0.436902
0.541806
0.657439
0.470877
0.511408
0.738502
0.658631
0.527501
0.731945
0.663996
0.673532
0.658631
0.820756
0.634789
0.801682
1.157522
1.265407
1.328588
1.762509
9.590983
30.595660
96.801519
180.023909
345.197916
512.493849
754.066706
900.321603
1009.765863
1009.434462
926.559567
711.146593
526.029468
299.163461
178.218484
83.357692
48.400760
41.453838
53.475499
78.825951
100.809932
127.099752
140.974522
148.696899
142.727494
124.704838
107.544661
78.710914
58.934689
36.026835
25.403500
13.858676
9.704828
7.340908
6.690621
6.538630
6.368756
6.398559
6.584525
6.988645
7.370710
6.989837
6.787777
6.943941
7.296801
7.721782
8.317828
8.217692
8.721948
9.061694
9.301901
9.958744
9.893775
9.833574
9.930730
10.047555
10.540485
10.770559
10.912418
10.892749
10.615587
10.743737
10.594726
10.780692
11.228919
10.995865
10.698438
11.045933
10.966659
10.896921
11.145473
10.775924
11.010766
10.968447
##ZVALUE=285
0.580549
0.525713
0.562668
0.632405
0.599623
0.437498
0.507832
0.683665
0.679493
0.671744
0.738502
0.779629
0.769496
0.588894
0.559688
0.686646
0.860691
0.706911
0.874996
0.806451
1.105666
1.154542
1.407862
1.741648
3.972650
19.978881
49.470663
132.643580
230.453610
429.770947
618.901849
871.307850
1015.512943
1015.584469
1015.584469
874.141455
684.321523
413.532853
256.923437
118.337870
61.781406
32.740831
35.019517
51.889420
70.876479
99.316835
120.447874
138.944983
144.351721
140.806437
127.791762
104.053617
83.958507
56.521893
39.509535
22.633672
15.677810
9.246469
7.707477
6.777644
6.742477
6.631613
6.172657
7.150769
6.947517
7.638931
7.621646
7.761717
7.868409
8.223653
8.806586
9.033680
9.060502
9.588599
9.769797
9.825826
10.399818
10.089874
10.378957
10.658503
10.566711
10.890961
10.462999
10.909438
11.162758
10.589957
10.736585
10.725856
10.816455
10.738969
11.002421
10.942817
10.861754
10.865927
11.357665
10.890961
##ZVALUE=290
0.419617
0.371933
0.490546
0.512600
0.555515
0.718832
0.558496
0.485778
0.585914
0.431538
0.716448
0.545979
0.795722
0.599623
0.724792
0.707507
0.651479
0.879765
0.968575
0.781417
0.952482
0.954866
1.129508
1.123548
1.374483
1.384616
2.225637
6.348491
30.443668
72.918534
170.585513
300.652981
473.909974
735.527873
907.343626
1015.577912
1015.577912
935.972929
774.661899
521.360040
345.711708
175.169706
89.910626
35.718679
24.956465
33.968687
46.996474
69.801807
89.786649
116.364956
129.634738
138.259530
136.775970
120.528936
105.461478
77.338815
57.335496
35.669804
24.703741
14.511943
10.433793
8.028746
6.992817
7.046461
6.693602
7.195473
7.335544
7.895827
8.325577
8.607507
9.049773
9.244680
9.241700
9.708405
9.825826
9.995699
10.169744
10.031462
10.258555
10.102987
10.267496
10.865927
10.591745
10.480881
10.838509
11.077523
10.778904
10.739565
10.731816
10.719895
10.793805
10.954738
10.681748
10.874867
10.821819
10.802746
##ZVALUE=295
0.423789
0.391603
0.444651
0.366569
0.430942
0.380874
0.495911
0.724792
0.458956
0.411868
0.445843
0.429749
0.657439
0.732541
0.389814
0.483990
0.747442
0.732541
0.754595
0.724792
0.694990
0.664592
0.837445
0.874996
0.938773
0.960827
1.254678
1.216531
1.582503
2.742410
9.523630
44.147968
99.957585
239.567757
390.811563
634.958744
810.004473
981.271863
1015.584469
962.181687
833.753943
603.206754
421.340466
227.059722
123.845935
47.466755
24.620891
20.622611
28.267503
44.658780
61.791539
88.115931
106.477737
123.667717
131.582618
128.677487
119.262934
96.941590
78.266859
54.254532
39.306879
24.307966
15.989542
10.677576
8.574724
7.572770
7.268786
7.938743
7.882714
8.319616
8.581877
9.251833
9.375811
9.576678
9.856820
10.285974
10.199547
10.753870
10.592937
10.409951
10.598898
10.909438
10.682940
10.725856
10.950565
11.151433
11.294484
10.451674
11.028647
10.833740
10.591745
10.896921
10.743737
10.774732
10.683537
10.638833
##ZVALUE=300
0.436902
0.289679
0.510812
0.437498
0.458956
0.534654
0.491738
0.489950
0.346899
0.286698
0.508428
0.653863
0.589490
0.379682
0.525713
0.532866
0.458956
0.686646
0.626445
0.537634
0.661612
0.621676
0.524521
0.766516
0.980496
0.839829
1.009703
0.930429
1.237988
1.124740
1.458526
1.813769
6.964803
23.159981
78.119636
158.563852
325.786471
499.361753
740.771890
890.452862
1010.506749
1011.466980
887.019634
733.446479
489.716530
321.225524
160.262585
87.743998
34.200549
17.753839
17.997622
24.980903
40.722489
56.101680
80.360770
99.636912
119.122863
123.967528
123.548508
114.650726
95.957518
79.015493
54.819584
40.029883
24.211407
17.305613
11.243820
9.056926
8.081794
8.352995
8.415580
8.522868
9.325743
9.259582
9.692907
9.508729
10.284781
10.048747
10.233521
10.908842
10.522604
10.954738
11.063814
11.035800
11.067986
10.661483
10.830760
11.278987
10.767579
10.532737
10.486841
10.743737
10.641813
10.647774
10.933876
10.620952
##ZVALUE=305
0.512600
0.410676
0.479817
0.552535
0.326633
0.480413
0.360608
0.359416
0.392795
0.419617
0.416636
0.417829
0.509620
0.470877
0.435710
0.490546
0.399947
0.598431
0.714660
0.691414
0.493526
0.676513
0.698566
0.591874
0.780821
0.649691
0.772476
0.864863
0.861883
0.853539
1.182556
1.161695
1.270771
1.572967
2.362728
15.766621
44.020414
128.784776
233.130455
434.701443
614.955425
846.271515
972.802639
1015.584469
960.023999
766.646862
600.915551
386.213660
243.603587
110.240579
53.722858
19.984841
12.992620
16.144514
23.585558
39.064884
55.009723
77.915788
95.022917
112.531781
118.579865
118.586421
109.840631
92.709661
75.250864
52.509904
38.713813
25.271773
17.266870
12.198687
10.245442
9.405613
9.258986
10.018945
9.774566
9.959936
10.162592
10.002851
10.318756
10.566711
10.777712
10.760427
10.669827
10.917783
11.240840
10.805726
11.039972
11.201501
11.006594
10.798573
10.988712
11.053681
10.751486
10.441542
10.733604
10.952950
##ZVALUE=310
0.324845
0.332594
0.374913
0.420809
0.303984
0.404716
0.342727
0.276566
0.477433
0.472665
0.282526
0.356436
0.543594
0.275970
0.286698
0.358820
0.565648
0.581741
0.458956
0.567436
0.585914
0.687838
0.654459
0.574589
0.664592
0.574589
0.655651
0.730753
0.772476
0.752807
1.042485
0.983477
0.999570
1.007915
1.347661
1.388788
1.760721
7.680655
27.124882
87.566972
167.102814
334.800482
511.934757
750.603676
902.165771
1014.790535
1011.815667
889.730453
735.355020
497.720838
331.425667
166.956782
89.399815
32.997727
14.486909
10.710955
13.745427
22.546649
32.486916
49.526691
65.950751
88.175535
102.146864
111.751556
114.177465
105.089545
91.871619
72.165728
55.890679
37.204623
26.689768
17.791986
13.642907
10.871887
10.422468
10.039806
9.923577
10.383725
9.966493
10.284781
10.840893
10.831952
10.855794
11.054873
11.302829
11.144876
11.610985
11.050701
10.831952
11.146665
11.089444
10.805726
10.807514
10.765791
10.744929
11.046529
##ZVALUE=315
0.204444
0.200868
0.248551
0.340939
0.364780
0.342727
0.247955
0.333786
0.261664
0.280738
0.397563
0.282526
0.281930
0.328422
0.491738
0.432730
0.491738
0.373721
0.338554
0.301600
0.378489
0.428557
0.432730
0.507832
0.284910
0.382662
0.583529
0.568628
0.620484
0.711679
0.658631
0.716448
0.866652
0.892878
0.870824
0.996590
1.044869
1.280904
1.568794
4.310608
17.464757
77.662468
164.870620
338.829756
506.802797
748.471618
892.359614
1013.751626
1015.504003
968.220830
828.725696
595.378876
419.554710
222.925544
121.017694
44.975877
19.872785
9.931922
9.955764
13.646483
19.467473
32.427907
45.355558
65.538883
81.156492
98.668933
106.037855
107.764602
101.477504
84.000826
71.066618
53.454638
38.566589
25.564432
18.577576
13.360977
11.419654
10.800958
10.328889
10.216832
10.574460
10.762811
10.986924
10.529757
11.043549
10.890961
10.963678
11.220574
11.082888
10.810494
11.047721
10.801554
10.879636
10.762811
10.590553
10.664463
##ZVALUE=320
0.147820
0.145435
0.104904
0.196695
0.183582
0.237823
0.006557
0.160933
0.089407
0.139475
0.272989
0.039935
0.287890
0.178814
0.305772
0.238419
0.200868
0.230670
0.354648
0.270605
0.417829
0.160933
0.388622
0.486970
0.442863
0.412464
0.319481
0.331998
0.450611
0.557899
0.582933
0.457764
0.524521
0.658631
0.734925
0.735521
0.663996
0.941753
0.987649
1.276731
1.362562
1.528859
8.406639
30.423403
107.927918
209.206939
398.651958
574.051738
808.408856
959.367752
1015.420556
1015.420556
904.507637
740.559697
497.381687
323.018432
148.481727
78.100562
28.898716
13.238788
8.393526
9.014606
12.468696
17.347932
27.978420
40.131807
58.819652
74.272752
92.516541
100.950599
101.576447
97.196698
83.603859
68.978667
50.640702
39.097667
26.070476
19.173622
14.044642
11.926889
11.154413
10.648966
10.515451
10.844469
10.698438
10.929704
10.996461
10.810494
11.109710
10.827780
11.104941
11.044741
10.778904
10.734797
10.449886
10.688901
##ZVALUE=325
0.302792
0.345707
0.262856
0.314713
0.304580
0.186563
0.391603
0.322461
0.311732
0.223517
0.463724
0.351667
0.301600
0.286698
0.313520
0.259876
0.376701
0.393987
0.430942
0.531673
0.411868
0.463724
0.487566
0.459552
0.413656
0.484586
0.528693
0.552535
0.519753
0.544786
0.479817
0.700951
0.483990
0.527501
0.577569
0.854731
0.802875
0.852942
0.798702
0.936985
1.032948
1.259446
1.344681
1.359582
2.871752
17.798543
47.645569
128.745437
231.872797
436.596870
617.175698
844.893456
976.309776
1015.584469
969.125628
776.220560
585.760474
351.197720
214.792490
98.945498
46.826601
15.581846
9.471774
7.893443
8.987784
12.344718
17.078519
28.059483
39.681792
58.762431
72.818995
87.817907
93.969703
96.525550
90.473890
77.766776
64.585805
48.257709
36.232471
24.510622
18.516779
13.686419
12.239814
11.479855
11.224747
10.789633
10.887980
10.679960
10.901690
10.737777
10.878444
11.052489
10.787845
10.259748
10.691881
10.570884
##ZVALUE=330
0.218749
0.302792
0.334978
0.334978
0.325441
0.317693
0.168681
0.225902
0.289679
0.205636
0.202656
0.380874
0.308752
0.198483
0.207424
0.288486
0.341535
0.340939
0.385642
0.394583
0.354648
0.405908
0.528693
0.554919
0.536442
0.434518
0.489950
0.504851
0.453591
0.297427
0.488758
0.544786
0.525713
0.524521
0.472665
0.711679
0.688434
0.801682
0.590682
0.787973
0.806451
1.031756
0.899434
1.020432
1.342893
1.427531
1.751781
7.762909
24.943948
85.194707
165.658593
334.833860
501.579642
742.157698
900.640488
1013.773680
998.619795
857.211947
688.582659
445.224643
289.065838
134.077668
68.781972
24.902821
11.582971
7.851720
7.909536
8.868575
11.595488
18.061996
25.613904
39.921999
52.594543
70.372820
81.545711
90.390444
90.988874
84.808469
75.346828
59.520602
46.692491
32.379627
24.938583
18.184781
15.127659
12.375712
11.490583
10.773540
10.723472
10.702610
10.784864
10.550618
10.482669
10.581613
10.256767
10.423660
##ZVALUE=335
0.234842
0.198483
0.437498
0.274777
0.245571
0.214577
0.249743
0.198483
0.273585
0.089407
0.221729
0.234842
0.217557
0.164509
0.178814
0.262856
0.401735
0.242591
0.321865
0.333786
0.224710
0.433922
0.251532
0.354648
0.362992
0.294447
0.268817
0.412464
0.337958
0.471473
0.433922
0.533462
0.524521
0.382662
0.597835
0.521541
0.785589
0.564456
0.589490
0.629425
0.711679
0.728965
0.621676
0.847578
0.886917
0.891685
1.034737
1.135468
1.314878
3.395677
12.549758
52.084923
111.443996
251.550674
405.350924
651.651621
829.596519
981.211662
1008.396745
921.483636
781.409740
539.455414
368.993878
190.998912
100.794435
34.623742
14.708638
8.401871
7.949471
8.231401
8.974671
11.725426
16.190410
26.467443
37.050843
53.393841
64.530969
77.630877
84.375739
85.937977
80.942512
68.723559
58.622956
45.311451
35.335422
25.010705
19.121766
14.650822
12.611747
11.490583
10.792613
10.718703
10.382533
10.135770
10.064840
10.256767
##ZVALUE=340
0.251532
0.324845
0.274777
0.154972
0.306964
0.279546
0.254512
0.355840
0.337958
0.341535
0.235438
0.262856
0.278950
0.318885
0.347495
0.351667
0.259876
0.107884
0.134706
0.322461
0.329614
0.335574
0.448823
0.449419
0.402927
0.410676
0.541806
0.396967
0.304580
0.410676
0.252724
0.457764
0.361800
0.419617
0.317693
0.397563
0.529885
0.724792
0.517964
0.433922
0.650883
0.658631
0.556707
0.612736
0.610948
0.579953
0.715852
0.877976
0.965595
1.075864
1.198649
1.805425
5.837679
30.565858
75.866580
192.215443
323.554873
540.171862
714.489818
894.907713
958.395600
921.648741
811.852813
604.579449
426.532626
224.731565
124.166608
50.798655
21.186471
9.002686
7.914901
8.008480
8.189678
9.570718
11.865497
17.770529
24.333000
36.994815
47.665834
63.566566
72.692633
79.762936
80.699921
75.835586
68.584681
55.385828
45.253634
32.723546
25.525689
18.032789
14.728904
11.505485
10.921955
10.188818
9.691715
9.908676
##ZVALUE=345
0.209808
0.256896
0.104904
0.059605
0.239611
0.266433
0.098944
0.207424
0.293851
0.402927
0.293851
0.435710
0.341535
0.135899
0.381470
0.285506
0.200868
0.261664
0.284910
0.244975
0.301600
0.312924
0.211596
0.284910
0.431538
0.448823
0.273585
0.353456
0.302792
0.303984
0.396967
0.441670
0.290871
0.386834
0.453591
0.408888
0.275970
0.285506
0.428557
0.459552
0.509620
0.560880
0.474453
0.600815
0.454783
0.664592
0.758767
0.667572
0.731945
0.828505
0.874996
0.998974
1.029968
1.186728
2.685785
16.592741
46.757460
126.122832
225.993991
416.840911
582.007766
789.558887
894.430876
926.728845
863.431692
680.061579
504.058599
289.393663
165.416598
69.143772
31.049848
11.493564
8.399487
7.569790
7.698536
7.934570
8.659959
11.442900
15.141964
23.810863
31.733513
46.207905
55.628419
67.418814
72.276592
74.016452
71.530938
63.630939
55.245757
43.142438
33.803582
23.633838
18.859506
13.867617
11.935830
10.256767
##ZVALUE=350
0.141859
0.156760
0.058413
0.101924
0.125766
0.131726
0.257492
0.127554
0.022650
0.202656
0.234842
0.273585
0.227690
0.220537
0.195503
0.178814
0.229478
0.200868
0.231862
0.037551
0.100732
0.242591
0.145435
0.320673
0.244975
0.359416
0.233650
0.158548
0.425577
0.379682
0.300407
0.310540
0.232458
0.264645
0.359416
0.303984
0.331998
0.440478
0.532866
0.279546
0.374913
0.345707
0.549555
0.606775
0.577569
0.426769
0.455976
0.417829
0.639558
0.536442
0.654459
0.848770
0.890493
0.837445
0.905991
1.232624
1.590848
8.788705
27.209520
84.724426
163.898468
327.698588
479.812622
676.759481
806.213617
886.297822
851.305723
715.891719
555.133820
335.624814
209.177732
97.481608
45.707822
14.543533
8.673668
7.100701
7.364750
6.947517
7.200837
8.489490
10.134578
15.360713
20.589828
29.227734
38.152933
50.372481
58.916807
66.440701
68.769455
66.355467
60.950518
50.897598
42.473674
30.914545
23.905635
17.201900
##ZVALUE=355
0.250936
0.157952
0.269413
0.113845
0.272989
0.219941
0.050664
0.136495
0.346899
0.184774
0.100732
0.248551
0.166893
0.088811
0.181794
0.305772
0.047684
0.231862
0.243783
0.234842
0.104904
0.039935
0.282526
0.132918
0.343919
0.260472
0.246763
0.343919
0.285506
0.264645
0.207424
0.302792
0.198483
0.194907
0.130534
0.273585
0.251532
0.466704
0.352859
0.401735
0.324845
0.425577
0.449419
0.545979
0.471473
0.505447
0.566840
0.582933
0.498891
0.514984
0.481606
0.502467
0.599623
0.664592
0.722408
0.740886
0.872612
0.984669
1.287460
3.005862
17.626882
48.200488
129.474998
233.582854
425.929427
580.149889
760.324597
846.131444
844.805837
753.026605
562.287569
414.012671
237.255692
132.068992
51.091909
23.194551
9.370446
7.210970
6.704926
6.726980
6.992817
7.100701
8.143783
9.505749
13.121963
17.432570
26.106834
33.707619
45.039654
51.858425
59.181452
61.690807
60.637593
55.981874
47.290921
39.681792
##ZVALUE=360
0.150800
0.216961
0.285506
0.113845
0.323653
0.162721
0.142455
0.320673
0.259876
0.227690
0.195503
0.316501
0.291467
0.275970
0.243783
0.126958
0.225902
0.224710
0.282526
0.225902
0.276566
0.204444
0.339746
0.282526
0.272989
0.343919
0.420809
0.344515
0.354648
0.245571
0.225902
0.388622
0.483990
0.209808
0.314713
0.153780
0.369549
0.321865
0.415444
0.360608
0.512600
0.555515
0.449419
0.622869
0.561476
0.494719
0.592470
0.496507
0.388622
0.640750
0.582933
0.489950
0.656843
0.427961
0.694990
0.733733
0.725985
1.038909
0.928640
1.058578
1.124740
2.053976
6.515980
30.156970
73.282719
183.156729
308.287740
501.756668
658.459663
809.884667
849.054456
786.546469
664.309859
453.885794
309.805870
162.099004
84.949732
30.237436
13.168454
7.173419
6.563663
6.303787
6.655455
6.541610
6.773472
7.298589
8.261800
10.793805
14.617443
21.051764
27.821660
37.571788
45.671463
52.491426
55.977702
55.737495
##ZVALUE=365
0.275970
0.138879
0.290871
0.179410
0.243783
0.265837
0.245571
0.258684
0.149608
0.224710
0.179410
0.260472
0.148416
0.254512
0.156760
0.198483
0.089407
0.301600
0.366569
0.228882
0.235438
0.293851
0.284910
0.193715
0.305772
0.357628
0.351667
0.169873
0.275970
0.306964
0.543594
0.438690
0.313520
0.228882
0.375509
0.564456
0.438690
0.448823
0.332594
0.363588
0.400543
0.378489
0.459552
0.366569
0.508428
0.393987
0.498891
0.415444
0.352859
0.549555
0.450611
0.687838
0.632405
0.516772
0.627637
0.734925
0.817776
0.720620
0.736713
0.807643
0.982881
0.929832
1.207590
1.363754
3.344417
12.256503
47.440529
106.319785
243.892670
388.242602
588.686466
712.057948
805.565715
805.321932
696.558952
566.668510
369.539857
230.091810
103.298426
49.554706
15.857816
8.292794
6.326437
6.254911
6.034970
6.094575
6.009936
5.892515
6.347895
7.298589
9.402633
12.280941
18.198490
24.296641
32.965541
39.329529
##ZVALUE=370
0.199676
0.073910
0.216961
0.179410
0.161529
0.176430
0.320673
0.244975
0.222921
0.249743
0.155568
0.196695
0.198483
0.234842
0.067949
0.099540
0.238419
0.059605
0.160933
0.223517
0.210404
0.081658
0.232458
0.268817
0.296831
0.100732
0.075698
0.256896
0.316501
0.301600
0.214577
0.284910
0.257492
0.336766
0.262856
0.325441
0.275970
0.263453
0.352859
0.249743
0.322461
0.317693
0.080466
0.256896
0.426769
0.359416
0.529885
0.547767
0.459552
0.341535
0.381470
0.421405
0.411868
0.672936
0.406504
0.674725
0.517964
0.658631
0.656843
0.617504
0.701547
0.690818
0.874996
0.725985
0.973940
1.106858
1.737475
8.132458
26.981831
87.860823
170.493722
332.204700
484.241843
678.382516
769.478679
801.373720
746.953487
586.837530
439.948440
251.055956
143.474936
57.921410
27.538538
10.093451
6.452799
5.661845
5.520582
5.326867
5.519986
5.512834
5.393624
5.743504
6.522536
8.309484
10.869503
15.774965
##ZVALUE=375
0.092983
0.001788
0.163913
0.143647
0.180602
0.174642
0.311732
0.237823
0.100732
0.132918
0.227690
0.183582
0.069737
0.226498
-0.012517
0.124574
0.250936
0.271797
0.206828
0.046492
0.271797
0.183582
0.305772
0.274777
0.184774
0.196695
0.209808
0.138879
0.144839
0.154972
0.162721
0.209808
0.182986
0.269413
0.318885
0.393987
0.274777
0.285506
0.267625
0.406504
0.325441
0.288486
0.293851
0.406504
0.174642
0.177622
0.282526
0.307560
0.215769
0.251532
0.282526
0.354648
0.374913
0.184774
0.319481
0.335574
0.521541
0.473857
0.438690
0.438690
0.597835
0.500679
0.590682
0.598431
0.660419
0.698566
0.908971
0.889897
1.204610
4.040599
14.133453
52.911639
114.483833
253.171921
396.237969
598.081946
722.435713
807.650685
799.641609
679.375529
540.334582
336.470008
210.807920
97.799897
48.974752
16.539693
7.866621
5.290508
5.202889
5.021691
5.061626
4.880428
4.731417
4.901886
5.344748
5.696416
##ZVALUE=380
0.225902
0.195503
0.203848
0.312924
0.268817
0.166893
0.177622
0.161529
0.076890
0.132918
0.240803
0.171661
0.257492
0.241995
0.084639
0.104904
0.255704
0.267625
0.202656
0.269413
0.122786
0.216961
0.273585
0.148416
0.198483
0.268817
0.190735
0.393987
0.252724
0.260472
0.395775
0.360608
0.164509
0.386834
0.279546
0.188947
0.402927
0.338554
0.338554
0.395775
0.316501
0.361800
0.298619
0.354648
0.369549
0.345707
0.324845
0.336766
0.411868
0.432730
0.361800
0.268817
0.212789
0.416636
0.295639
0.291467
0.404716
0.424981
0.425577
0.558496
0.472665
0.577569
0.635982
0.652671
0.513792
0.618696
0.813603
0.798702
0.998974
0.996590
1.229644
1.923442
9.679794
30.505657
95.217824
176.412463
337.858796
491.841435
686.826706
788.729787
814.525485
752.360821
602.782965
457.401872
270.063877
160.261989
65.409541
29.781461
9.689927
5.626678
4.656911
4.863739
4.634857
4.642606
4.695654
4.716516
##ZVALUE=385
0.160933
0.211596
0.134706
0.240803
0.109673
0.180602
0.216961
0.186563
0.208616
0.304580
0.153780
0.277758
0.199676
0.108480
0.212789
0.125766
0.187755
0.095963
0.246763
0.173450
0.127554
0.294447
0.188947
0.135899
0.283718
0.263453
0.197887
0.273585
0.219941
0.153780
0.144839
0.314713
0.140667
0.214577
0.324845
0.374913
0.324845
0.251532
0.313520
0.306964
0.334978
0.368953
0.251532
0.297427
0.149608
0.288486
0.236630
0.314713
0.344515
0.435710
0.322461
0.397563
0.359416
0.329614
0.348687
0.447631
0.453591
0.376701
0.400543
0.401735
0.446439
0.485778
0.378489
0.573993
0.556707
0.436902
0.503659
0.637770
0.719428
0.726581
0.845790
0.942945
1.159906
1.294613
3.568530
20.183921
52.590966
134.671926
241.390467
431.442857
583.194494
741.264820
796.684623
775.264502
691.708922
521.879792
372.812748
206.036568
116.872787
47.864914
19.328594
6.332994
4.576445
4.303455
4.260540
4.356503
##ZVALUE=390
0.173450
0.198483
0.169873
0.195503
0.190735
0.097752
0.175834
0.182986
0.177622
0.201464
0.171661
0.166893
0.143647
0.153780
0.118613
0.259876
0.140667
0.128746
0.008941
0.225902
0.101924
0.317693
0.280738
0.230670
0.258684
0.345707
0.163913
0.197887
0.229478
0.233650
0.225902
0.091791
0.208616
0.379682
0.300407
0.076890
0.193715
0.485778
0.317693
0.239611
0.188947
0.175834
0.317693
0.194907
0.235438
0.353456
0.205636
0.253916
0.492930
0.350475
0.272989
0.235438
0.345707
0.243783
0.363588
0.201464
0.427961
0.263453
0.349879
0.333786
0.472665
0.266433
0.326633
0.323653
0.465512
0.468493
0.522733
0.636578
0.664592
0.793934
0.785589
0.847578
1.030564
0.832677
1.053810
1.135468
1.771450
10.489821
33.251643
102.252960
193.516016
367.639661
503.386855
663.254857
758.142471
798.891783
751.940608
609.704852
470.987558
289.531946
170.079470
69.446564
31.313896
9.479523
5.035996
4.251599
##ZVALUE=395
0.055432
0.080466
0.150800
0.043511
0.155568
0.018477
0.124574
0.096560
0.094771
0.215769
0.130534
0.191927
0.259876
0.165701
0.272989
0.222921
0.174642
0.248551
0.081658
0.138879
0.246763
0.311732
0.247955
0.346899
0.174642
0.210404
0.200868
0.315905
0.191927
0.150800
0.231862
0.100732
0.321865
0.306964
0.358820
0.271797
0.424981
0.212789
0.309944
0.299811
0.275970
0.299811
0.317693
0.330806
0.339746
0.345707
0.161529
0.415444
0.250936
0.234842
0.420809
0.248551
0.320673
0.334978
0.228882
0.260472
0.191927
0.422597
0.390410
0.388622
0.426769
0.400543
0.313520
0.496507
0.448823
0.450611
0.517964
0.566840
0.562668
0.725985
0.616908
0.769496
0.945926
0.745654
0.718832
0.836849
0.979900
1.076460
1.526475
4.665852
25.810599
63.067675
149.966478
253.594518
435.158014
583.460927
744.341016
812.057853
790.455937
702.781677
531.837940
376.436710
200.181007
106.785893
39.718747
17.195940
##ZVALUE=400
0.052452
0.022650
0.038743
0.177622
0.185966
-0.006557
0.170469
0.187755
0.224710
0.182986
0.247955
0.124574
0.089407
0.144839
0.075698
0.347495
0.122786
0.157952
0.122786
0.130534
0.226498
0.270605
0.352859
0.161529
0.241995
0.301600
0.290871
0.224710
0.200868
0.123978
0.145435
0.257492
0.230670
0.218749
0.124574
0.247955
0.288486
0.275970
0.250936
0.213981
0.290871
0.352859
0.016689
0.320673
0.276566
0.180602
0.517964
0.251532
0.273585
0.304580
0.294447
0.347495
0.368953
0.361800
0.327826
0.318885
0.420809
0.289679
0.180602
0.421405
0.333786
0.311732
0.384450
0.387430
0.509620
0.325441
0.332594
0.472665
0.645518
0.642538
0.785589
0.781417
0.519753
0.656843
0.685453
0.675917
0.657439
0.818968
0.762939
0.852942
1.113415
2.344847
12.649894
35.712719
102.137923
187.756419
355.560780
499.820709
681.682825
770.883560
795.854926
735.645890
575.428605
425.593853
248.440504
149.145722
##END
