##TITLE=FQP00302
##FORMAT=SPECTACLE-ASCII V-1.2
##DATA TYPE=ULTRAVIOLET SPECTRUM
##SECOND TYPE=ULTRAVIOLET SPECTRUM
##DATE=01/24/18
##TIME=17:15:02
##SPECTROMETER/DATA SYSTEM=SPECTACLE
##XUNITS=NM EM
##YUNITS=ENERGY
##YFACTOR=1
##FIRSTX=220
##LASTX=410
##NPOINTS=96
##3DDATA=Equidistant
##ZUNITS=NM EX
##FIRSTZ=210
##LASTZ=400
##ZPOINTS=39
##XYDATA=(Y..Y)
##ZVALUE=210
1.471639
1.735687
1.385808
2.056956
2.075434
2.002716
1.831651
2.173781
1.835823
2.120733
2.257824
2.440810
2.261996
2.753735
2.552867
2.331734
3.099442
3.575683
3.609657
3.062487
3.209710
4.362464
3.985763
3.982782
4.350543
5.234480
5.186796
5.081892
5.768538
5.834699
6.542802
6.327629
7.781982
7.424951
7.833838
7.941723
7.210970
7.285476
7.862449
7.916689
7.741451
8.297563
7.424951
7.137656
7.534623
7.949471
7.551908
8.432865
7.424951
8.008480
6.981492
7.769465
7.848740
7.928610
8.231997
6.925464
8.207560
8.001924
7.199645
7.558465
8.206964
7.768869
8.432865
8.451939
8.172989
8.727908
8.334517
9.929538
11.932850
13.115406
15.168786
15.870929
19.719601
21.676421
25.762916
28.643608
29.199719
28.881431
28.562546
27.516484
25.720000
25.424957
21.165609
18.336773
14.121532
11.714697
9.392500
9.253621
8.164644
7.152557
7.774830
7.817745
7.635951
7.709861
7.079840
7.458925
##ZVALUE=215
5.693436
5.713701
5.723834
4.499555
4.390478
3.832579
4.493594
3.868937
5.013943
3.994703
4.119873
4.115701
3.850460
4.012585
2.898574
2.811551
2.720952
2.966523
3.037453
3.769994
3.160834
3.531575
4.722476
4.860759
4.747510
5.215406
5.909801
6.878972
6.673932
7.959604
7.788539
9.052753
9.963512
10.352731
9.204745
11.776686
10.589957
8.482933
10.351539
10.252595
10.554790
9.809732
9.190440
10.231733
8.983612
8.892417
8.311868
9.209514
9.271502
8.432865
8.764863
8.401871
8.027554
8.405447
9.303689
8.774996
8.767843
8.284450
8.329749
8.437634
8.540750
8.926988
8.376837
8.450747
8.501410
8.389950
9.131432
9.744763
9.950995
12.397766
15.427470
16.781688
17.569661
22.221804
26.153922
28.698444
28.265715
29.205680
27.090907
26.927590
23.989677
22.336841
20.734668
16.165972
14.457703
12.375712
9.215474
8.035898
8.584857
8.821487
7.111430
7.136464
7.219911
7.496476
6.890893
8.300543
##ZVALUE=220
22.784472
25.300980
26.446581
28.888583
26.028752
22.897720
19.055605
13.652444
10.700822
9.971857
10.999441
10.712743
11.536479
10.380745
8.480549
6.799698
5.080700
5.258918
4.438758
3.488660
4.606843
4.962683
4.215837
4.359484
5.398989
6.178617
7.270575
7.410645
8.497834
9.907484
12.877584
12.474656
14.573932
14.904737
15.269518
14.191866
16.235709
16.552806
15.150905
15.492439
13.943911
14.901757
13.986826
13.326406
13.836622
13.083816
12.016892
12.780428
11.311769
11.877418
11.557937
11.978745
11.597872
10.376573
9.503961
10.896921
10.086894
9.591579
10.591745
10.490417
9.601712
10.079741
9.585619
9.107590
10.231733
10.259748
9.951591
10.747910
12.279749
14.018416
16.752481
16.665459
18.996596
23.643970
24.306774
26.195645
28.097630
27.925968
27.982593
27.047992
26.389956
22.533536
21.721721
18.814802
16.021729
13.322830
11.673570
10.458827
9.578466
10.224581
9.770989
9.775758
8.433461
8.721948
8.793473
9.177923
##ZVALUE=225
44.146776
47.074556
64.466000
77.292919
91.502666
89.373589
88.843703
65.210462
51.876903
37.185550
26.571751
21.654963
21.153688
24.681687
24.055839
22.821426
19.503832
16.792417
12.220740
8.429885
6.822944
5.615950
4.761815
5.313754
5.954504
7.346869
7.754564
8.685589
10.797977
13.076663
14.207959
15.133619
15.746951
17.762780
17.372966
20.038486
18.602610
21.098852
20.058751
20.108819
19.526482
17.203689
17.398000
16.990900
16.277432
15.263557
15.024543
15.205741
15.161633
14.000535
14.073849
13.433695
12.970567
12.985468
12.834668
12.443662
12.410879
11.411905
11.760592
12.264848
12.003779
10.697842
12.104511
11.390448
12.634993
12.853742
12.463927
13.659596
14.308691
14.098883
18.218756
19.898415
19.730926
22.169948
23.804903
23.572445
25.276542
25.287867
26.122928
23.989677
23.446679
21.260977
20.419955
17.284751
16.870499
15.226603
14.621615
13.180971
12.353659
13.339520
13.129711
13.809800
12.038946
11.109710
12.107491
12.368560
##ZVALUE=230
40.994883
40.698647
81.863999
117.690563
160.295963
194.661617
226.816535
228.539705
204.340816
167.870522
113.910437
81.931949
61.875582
44.539571
41.014552
46.602488
47.826767
48.915744
41.735768
34.979582
29.021502
20.100474
11.433959
8.382797
6.616712
7.766485
8.572936
9.442568
10.539889
11.498928
12.613535
15.355945
15.910864
18.415451
16.749501
18.708706
17.567873
18.752813
18.945932
18.525720
19.435883
17.800927
17.748475
17.634630
16.410947
15.869737
14.637709
16.815662
15.930533
14.372468
13.394952
13.779998
13.968945
13.785958
14.200807
13.758540
14.493465
14.035702
14.566779
14.426708
13.564825
14.699697
13.370514
14.915466
14.674664
14.518499
13.454556
16.474724
17.720461
18.277764
19.385815
21.778941
23.990870
24.419427
28.269887
27.826428
27.600527
26.303530
28.032660
27.195811
24.728775
25.082827
23.258924
22.730827
21.287799
19.701719
21.362901
18.721819
17.669797
18.934608
19.305944
17.990470
17.658472
16.190410
18.251538
18.982887
##ZVALUE=235
15.008450
18.667579
38.368702
90.346932
138.025880
219.740868
290.618539
373.668671
414.815545
417.751670
368.476510
309.385657
213.110447
154.345632
104.512572
83.410740
73.541999
75.758696
83.335638
84.227920
78.626871
65.581799
49.781799
34.812689
24.816990
17.920732
12.463927
12.559891
10.455847
11.675954
11.509657
11.920929
12.245774
13.260841
15.006661
15.436411
14.216900
15.471578
15.919805
16.353726
15.576482
15.369654
14.176965
14.627576
16.078949
14.836788
14.163852
14.812946
13.878942
14.218688
14.150739
13.821721
12.418628
15.049577
13.350844
15.437603
15.863776
14.455914
13.669729
14.175773
16.009808
17.182827
16.029477
16.813874
17.304420
17.741919
19.180775
19.463897
20.963550
22.020936
24.843812
25.936961
26.010871
30.238628
31.632781
32.108426
30.763745
32.318830
34.251809
32.272935
34.343600
31.556487
30.430555
28.151870
28.318763
27.332902
26.978850
28.573871
26.440620
26.920438
25.016665
27.095675
25.396943
26.132464
24.899840
25.008917
##ZVALUE=240
1.520514
1.993775
7.671714
21.589994
56.407452
104.598999
198.015571
302.651525
450.196862
542.062521
608.166456
619.241595
571.752787
449.380875
348.348618
219.615698
159.698725
113.084912
95.705986
100.333691
110.102892
114.914775
109.135509
100.159645
82.318783
66.760778
47.962666
36.784410
24.338961
17.996430
15.818477
13.981462
14.463663
15.070438
13.093948
13.614893
14.680624
14.683604
15.445948
15.724897
13.928413
13.474822
13.361573
14.429688
13.416409
13.535619
14.625788
13.275743
13.490915
13.677478
12.779832
13.333559
13.100505
14.059544
13.321638
13.826489
13.894439
14.198422
15.538931
16.201735
14.709830
15.141964
16.692877
17.300844
17.691851
19.106865
19.230843
19.759536
21.651983
23.432970
25.392771
26.273727
27.211905
30.451417
31.678677
32.692552
31.197667
34.666657
33.558607
34.542680
35.756826
32.778978
33.297539
35.176873
33.284426
32.417774
32.968521
33.954978
33.555627
33.997893
33.444762
32.605529
32.283664
33.257604
32.596588
34.180880
##ZVALUE=245
1.520514
1.437664
1.416802
1.678467
4.218817
14.267564
45.921803
94.524622
198.190808
303.684473
471.366644
574.739575
664.203763
704.320669
671.952963
563.835502
449.937582
300.406814
214.164853
135.236979
106.391907
99.023581
113.537908
127.736926
133.049488
131.156445
118.946433
101.563931
77.980757
60.317516
44.528842
29.401779
24.561882
18.917918
17.768741
15.967488
16.716719
16.536713
16.981959
14.366508
15.706420
15.203953
13.712645
15.361905
14.472604
14.688969
13.893843
13.662577
12.943745
13.514757
12.701750
12.766719
13.144612
12.776852
12.883544
13.406873
13.615489
13.991594
13.177991
15.104413
13.601780
15.230775
14.925599
16.381741
15.417933
16.407967
18.894672
21.195412
19.315481
20.694733
23.063421
24.810433
26.168823
29.267669
30.077696
30.928850
30.135512
33.043623
32.644868
32.312870
33.687949
33.669472
32.511950
33.088923
31.217933
32.784939
33.474565
32.622814
32.840967
33.593774
34.037828
31.837821
33.722520
35.007596
31.705499
32.171607
##ZVALUE=250
1.126528
1.146793
1.662970
1.402497
1.448989
1.949668
2.370477
11.010766
32.012463
75.337887
187.896490
315.715671
494.163632
629.660487
736.874938
784.847736
760.385990
685.170889
576.011539
393.036604
263.400674
150.908828
108.348727
97.127557
109.498501
127.892494
139.548779
145.099759
140.661001
127.863884
112.600923
87.799430
68.651438
46.965480
36.649704
26.619434
21.995902
20.284653
19.162893
20.608902
18.606782
18.369555
18.756986
16.883612
16.400814
17.449856
17.387867
16.474724
16.591549
15.415549
14.042854
14.837980
14.661551
14.227629
13.780594
14.443994
13.836622
13.492703
14.046431
13.547540
14.552474
14.012456
14.332533
15.283823
15.756488
16.593933
16.715527
18.500686
19.815564
20.229816
22.559762
23.139715
24.044514
24.330616
27.360916
28.234720
28.113723
29.614568
28.345585
29.841661
29.653907
28.698444
29.191971
28.824806
30.057430
30.220747
29.685497
30.781627
29.727817
31.199455
31.369925
29.598475
30.469894
31.374693
31.619668
31.074882
##ZVALUE=255
1.106858
1.318455
1.074672
0.897646
1.200438
1.341701
1.333952
1.342893
2.193451
5.183816
26.338696
64.649582
136.504769
295.605659
444.850922
664.191842
809.388757
916.710496
927.431583
835.727453
705.861449
544.111729
333.589911
210.947990
121.715665
94.652772
93.182921
109.556913
135.583878
150.263906
158.794522
155.602694
147.148967
121.156573
98.913908
70.930719
53.329468
38.526654
30.557513
26.357770
23.875833
21.524429
21.916628
21.040440
21.421909
20.882487
19.640923
20.225644
18.123984
18.610954
17.170906
16.899705
16.249418
16.369820
16.336441
15.575886
15.689731
15.942454
15.472770
15.407801
15.026927
15.618801
14.978647
15.605688
15.610456
15.518665
16.132593
16.323924
17.784834
18.738508
19.473433
19.652843
22.521615
22.943616
24.378896
25.378466
25.042892
25.910735
26.299953
25.556684
27.852654
26.691556
27.174950
29.073954
28.946996
27.229786
28.235912
28.588772
28.318763
30.192733
27.794838
29.345751
28.240681
28.924942
29.846430
30.545592
##ZVALUE=260
0.747442
0.912547
0.924468
1.270771
0.908971
1.126528
1.159906
1.107454
1.322627
1.466870
1.657605
2.571940
8.019805
38.959980
91.682673
223.099589
379.559994
626.111627
818.807483
1015.584469
1015.584469
1015.584469
915.465951
721.489787
463.210940
309.875607
177.128911
115.303993
88.462830
93.624592
111.634731
144.309998
160.622597
171.063542
169.688463
153.742433
132.569671
102.401972
82.087517
59.860945
46.576858
36.255717
33.440590
30.075908
26.865602
26.097894
25.943518
24.916530
22.643805
22.902489
21.795630
21.095872
19.938946
19.821525
19.363761
17.915964
18.028617
17.324686
16.461611
16.084909
16.087890
15.834570
15.537739
16.808510
16.015768
16.387701
16.540885
16.914606
17.007589
18.808842
19.113421
19.673705
21.053553
22.183657
22.544861
23.280978
24.244785
23.989677
25.182962
25.369525
26.154518
25.083423
25.801659
25.707483
26.056767
25.137663
27.092695
27.634501
26.789904
26.724935
26.970506
27.542710
26.720762
27.396679
27.988553
28.632879
##ZVALUE=265
0.926852
0.942945
0.984669
1.185536
1.202822
0.941753
1.304746
1.152754
0.998974
1.328588
1.266599
1.640916
1.712441
2.121925
4.175901
22.530556
63.219666
196.126699
367.635489
723.813772
999.510884
1015.584469
1015.584469
1015.584469
1015.585065
1015.584469
739.864707
495.980978
268.045664
159.205794
105.721951
87.657571
99.749565
131.987929
156.694651
174.223781
180.078745
171.511769
158.346891
133.848786
110.723972
81.905723
65.187812
47.218800
39.431453
32.137632
30.026436
28.276443
26.892424
24.782419
25.288463
24.198890
22.244453
21.342635
21.224618
20.269752
18.991828
18.842816
17.590523
16.825795
17.014742
16.840696
15.931726
16.810894
16.304851
15.993714
16.254783
17.047524
17.459989
18.013716
18.681884
19.814968
20.776987
21.070838
22.629499
22.596717
22.744536
22.445917
22.222996
23.752451
23.122430
24.915934
23.707747
23.400784
23.803711
24.561882
24.987459
24.474859
24.930835
24.946928
24.607778
25.283694
26.767850
26.120543
27.325749
26.237965
##ZVALUE=270
0.945926
1.042485
1.021624
0.977516
0.771880
0.876784
1.048446
0.876784
1.501441
1.117587
1.291633
1.327991
1.230836
1.434684
1.889467
2.019405
2.611876
9.963512
28.777719
108.525753
274.521708
546.030998
992.537737
1015.584469
1015.584469
1015.584469
1015.584469
1015.584469
1015.584469
782.516599
512.746572
260.961652
151.735544
88.862777
87.271929
110.400915
132.809877
159.136653
173.536539
182.617903
178.145766
157.694817
137.916803
109.545588
84.292889
60.953498
48.611760
37.882924
31.758547
27.458668
26.806593
24.509430
23.465753
21.565557
20.642877
19.885898
19.152761
18.481612
18.280745
17.077923
17.897487
16.381741
16.074777
16.312599
16.573668
16.360879
16.532540
16.495585
17.523766
17.701983
18.363595
19.710660
19.973516
20.780563
20.571947
21.345615
23.073554
21.358728
21.912456
21.787882
22.353530
22.337437
22.816658
23.389459
22.897720
23.913980
24.095774
24.050474
23.876429
24.243593
24.488568
24.698973
24.047494
23.974776
23.928881
24.050474
##ZVALUE=275
0.853539
0.834465
0.675917
0.918508
0.770688
1.098514
0.918508
0.921488
0.888705
1.161695
1.196861
1.259446
1.311898
1.268983
1.223683
1.656413
1.948476
2.042651
2.267957
5.251765
16.727448
47.783852
152.434707
351.697803
813.173652
1015.584469
1015.584469
1015.584469
1015.584469
1015.584469
1015.584469
1015.584469
792.261958
393.765569
222.779512
106.747746
77.573657
83.601475
100.700855
130.601525
150.681734
169.491768
176.264644
167.928934
154.157877
123.796463
103.820562
76.317787
58.231950
40.858984
32.297969
24.965405
21.869540
20.788908
19.510984
18.839836
18.304586
17.349720
17.325878
16.427636
16.215444
15.979409
16.101599
15.870929
16.137958
15.945435
16.336441
16.069412
17.087460
16.973615
18.658638
19.493699
19.938946
20.345449
21.030903
21.217465
21.413565
21.177530
21.271706
21.893978
21.750927
21.515489
21.340847
20.935535
21.976829
22.323728
22.535920
22.736788
22.740960
22.856593
23.152828
22.311807
23.417473
23.273826
22.773743
23.402572
##ZVALUE=280
0.734925
0.628829
0.843406
0.898838
0.746846
0.743866
0.773668
0.608563
1.046658
0.910759
0.726581
0.956655
0.797510
1.113415
1.140833
1.206994
1.540780
1.331568
1.577735
1.699924
2.000928
2.542734
10.402799
34.127831
107.504725
203.939676
428.434610
683.230758
1015.578508
1015.578508
1015.578508
1015.578508
1015.578508
1015.578508
856.900811
456.500649
255.090594
112.667680
66.335797
55.802464
67.242980
93.074441
115.864873
141.018629
153.663754
159.903765
156.141520
138.946772
117.924809
89.236498
69.987774
46.568513
35.299659
24.382472
20.001531
16.957521
15.771985
15.014410
14.601946
14.497638
14.946461
14.744997
15.025735
14.973879
14.788508
15.322566
15.919805
15.617609
16.176701
16.985536
17.785430
17.644763
18.323660
19.571781
19.284487
20.458698
20.021796
20.071864
20.430684
20.335913
20.376444
21.081567
20.998716
21.726489
21.454692
22.121668
22.344589
22.052526
22.010803
22.685528
21.987557
21.452904
21.701455
21.619797
22.087693
22.060871
##ZVALUE=285
0.545979
0.588894
0.492930
0.658631
0.564456
0.751615
0.744462
0.499487
0.507832
0.560880
0.791550
0.689626
0.853539
0.911951
0.737906
0.794530
0.912547
0.956655
1.059771
0.923872
0.949502
1.157522
1.340508
1.522899
4.812479
16.041994
57.124496
120.106936
269.608498
428.486466
607.977509
878.186822
1015.584469
1015.584469
1015.584469
958.034992
761.339664
478.276610
298.954844
139.322877
72.484612
40.646791
39.481521
58.175921
77.518821
105.886459
124.697685
143.723488
149.326921
145.850778
133.901834
109.611750
90.866685
64.736605
45.651793
29.635429
22.060871
15.814900
14.099479
12.853742
12.871623
13.340712
13.732910
13.650656
14.390945
14.365911
14.774799
15.434623
16.307831
16.818643
17.154813
17.634630
18.182993
18.667579
18.310547
18.607974
19.700527
19.955635
19.709468
20.433664
20.933747
20.523667
21.441579
20.924807
21.510720
21.509528
21.665692
21.223426
21.522641
21.092892
20.729899
20.977855
21.384954
20.975471
21.666884
21.144748
##ZVALUE=290
0.485778
0.375509
0.504851
0.476837
0.563860
0.475645
0.557899
0.708699
0.585914
0.578761
0.505447
0.563860
0.711679
0.670552
0.481606
0.771880
0.730753
0.847578
0.729561
0.699759
0.856519
1.059771
1.062751
1.058578
1.160502
1.493692
2.185702
6.596446
31.293631
74.410439
177.029967
313.071012
493.741035
755.803585
921.803713
1015.584469
1015.584469
917.101502
752.238631
506.714582
340.967774
169.990659
88.372827
37.476420
26.974678
36.059618
50.003529
72.064996
92.248917
117.253661
133.306980
141.300559
140.177608
126.127005
109.316707
82.063675
62.609911
41.396618
30.240417
19.850731
15.682578
13.235807
12.966990
13.104677
12.914538
13.911724
13.628602
14.758706
15.577674
15.917420
16.752481
17.733574
17.956495
18.278956
19.232631
19.099712
19.100904
20.466447
20.616651
20.674467
19.831657
20.353794
20.860434
21.406412
21.461844
21.064878
21.335483
21.914840
20.894408
21.771789
21.049976
21.441579
20.990968
20.856857
21.113753
21.253824
##ZVALUE=295
0.408888
0.492930
0.447631
0.524521
0.320673
0.495911
0.444651
0.476837
0.468493
0.525713
0.480413
0.591874
0.725985
0.611544
0.561476
0.540614
0.530481
0.632405
0.722408
0.802875
0.851750
0.701547
0.848770
0.880957
1.115799
1.063943
1.390576
1.396537
1.688600
3.249645
10.133982
46.973825
108.765960
277.200937
464.992523
760.664940
964.585543
1015.584469
1015.584469
1014.913917
876.982808
614.696741
422.594547
222.852826
121.597648
47.809482
26.621819
22.907853
29.529929
46.447515
63.761473
88.226795
106.746554
125.964880
133.631825
132.101774
121.132731
100.754499
82.397461
57.693720
43.426752
28.295517
20.811558
16.370416
14.037490
13.482571
13.980865
14.336705
14.419556
15.678406
16.219616
16.807914
17.813444
17.893910
18.642545
18.963814
19.081831
19.276738
20.219684
20.556450
20.409822
20.314455
21.113753
20.986795
21.539927
21.160841
21.686554
21.496415
21.437407
22.262931
21.764636
21.855831
21.900535
21.390915
20.336509
20.879507
##ZVALUE=300
0.478625
0.461936
0.488758
0.413656
0.351667
0.402927
0.407696
0.391603
0.432730
0.443459
0.610948
0.469685
0.485778
0.600815
0.658631
0.642538
0.640750
0.604987
0.725985
0.711679
0.747442
0.904799
0.693798
0.937581
0.938773
1.039505
1.230836
1.191497
1.023412
1.361966
1.579523
2.094507
6.898642
23.634434
83.507895
176.085830
418.167710
674.774647
1004.148722
1015.584469
1015.584469
1015.584469
1015.584469
828.682780
520.578623
329.062939
163.515806
85.682869
33.021569
19.242764
18.985868
26.831627
42.252541
57.496428
81.353784
101.003647
120.325685
126.433969
125.633478
117.648840
99.095702
81.359744
58.434606
44.115782
30.257702
22.627711
17.313957
16.017556
15.202761
15.417933
16.348958
17.061830
17.560720
17.875433
18.725991
18.881559
19.527674
20.236969
19.915700
21.011829
21.470785
21.609664
21.407604
21.744967
22.067428
21.888614
22.129416
21.875501
21.844506
21.457672
21.631718
21.911860
21.765828
21.955967
20.939708
20.668507
##ZVALUE=305
0.480413
0.547767
0.397563
0.454783
0.496507
0.375509
0.414848
0.430942
0.424981
0.519753
0.577569
0.489950
0.566840
0.594854
0.639558
0.533462
0.626445
0.526905
0.666976
0.446439
0.611544
0.661612
0.647902
0.789762
0.907779
0.930429
1.058578
1.055598
1.080632
1.320839
1.284480
1.451969
1.550913
1.662970
3.700852
13.108850
53.664446
119.385719
299.960971
510.663986
855.335593
1015.584469
1015.584469
1015.584469
1015.584469
955.953598
648.635030
435.014963
221.691728
121.694803
49.217939
23.176670
14.181733
16.547441
26.005507
38.335919
59.254766
76.333880
98.350644
110.627413
120.970607
120.445490
110.582709
98.726749
76.781511
60.301423
42.897463
32.135844
22.155643
19.020438
16.961694
17.220974
17.342567
17.993450
18.612742
19.139647
19.605756
19.629598
20.363927
20.819902
20.845532
22.029877
22.426844
22.582412
22.771955
22.857785
22.727847
22.952557
22.991896
21.964908
21.907687
22.229552
22.253990
21.834970
21.514893
21.910667
##ZVALUE=310
0.447631
0.328422
0.302792
0.232458
0.305772
0.332594
0.577569
0.360608
0.418425
0.430942
0.437498
0.401735
0.364780
0.491738
0.503659
0.495911
0.462532
0.459552
0.585914
0.710487
0.595450
0.637770
0.641942
0.637770
0.614524
0.654459
0.646710
0.827909
0.681877
0.950694
0.940561
1.049638
1.096725
1.180768
1.237988
1.569986
1.882911
6.963611
23.529530
79.370737
157.556534
346.593857
559.372902
881.852508
1015.560031
1015.560031
1015.560031
1015.560031
898.422003
580.831766
374.126434
179.776549
93.101859
33.370852
16.397834
12.353659
15.411973
23.927689
34.050941
52.853823
68.293810
91.185570
104.740858
115.426779
116.754770
107.795000
96.325874
78.204870
62.004924
43.314695
34.733415
25.443435
22.285581
19.000769
19.039512
19.567609
19.616485
20.160675
20.278692
21.062493
21.114945
22.787452
22.212863
22.736788
23.088455
23.396611
23.432970
22.781491
23.552775
22.736788
23.245811
22.879839
22.436976
21.736622
21.387935
21.976829
##ZVALUE=315
0.303984
0.204444
0.287890
0.287890
0.304580
0.400543
0.421405
0.570416
0.458956
0.409484
0.340939
0.503659
0.447631
0.559688
0.340939
0.351667
0.423789
0.488758
0.464916
0.361800
0.440478
0.460744
0.697970
0.594854
0.573993
0.751615
0.617504
0.504851
0.660419
0.818968
0.657439
0.800490
0.741482
1.116991
1.049638
0.966787
1.090765
1.257658
1.402497
3.339648
11.557937
49.447417
111.145973
257.983804
414.889455
675.268769
850.746036
1015.584469
1015.584469
1015.584469
908.997655
663.332939
472.282767
251.043439
136.176944
50.204992
21.154881
11.206865
11.144876
15.196800
21.361709
34.478903
47.440529
66.687465
82.962513
101.403594
109.178424
110.621452
105.890632
90.790987
77.331662
58.872700
47.008991
33.958554
27.134418
21.803975
21.449924
20.258427
21.039844
20.958781
21.787882
22.275448
22.746921
22.889972
23.234487
22.929907
23.518801
22.975802
24.113655
23.490787
22.949576
22.648573
22.628903
22.815466
22.673607
22.772551
##ZVALUE=320
0.241995
0.172853
0.196695
0.184774
0.182986
0.257492
0.336766
0.144839
0.270605
0.285506
0.188947
0.201464
0.096560
0.160933
0.227690
0.242591
0.231862
0.093579
0.371933
0.224710
0.308752
0.301600
0.391603
0.311732
0.405908
0.317693
0.407696
0.484586
0.314713
0.616908
0.416636
0.670552
0.516772
0.477433
0.528693
0.687838
0.748634
0.735521
0.910759
0.917912
1.150966
1.550913
5.148649
29.776692
72.592497
182.161927
305.114985
514.607430
686.689019
884.890556
974.680781
973.915458
884.141922
680.651665
499.231815
281.916857
160.985589
68.853498
32.280684
12.571812
9.640455
11.183619
13.796687
20.678639
29.949546
46.932697
60.724616
79.976916
94.761848
105.278492
107.077956
102.683902
92.011690
73.119998
59.936643
44.175982
35.195947
27.274489
24.128556
22.273660
21.651983
22.011995
22.173524
22.469759
23.075938
22.840500
23.238659
23.541451
23.488998
22.863746
23.460984
23.453832
22.821426
22.680759
22.558570
22.539496
##ZVALUE=325
0.355840
0.153780
0.259876
0.250936
0.224710
0.259876
0.338554
0.466704
0.409484
0.322461
0.191927
0.179410
0.314713
0.303984
0.450611
0.251532
0.287890
0.455976
0.440478
0.369549
0.352859
0.250936
0.377893
0.459552
0.403523
0.373721
0.518560
0.477433
0.439882
0.521541
0.476837
0.577569
0.469685
0.673532
0.752807
0.867844
0.667572
0.811815
0.831485
0.971556
0.994802
1.115799
1.156926
1.463890
2.772808
17.514825
46.535730
124.980807
225.354433
428.316593
598.640442
811.895728
928.469896
973.567963
909.240842
727.597475
557.883978
345.202684
211.609006
94.348788
45.800805
16.733408
10.348558
9.774566
11.346936
15.222430
20.831823
31.401515
43.522716
62.739849
76.897740
92.170835
100.892782
102.430582
97.466707
84.650517
72.513819
57.334900
46.051741
34.929514
28.940439
24.719834
23.606420
22.518635
23.260713
22.658706
23.069978
22.914410
23.288727
23.186803
23.093820
22.796988
22.768974
22.688508
23.291707
22.800565
##ZVALUE=330
0.262856
0.243783
0.205636
0.226498
0.223517
0.186563
0.239611
0.156760
0.311732
0.253916
0.394583
0.249743
0.258684
0.197887
0.280738
0.267625
0.249743
0.426769
0.461936
0.397563
0.311732
0.383854
0.328422
0.306964
0.338554
0.487566
0.495911
0.473857
0.465512
0.363588
0.649691
0.760555
0.623465
0.578761
0.568628
0.688434
0.621676
0.727773
0.751615
0.680685
0.720620
0.821948
1.063943
1.125932
1.187921
1.069903
1.657605
7.555485
24.969578
83.278418
161.911845
327.231884
487.270951
711.693764
854.367018
950.267911
928.290486
796.361566
641.417503
418.861508
273.011923
129.007697
67.075491
25.305748
12.826920
9.993911
10.102987
12.029409
15.111566
22.171736
30.255914
44.211745
57.587624
76.636672
86.970925
96.762776
98.078847
92.787743
83.898902
68.122745
56.444407
43.575764
35.843849
29.298663
26.620626
24.323463
23.172498
22.958517
22.555590
22.700429
22.677779
22.556782
22.575855
22.437572
22.071600
22.491813
##ZVALUE=335
0.341535
0.420809
0.472665
0.491738
0.321865
0.485778
0.394583
0.418425
0.402927
0.430942
0.469685
0.297427
0.313520
0.419617
0.497699
0.450611
0.479817
0.493526
0.592470
0.494719
0.477433
0.474453
0.601411
0.646710
0.631809
0.565648
0.564456
0.385642
0.440478
0.492930
0.678897
0.735521
0.701547
0.671744
0.656843
0.632405
0.817776
0.525713
0.826716
0.805855
0.909567
0.936985
0.953674
1.041889
1.299977
1.196861
1.151562
1.409650
1.735687
6.833673
29.799938
110.726953
218.708515
426.177979
609.397888
836.291909
956.031680
1014.534831
988.259912
859.929919
711.295605
487.975478
333.272815
176.693797
93.893409
35.122633
17.370582
10.849833
10.492802
11.281967
12.892485
16.702414
21.397471
31.731725
42.597651
59.107542
71.321726
85.323453
92.288852
93.965530
89.558959
77.450871
67.846775
55.451989
46.667457
35.548806
30.034781
26.114583
24.113655
22.851825
22.316575
21.952987
21.936893
21.676421
21.827817
21.911860
##ZVALUE=340
0.297427
0.479817
0.393987
0.408888
0.270605
0.336766
0.209808
0.465512
0.317693
0.399947
0.349879
0.544786
0.426769
0.497699
0.324845
0.403523
0.523925
0.338554
0.417829
0.561476
0.487566
0.454783
0.336766
0.442863
0.506639
0.641942
0.568628
0.709891
0.674725
0.556707
0.602603
0.519753
0.750422
0.453591
0.703931
0.746846
0.770688
0.737906
0.717640
0.595450
0.680685
0.683665
0.730753
0.755787
0.939965
1.239777
1.178980
1.317859
1.383424
1.744628
1.562834
2.575517
11.107922
63.881874
158.001781
385.771990
614.657998
913.953781
1015.700698
1015.700698
1015.700698
976.728797
810.991526
580.294728
405.493975
212.899446
120.839477
51.234961
23.172498
11.597872
11.039972
11.504889
12.263656
14.174581
16.800761
22.797585
30.092001
42.454600
54.406524
70.179701
80.755949
89.488626
89.411736
85.239410
77.718496
65.477490
55.425763
43.545961
36.430955
29.420853
25.783777
22.858977
21.726489
20.974874
21.318793
21.143556
##ZVALUE=345
0.263453
0.296831
0.331998
0.297427
0.251532
0.341535
0.490546
0.273585
0.287890
0.298619
0.363588
0.259876
0.377893
0.301600
0.247955
0.146627
0.287890
0.193715
0.370741
0.470877
0.312924
0.422597
0.283718
0.345707
0.410676
0.151992
0.301600
0.419617
0.456572
0.416636
0.434518
0.400543
0.439882
0.514984
0.601411
0.636578
0.673532
0.507832
0.591874
0.532866
0.484586
0.778437
0.805855
0.678897
0.722408
0.822544
0.812411
0.824928
0.920892
1.111627
1.058578
1.312494
1.390576
1.720786
3.204942
19.325614
59.001446
173.893571
323.567986
601.142645
814.860463
1015.618443
1015.618443
1015.618443
925.247669
673.833489
489.336848
283.319950
161.838531
66.031814
32.079816
14.616847
11.420846
11.352897
11.696815
12.462735
13.722777
16.541481
20.542741
29.984713
38.913488
52.815676
62.956810
73.600411
80.230832
82.919002
80.530643
72.223544
64.047575
52.821636
43.635964
33.809543
28.640628
24.271607
22.051930
20.442605
##ZVALUE=350
0.183582
0.155568
0.239611
0.013709
0.205636
0.354648
0.275970
0.120997
0.263453
0.265837
0.066757
0.233650
0.130534
0.295639
0.248551
0.414848
0.255704
0.328422
0.368953
0.323653
0.269413
0.222921
0.225902
0.335574
0.390410
0.325441
0.275970
0.398755
0.420809
0.398755
0.219941
0.421405
0.431538
0.413656
0.316501
0.369549
0.303984
0.322461
0.371933
0.473857
0.355840
0.434518
0.428557
0.658631
0.525713
0.598431
0.360608
0.450611
0.515580
0.729561
0.735521
0.758767
0.763535
0.905991
0.819564
1.140833
1.779795
8.732677
26.901960
83.646774
160.564780
324.019790
474.174619
671.153665
795.378685
870.582461
835.304856
692.622662
534.822941
322.600007
196.556449
87.818503
42.301416
15.526414
10.696650
10.157824
10.699630
11.153817
11.646748
13.309717
15.823841
20.470619
26.132464
36.175847
44.537783
57.307482
65.638423
73.634982
75.852871
74.358582
69.254637
58.238506
50.137639
39.868951
32.396913
26.095510
##ZVALUE=355
0.127554
0.308752
0.124574
0.189543
0.161529
0.219941
0.051856
0.243783
0.261664
0.194907
0.168681
0.333786
0.218749
0.332594
0.241995
0.442863
0.306964
0.249743
0.234842
0.152588
0.210404
0.191927
0.297427
0.422597
0.352859
0.219941
0.178814
0.395775
0.267625
0.365973
0.291467
0.252724
0.240803
0.584722
0.270605
0.374913
0.421405
0.463724
0.376701
0.525713
0.602603
0.404716
0.685453
0.586510
0.389814
0.447631
0.581741
0.560880
0.665784
0.624657
0.562668
0.670552
0.715852
0.720620
0.742674
0.922680
0.867844
1.162887
1.368523
3.997684
14.220476
54.961443
114.303827
243.417621
381.288528
593.144894
728.819966
832.732916
832.923651
718.827844
585.578680
391.806960
251.075625
113.112926
56.186914
20.424724
11.622906
9.790659
10.069609
10.192990
10.618567
11.785626
12.628436
14.738441
17.469525
23.970604
30.425787
40.903687
49.146414
59.109926
65.576434
68.718791
68.081617
62.757730
55.702925
46.161413
##ZVALUE=360
0.228882
0.264645
0.254512
0.236630
0.136495
0.229478
0.258684
0.271797
0.300407
0.163913
0.178814
0.062585
0.344515
0.248551
0.235438
0.272989
0.221729
0.340939
0.349879
0.492930
0.435710
0.205636
0.209808
0.274777
0.369549
0.384450
0.241995
0.349879
0.343919
0.311732
0.239611
0.395775
0.447631
0.250936
0.326633
0.314713
0.381470
0.273585
0.434518
0.255704
0.425577
0.458956
0.354648
0.421405
0.414848
0.391603
0.354648
0.371933
0.361800
0.471473
0.559688
0.511408
0.487566
0.722408
0.590682
0.786781
0.725985
0.785589
0.910759
1.047850
1.175404
2.031922
6.200671
28.834939
68.863630
168.726444
288.998485
487.720966
639.335513
783.509612
828.332901
770.428777
658.437610
453.561544
303.396583
150.569677
79.725981
31.632781
15.009642
9.066463
9.275675
9.636879
9.742975
10.289550
10.713935
11.896491
12.873411
15.819669
19.656420
26.273727
32.985806
43.385625
50.046444
57.796836
62.040687
62.007904
##ZVALUE=365
0.192523
0.052452
0.117421
0.013709
0.206828
0.191927
0.175834
0.229478
0.288486
0.098944
0.241995
0.255704
0.194907
0.139475
0.282526
0.223517
0.227690
0.250936
0.249743
0.263453
0.121593
0.228882
0.182986
0.363588
0.361800
0.288486
0.197887
0.271797
0.247955
0.271797
0.364780
0.310540
0.509620
0.431538
0.416636
0.402927
0.381470
0.352859
0.401735
0.439882
0.415444
0.332594
0.533462
0.517964
0.361800
0.450611
0.423789
0.437498
0.435710
0.519753
0.590682
0.523925
0.605583
0.657439
0.537634
0.633597
0.839829
0.764728
0.923872
0.642538
0.802875
1.025796
1.209974
1.426935
2.822876
15.852451
42.539835
115.204453
214.448571
398.748517
543.016791
703.408718
782.509446
780.895948
694.169998
514.586568
370.686650
207.545757
115.510821
44.092536
19.700527
9.590983
8.686781
8.567572
8.866787
9.261966
9.391904
9.556413
10.141730
11.339784
13.246536
17.228723
21.732450
29.612780
36.781430
45.551658
##ZVALUE=370
0.221729
0.200868
0.197887
0.071526
0.114441
0.177622
0.186563
0.156760
-0.002980
0.132918
0.041723
0.134706
0.255704
0.265837
0.270605
0.329614
0.222921
0.174642
0.373721
0.172853
0.324845
0.090599
0.304580
0.352859
0.333786
0.442863
0.192523
0.329614
0.113845
0.281930
0.351667
0.353456
0.394583
0.349879
0.344515
0.402927
0.322461
0.294447
0.355840
0.385642
0.285506
0.274777
0.458956
0.251532
0.520945
0.331998
0.311732
0.398755
0.553727
0.562668
0.436902
0.517964
0.615716
0.523925
0.434518
0.587702
0.569820
0.740886
0.598431
0.769496
0.832677
0.856519
0.797510
0.807643
0.900626
1.225471
1.594424
8.176565
27.086735
87.517500
164.370537
314.096808
456.496477
648.087859
744.395852
779.849887
723.826885
576.215982
431.271791
245.559812
140.318871
57.141781
28.065443
12.209415
8.446574
7.881522
7.850528
8.173585
8.413792
8.653998
8.818507
9.246469
10.328889
12.124777
14.807582
19.924641
##ZVALUE=375
0.186563
0.245571
0.218749
0.150800
0.212789
0.121593
0.212789
0.324845
0.218749
0.290871
0.265837
0.158548
0.144839
0.115633
0.304580
0.161529
0.236630
0.164509
0.116825
0.285506
0.337958
0.255704
0.334978
0.241995
0.236630
0.284910
0.215769
0.062585
0.214577
0.221729
0.234842
0.316501
0.266433
0.296831
0.280738
0.319481
0.279546
0.452995
0.218749
0.306964
0.334978
0.307560
0.381470
0.291467
0.401735
0.364780
0.362992
0.400543
0.333786
0.523925
0.387430
0.580549
0.465512
0.318885
0.365973
0.531673
0.621676
0.429749
0.488758
0.579953
0.601411
0.709891
0.762939
0.789762
0.749826
0.852942
1.054406
1.121759
1.354814
4.243851
14.298558
51.365495
111.128688
248.377919
385.939479
578.080416
696.238875
771.471858
757.536888
633.745790
495.216846
307.821631
196.899772
99.204779
50.678849
18.442869
9.515882
7.195473
7.155538
7.386804
7.514954
7.622838
7.766485
7.954836
8.155704
9.411573
##ZVALUE=380
0.204444
0.084639
0.212789
0.200868
0.301600
0.193715
0.228882
0.207424
0.115633
0.227690
0.247955
0.155568
0.207424
0.138879
0.152588
0.193715
0.310540
0.160933
0.325441
0.273585
0.179410
0.142455
0.085831
0.166893
0.257492
0.203848
0.425577
0.206828
0.200868
0.282526
0.221729
0.170469
0.281930
0.190735
0.340939
0.243783
0.307560
0.223517
0.369549
0.378489
0.241995
0.392795
0.343919
0.250936
0.251532
0.164509
0.281930
0.187755
0.299811
0.250936
0.229478
0.493526
0.329614
0.365973
0.400543
0.378489
0.387430
0.420809
0.403523
0.417829
0.607967
0.464916
0.415444
0.470877
0.587702
0.637770
0.772476
0.487566
0.786781
0.939965
1.242757
2.114773
7.522702
36.440492
84.759593
199.109912
321.746469
502.984524
639.365911
754.720569
764.634013
668.280721
557.135940
391.490459
265.542865
132.334828
68.949461
25.855899
11.827946
6.843805
6.558895
6.472468
6.707907
6.685853
7.120967
7.093549
##ZVALUE=385
0.174642
0.224710
0.228882
0.178814
0.026822
0.114441
0.428557
0.249743
0.101924
-0.025630
0.095963
0.162721
0.110865
0.188947
0.247955
0.177622
0.140667
0.070930
0.231862
0.182986
0.127554
0.337958
0.264645
0.118613
0.337958
0.243783
0.345707
0.190735
0.169873
0.231862
0.310540
0.274777
0.338554
0.227690
0.257492
0.197887
0.205636
0.256896
0.261664
0.295639
0.378489
0.278950
0.328422
0.262856
0.334978
0.310540
0.289679
0.163913
0.353456
0.301600
0.294447
0.274777
0.267625
0.291467
0.405908
0.367761
0.402927
0.375509
0.445843
0.402927
0.483990
0.549555
0.438690
0.684857
0.517964
0.509620
0.619888
0.733733
0.604987
0.757575
0.764728
1.162887
1.168847
1.411438
3.586411
20.988584
54.163933
137.051940
239.897966
421.747565
564.324856
708.816648
756.198764
720.381737
632.876754
466.982722
334.263444
184.502602
105.907917
44.946671
19.649863
7.447600
6.098747
5.782843
5.796552
6.189942
##ZVALUE=390
0.171661
0.187755
0.158548
0.424981
0.275970
0.107884
0.251532
0.363588
0.311732
0.218749
0.136495
0.207424
0.072718
0.282526
0.203848
0.232458
0.249743
0.161529
-0.023842
0.169873
0.084639
0.376701
0.246763
0.273585
0.284910
0.351667
0.212789
0.216961
0.160933
0.160933
0.182986
0.145435
0.334978
0.397563
0.198483
0.267625
0.330806
0.204444
0.297427
0.182986
0.346899
0.200868
0.370741
0.198483
0.249743
0.267625
0.182986
0.160933
0.223517
0.222921
0.324845
0.351667
0.355840
0.265837
0.420809
0.293851
0.444651
0.351667
0.546575
0.447631
0.371933
0.358820
0.327826
0.259876
0.331998
0.419617
0.534654
0.599623
0.743866
0.860691
0.775456
0.776649
0.987649
1.006722
1.043677
1.186728
1.884699
10.851622
33.010840
102.652907
192.775726
361.692905
493.927002
643.329620
727.159977
751.831532
694.840550
553.370714
423.543453
261.597633
153.909922
65.519810
30.727983
10.007620
5.873442
5.468726
##ZVALUE=395
0.206828
0.121593
0.143647
0.042915
0.206828
0.147820
0.330806
0.087619
0.068545
0.172853
0.213981
0.135899
0.292659
0.221729
0.173450
0.150800
0.185966
0.216961
0.068545
0.161529
0.069737
0.016689
0.215769
0.304580
0.155568
0.079870
0.141859
0.188947
0.205636
0.386834
0.251532
0.229478
0.163913
0.313520
0.326633
0.248551
0.274777
0.328422
0.303984
0.223517
0.327826
0.233650
0.266433
0.169873
0.342727
0.232458
0.379682
0.186563
0.296831
0.312924
0.334978
0.249743
0.166893
0.284910
0.381470
0.315905
0.194907
0.349879
0.299811
0.455976
0.515580
0.510812
0.402927
0.431538
0.344515
0.391603
0.465512
0.611544
0.596642
0.540614
0.672936
0.967979
0.800490
0.773668
0.708699
0.966787
0.871420
1.001954
1.209974
5.595684
20.532608
72.053671
141.557455
281.876922
412.659645
595.025420
702.240467
770.897865
749.349594
635.472536
501.334667
314.670801
200.715661
95.752478
46.521425
16.835928
##ZVALUE=400
0.097752
0.137687
-0.012517
0.158548
0.139475
0.143647
0.181794
0.207424
0.013709
0.232458
0.129938
0.125766
0.280738
0.119805
0.305772
0.182986
0.112653
0.148416
0.205636
0.047684
0.087619
0.066757
0.187755
0.171661
0.184774
0.227690
0.043511
0.264645
0.214577
0.249743
0.193715
0.171661
0.081658
0.263453
0.317693
0.250936
0.269413
0.308752
0.231862
0.173450
0.238419
0.300407
0.175834
0.238419
0.225902
0.273585
0.400543
0.386834
0.224710
0.375509
0.263453
0.381470
0.292659
0.428557
0.242591
0.178814
0.304580
0.334978
0.370741
0.241995
0.377893
0.142455
0.474453
0.435710
0.555515
0.369549
0.397563
0.534654
0.614524
0.677705
0.794530
0.892878
0.511408
0.653863
0.703931
0.595450
0.611544
0.763535
0.749826
0.910759
1.112819
3.048778
11.522770
42.049885
90.576410
205.651522
328.908563
508.111715
632.590652
734.875798
749.281645
661.867857
542.331934
360.769629
238.952637
121.104717
##END
