##TITLE=FQP00652
##FORMAT=SPECTACLE-ASCII V-1.2
##DATA TYPE=ULTRAVIOLET SPECTRUM
##SECOND TYPE=ULTRAVIOLET SPECTRUM
##DATE=01/24/18
##TIME=18:09:51
##SPECTROMETER/DATA SYSTEM=SPECTACLE
##XUNITS=NM EM
##YUNITS=ENERGY
##YFACTOR=1
##FIRSTX=220
##LASTX=410
##NPOINTS=96
##3DDATA=Equidistant
##ZUNITS=NM EX
##FIRSTZ=210
##LASTZ=400
##ZPOINTS=39
##XYDATA=(Y..Y)
##ZVALUE=210
1.666546
1.363754
1.907945
2.282858
1.987815
2.731681
2.326965
2.745986
2.309680
2.170801
2.494454
2.353787
2.304912
3.233552
2.630949
2.838969
3.132820
3.522635
2.671480
3.494620
3.606677
4.796982
3.777742
4.011989
4.642606
4.799962
5.569458
5.253553
6.083846
5.929470
7.005930
6.191730
6.754994
6.671548
6.718636
6.846786
7.344484
6.999969
8.387566
8.088946
8.205771
7.746816
6.943941
8.196831
7.500648
7.327795
7.516742
6.988645
7.373691
7.655621
6.499887
7.430911
8.224845
7.071495
7.799864
7.468462
7.136464
7.496476
7.515550
7.656813
7.818937
6.972551
7.294416
7.885695
8.630753
7.051826
7.642508
9.201765
9.626746
10.819435
15.153885
15.228987
18.788576
21.030903
23.166537
23.524761
25.033951
24.461746
23.379922
24.265647
22.440553
22.946596
17.943978
17.825961
14.515519
11.898875
8.510947
8.350611
7.570982
6.070733
6.667972
6.909966
6.414652
8.710623
6.509423
6.929636
##ZVALUE=215
5.706549
5.542636
5.046725
3.981590
3.432631
3.850460
3.641844
4.259944
4.594922
4.632473
4.325509
4.737973
3.128648
2.959967
3.182888
2.735853
2.896786
3.377795
3.206730
3.046989
3.665686
3.565550
3.910661
3.846884
4.364848
5.229712
5.104542
5.929470
6.669760
6.162524
7.455945
8.494854
8.189678
8.648634
8.414984
7.784963
8.024573
9.159446
8.630753
7.985830
8.364916
9.041429
7.709861
8.005500
7.547736
7.821918
8.131862
7.812977
6.957650
7.330775
5.963445
7.735491
6.936789
7.590652
6.653666
6.682873
7.115602
7.135868
7.247925
7.034540
7.252693
8.132458
6.483793
7.766485
7.618666
6.702542
7.458925
7.861853
10.743737
11.666417
12.498498
12.880564
17.400980
19.011497
20.553470
19.390583
20.937920
21.107793
19.878745
18.807650
18.604994
17.942786
13.816953
12.801886
11.601448
9.428859
8.838773
7.616878
7.350445
7.419586
6.624460
6.677508
6.424785
5.932450
6.301999
6.142855
##ZVALUE=220
22.280812
23.451447
25.791526
26.503801
24.306774
21.009445
16.754866
10.966659
10.267496
8.868575
10.821819
11.267662
10.427833
10.021925
7.786751
7.350445
5.266666
5.161762
4.682541
4.215837
3.228784
3.945827
4.878640
4.731417
5.012751
6.720424
6.264448
7.323623
9.316802
9.232759
11.189580
10.443926
11.287928
12.668967
12.819767
13.598800
13.159513
12.319684
13.193488
12.470484
13.137460
12.290478
11.364818
11.258721
9.616613
9.935498
10.633469
8.592606
9.226799
9.294748
9.811521
9.410977
8.160472
8.137822
8.172989
8.914471
8.111000
8.741617
7.232428
7.481575
7.606745
8.582473
8.304715
7.356405
8.233786
8.531809
8.068681
8.650422
9.040833
11.514425
11.717677
12.952685
15.277863
17.384887
18.704534
17.889738
18.994808
17.569661
17.940998
16.600490
15.636683
14.598966
11.136532
10.822415
10.057688
9.151697
7.674694
7.375479
6.766915
7.280707
6.764531
6.770492
7.197857
5.819798
6.073713
7.219911
##ZVALUE=225
46.086907
47.534704
61.718822
83.916783
91.717839
88.869929
84.374547
62.452555
46.159625
34.169555
25.434494
21.977425
24.021864
24.010539
22.942424
22.619963
19.115806
15.717745
11.647940
8.684993
6.354451
4.789829
4.609823
5.048513
5.913973
6.171465
6.498694
7.892847
9.784698
10.835528
12.111664
14.374852
14.216900
15.454888
13.435483
16.077757
15.439987
15.538931
13.251901
13.990998
13.886690
13.609529
12.514591
13.004541
11.826754
10.824800
10.857582
11.778474
10.208488
10.525584
9.624958
9.526610
10.134578
9.538531
10.470748
8.297563
7.539988
7.989407
9.206533
8.389950
9.284616
8.834600
8.467436
7.763505
7.936954
8.093715
8.316636
8.523464
9.925961
11.511445
12.231469
13.452768
13.436675
15.403628
15.535951
16.749501
16.163588
16.651750
16.214848
13.665557
14.235973
12.642741
10.451674
10.800958
10.436773
10.210872
8.810759
7.661581
7.577538
7.823706
8.086562
7.482767
7.113814
8.130670
7.211566
7.470846
##ZVALUE=230
41.899681
44.239759
72.339773
119.996667
156.295896
191.345811
204.817653
193.899870
177.709460
141.427517
92.557669
61.929822
45.328736
40.275455
40.085912
45.812726
47.224760
47.012568
42.631626
36.224723
27.127862
17.909408
12.235641
8.123517
6.513596
7.135868
6.480813
8.075833
10.521412
10.265708
11.195540
12.892485
12.688637
14.523864
15.785694
14.595985
14.956594
14.273524
13.865829
15.221834
14.445782
11.742711
13.104677
11.392832
12.212992
11.109710
10.190606
10.370612
9.692907
10.561943
9.229779
10.537505
9.360909
9.480715
9.357929
8.838773
10.144711
9.881854
9.330511
9.737611
9.942651
9.098649
8.971691
9.295940
9.694695
9.629726
10.966659
12.014508
12.166500
13.557673
13.413429
15.398860
15.695691
15.610456
16.592741
17.573833
17.720461
17.248988
16.478896
15.529990
16.293526
14.264584
13.959408
13.762712
11.980534
11.827946
11.857748
10.894537
10.505915
11.832714
11.698604
10.584593
9.934902
9.821653
11.517406
9.808540
##ZVALUE=235
14.610887
18.100739
38.709641
86.371899
138.887763
219.178796
279.175639
342.989564
358.418822
353.013873
305.588841
243.461728
165.314674
120.386481
82.771778
71.953535
71.607828
78.852773
80.142617
79.991817
77.518821
61.840415
50.114989
34.626722
26.572943
15.043616
12.137890
9.213686
9.592772
9.709597
10.363460
11.117458
11.587739
11.294484
11.156797
11.371970
10.289550
12.611747
11.518598
11.612773
11.876822
11.332631
12.519956
10.885596
10.417700
10.588765
10.438561
10.776520
10.624528
9.196997
11.266470
9.639859
10.116696
10.356903
10.150671
9.875894
10.133982
9.025931
10.108948
9.816885
10.521412
9.884834
10.087490
10.454655
10.749698
11.571646
12.156963
12.664795
14.258623
14.261603
15.936494
16.357899
18.482804
18.300414
18.481612
20.323992
20.621419
19.730926
19.894838
17.697811
17.769933
19.162893
18.233657
17.206669
16.446710
16.065836
15.775561
16.602874
15.487671
16.227961
15.951991
15.990734
13.591647
15.229583
14.694929
15.841722
##ZVALUE=240
1.936555
2.472997
6.722808
17.298460
48.793554
83.821416
175.797939
264.344811
398.598909
472.388864
528.800488
516.634583
471.350551
381.626487
297.085643
186.637640
136.830807
100.227594
94.526410
99.086761
110.840797
115.546584
111.978650
102.391839
83.042979
67.853928
47.433972
35.277605
22.200942
17.798543
14.748573
12.904406
12.989640
12.490749
14.851689
13.736486
13.151765
13.269782
12.534857
12.516975
11.369586
11.953712
11.158586
11.755824
11.365414
10.744929
10.469556
11.311769
9.948611
10.978580
10.529757
10.508895
11.243820
10.769963
10.789633
9.737611
9.896755
11.171699
11.220574
10.611415
11.856556
11.367798
10.777712
11.743903
11.201501
11.207461
12.333989
14.213920
13.514757
15.281439
17.314553
17.955899
17.691851
19.434690
20.927787
22.034645
21.054745
20.406842
21.627545
22.107959
19.917488
21.211505
21.599531
19.533634
20.412803
20.093918
19.389987
18.547773
19.296408
20.455718
19.943714
19.938946
18.780828
19.841790
19.345880
19.158721
##ZVALUE=245
1.298785
1.201630
1.616478
1.502633
3.559589
10.746717
36.196709
81.093907
180.191994
281.088948
436.816812
551.436543
628.550649
678.109527
628.682971
525.622964
426.791906
290.473700
205.277801
124.129653
103.357434
99.742413
116.179585
127.103925
131.739974
132.559538
114.652514
102.909803
77.719688
60.353875
46.758652
29.123425
23.175478
17.584562
16.688704
14.933944
15.752912
15.150905
15.682578
13.555884
14.754534
13.502836
13.681650
13.869405
13.898611
12.641549
13.225675
11.830926
12.296438
11.457801
10.976791
11.029840
10.994673
11.509657
10.270476
11.243820
9.945631
11.252761
10.088682
10.268688
10.801554
10.775924
11.483431
11.463761
11.092424
13.211966
13.181567
14.556646
14.057755
16.512871
16.729832
18.419623
19.464493
20.127892
23.349524
23.309588
23.000836
23.721457
24.594665
23.379922
22.974610
23.535490
23.798943
22.483468
23.313761
19.938946
21.611452
20.330548
21.702647
20.168424
20.642877
21.859407
20.163655
20.154715
19.198656
18.983483
##ZVALUE=250
1.206994
1.173615
0.861883
1.324415
1.447797
1.568794
1.757741
9.663701
28.584599
85.454583
174.740553
348.425508
510.962605
719.918609
840.497613
907.016993
871.760845
746.953487
614.312887
404.444933
269.720554
161.306858
113.213658
98.023415
108.871460
121.767521
140.065551
144.925714
140.487552
126.535892
107.518435
92.411637
66.199899
49.256682
33.759475
24.931431
21.745563
17.968416
16.492605
18.344522
16.094446
16.328692
16.282797
14.938712
15.376806
15.057921
14.336705
13.558865
14.790893
12.572408
11.758804
11.981726
11.307597
11.170506
10.523796
10.301471
10.233521
9.178519
9.947419
9.297729
9.872913
10.946989
10.129809
10.834932
11.063814
11.225939
11.513829
12.518764
13.612509
15.535951
14.919639
17.272830
18.633604
18.857718
19.494891
21.068454
21.607876
23.435950
21.378994
21.535754
21.748543
22.679567
19.310713
21.375418
19.044876
19.358993
20.336509
20.114779
19.494891
19.038916
18.656850
18.707514
18.986464
20.143986
18.447638
19.546747
##ZVALUE=255
1.214743
1.065731
1.118779
1.409650
1.191497
1.466870
1.260638
1.609921
2.021790
6.113648
22.878647
83.210468
159.283876
307.233930
449.163914
628.359914
752.486587
870.244503
895.790458
847.000480
742.428899
609.859824
397.424698
260.177851
148.791671
110.833645
97.424984
108.425617
133.324862
145.601630
155.625939
152.365565
138.188601
120.475888
90.949535
69.170594
48.924685
34.838915
25.509596
22.077560
18.385649
17.828941
17.929673
16.410947
15.432835
15.771985
15.272498
15.417933
13.592839
13.476610
12.389421
11.834502
11.548996
10.512471
10.454655
9.766817
10.289550
10.101795
8.932948
9.572506
8.984804
8.931756
9.265542
8.480549
9.427667
9.541512
9.863973
10.057688
10.671616
10.672808
12.530684
13.211966
14.265776
14.733672
16.256571
16.141534
16.166568
15.917420
17.286539
16.194582
15.995502
17.070770
15.610456
15.874505
15.624762
16.868711
16.670823
17.044544
17.331839
16.405582
16.379952
16.737580
16.975999
16.920567
17.253757
16.258955
##ZVALUE=260
0.769496
0.889897
0.964999
1.187921
0.874996
1.077652
1.089573
0.994802
1.181960
1.364946
1.611710
2.044439
9.925961
27.269721
72.218776
141.208768
291.066766
429.114699
583.198667
789.870620
906.237960
940.216780
860.386491
679.654479
508.933663
301.658511
199.999809
109.130740
87.129474
94.266534
112.988949
138.560534
158.428550
167.643428
162.652731
145.603418
125.081539
95.098615
73.161721
50.882697
38.248897
27.140975
22.246838
19.368529
17.920732
16.460419
15.960932
14.991760
14.300942
14.140606
13.654828
12.734532
12.403727
11.282563
11.206865
10.893941
9.551644
9.248853
9.369850
8.791685
9.439588
8.649826
8.363724
9.406805
8.531809
8.542538
8.503795
9.645820
9.392500
9.855628
10.617971
11.147857
11.564493
12.536645
12.330413
13.862848
13.200641
13.534427
14.124513
14.418960
14.118552
13.403893
14.443994
13.506413
14.690757
14.673471
15.323758
15.245676
15.076995
15.293956
15.875697
15.231967
14.775991
16.109943
15.222430
15.495420
##ZVALUE=265
0.991821
0.900626
1.148582
1.258850
0.963807
1.064539
1.184940
1.269579
1.220703
1.424551
1.406670
1.608729
1.588464
1.983643
4.145503
19.393563
46.568513
118.159652
211.092830
401.651859
571.756959
743.198991
902.139544
937.516689
861.027837
743.996501
500.647426
383.980870
149.289966
132.373571
82.376003
80.315471
101.065636
122.200847
146.547556
172.317624
171.820521
152.247548
145.799518
106.250644
97.937584
62.816739
50.721765
26.242733
24.990439
20.202994
18.039942
16.226768
15.035868
15.099645
13.375878
12.616515
12.262464
12.221932
10.677576
11.053681
9.713769
9.615421
9.614825
9.195805
8.775592
8.754730
8.304715
8.606911
8.518696
8.006692
8.850694
8.521676
9.585619
10.425448
10.850430
10.846853
11.891723
11.542439
11.594892
11.301637
12.432933
12.712479
13.029575
13.681650
13.337731
13.145804
13.084412
13.351440
13.306737
13.344884
13.873577
14.251471
14.011860
14.448762
14.103651
14.304519
13.970733
13.915896
14.018416
14.587641
##ZVALUE=270
0.634789
0.711679
0.859499
0.861883
0.951886
0.764728
0.801682
0.870824
0.964999
0.920892
0.969768
0.849962
1.368523
1.146793
1.402497
1.525879
2.152920
9.021759
26.672482
84.026456
167.865753
270.385742
536.812544
762.848854
1005.837917
1015.584469
1015.584469
1015.584469
819.377899
619.139671
375.687480
230.849981
114.994645
80.799460
78.245997
96.477866
124.817491
146.633983
166.609883
168.925524
161.732435
147.816539
120.997429
97.102523
69.627762
49.936771
32.727718
24.140477
18.266439
15.349984
13.082623
13.309717
12.402534
10.816455
10.567904
10.351539
9.571910
10.420680
9.358525
8.787513
9.588599
8.701682
8.577704
8.334517
8.747578
8.674860
8.661747
8.380413
9.224415
9.350777
10.388494
10.566711
11.008978
11.958480
11.404753
11.899471
12.997985
11.794567
12.276769
12.019873
12.476444
12.595654
12.304783
11.609793
12.570620
12.806654
12.218952
13.337731
12.542605
12.744665
12.197495
12.801886
13.431907
12.590885
13.728738
12.748837
##ZVALUE=275
0.646710
0.734925
0.665784
0.620484
0.768900
0.632405
0.567436
0.931621
0.749826
0.854731
0.843406
1.005530
0.906587
0.914931
1.100898
1.143813
1.267791
1.413822
1.434684
4.280806
15.165806
43.338537
129.207969
254.668593
512.552857
728.591681
988.012552
1015.584469
1015.584469
1015.584469
972.253680
700.996518
490.700603
256.458521
150.612593
76.908469
60.445666
70.050955
89.313984
118.732452
138.116479
156.250000
159.976482
154.622793
140.921474
109.617710
90.969801
64.526796
47.113895
28.599501
21.030903
14.122725
11.988878
9.843707
9.683967
9.282827
9.355545
8.806586
9.402633
8.179545
8.983612
8.353591
9.029508
8.947849
7.944703
8.299947
8.895993
8.800626
9.413958
9.273887
9.763837
10.101795
10.737777
11.269450
11.047721
11.690855
11.280775
12.128949
11.446476
11.364818
12.620687
11.511445
11.463761
12.288690
11.496544
11.164546
11.889935
11.865497
12.151599
11.557937
10.949969
11.459589
11.791587
11.627674
12.740493
11.848807
##ZVALUE=280
0.594854
0.451803
0.612736
0.851750
0.426769
0.649691
0.785589
0.609756
0.668764
0.677705
0.870824
0.672936
0.689626
0.701547
1.047850
0.838637
0.950694
1.156926
1.093745
1.214743
1.558661
1.899600
8.973479
30.270815
99.219680
183.864832
347.093940
520.137548
756.935477
905.558467
995.593667
1009.560823
923.065543
709.927678
530.454516
305.202603
183.635950
84.161758
52.627921
45.760870
57.113767
85.003972
104.779601
130.849481
144.332647
152.644515
146.817565
131.189823
111.599565
80.863833
61.576962
40.920973
26.591420
16.402602
11.796951
8.973479
7.637739
7.788539
7.828474
7.597804
8.071661
7.827878
8.156896
8.444786
8.325577
8.402467
8.371472
8.744597
9.232759
8.864999
9.184480
9.991527
10.125637
10.030866
10.779500
10.790825
10.795593
10.489821
10.733604
10.801554
11.345744
11.325479
11.354685
11.284947
10.930896
11.642575
10.933876
11.156797
11.210442
11.146665
11.682510
11.329651
11.295676
11.166930
11.326671
11.568666
##ZVALUE=285
0.534654
0.518560
0.446439
0.540614
0.373721
0.551939
0.651479
0.570416
0.677705
0.769496
0.591874
0.639558
0.686646
0.660419
0.651479
0.722408
0.763535
0.842810
1.007915
0.907779
1.068711
1.083612
1.438856
1.644492
4.040599
15.031695
52.937865
113.311410
251.590610
400.697589
620.510578
800.296664
949.239731
1015.583873
984.731913
815.355778
640.409589
403.728485
251.346827
118.555427
65.044761
34.038424
35.264492
52.864552
73.172450
103.387833
121.606588
138.347745
145.406723
142.450929
130.526423
106.382966
85.979700
59.240460
40.847659
24.347901
15.988946
10.337830
8.242726
7.557869
7.954836
7.460713
8.314848
8.300543
8.302927
8.390546
8.689761
9.015799
8.997917
9.671450
9.683967
10.005832
10.187626
10.713935
10.853410
10.913610
10.803938
10.618567
10.872483
10.686517
10.794997
10.861754
11.158586
10.854602
11.218786
11.269450
11.851788
10.885000
11.148453
11.249781
10.774732
10.487437
10.869503
10.805726
10.853410
10.980964
##ZVALUE=290
0.471473
0.231862
0.455976
0.520945
0.594854
0.552535
0.540614
0.515580
0.595450
0.629425
0.495911
0.566840
0.682473
0.726581
0.678897
0.720620
0.657439
0.765920
0.838637
0.725985
0.861883
0.963807
0.888705
0.976920
1.295805
1.480579
2.209544
6.180406
29.971600
71.606636
143.806934
306.765437
481.142998
734.686852
891.387463
1015.584469
1011.892557
890.782475
733.330846
493.085980
331.516862
165.970922
88.539720
37.242770
25.608540
33.604503
47.203898
70.318580
92.561841
117.479563
132.318735
139.404535
137.077570
124.801993
105.665922
78.609586
59.827566
38.962960
26.584864
16.676784
11.671782
8.927584
8.790493
8.390546
8.598566
8.632541
9.007454
9.487867
9.404421
9.891987
10.193586
10.744929
10.954738
10.889769
11.465549
11.034608
11.265874
11.342764
11.480451
11.403561
11.417866
11.126995
11.556745
11.065602
11.400580
11.263490
11.445880
11.621714
10.917783
11.040568
10.731816
11.068583
10.560751
10.667443
11.071563
10.965466
##ZVALUE=295
0.442863
0.422597
0.518560
0.479817
0.492930
0.399947
0.465512
0.583529
0.529885
0.284910
0.565648
0.368953
0.508428
0.519753
0.658631
0.674725
0.596642
0.639558
0.742674
0.612736
0.687838
0.657439
1.077652
1.005530
1.200438
1.019835
1.167655
1.287460
1.524687
2.800822
10.097623
43.063760
100.696683
242.669582
395.091772
643.782020
812.788010
987.584591
1015.587449
953.805447
821.784735
594.033003
416.836739
222.931504
123.480558
46.607852
25.695562
20.444989
28.275847
45.767426
63.559413
88.988543
107.584596
126.448870
133.812428
130.190849
120.265484
98.695755
81.499815
56.553483
40.978789
25.501847
18.095970
12.877584
10.329485
9.207726
9.527802
9.317994
9.567738
10.417700
10.264516
10.634661
10.966659
11.055470
11.594892
11.510849
11.492968
11.630654
11.537671
12.093782
11.300445
11.269450
11.098981
11.407733
11.670589
11.147857
11.188984
11.682510
11.497736
10.865927
10.686517
10.955930
10.684729
10.411739
10.626912
10.307431
##ZVALUE=300
0.316501
0.467896
0.445843
0.357628
0.544786
0.282526
0.267625
0.407696
0.471473
0.300407
0.387430
0.467896
0.678897
0.486970
0.578761
0.371933
0.740886
0.579953
0.646710
0.496507
0.621676
0.796914
0.671744
0.771880
0.732541
0.732541
0.925660
0.953674
1.084805
1.210570
1.384616
1.585484
6.019473
21.813512
77.593923
154.039860
322.764516
501.138568
750.287771
898.177028
1010.150909
1008.177996
881.318450
728.502870
488.388538
323.883891
164.626837
88.306665
32.892823
17.357469
18.480420
25.933981
41.492581
57.649612
82.589984
101.865530
120.660663
127.150416
128.559470
118.741989
98.557472
81.878901
56.726933
42.915940
26.538968
19.270778
13.322830
11.031628
9.776950
10.211468
10.387897
10.375977
11.175871
10.397434
11.395812
11.480451
11.621714
11.539459
11.516809
11.524558
11.359453
11.624694
11.368990
11.403561
11.644959
11.685491
11.362433
11.381507
11.626482
11.074543
10.846853
11.099577
10.784864
10.537505
10.664463
10.442734
##ZVALUE=305
0.331998
0.438690
0.457764
0.326633
0.264645
0.484586
0.429749
0.362992
0.327826
0.515580
0.444651
0.536442
0.368953
0.401735
0.309944
0.407696
0.475645
0.389814
0.640750
0.726581
0.741482
0.715852
0.691414
0.576973
0.731945
0.800490
0.802875
0.794530
0.723600
0.914931
1.100898
1.192689
1.305938
1.522899
2.563000
15.465617
43.934584
126.947761
228.965878
431.286693
610.592961
842.867494
965.090990
1015.380621
954.106450
759.044886
593.042970
378.190875
235.921741
107.724667
54.375529
19.872785
12.905598
17.061830
24.710894
39.964914
55.902600
79.027414
96.440911
114.558935
121.648908
120.539665
111.812949
94.970465
77.115893
54.382682
39.932728
27.170777
18.889904
13.644695
11.978745
10.750890
10.858774
11.127591
10.742545
11.293888
11.197925
11.090636
12.007952
11.470914
11.779666
11.694431
11.838675
12.055635
12.069941
11.792779
12.058616
11.574626
11.172891
11.407733
10.828972
10.780692
10.703802
10.626912
10.916591
10.701418
##ZVALUE=310
0.327826
0.401735
0.448823
0.345707
0.395775
0.425577
0.381470
0.314713
0.615716
0.397563
0.348687
0.304580
0.352859
0.421405
0.378489
0.474453
0.562668
0.434518
0.462532
0.551939
0.514984
0.675917
0.513792
0.685453
0.699759
0.769496
0.666976
0.689626
0.911951
0.973940
0.930429
0.806451
0.975728
1.076460
1.203418
1.359582
1.654625
6.441474
21.583438
73.822737
151.280761
313.896537
489.401817
736.262798
887.013674
998.528004
993.866920
869.274735
717.032552
491.341949
326.758623
166.320801
88.786483
32.688975
15.572906
11.437535
14.538765
23.042560
33.715963
51.094890
67.950487
91.222525
103.675723
113.814473
114.932656
108.401775
94.365478
74.634552
58.749914
39.806962
28.276443
19.150972
14.589429
12.282729
11.328459
11.374950
10.926723
11.251569
10.951757
11.038780
11.455417
11.306405
11.625886
11.636615
11.548996
11.478662
11.987686
11.239648
11.336803
10.991693
11.338592
10.889769
10.754466
10.867715
10.689497
10.675788
##ZVALUE=315
0.181794
0.257492
0.383854
0.274777
0.430942
0.397563
0.477433
0.376701
0.358820
0.458956
0.425577
0.454783
0.478625
0.426769
0.402927
0.375509
0.350475
0.497699
0.556707
0.421405
0.440478
0.410676
0.339746
0.666976
0.593662
0.670552
0.680685
0.584722
0.617504
0.696778
0.604987
0.866652
0.755787
0.745654
0.885725
1.080632
1.184940
1.153946
1.421571
3.028512
11.221766
47.722459
106.573701
242.409706
399.439931
649.449825
812.316537
956.683755
1002.092957
929.557681
801.025033
578.131676
411.475897
217.432976
118.404627
44.754744
19.987822
10.478497
10.494590
14.742613
20.095706
33.338666
46.080947
65.600872
81.321001
99.941492
108.387470
110.091567
103.944540
86.515546
72.335601
53.888559
40.793419
26.842952
19.083619
14.243722
12.342930
11.208653
11.245608
10.776520
10.736585
11.264682
10.984540
11.405945
11.353493
11.217594
11.609793
11.253953
11.267662
11.222959
11.253953
11.221766
11.312962
10.880828
10.807514
10.848641
##ZVALUE=320
0.353456
0.165701
0.404716
0.370741
0.324845
0.425577
0.273585
0.440478
0.348687
0.367761
0.416636
0.333786
0.435710
0.290871
0.286698
0.395775
0.335574
0.326633
0.337958
0.422597
0.430942
0.500679
0.522733
0.592470
0.560880
0.676513
0.608563
0.728965
0.681877
0.665784
0.580549
0.740886
0.640750
0.583529
0.830889
0.707507
0.965595
0.924468
1.052618
1.106858
1.317859
1.886487
4.736781
26.547909
69.093704
182.184577
301.986933
510.497689
686.925650
887.624025
973.302722
966.535807
876.941681
673.068762
494.711995
278.108716
160.679817
69.725513
32.955408
12.103915
9.047985
10.165572
12.802482
19.199848
27.303696
44.803619
58.913827
78.876615
91.970563
101.747513
104.649663
97.606778
87.154508
67.592859
53.728819
36.550760
26.979446
19.041896
14.859438
12.408495
11.292696
11.158586
10.848641
11.232495
11.354685
11.180639
10.706782
11.350513
11.233687
11.016726
11.184812
10.666847
10.691881
10.446906
10.596514
10.569692
##ZVALUE=325
0.294447
0.156760
0.228882
0.242591
0.277758
0.253916
0.193715
0.306964
0.314713
0.337958
0.338554
0.339746
0.372529
0.313520
0.350475
0.566840
0.339746
0.327826
0.438690
0.303984
0.356436
0.377893
0.449419
0.458956
0.549555
0.613928
0.599623
0.463724
0.539422
0.655651
0.502467
0.615716
0.693798
0.711679
0.710487
0.668764
0.849962
0.756979
0.855923
0.881553
1.110435
1.059771
0.991821
1.323819
2.647638
16.839504
45.470595
121.955872
219.738483
419.889688
591.030717
805.747509
922.331810
969.080925
906.905532
725.042820
553.674698
340.409875
208.375454
92.026591
44.500828
15.695691
9.263754
8.285642
9.424686
12.931824
17.725825
28.529763
40.438771
59.661865
73.868632
88.425875
95.171928
97.145438
92.467666
78.128576
64.566731
48.154593
36.819577
24.340749
18.473864
13.903975
12.510419
11.449456
10.803938
10.781884
11.008978
10.738969
10.830760
10.624528
10.362864
10.453463
10.611415
10.337830
10.221601
10.487437
##ZVALUE=330
0.217557
0.375509
0.309944
0.182986
0.291467
0.279546
0.238419
0.342727
0.302792
0.330806
0.325441
0.355840
0.276566
0.381470
0.427961
0.281930
0.243783
0.281930
0.238419
0.299811
0.420809
0.522733
0.533462
0.396967
0.456572
0.449419
0.487566
0.372529
0.460744
0.320673
0.432730
0.456572
0.488758
0.542998
0.654459
0.548959
0.681877
0.641942
0.808835
0.793934
0.669956
0.879765
0.810623
0.932813
1.075864
1.117587
1.713634
7.177591
23.822784
80.736876
157.364607
319.702625
477.475524
703.889728
847.845674
940.497518
918.093920
786.162615
631.798506
412.175655
267.486572
125.089884
64.409971
24.676919
11.006594
8.151531
7.812977
9.121895
11.697412
18.531680
25.896430
39.691925
52.635670
71.827769
83.229542
91.771483
92.033744
85.957646
75.563788
59.115887
46.511889
32.502413
24.776459
18.457770
14.977455
12.119412
11.124611
10.882616
10.617971
10.236502
10.093451
10.139942
10.140538
10.164976
10.089874
10.151863
##ZVALUE=335
0.090599
0.206828
0.146627
0.114441
0.316501
0.221729
0.186563
0.250936
0.179410
0.288486
0.265837
0.229478
0.281930
0.265837
0.115633
0.136495
0.262856
0.296831
0.340939
0.274777
0.225902
0.143647
0.326633
0.333786
0.375509
0.276566
0.298619
0.320673
0.255704
0.395775
0.426769
0.510812
0.317693
0.525713
0.510812
0.400543
0.489950
0.493526
0.514984
0.472665
0.530481
0.560880
0.724792
0.680685
0.939965
0.902414
0.930429
1.112819
1.255870
3.324747
12.230873
49.180984
105.297565
238.534808
387.237668
612.818003
765.156746
893.926024
915.492773
829.035640
697.550774
480.285883
327.676535
172.425508
91.695786
32.676458
14.922619
8.080602
7.692575
7.913709
8.990765
11.889935
16.486645
26.833415
36.622882
53.040981
65.931678
78.479648
84.608793
85.705519
81.015825
69.003701
58.497787
44.602752
35.776496
24.781823
18.961430
14.321804
12.178421
10.574460
10.341406
9.791851
9.771585
9.765625
9.758472
9.906888
##ZVALUE=340
0.217557
0.124574
0.235438
0.225902
0.259876
0.289679
0.361800
0.298619
0.271797
0.226498
0.246763
0.176430
0.252724
0.277758
0.196695
0.231862
0.447631
0.452995
0.387430
0.335574
0.312924
0.248551
0.289679
0.326633
0.499487
0.357628
0.477433
0.351667
0.382662
0.394583
0.370741
0.604987
0.282526
0.417829
0.457764
0.461936
0.629425
0.481606
0.460744
0.593662
0.501871
0.704527
0.550747
0.605583
0.600815
0.673532
0.797510
0.879765
0.883937
1.074672
1.154542
1.703501
5.729795
29.978752
75.174570
188.355446
317.254663
522.542596
684.001446
845.709443
899.707675
851.296782
744.652748
554.356575
392.472744
207.870007
116.826892
47.969818
20.492673
9.063482
7.673502
7.738471
8.052588
9.400845
11.823773
17.498732
24.821758
36.574602
48.080683
63.841939
73.807836
80.771446
80.712438
76.005459
69.248676
55.543780
44.933558
32.417774
25.038719
18.041730
14.113784
11.268854
10.125637
9.861588
9.576678
9.708405
##ZVALUE=345
0.029802
0.049472
-0.227690
-0.094771
0.077486
-0.058413
-0.167489
-0.063777
-0.040531
-0.074506
0.000000
0.046492
0.047684
-0.082850
-0.041723
0.124574
0.111461
0.113845
-0.077486
0.151992
0.164509
-0.030994
-0.111461
0.023842
-0.037551
0.046492
0.112653
0.025630
0.148416
0.159740
0.185966
0.166893
0.084639
0.192523
0.198483
0.271797
0.246763
0.155568
0.229478
0.287890
0.294447
0.371933
0.225902
0.378489
0.426769
0.263453
0.406504
0.461936
0.481606
0.582933
0.711679
0.811815
0.796914
1.118779
2.624989
16.325712
46.288967
126.238465
227.164626
416.278839
573.168993
763.389468
850.871801
867.751837
794.861913
613.230467
459.734797
273.137689
156.802535
62.858462
29.472709
11.110902
7.994771
7.366538
7.346869
7.559657
8.363724
11.033416
14.751554
23.079515
32.929778
46.349764
55.398941
67.344904
72.584748
74.867606
71.581602
64.102411
55.249929
43.411851
33.968687
23.322701
17.974973
13.081431
10.951757
9.313822
##ZVALUE=350
0.198483
0.181794
0.235438
0.230670
0.265837
0.393987
0.224710
0.234842
0.239611
0.240803
0.252724
0.149608
0.237823
0.243783
0.206828
0.200868
0.293851
0.179410
0.368953
0.275970
0.309944
0.185966
0.257492
0.243783
0.302792
0.087619
0.326633
0.261664
0.465512
0.375509
0.416636
0.333786
0.329614
0.501871
0.386834
0.508428
0.344515
0.355840
0.403523
0.467896
0.459552
0.443459
0.524521
0.593662
0.672936
0.600815
0.619888
0.614524
0.677705
0.746846
0.648499
0.740886
0.904799
0.793934
1.086593
1.210570
1.785755
6.373525
31.054616
73.758960
181.766748
304.113626
502.759814
653.236508
804.535747
853.495598
807.396770
694.662929
486.126542
332.514644
178.457499
95.998645
34.749508
15.165806
8.251667
7.220507
7.089972
6.870627
7.335544
8.116961
10.868907
14.280677
21.195412
28.347969
39.869547
49.627423
60.161948
66.122413
68.804622
66.608787
59.658885
51.714778
40.374994
31.357408
22.475719
17.718673
##ZVALUE=355
0.393987
0.409484
0.319481
0.323653
0.432730
0.456572
0.477433
0.557899
0.524521
0.453591
0.430942
0.405908
0.363588
0.437498
0.342727
0.461936
0.448823
0.572801
0.583529
0.379682
0.381470
0.452995
0.465512
0.463724
0.373721
0.508428
0.457764
0.461936
0.540614
0.456572
0.524521
0.520945
0.624657
0.472665
0.692606
0.569820
0.557899
0.517964
0.599623
0.503659
0.529885
0.483990
0.493526
0.695586
0.562668
0.582933
0.965595
0.753999
0.738502
0.677705
0.925660
0.832677
0.837445
0.786781
1.009703
1.003742
1.057982
1.167655
1.447797
2.804399
16.440749
45.071840
122.892857
220.823884
406.338573
556.985736
730.838776
811.472535
811.308026
716.401935
532.829762
392.245650
222.801566
124.861002
49.076676
22.346973
8.831620
6.945729
7.074475
6.724000
6.935596
6.828904
8.217692
9.338856
13.005733
17.518997
26.267767
33.842921
44.850707
52.890778
60.053468
62.479973
60.770512
55.584908
47.030449
40.071607
##ZVALUE=360
0.452995
0.451803
0.342727
0.380874
0.382662
0.465512
0.482798
0.529885
0.451803
0.439882
0.491738
0.574589
0.556707
0.518560
0.525713
0.491738
0.419617
0.438690
0.483990
0.470877
0.471473
0.442863
0.487566
0.472665
0.510812
0.401735
0.649691
0.483990
0.491738
0.674725
0.610948
0.599623
0.478625
0.544786
0.625849
0.505447
0.461936
0.624657
0.613928
0.659823
0.527501
0.497699
0.695586
0.672936
0.674725
0.746846
0.728965
0.853539
0.734925
0.754595
0.776649
0.846982
0.685453
0.921488
0.728965
0.878572
0.932813
1.063943
1.259446
1.384616
1.367927
2.118945
6.337762
28.562546
70.072412
175.751448
292.442441
475.865006
628.901720
773.009658
805.504918
742.574930
625.419617
429.285765
289.001465
151.229501
79.289675
28.322935
12.912750
6.868839
6.716847
6.511807
6.503463
6.463528
6.424785
7.038713
8.286834
11.072755
14.448762
20.927787
28.299689
38.519502
45.123696
53.030849
56.170821
56.280494
##ZVALUE=365
0.366569
0.297427
0.330806
0.428557
0.268817
0.251532
0.246763
0.420809
0.309944
0.354648
0.351667
0.518560
0.349879
0.302792
0.349879
0.411868
0.358820
0.201464
0.334978
0.279546
0.266433
0.201464
0.234842
0.342727
0.296831
0.418425
0.372529
0.488758
0.394583
0.467896
0.503659
0.612736
0.464916
0.378489
0.469685
0.423789
0.559688
0.442863
0.451803
0.499487
0.426769
0.576973
0.658631
0.464916
0.615716
0.569820
0.572801
0.563860
0.654459
0.603795
0.643730
0.679493
0.731945
0.591874
0.771880
0.715852
0.791550
0.738502
0.778437
1.137853
1.032948
1.155734
1.160502
1.392961
2.700686
15.599728
42.967796
116.778612
216.701627
401.083827
544.441938
704.671741
780.061483
772.262812
683.510900
504.193902
358.072519
199.354887
109.817982
40.691495
17.574430
7.231832
6.367564
5.973577
6.050467
5.733967
5.884767
5.656481
6.131530
7.255673
8.763671
12.980700
17.212629
25.197864
31.486750
40.551424
##ZVALUE=370
0.186563
0.152588
0.273585
0.248551
0.279546
0.261664
0.343919
0.269413
0.311732
0.272989
0.179410
0.309944
0.164509
0.327826
0.234842
0.351667
0.199676
0.219941
0.277758
0.125766
0.245571
0.320673
0.244975
0.170469
0.272989
0.240803
0.208616
0.288486
0.258684
0.304580
0.425577
0.180602
0.378489
0.303984
0.342727
0.264645
0.466704
0.269413
0.304580
0.376701
0.507832
0.306964
0.519753
0.322461
0.366569
0.369549
0.457764
0.496507
0.456572
0.502467
0.517964
0.547767
0.371933
0.525713
0.557899
0.463724
0.485778
0.608563
0.566840
0.674725
0.796914
0.796914
0.849962
0.938773
1.110435
1.072884
1.662970
7.468462
25.939941
86.722970
163.037777
312.528014
456.760526
645.869970
737.964511
764.046907
702.472925
555.426478
412.845016
234.203935
133.716464
53.469539
25.335550
10.120869
6.261468
5.541444
5.329847
5.343556
5.135536
5.119443
5.088449
5.489588
6.046891
8.201599
10.413527
15.047789
##ZVALUE=375
0.282526
0.199676
0.187755
0.246763
0.239611
0.210404
0.316501
0.171661
0.144839
0.084639
0.246763
0.139475
0.235438
0.329614
0.355840
0.134706
0.118613
0.295639
0.309944
0.196695
0.234842
0.205636
0.449419
0.171661
0.233650
0.377893
0.104904
0.331998
0.302792
0.398755
0.359416
0.201464
0.212789
0.384450
0.362992
0.204444
0.371933
0.215769
0.316501
0.278950
0.322461
0.249743
0.232458
0.273585
0.363588
0.413656
0.280738
0.234842
0.363588
0.398755
0.343919
0.249743
0.348687
0.383854
0.202656
0.268817
0.487566
0.528693
0.531673
0.419617
0.518560
0.592470
0.798702
0.631809
0.806451
0.624657
0.989437
1.128912
1.390576
3.115535
17.950535
46.436787
123.220682
221.914649
398.345590
536.373854
689.944625
754.895806
731.112957
634.323955
456.257463
323.090553
181.851983
103.040934
41.087866
18.408895
6.888509
5.274415
4.961491
4.810691
4.691482
4.745722
4.587770
4.665852
5.007982
5.258918
##ZVALUE=380
0.189543
0.232458
0.212789
0.196695
0.219941
0.222921
0.173450
0.266433
0.114441
0.166893
0.110865
0.256896
0.129938
0.267625
0.104904
0.079870
0.195503
0.310540
0.123978
0.113845
0.329614
0.346899
0.337958
0.466704
0.334978
0.225902
0.147820
0.327826
0.226498
0.215769
0.338554
0.314713
0.183582
0.435710
0.362992
0.391603
0.164509
0.179410
0.316501
0.386834
0.470877
0.238419
0.328422
0.335574
0.445843
0.394583
0.301600
0.396967
0.463724
0.387430
0.372529
0.225902
0.276566
0.467896
0.380874
0.450611
0.547767
0.420809
0.536442
0.599623
0.404716
0.444651
0.519753
0.594854
0.615716
0.688434
0.780821
0.867844
0.941753
1.058578
1.431704
2.013445
7.132888
35.223961
83.098412
198.028684
320.778489
502.784848
639.295578
750.018954
754.375458
654.022694
540.331602
377.056003
254.810452
126.066804
65.699816
23.360848
10.647774
5.199909
4.664660
4.372597
4.579425
4.281998
4.284978
4.316568
##ZVALUE=385
0.192523
0.085831
0.058413
0.252724
0.275970
0.104904
0.102520
0.182986
0.141859
0.209808
0.131726
0.037551
0.153780
0.190735
0.167489
0.145435
0.152588
0.086427
0.209808
0.261664
0.126958
0.266433
0.204444
0.260472
0.274777
0.159740
0.196695
0.301600
0.126958
0.144839
0.194907
0.271797
0.345707
0.121593
0.327826
0.131726
0.332594
0.338554
0.167489
0.418425
0.273585
0.366569
0.289679
0.235438
0.257492
0.343919
0.321865
0.224710
0.223517
0.406504
0.244975
0.261664
0.288486
0.462532
0.436902
0.402927
0.379682
0.374913
0.395775
0.372529
0.462532
0.550747
0.416636
0.446439
0.326633
0.569820
0.543594
0.748634
0.705719
0.830889
0.847578
0.936985
1.031756
1.350641
3.105402
18.933415
50.874949
131.814480
234.714746
419.980884
560.155511
700.891614
741.843581
707.953572
624.107718
460.676551
328.023434
179.732442
102.346539
42.401552
18.171668
5.962849
4.477501
4.310608
4.020929
4.100800
##ZVALUE=390
0.096560
0.095963
0.146627
0.075698
0.192523
0.225902
0.204444
0.152588
0.128746
0.108480
0.138879
0.097752
0.207424
0.048876
0.127554
0.171661
0.317693
0.227690
0.184774
0.187755
0.166893
0.086427
0.188947
0.256896
0.118613
0.221729
0.105500
0.209808
0.327826
0.252724
0.174642
0.157952
0.342727
0.137687
0.270605
0.227690
0.172853
0.235438
0.221729
0.180602
0.291467
0.279546
0.246763
0.365973
0.379682
0.248551
0.216961
0.260472
0.193715
0.347495
0.265837
0.331998
0.468493
0.382662
0.209808
0.486970
0.462532
0.442863
0.306964
0.376701
0.248551
0.483990
0.427961
0.320673
0.429749
0.495911
0.520945
0.711679
0.678897
0.747442
0.788569
0.829697
0.883937
0.906587
0.770688
1.091957
1.743436
9.735823
31.352639
98.698735
186.994672
354.683995
485.957861
631.463528
713.122487
736.758709
682.246685
539.806485
409.727693
251.209736
147.154927
60.291886
28.656721
9.678602
4.933476
4.015565
##ZVALUE=395
0.222921
0.210404
0.164509
0.105500
0.022650
0.090599
0.061989
0.143647
0.108480
0.246763
0.270605
0.181794
0.263453
0.183582
0.073910
0.183582
0.345707
0.105500
0.095963
0.045896
0.317693
0.128746
0.178814
0.204444
0.223517
0.220537
0.377893
0.422597
0.334978
0.426769
0.492930
0.162721
0.354648
0.281930
0.260472
0.314713
0.222921
0.256896
0.375509
0.228882
0.378489
0.358820
0.275970
0.257492
0.268817
0.209808
0.400543
0.345707
0.355840
0.281930
0.161529
0.377893
0.351667
0.445843
0.246763
0.398755
0.428557
0.371933
0.306964
0.436902
0.467896
0.390410
0.361800
0.334978
0.371933
0.537634
0.388622
0.438690
0.598431
0.754595
0.719428
0.796914
0.916719
0.785589
0.761747
0.669956
0.819564
0.963807
1.229644
5.456805
20.337701
71.466565
137.077570
263.448954
392.575860
578.953624
689.579844
755.943656
733.885765
619.707704
487.946868
302.619934
189.833641
83.443522
40.189624
13.715625
##ZVALUE=400
0.209808
0.198483
0.257492
0.154972
0.138879
0.212789
0.176430
0.233650
0.265837
0.117421
0.079870
0.197887
0.193715
0.193715
0.209808
0.211596
0.319481
0.193715
0.181794
0.088811
0.196695
0.159740
0.176430
0.312924
0.308752
0.308752
0.198483
0.142455
0.249743
0.158548
0.216961
0.380874
0.237823
0.246763
0.306964
0.299811
0.296831
0.207424
0.265837
0.336766
0.226498
0.244975
0.355840
0.240803
0.214577
0.216961
0.322461
0.326633
0.330806
0.285506
0.288486
0.477433
0.315905
0.286698
0.292659
0.408888
0.242591
0.473857
0.080466
0.280738
0.133514
0.453591
0.267625
0.398755
0.341535
0.490546
0.522733
0.681877
0.706911
0.703931
0.827909
0.670552
0.698566
0.655651
0.644922
0.673532
0.648499
0.590682
0.814795
0.819564
1.133680
2.218485
11.572838
33.954978
96.992850
179.294944
338.180661
468.790531
629.781485
706.176758
719.434619
655.604601
508.067012
375.114679
216.828585
129.566789
##END
