##TITLE=FQP00651
##FORMAT=SPECTACLE-ASCII V-1.2
##DATA TYPE=ULTRAVIOLET SPECTRUM
##SECOND TYPE=ULTRAVIOLET SPECTRUM
##DATE=01/24/18
##TIME=18:06:48
##SPECTROMETER/DATA SYSTEM=SPECTACLE
##XUNITS=NM EM
##YUNITS=ENERGY
##YFACTOR=1
##FIRSTX=220
##LASTX=410
##NPOINTS=96
##3DDATA=Equidistant
##ZUNITS=NM EX
##FIRSTZ=210
##LASTZ=400
##ZPOINTS=39
##XYDATA=(Y..Y)
##ZVALUE=210
1.716614
1.665950
1.454949
1.719594
1.727939
2.148747
2.415776
1.883507
2.107620
1.943707
2.147555
1.731515
2.112985
2.081990
1.645684
2.530813
2.364516
2.893806
2.704859
2.307892
2.748966
2.767444
2.900958
2.880692
3.603697
3.580451
3.704429
3.791451
3.525615
3.817677
4.070997
4.137754
4.175901
4.061460
4.681945
4.920959
5.317926
4.576445
5.474687
4.847646
4.774928
5.026460
5.518794
4.228950
5.118847
5.662441
5.028844
5.649924
5.895495
5.409718
6.029606
4.624724
4.657507
5.483627
5.217791
6.180406
5.584955
6.099939
5.880594
5.868673
5.859733
5.690455
5.201697
5.807877
6.092787
6.667972
6.675720
7.196665
7.880926
9.130836
10.515451
12.243986
14.566779
16.820431
16.795993
18.482804
19.538999
20.444989
21.023750
20.177960
16.571879
16.100407
13.720989
11.722445
9.268522
8.292794
6.937981
6.581545
5.565882
6.401539
5.572438
5.407929
6.296635
6.036758
6.136894
5.376935
##ZVALUE=215
4.596710
4.828572
4.148483
3.665686
3.978610
3.367662
4.180670
4.069805
3.790855
4.425645
3.857613
3.472567
3.447533
3.272891
2.797842
2.473593
2.680421
2.680421
2.319813
2.881885
3.064871
2.718568
2.799630
3.269911
4.025698
3.943443
3.644824
3.601909
3.864765
4.171729
4.497766
4.116893
4.758835
4.324913
4.330873
4.461408
5.338788
4.950762
4.813671
4.718900
4.248619
5.807877
5.301833
5.221963
5.428791
5.801916
5.814433
5.372763
4.943609
5.381703
5.597472
4.933476
5.819798
5.617738
5.101562
5.553961
5.795956
5.785823
5.645752
6.620884
5.764961
5.646944
5.668998
5.736947
5.618930
6.068945
7.027984
7.416606
7.065535
8.537769
10.552406
12.113452
13.502836
15.217662
14.044642
17.570853
18.969774
17.271638
18.877983
18.103719
15.635490
13.890862
11.719465
9.602904
7.415414
6.763935
6.119609
6.202459
5.992651
5.268455
5.250573
5.351901
5.329847
5.326867
6.117821
5.397797
##ZVALUE=220
17.466545
17.095804
17.420650
18.631816
16.653538
16.059875
12.105703
9.957552
10.426641
9.274483
9.773970
10.413527
10.032654
10.299683
8.654594
7.098913
5.765557
4.084706
3.589988
3.622770
3.440976
3.749728
3.428459
3.785491
3.875494
4.288554
3.816485
4.735589
4.671812
5.139709
5.995631
5.894899
5.831718
5.519986
5.847812
6.124973
6.259680
6.426573
5.307794
5.789995
5.465746
5.595684
5.691648
5.570650
4.750490
5.484819
5.841851
5.567670
5.092621
5.766749
5.846620
5.457997
5.498528
5.372763
5.354881
6.573796
6.182790
5.447865
6.089807
6.406903
5.562901
6.165504
5.854964
6.882548
6.321669
5.741715
6.143451
6.413460
6.458759
7.927418
9.486675
9.138584
11.172891
13.215542
13.590455
14.916658
15.827417
15.244484
15.322566
15.632510
12.848973
12.365580
10.195971
9.442568
7.850528
7.002950
6.603599
6.003976
6.774664
5.856752
5.328655
5.650520
5.614758
5.254745
6.142855
4.719496
##ZVALUE=225
30.430555
31.810999
40.050745
51.596761
57.961941
59.932470
52.812696
45.637488
32.413602
27.505755
21.102428
22.452474
23.472905
23.846626
23.171902
23.996830
18.401742
15.565753
12.297630
8.106828
6.225705
4.554987
4.524589
3.754497
3.957748
3.990531
4.841685
5.105734
5.716681
6.035566
6.543994
5.918741
6.494522
7.177591
7.322431
6.945729
6.568432
7.176995
6.013513
6.721616
6.269813
6.303787
6.182790
6.227493
6.943941
4.999638
6.212592
6.094575
5.854964
5.212426
6.429553
6.695986
5.837679
6.132722
6.162524
5.903840
5.804896
5.228519
5.921721
7.025599
6.246567
6.817579
5.770922
6.100535
6.836653
6.809831
6.932616
7.352829
7.594824
7.595420
10.235906
10.851622
10.956526
14.177561
14.293790
14.744997
14.821887
14.534593
13.087988
12.307763
11.888742
10.758638
9.904504
9.023547
8.216500
8.589625
7.460713
7.034540
6.539822
7.020831
7.416606
5.629659
7.038713
6.355643
6.497502
6.796718
##ZVALUE=230
30.393600
34.501553
53.508878
84.945560
116.203427
136.274695
153.017640
153.224468
136.768818
107.591748
83.123446
60.249567
45.888424
40.608644
41.412711
47.878623
50.513744
49.710870
42.754412
35.226941
25.510788
18.070936
11.217594
7.518530
6.380677
6.184578
5.413890
6.470680
6.357431
7.225871
8.317828
8.661747
8.864999
8.373857
8.511543
9.239912
8.751750
7.687807
8.388758
8.223653
7.528663
7.411838
7.522702
6.737709
7.116795
7.404685
6.370544
6.713867
6.432533
6.666780
6.482601
7.326603
7.165670
7.997751
6.824732
7.095933
7.256866
7.143617
6.732941
7.433891
7.108450
7.349849
7.651448
8.415580
8.221865
7.846951
9.519458
9.888411
10.393858
11.559725
12.385845
14.275908
14.245510
15.719533
17.010570
18.143654
16.790628
16.912818
16.986728
14.844537
15.577674
13.507605
12.541413
11.804700
12.402534
12.014508
9.891987
11.097789
10.041595
10.893941
9.813905
9.563565
9.746552
10.531545
10.541677
10.439754
##ZVALUE=235
11.726618
14.664531
26.588440
68.877935
111.235976
179.403424
242.120624
317.523479
355.910659
355.255008
308.550000
255.059600
169.059634
126.231909
84.757805
73.162913
67.404509
74.812770
81.731677
82.800984
79.294443
64.243674
50.704479
35.992861
26.586652
16.826987
12.414455
8.751750
7.797480
8.232594
8.231997
8.465648
9.189844
9.107590
10.041595
11.194944
8.896589
8.215904
9.175539
7.748604
8.558631
8.230805
7.497668
7.596612
6.992817
7.715821
7.664561
8.340478
6.973743
8.231997
7.723570
7.386804
7.439852
8.964539
8.249879
8.193851
8.428693
7.889867
8.953810
9.068847
10.138750
8.989573
9.743571
10.622740
9.439588
11.665821
10.853410
12.453794
11.955500
13.692975
13.527870
16.090870
18.205643
19.285679
19.190907
20.333529
19.916892
19.162893
19.151568
19.654632
19.271970
18.960834
17.107725
17.328858
17.532706
15.232563
15.230775
14.057755
16.227961
15.288591
15.485883
14.571548
14.263988
15.642643
14.158487
14.031529
##ZVALUE=240
1.581907
1.327991
5.811453
16.133785
45.718551
86.657405
172.042847
265.842676
403.380990
483.503938
544.801950
551.923513
509.397984
402.222872
310.418010
197.293758
138.128996
101.743937
94.282627
97.162724
115.354657
114.628673
114.161968
104.350448
84.152818
66.592693
46.269894
36.441684
24.941564
18.119812
13.266802
11.716485
9.671450
11.777878
12.030602
10.113716
9.620786
9.407997
9.076595
8.554459
8.177757
8.208752
9.070635
8.498430
7.359982
7.592440
6.628633
7.242560
8.058548
7.450581
8.379817
7.814765
6.650686
8.394718
7.772446
8.304715
6.855726
9.027719
8.280873
8.087754
8.917451
9.804964
10.438561
11.083484
11.021495
11.122823
11.926889
12.273788
12.568831
14.323592
15.447736
18.855929
18.049479
19.311905
21.040440
22.050738
21.694899
21.673441
22.747517
22.271872
21.479726
20.292997
20.369887
21.284819
18.604994
19.618869
19.411445
18.557906
18.748641
17.422438
19.518733
17.331839
18.402934
18.228889
16.685724
18.182993
##ZVALUE=245
1.382828
1.125932
1.332760
1.273751
2.974868
14.376640
37.367940
104.227662
187.910795
291.298628
450.387001
573.715568
657.180548
671.775937
612.015724
522.936583
372.715592
276.220441
172.965527
123.758912
98.881721
103.521943
114.610791
126.273632
133.849978
125.583410
119.409561
98.071694
76.683760
56.479573
41.557550
26.127696
19.940734
14.012456
12.041926
11.298656
10.828972
9.502769
10.273457
8.504987
8.549690
8.637905
7.889867
8.176565
7.271767
7.832646
7.026792
7.673502
7.100701
6.844997
6.976724
6.778836
7.025599
6.099939
7.178783
6.783605
7.038713
6.788969
6.929636
6.807446
7.638931
9.243488
8.141994
9.117723
9.746552
9.904504
11.256933
10.920763
12.804866
14.069676
14.244914
16.965866
18.903613
18.996596
20.890832
19.671917
20.548701
20.220876
19.398928
19.646883
18.426776
20.213723
19.732714
20.412803
18.969774
18.384457
18.708706
20.573735
19.464493
18.676519
19.515753
18.648505
19.629598
17.838478
18.757582
18.345714
##ZVALUE=250
1.301765
1.361966
1.223683
1.215935
1.293421
1.567602
2.541542
7.451773
31.846762
73.319674
182.453990
299.910903
424.970984
602.670908
703.572035
768.976808
756.111741
652.439594
533.482432
358.658433
247.337818
162.545443
102.364421
97.159743
109.515786
125.292540
137.012601
145.128965
138.304830
127.183795
102.853775
83.614588
64.546466
41.090846
26.822686
16.339421
12.921691
10.438561
9.376407
9.490848
8.733869
7.924438
7.608533
7.884502
7.388592
7.116795
6.549954
6.321669
6.490946
6.591678
7.114410
6.436706
6.299615
5.714893
6.739497
5.598664
6.802678
6.488562
6.396770
6.991625
6.703734
7.455945
7.150769
7.492900
7.660985
8.395910
8.521676
9.191632
10.349751
11.610985
12.131929
14.018416
14.229417
15.051961
15.589595
16.263723
17.716885
16.680956
17.314553
17.936826
17.239451
17.724633
16.775727
17.896891
17.136931
17.145872
17.419457
17.982721
17.677546
17.642975
16.660690
18.000603
18.120408
17.807484
17.583966
17.588735
##ZVALUE=255
0.964999
1.057982
1.091957
1.205802
1.195669
1.388788
1.157522
1.593828
1.755953
3.552437
17.891526
46.196580
96.181631
210.081935
328.080654
516.540408
643.550754
760.723948
805.644989
747.646689
640.143752
506.713986
316.485763
206.098557
117.527843
92.816949
91.594458
106.414557
129.176974
142.557621
148.098469
145.218968
135.047436
106.324553
86.120963
55.885911
40.282607
24.320483
15.965700
11.436939
8.463860
6.910563
6.949902
6.691813
6.873608
6.978512
6.337762
5.902648
5.450845
5.838871
5.407929
5.347729
5.164742
5.570650
5.684495
5.368590
5.715489
5.005598
5.552769
5.682707
5.828738
5.913973
5.644560
6.495714
6.287694
7.616878
7.555485
8.187890
8.513927
8.712411
9.989738
11.387467
11.979938
13.024807
13.342500
13.387799
13.871789
13.208985
14.108419
14.983416
14.866590
15.520453
15.224814
15.210509
15.133619
16.013980
15.291572
16.157627
16.360879
14.881492
15.327930
15.634894
16.435981
15.405416
15.481710
16.866922
##ZVALUE=260
0.951886
1.025796
1.068711
0.866652
1.066923
1.058578
1.149774
1.100898
1.283884
0.903606
1.341701
2.345443
7.731915
30.328631
67.426562
157.829523
258.499980
428.026915
573.712587
752.611756
834.521651
850.926638
749.130845
624.171495
409.258604
280.715823
161.316991
106.182694
78.525543
84.787607
100.674629
128.942728
142.848492
154.366493
148.364902
130.858421
109.558702
81.324577
59.306622
35.741925
22.669435
13.716817
9.205937
6.951690
6.170869
5.530715
5.330443
5.262494
5.752444
5.363822
5.739927
5.734563
5.201697
5.373955
5.470514
5.475879
5.252957
5.280972
5.672574
5.383492
5.728602
6.068945
5.673766
5.432963
5.745888
6.613731
6.094575
7.331967
7.751584
8.972883
8.825660
9.455681
10.335445
10.661483
11.706948
12.522936
12.699962
12.925863
12.619495
12.501478
13.210773
12.709498
13.451576
13.216734
13.785958
13.793707
14.718771
14.094710
13.784766
14.776587
14.888644
14.103651
14.181733
14.716983
14.406443
14.392734
##ZVALUE=265
1.038909
1.056790
1.109838
1.211762
0.883937
1.185536
1.080632
1.250505
1.090765
1.406670
1.384616
1.309514
1.429915
1.949668
4.613996
26.315451
66.805482
165.462494
281.458497
495.456457
668.882728
818.899870
942.021608
962.516665
861.740708
732.903481
538.533926
379.822850
216.559768
131.699443
86.938739
69.998503
80.966949
107.129812
131.151676
150.955915
156.187415
149.141550
130.292773
102.702975
81.511736
54.248571
38.713813
21.363497
13.086796
8.034706
6.440878
5.485415
5.353689
5.418658
5.400777
5.058646
4.759431
5.548596
5.313754
4.993677
4.986525
4.951954
4.899502
5.385876
5.147457
5.079508
5.575418
5.514622
6.166697
6.168485
6.203651
7.030964
7.210970
7.850528
8.640885
8.815527
9.425879
10.367632
10.411739
11.585951
11.104941
11.811852
11.942983
11.934638
11.646748
12.023449
11.209846
12.853742
11.661649
12.543797
12.567639
12.654662
12.561679
13.407469
13.667941
13.516545
13.022423
13.883710
12.937784
13.312697
##ZVALUE=270
0.853539
0.858903
0.757575
0.712872
0.822544
0.747442
0.805855
0.725985
0.945926
0.921488
1.127720
1.019835
1.115799
1.216531
1.643896
1.791716
2.320409
8.123517
25.217533
87.353587
181.593895
382.006764
558.932424
795.111656
941.160917
1015.584469
1005.466580
878.195763
732.246637
507.825613
348.536968
180.636644
104.969740
62.707663
62.481761
84.537864
106.504560
134.122968
147.645473
154.628754
149.050951
131.554604
107.902884
78.500509
58.866739
34.678578
23.128986
12.230873
8.269548
6.060600
6.105900
5.043745
5.023479
5.226731
5.217791
4.885793
5.239844
5.485415
5.110502
5.377531
5.520582
5.493760
5.800724
5.778670
6.150603
6.012917
6.289482
6.617904
6.943941
7.755756
7.929802
8.412600
9.416938
9.627938
10.392666
10.319948
9.884834
10.474920
10.596514
10.457635
10.355711
10.201931
10.005832
10.974407
10.868907
12.253523
11.229515
11.122823
11.469722
12.215972
11.395812
12.268424
12.008548
12.550950
11.792779
12.313724
##ZVALUE=275
0.544786
0.632405
0.591874
0.690818
0.723600
0.887513
0.663996
0.764728
0.817776
0.630617
0.869632
0.825524
0.817776
0.917912
1.197457
1.128912
0.926852
1.371503
1.723766
3.923774
14.368892
40.963888
118.305683
229.343772
443.087816
618.769526
839.943886
975.270867
1015.584469
1002.730727
839.110613
660.409927
466.421843
241.912007
144.297481
68.394542
49.664974
58.226585
77.171922
106.305480
126.540661
144.798756
152.724981
144.649744
131.863952
102.940798
81.535578
56.206584
38.674474
22.077560
14.405847
8.224845
6.161928
4.832745
5.060434
4.827976
5.236864
4.928708
5.460978
5.274415
5.636811
5.245805
5.612969
5.358458
5.456805
6.398559
6.016493
6.862879
6.644726
7.593632
7.853508
8.197427
8.614659
8.977652
9.634495
9.365678
9.724498
9.975433
9.894967
9.579659
10.256767
10.322928
9.682775
10.358691
10.798573
10.108948
10.178685
10.660887
10.758638
10.920763
10.989904
11.303425
11.323690
10.756850
11.424422
11.554956
##ZVALUE=280
0.641942
0.561476
0.620484
0.597835
0.732541
0.680685
0.597835
0.677705
0.779629
0.611544
0.710487
0.805855
0.905991
0.940561
0.903606
0.877976
1.160502
0.988841
0.980496
1.159906
1.205802
1.858473
9.031892
30.012727
95.921755
179.958940
340.347886
502.955914
730.423927
879.523754
980.236530
986.703634
893.836617
687.328577
511.720777
296.071768
179.854631
83.425641
48.994422
40.838718
53.263903
79.719424
99.942684
128.149986
141.109824
146.347880
143.453479
126.049519
106.874704
79.352856
57.233572
35.122633
22.897720
13.271570
8.586645
5.886555
5.090833
4.997849
5.154610
4.907846
5.687475
5.391836
5.337596
5.561709
5.891919
6.041527
6.083846
6.744862
6.324649
7.077456
7.413626
7.951856
8.333921
8.832812
8.570552
8.965731
9.038448
9.199977
9.529591
9.645820
9.404421
9.821653
9.871721
10.129809
9.603500
9.622574
10.283589
10.800958
10.536909
10.058880
10.467768
10.314584
10.114908
10.748506
10.103583
10.388494
##ZVALUE=285
0.656843
0.447631
0.560880
0.532866
0.388622
0.439882
0.673532
0.566840
0.668764
0.576973
0.813603
0.632405
0.604987
0.595450
0.790954
0.839829
0.907779
0.799894
0.895858
1.162887
1.245737
1.387596
1.207590
1.581907
4.318953
15.234947
51.994920
111.376643
243.970752
398.510695
577.223897
820.010900
973.233581
1015.582681
1008.541584
836.300850
657.461882
412.067771
255.348682
122.125745
63.569546
33.394694
33.700466
51.927567
72.226524
101.287961
119.658709
138.504505
144.165754
138.456821
127.242804
103.703737
82.390904
56.310892
38.866997
22.506714
14.080405
9.079576
6.809831
5.660653
5.496740
5.943775
5.407929
5.877614
5.857944
6.094575
6.726980
7.234812
6.898642
7.594824
7.493496
7.984638
8.490682
8.804798
8.915663
8.797646
9.375811
9.094477
9.683967
9.859800
9.610653
9.509921
9.711981
9.757876
9.979606
9.630919
9.986758
9.829998
10.354519
10.090470
9.528995
10.228753
10.196567
10.194778
9.882450
10.615587
##ZVALUE=290
0.731945
0.585914
0.342727
0.495911
0.460744
0.513792
0.472665
0.762939
0.636578
0.513792
0.481606
0.542998
0.600815
0.690818
0.663996
0.774860
0.759959
0.755787
0.714660
0.854731
0.762939
0.686646
1.134872
1.130700
1.424551
1.469851
1.996756
6.050467
28.755665
69.860816
141.821504
300.079584
476.125479
742.457509
911.393762
1015.584469
1015.584469
947.651863
787.667632
537.911654
357.470512
177.408457
92.605948
37.294626
24.856925
32.583475
45.625567
69.811940
88.546872
116.315484
128.856897
139.104724
138.261914
122.082829
104.532838
75.936913
57.370663
36.136508
24.663806
14.061928
9.245872
6.736517
6.402731
6.009936
5.790591
6.487966
6.247759
6.649494
7.122755
7.700920
7.611513
8.328557
8.512735
9.226799
9.244680
9.305477
8.876920
9.545684
8.990765
9.539723
9.623766
9.181499
9.563565
9.496808
10.338426
9.350777
9.631515
9.929538
9.371638
10.087490
9.936690
9.763837
9.844899
9.708405
9.395480
9.865761
##ZVALUE=295
0.359416
0.351667
0.352859
0.385642
0.480413
0.316501
0.474453
0.439882
0.650883
0.535846
0.425577
0.422597
0.667572
0.308752
0.641942
0.595450
0.585914
0.744462
0.632405
0.762939
0.824928
0.650883
0.896454
0.900626
1.023412
1.236796
1.186728
1.427531
1.607537
2.772808
9.315610
42.357445
98.173618
235.718489
386.363864
632.377863
806.336999
986.918807
1015.539765
1003.493667
886.829495
648.843646
461.679697
250.946879
135.469437
49.627423
25.069714
21.071434
27.602911
45.439601
63.597560
88.356733
107.855797
125.384927
133.449435
128.677487
116.669536
96.448660
77.914000
54.180622
37.612915
22.154450
15.536547
9.941459
7.736683
6.699562
6.253719
6.964803
6.939769
7.328987
7.671714
8.023977
8.174777
8.873940
8.737445
9.314418
9.094477
9.648800
9.535551
9.509921
9.548664
9.433627
9.719729
9.641647
9.863973
9.670854
9.525418
10.044575
9.894967
9.668469
9.810925
9.272695
9.265542
9.720922
9.476542
9.709597
##ZVALUE=300
0.514984
0.347495
0.541806
0.258684
0.515580
0.482798
0.431538
0.486970
0.477433
0.342727
0.489950
0.509620
0.540614
0.503659
0.559688
0.621676
0.626445
0.695586
0.614524
0.658631
0.531673
0.639558
0.732541
0.756979
0.962615
0.866652
0.789762
1.023412
1.190901
1.221895
1.547933
1.598597
6.439686
22.061467
76.387525
152.984858
316.846967
491.796732
735.898614
890.799761
1015.584469
1015.584469
935.567617
791.645646
541.940928
360.862017
184.379816
97.661614
34.667850
17.805696
17.480850
24.073720
40.247440
56.764483
81.587434
100.390911
120.107532
126.676559
124.977827
116.479993
96.198916
79.527497
55.360794
39.790869
24.553537
17.100573
10.696650
8.387566
7.781982
7.749796
8.049607
7.992983
8.585453
8.693933
9.376407
8.730888
9.300709
9.442568
9.449720
9.420514
9.570718
9.486675
9.785891
9.603500
9.979606
10.327697
10.015965
10.171533
10.177493
10.241866
9.931922
9.715557
9.718537
9.481907
9.549856
9.779930
##ZVALUE=305
0.555515
0.537634
0.701547
0.535846
0.578761
0.569820
0.662804
0.612736
0.701547
0.525713
0.621676
0.444651
0.657439
0.782609
0.687838
0.630617
0.745654
0.655651
0.814795
0.691414
0.844598
0.925660
0.862479
0.931621
0.834465
0.981688
0.994802
0.950694
1.176000
1.173615
1.344681
1.399517
1.431704
1.895428
3.010631
20.060539
58.043599
155.814886
271.744728
479.737520
653.908849
859.676600
974.367857
1015.768647
963.782668
779.306889
613.424778
398.280621
251.891017
115.962625
57.506561
20.349622
12.947917
16.339421
23.819804
39.361715
55.695772
78.143477
95.217824
113.430619
119.938850
119.040608
110.786557
92.355609
76.415539
52.607656
38.495660
25.190711
16.992688
11.089444
9.780526
8.983612
8.900762
8.945465
9.433627
9.254813
9.250641
9.516478
9.857416
9.675622
10.184646
9.869933
10.167956
10.145903
10.550618
10.201931
10.312796
10.214448
10.334849
10.108948
9.757876
9.993911
9.976625
10.028481
10.130405
9.879470
##ZVALUE=310
0.261664
0.362992
0.349879
0.296831
0.351667
0.450611
0.324845
0.312924
0.358820
0.308752
0.287890
0.404716
0.594854
0.515580
0.421405
0.424981
0.417829
0.638962
0.507832
0.647902
0.550747
0.578761
0.761747
0.627637
0.604987
0.495911
0.749826
0.699759
0.781417
0.926852
0.862479
1.020432
0.959635
0.999570
1.080632
1.388788
1.789927
8.946657
37.528872
135.189891
254.538655
470.512509
666.330457
891.987681
1004.621983
1015.586853
1015.586853
917.326808
761.595964
516.298413
349.728465
179.794431
96.434951
34.957528
15.089512
10.840893
13.650656
21.956563
32.381415
50.129890
66.664815
89.721680
102.200508
112.288594
114.845634
105.890632
92.735887
74.038506
55.750608
36.937594
27.360916
17.606616
13.518929
10.608435
9.913445
9.450912
9.496808
9.652972
9.715557
9.469986
10.079741
9.909868
10.260940
10.216832
10.382533
10.163784
10.345578
10.782480
10.454655
10.217428
10.111928
9.919405
9.857416
9.835958
9.460449
9.604692
##ZVALUE=315
0.413656
0.536442
0.360608
0.369549
0.464916
0.354648
0.163913
0.362992
0.362992
0.321865
0.353456
0.371933
0.297427
0.369549
0.421405
0.402927
0.635982
0.607967
0.417829
0.457764
0.596642
0.573993
0.500679
0.575781
0.420809
0.714660
0.770688
0.608563
0.672936
0.795722
0.664592
0.793934
0.917912
1.054406
1.099706
1.192689
1.248717
1.315475
1.539588
3.683567
15.778542
75.608492
168.005824
362.878442
558.410883
833.891630
982.276797
1015.585661
1015.585661
980.537534
833.786726
602.751970
424.499512
227.912664
129.002929
47.795773
20.805001
9.742975
9.673834
13.508797
18.847585
32.024980
44.575930
64.338446
80.607533
99.649429
107.328892
109.125972
101.962686
86.582899
72.364807
52.897930
39.097667
25.096536
18.224716
13.115406
11.035800
10.012984
9.821653
9.678602
9.776950
9.937882
10.226965
10.406971
10.041595
10.250807
10.368824
10.184646
10.383725
10.016561
10.113716
9.663701
10.143518
9.876490
9.534955
10.134578
##ZVALUE=320
0.326633
0.392795
0.350475
0.206828
0.323653
0.473857
0.349879
0.377893
0.486970
0.438690
0.338554
0.305772
0.426769
0.143647
0.409484
0.394583
0.456572
0.428557
0.385642
0.440478
0.319481
0.428557
0.418425
0.455976
0.428557
0.460744
0.436902
0.511408
0.636578
0.557899
0.655651
0.698566
0.668764
0.858903
0.895858
0.972748
0.795722
0.911951
1.077652
1.228452
1.254678
1.792908
5.295873
27.344823
69.893599
184.947848
312.563777
527.830720
715.153813
932.694674
1013.792753
1008.221507
906.605721
689.928532
499.941707
279.406905
162.166953
69.166422
31.436682
11.654496
8.171797
9.227991
11.712909
18.518567
26.713610
42.768717
58.373809
77.141523
90.833902
101.161599
103.261471
96.443892
85.944533
67.061782
52.618980
35.522580
26.372671
17.301440
13.823509
11.159778
10.058880
9.829998
10.079741
10.027885
9.743571
10.363460
10.005832
10.003448
10.234714
10.281801
10.024905
10.116696
9.876490
9.700656
9.759665
9.790659
##ZVALUE=325
0.337958
0.323653
0.479817
0.336766
0.268817
0.454783
0.211596
0.255704
0.458956
0.334978
0.329614
0.374913
0.207424
0.425577
0.377893
0.352859
0.380874
0.449419
0.379682
0.488758
0.509620
0.547767
0.454783
0.446439
0.496507
0.505447
0.342727
0.435710
0.637770
0.527501
0.571609
0.661612
0.634789
0.769496
0.649691
0.833869
0.950694
0.827909
0.882745
0.852942
0.985861
0.918508
1.216531
1.380444
2.905726
19.336939
49.200654
125.741959
229.245424
437.217951
616.472960
849.812031
971.984863
1015.587449
955.236554
754.085779
566.135645
343.316793
208.692551
91.573000
44.649839
15.503764
8.933544
8.161664
9.347796
12.288690
17.622709
27.914643
39.885640
59.370995
73.061585
87.444782
95.517635
96.627474
91.505647
77.004433
64.060688
47.901869
35.104752
23.130774
17.515421
13.117790
11.571646
10.723472
10.241866
10.044575
10.360479
10.113716
10.105968
9.723902
10.238886
10.140538
9.589791
9.996891
9.499788
9.666681
##ZVALUE=330
0.203848
0.351667
0.193715
0.415444
0.257492
0.316501
0.378489
0.154972
0.215769
0.202656
0.366569
0.390410
0.302792
0.374913
0.378489
0.339746
0.374913
0.354648
0.339746
0.523925
0.322461
0.305772
0.381470
0.371933
0.485778
0.441670
0.397563
0.278950
0.497699
0.400543
0.538826
0.576973
0.636578
0.515580
0.573993
0.630617
0.530481
0.558496
0.640750
0.724792
0.753999
0.883937
0.940561
1.060963
1.068711
1.216531
1.716614
6.002784
30.729771
74.645877
184.554458
309.689641
532.332659
713.425875
913.451910
1006.930470
971.433520
858.252645
642.678738
467.159748
258.196592
147.600770
60.342550
28.464794
10.477901
7.797480
7.872581
9.141564
12.355447
17.646551
28.573871
38.772821
55.056810
68.420768
83.210468
90.017915
91.715455
85.974932
73.077679
61.421990
43.557882
33.677816
23.911595
18.727779
13.923645
12.113452
10.976791
10.339618
10.021925
9.770989
9.758472
9.528995
9.546876
9.373426
9.560585
9.392500
##ZVALUE=335
0.112653
0.139475
0.232458
0.155568
0.102520
0.163913
0.185966
0.191927
0.286698
0.078678
0.159740
0.160933
0.170469
0.147820
0.231862
0.250936
0.420809
0.131726
0.134706
0.039935
0.451803
0.366569
0.081658
0.244975
0.244975
0.147820
0.239611
0.175834
0.277758
0.308752
0.408888
0.505447
0.468493
0.442863
0.423789
0.522733
0.473857
0.296831
0.456572
0.407696
0.636578
0.581741
0.580549
0.812411
0.904799
0.827909
0.815988
1.132488
1.314878
3.611445
13.139844
53.876638
112.983584
252.969861
409.365892
654.152632
820.419788
974.403024
1001.941562
903.960466
760.909915
521.796942
351.027846
185.873508
98.099709
35.155416
15.603900
8.496642
7.734895
7.764697
8.630753
11.986494
16.469955
26.467443
36.382675
53.245425
65.157413
78.261495
84.908605
85.963607
80.869794
67.041516
58.506727
44.952631
35.242438
23.913980
18.770695
13.531446
11.704564
10.220408
9.448528
9.370446
9.317994
9.025931
9.156466
9.178519
##ZVALUE=340
0.375509
0.164509
0.286698
0.153780
0.232458
0.367761
0.305772
0.319481
0.068545
0.228882
0.290871
0.431538
0.253916
0.221729
0.318885
0.317693
0.258684
0.224710
0.325441
0.293851
0.321865
0.406504
0.336766
0.401735
0.436902
0.347495
0.401735
0.335574
0.504851
0.284910
0.465512
0.440478
0.407696
0.481606
0.362992
0.396967
0.481606
0.315905
0.484586
0.674725
0.585914
0.579953
0.653863
0.650883
0.798702
0.621676
0.908971
0.964999
0.893474
1.025796
1.321435
1.876950
8.746982
29.107928
90.032816
176.263452
357.267857
520.560741
732.047558
876.776576
969.048738
942.499638
787.294507
629.811883
394.002795
243.388414
111.691952
53.906441
17.303824
9.325743
7.554889
7.788539
8.173585
9.105802
11.859536
15.577674
24.952888
34.724474
50.209761
62.329769
75.339675
79.677701
81.344843
76.976418
67.461729
57.561994
43.440461
33.822656
23.328662
18.357635
13.512969
11.344552
9.983778
9.392500
8.779764
9.011626
##ZVALUE=345
0.348687
0.216961
0.185966
0.241995
0.098944
-0.036955
0.239611
0.181794
0.380874
0.210404
0.289679
0.221729
0.261664
0.238419
0.205636
0.256896
0.091791
0.354648
0.282526
0.186563
0.290871
0.132918
0.412464
0.395775
0.345707
0.361800
0.294447
0.402927
0.499487
0.355840
0.398755
0.419617
0.456572
0.453591
0.485778
0.481606
0.303984
0.603795
0.594854
0.599623
0.497699
0.458956
0.571609
0.556707
0.595450
0.704527
0.697970
0.727773
0.773668
0.798702
0.894666
0.824928
1.224875
1.272559
2.695918
17.177463
47.593713
126.223564
224.627852
408.631563
560.087562
747.488737
840.915442
860.433578
796.388984
621.612668
469.878912
279.860497
160.433650
63.770413
30.254722
11.545420
7.896423
7.480979
7.468462
7.699728
8.508563
11.087656
14.899969
23.475885
32.383800
46.915412
56.381822
66.825747
72.727799
73.918700
72.240829
63.515902
55.350661
42.780638
33.420920
23.379922
17.833710
13.169646
10.824800
9.300709
##ZVALUE=350
0.150800
0.111461
0.150800
0.299811
0.146627
0.232458
0.353456
0.147820
0.247955
0.234842
0.302792
0.370741
0.190735
0.238419
0.392795
0.177622
0.147820
0.293851
0.266433
0.313520
0.406504
0.316501
0.301600
0.225902
0.394583
0.367761
0.208616
0.323653
0.456572
0.385642
0.292659
0.384450
0.377893
0.305772
0.496507
0.559688
0.462532
0.355840
0.323653
0.396967
0.332594
0.389814
0.404716
0.621676
0.642538
0.623465
0.452995
0.525713
0.685453
0.759959
0.629425
0.744462
0.673532
0.963807
1.034737
1.203418
1.884699
9.070635
29.293895
89.802742
168.141723
338.330865
492.050648
686.690807
804.309845
861.781836
813.035965
668.993592
516.999960
310.428739
190.605521
87.731481
41.992664
13.939738
8.105636
7.053614
6.905794
6.961823
7.225871
8.388758
10.152459
15.426874
20.736456
29.404759
38.270950
50.626993
59.234500
66.821575
68.540573
66.752434
61.038733
49.755573
41.435957
30.141473
23.652911
16.731620
##ZVALUE=355
0.287890
0.275970
0.150800
0.193715
0.191927
0.214577
0.142455
0.088811
0.339746
0.275970
0.306964
0.294447
0.355840
0.250936
0.332594
0.410676
0.253916
0.352859
0.303984
0.174642
0.404716
0.290871
0.331998
0.241995
0.221729
0.305772
0.242591
0.225902
0.381470
0.332594
0.370741
0.361800
0.451803
0.489950
0.268817
0.478625
0.496507
0.376701
0.394583
0.378489
0.542998
0.330806
0.430942
0.428557
0.504851
0.480413
0.420809
0.559688
0.742674
0.566840
0.545979
0.632405
0.630617
0.819564
0.707507
0.769496
0.912547
1.176000
1.367927
2.874732
16.068816
44.548512
120.776892
217.833519
400.536656
553.408861
724.513531
800.088644
793.571472
700.997710
521.681905
381.540656
217.378736
121.922493
47.296882
21.960735
8.923411
6.865859
6.582737
6.493926
6.674528
6.680489
7.719994
9.174943
12.586713
17.346740
25.966763
33.556819
45.148730
52.810907
59.265494
62.531829
61.101913
55.715442
46.902895
39.704442
##ZVALUE=360
0.101924
0.174642
0.190735
0.159740
0.218749
0.209808
0.172853
0.203848
0.239611
0.267625
0.374913
0.280738
0.212789
0.219941
0.228882
0.400543
0.351667
0.188947
0.381470
0.323653
0.345707
0.276566
0.336766
0.230670
0.219941
0.238419
0.322461
0.229478
0.302792
0.269413
0.397563
0.263453
0.287890
0.236630
0.487566
0.408888
0.353456
0.285506
0.250936
0.342727
0.455976
0.316501
0.425577
0.373721
0.505447
0.497699
0.527501
0.506639
0.551939
0.543594
0.420809
0.739694
0.647902
0.598431
0.629425
0.762939
0.786781
0.790954
0.893474
1.065731
1.167655
1.919866
5.927682
27.639866
67.481995
170.806646
286.629796
469.439626
615.015626
761.443973
799.783468
748.669505
635.854006
438.994765
294.392705
144.415498
76.045990
28.833747
12.432933
6.653666
6.200671
6.237626
6.137490
6.233454
6.411672
6.762743
7.935762
10.580420
14.242530
20.858645
27.453899
38.004518
45.347810
52.987933
55.152774
56.469440
##ZVALUE=365
0.233650
0.182986
0.114441
0.093579
0.161529
0.301600
0.379682
0.337958
0.301600
0.146627
0.319481
0.291467
0.210404
0.283718
0.233650
0.145435
0.252724
0.087619
0.258684
0.182986
0.165701
0.262856
0.254512
0.245571
0.346899
0.338554
0.310540
0.239611
0.288486
0.233650
0.219941
0.230670
0.406504
0.271797
0.403523
0.489950
0.363588
0.336766
0.434518
0.270605
0.357628
0.302792
0.397563
0.479817
0.304580
0.463724
0.627637
0.513792
0.445843
0.489950
0.458956
0.382662
0.590682
0.615716
0.759959
0.739694
0.804663
0.645518
0.764728
0.874996
0.856519
1.135468
1.033545
1.370907
2.728701
15.068650
41.164756
111.208558
209.059715
394.599438
536.583662
695.692897
771.461725
774.889588
691.930652
508.718491
367.113948
205.296874
113.530755
41.786432
17.725825
7.095933
6.189942
5.874634
5.701780
5.671978
5.800724
5.885959
5.859733
6.769896
8.603930
12.702942
16.927719
24.557710
31.182766
40.278435
##ZVALUE=370
0.139475
0.111461
0.118613
0.112653
0.134706
0.226498
0.190735
0.187755
0.311732
0.226498
0.313520
0.329614
0.234842
0.238419
0.371933
0.184774
0.289679
0.261664
0.201464
0.034571
0.040531
0.311732
0.255704
0.262856
0.401735
0.257492
0.415444
0.239611
0.349879
0.373721
0.194907
0.198483
0.229478
0.282526
0.324845
0.418425
0.348687
0.429749
0.435710
0.334978
0.248551
0.388622
0.327826
0.333786
0.482798
0.383854
0.557899
0.367761
0.432730
0.415444
0.445843
0.251532
0.549555
0.463724
0.476837
0.633597
0.612736
0.540614
0.572801
0.708699
0.770688
0.773668
0.749826
0.943542
0.988841
1.073480
1.685619
7.457733
25.205612
82.723498
155.553818
297.820568
437.557697
622.400641
717.910528
751.769543
698.328614
555.737615
416.996479
234.236717
134.203434
54.633617
26.107430
10.059476
6.127954
5.351901
5.331635
5.076528
5.178452
5.115867
5.347729
5.321503
5.844831
7.919669
10.252595
15.394688
##ZVALUE=375
0.271797
0.143647
0.240803
0.205636
0.218749
0.216961
0.136495
0.172853
0.155568
0.135899
0.142455
0.239611
0.140667
0.280738
0.165701
0.260472
0.076890
0.168681
0.268817
0.392795
0.327826
0.220537
0.145435
0.335574
0.307560
0.283718
0.300407
0.150800
0.355840
0.244975
0.111461
0.198483
0.317693
0.346899
0.222921
0.244975
0.433922
0.414848
0.357628
0.325441
0.491738
0.393987
0.420809
0.429749
0.406504
0.315905
0.293851
0.416636
0.462532
0.411868
0.546575
0.443459
0.426769
0.450611
0.357628
0.328422
0.469685
0.532866
0.429749
0.543594
0.560880
0.661612
0.640750
0.581741
0.841618
0.824928
0.770688
1.120567
1.267791
3.235936
18.297434
46.404600
121.861696
219.096541
395.853519
539.776683
700.540543
770.700574
748.751760
655.304790
471.710563
333.513618
187.360644
105.750561
42.102933
18.274784
7.074475
5.293489
4.893541
4.950762
4.855990
4.715919
4.832745
4.589558
4.791617
5.421638
##ZVALUE=380
0.122786
0.195503
0.216961
0.072718
0.276566
0.203848
0.285506
0.188947
0.342727
0.289679
0.098944
0.111461
0.107884
0.303984
0.290871
0.182986
0.224710
0.206828
0.282526
0.304580
0.280738
0.321865
0.316501
0.181794
0.306964
0.299811
0.298619
0.197887
0.388622
0.187755
0.273585
0.379682
0.215769
0.303984
0.278950
0.294447
0.429749
0.197887
0.225902
0.306964
0.292659
0.352859
0.291467
0.239611
0.323653
0.163913
0.373721
0.325441
0.421405
0.354648
0.400543
0.460744
0.421405
0.438690
0.500679
0.345707
0.440478
0.372529
0.354648
0.484586
0.454783
0.649691
0.464916
0.711679
0.544786
0.770688
0.930429
0.723600
0.839829
0.990629
1.230836
2.057552
7.229447
35.925508
83.669424
195.895433
313.943624
493.559837
627.076626
752.586722
771.040916
686.957836
567.081571
384.925008
259.677768
128.235817
66.046715
23.928881
10.427833
5.032420
4.709959
4.427433
4.495978
4.518628
4.326701
4.188418
##ZVALUE=385
0.112653
0.116825
0.155568
0.042915
0.165701
0.383854
0.080466
0.162721
0.174642
0.132918
0.156760
0.195503
0.173450
0.216961
0.136495
0.164509
0.158548
0.008941
0.135899
0.161529
0.256896
0.177622
0.165701
0.172853
0.343919
0.216961
0.446439
0.181794
0.188947
0.072718
0.142455
0.112653
0.222921
0.281930
0.205636
0.260472
0.218749
0.125766
0.482798
0.213981
0.308752
0.317693
0.258684
0.217557
0.189543
-0.013709
0.248551
0.394583
0.360608
0.389814
0.360608
0.433922
0.303984
0.294447
0.252724
0.336766
0.308752
0.273585
0.358820
0.288486
0.271797
0.330806
0.434518
0.462532
0.602603
0.568628
0.553727
0.522733
0.818968
0.757575
1.023412
1.105666
1.038909
1.364946
4.283786
14.839768
57.173967
123.850703
263.020992
402.807593
583.267808
680.912733
730.059743
705.340505
595.429540
476.102829
306.756496
197.248459
91.489553
45.033693
15.971661
6.916523
4.408956
4.251599
4.086494
3.939867
##ZVALUE=390
0.075698
0.180602
0.095963
0.033975
0.164509
0.246763
0.148416
0.134706
0.231862
0.248551
0.241995
0.223517
0.180602
0.267625
0.169873
0.151992
0.338554
0.365973
0.260472
0.265837
0.233650
0.186563
0.302792
0.278950
0.315905
0.251532
0.301600
0.328422
0.119805
0.187755
0.228882
0.200868
0.214577
0.087619
0.225902
0.162721
0.229478
0.304580
0.127554
0.279546
0.255704
0.078678
0.305772
0.312924
0.231862
0.307560
0.309944
0.283718
0.145435
0.434518
0.343919
0.375509
0.241995
0.226498
0.344515
0.478625
0.421405
0.273585
0.450611
0.332594
0.377893
0.348687
0.316501
0.424981
0.414848
0.388622
0.604987
0.603795
0.491738
0.802875
0.669956
0.863671
0.744462
0.908971
0.904799
1.004934
1.749992
9.764433
32.318830
101.569891
193.124413
361.911654
493.069887
636.885762
710.390806
725.378990
667.580962
526.838899
400.835872
245.141983
144.074559
60.095787
27.782917
8.442998
4.648566
3.994703
##ZVALUE=395
0.216961
0.143647
0.258684
0.069737
0.141859
0.139475
0.087619
0.137687
0.239611
0.102520
0.118613
0.093579
0.193715
0.128746
0.131726
0.138879
0.194907
0.124574
0.082850
0.128746
0.147820
0.112653
0.246763
0.215769
0.201464
0.353456
0.280738
0.272989
0.142455
0.282526
0.133514
0.157952
0.267625
0.091791
0.111461
0.353456
0.220537
0.135899
0.245571
0.410676
0.348687
0.328422
0.307560
0.331998
0.279546
0.279546
0.201464
0.239611
0.286698
0.223517
0.229478
0.188947
0.184774
0.245571
0.222921
0.252724
0.357628
0.272989
0.361800
0.349879
0.382662
0.324845
0.267625
0.260472
0.385642
0.570416
0.529885
0.525713
0.654459
0.702739
0.629425
0.691414
0.703931
0.725985
0.781417
0.740886
0.895858
0.911951
1.070499
5.617738
21.060705
73.545575
139.810443
268.105865
399.565697
580.800772
691.551566
756.715536
733.036995
618.381500
486.579537
300.177932
184.579492
80.246925
39.105415
13.594627
##ZVALUE=400
0.140667
0.161529
0.058413
0.101924
0.026822
0.029802
0.071526
0.148416
0.057817
0.230670
0.196695
0.222921
0.239611
0.267625
0.132918
0.146627
0.124574
0.093579
0.196695
0.266433
0.049472
0.154972
0.123978
0.141859
0.200868
0.218749
0.268817
0.225902
0.137687
0.097752
0.242591
0.223517
0.205636
0.209808
0.179410
0.351667
0.137687
0.094771
0.367761
0.242591
0.244975
0.265837
0.281930
0.243783
0.388622
0.261664
0.157952
0.329614
0.112653
0.241995
0.339746
0.311732
0.296831
0.305772
0.296831
0.336766
0.379682
0.366569
0.368953
0.358820
0.222921
0.311732
0.412464
0.435710
0.547767
0.304580
0.459552
0.548959
0.628829
0.572801
0.707507
0.747442
0.877976
0.695586
0.818968
1.043677
0.779629
0.691414
0.849962
1.026988
1.040697
2.251863
12.726784
37.341714
106.946826
198.882818
376.652479
524.848700
707.624555
786.432624
787.957907
707.962513
529.608727
381.131768
214.316845
128.109455
##END
