##TITLE=FQP00301
##FORMAT=SPECTACLE-ASCII V-1.2
##DATA TYPE=ULTRAVIOLET SPECTRUM
##SECOND TYPE=ULTRAVIOLET SPECTRUM
##DATE=01/24/18
##TIME=17:11:55
##SPECTROMETER/DATA SYSTEM=SPECTACLE
##XUNITS=NM EM
##YUNITS=ENERGY
##YFACTOR=1
##FIRSTX=220
##LASTX=410
##NPOINTS=96
##3DDATA=Equidistant
##ZUNITS=NM EX
##FIRSTZ=210
##LASTZ=400
##ZPOINTS=39
##XYDATA=(Y..Y)
##ZVALUE=210
1.729727
1.913905
1.801848
1.759529
1.609921
1.715422
2.544522
2.475977
2.147555
1.750588
2.157688
1.964569
2.032518
1.626611
1.897812
2.600551
2.442598
2.381802
2.490878
2.922416
2.876520
4.287958
3.899932
3.466606
3.267527
3.531575
3.451705
3.453493
4.543662
4.231930
4.875660
4.103780
4.506707
4.969835
4.666448
4.311800
5.124807
5.209446
5.129576
5.208850
4.887581
4.823804
5.300641
5.397797
6.203651
4.992485
5.224943
5.493760
6.560683
5.167723
5.569458
5.496740
6.629825
5.819798
5.948544
6.173849
5.935431
6.140471
5.860925
5.636811
6.621480
5.360842
6.172657
6.255507
6.626844
6.116629
6.001592
7.037520
8.317828
9.208918
10.869503
13.094544
14.346838
16.448498
18.219948
18.522739
18.656850
19.693971
19.958615
17.518997
15.764832
13.995767
13.995767
10.011792
10.105968
8.596778
7.358789
6.235838
7.101893
6.870627
5.299449
6.691813
8.237958
7.234812
6.566644
7.101893
##ZVALUE=215
5.856752
5.819798
4.779696
4.495978
3.788471
3.664494
3.361702
3.746748
4.473925
4.703999
3.300905
4.184842
3.798604
3.199577
3.093481
3.019571
2.563000
3.082752
2.276897
3.037453
2.787709
3.320575
3.762841
3.702641
4.237890
4.014969
4.566908
4.881620
4.862547
5.368590
5.674958
5.437732
5.403757
5.786419
6.221533
6.870627
5.585551
6.044507
6.340742
7.265806
6.058812
7.156730
6.539822
5.496740
7.281899
6.224513
6.316900
5.840659
6.240606
6.408691
6.860495
5.889535
6.646514
7.132888
6.175637
6.278753
7.420778
6.108880
6.289482
6.869435
6.408691
6.558895
6.952882
6.404519
6.989837
7.468462
7.938743
8.428693
8.866787
9.443760
11.181831
13.334751
15.503764
17.437935
18.419623
19.723773
20.523667
20.886660
19.209981
18.092990
15.489459
14.689565
14.633536
10.924935
10.306835
9.211898
9.205937
7.661581
6.818771
7.374883
7.479787
7.478595
6.908774
6.950498
6.582737
6.484985
##ZVALUE=220
21.688938
24.518967
27.131438
26.620626
22.956729
19.327998
16.693473
11.752844
9.806752
9.161830
10.165572
10.599494
9.912848
9.712577
7.711649
5.736947
5.475879
4.487634
4.072785
3.824830
3.411770
4.173517
3.850460
5.073547
5.236864
4.872680
6.217957
5.509853
6.487966
6.860495
7.047653
7.354617
8.549690
7.834435
8.061528
8.516908
8.561611
8.681417
9.201765
9.280443
8.978844
8.498430
8.610487
9.319782
9.120703
8.107424
7.775426
8.009672
9.852648
8.335710
9.206533
8.368492
7.751584
8.826852
8.849502
7.843971
7.692575
8.688569
8.699894
9.722710
8.226633
8.486509
8.259416
7.994771
8.812547
9.441972
9.306669
10.365844
11.958480
12.162924
15.053749
16.400814
18.574595
21.365881
20.634532
21.765828
22.663474
21.587610
22.158623
21.139979
21.032691
17.753839
14.594793
13.838410
11.448860
10.497570
10.124445
9.084940
9.310842
9.001493
8.809566
8.291602
8.636713
9.664893
8.326769
9.034872
##ZVALUE=225
48.297644
52.503943
66.715479
82.484484
88.135004
87.953806
79.345703
64.594746
50.843954
32.217503
26.616454
21.085739
23.040771
25.201440
24.818778
21.918416
20.426512
17.283559
10.925531
9.633899
5.895495
5.273819
5.589724
4.673600
5.480647
5.508661
5.649924
6.713867
8.366704
9.173751
8.092523
9.553432
10.728836
9.726882
10.935664
11.995435
11.433959
11.270642
10.931492
10.421872
11.733770
11.614561
11.458993
11.724830
10.596514
10.645986
10.631680
10.931492
9.575486
8.852482
9.914637
10.692477
10.610819
9.361506
9.798408
10.105968
10.118484
11.241436
9.892583
10.340810
10.303855
9.719729
10.885000
10.909438
12.312531
11.216998
11.323690
12.451410
13.853908
15.263557
15.982985
18.180609
18.724799
20.715594
22.030473
22.736788
22.297502
20.788908
21.921992
19.354820
19.390583
18.216968
17.005801
16.411543
15.630722
13.538599
12.337565
12.198687
12.343526
13.192892
12.234449
11.836886
12.630820
11.823773
12.457967
12.033582
##ZVALUE=230
47.151446
52.927732
83.527565
132.229924
171.300769
198.979974
207.010508
202.427506
178.120732
151.963830
107.051730
77.025890
56.953430
45.601726
43.225884
47.439933
48.130751
45.294762
43.354630
34.185648
26.614666
18.234849
13.530850
8.479953
6.616712
6.988645
6.611943
7.507801
8.444786
9.060502
9.452701
10.995865
10.689497
12.310743
12.198687
11.925697
12.882948
12.674928
11.908412
12.733936
11.831522
11.421442
10.970831
12.388825
11.356473
11.432767
10.963678
11.252761
11.687875
10.961890
11.655688
11.363626
12.075901
12.112856
12.479424
11.772513
11.096597
11.800528
11.570454
11.801720
11.594892
12.688637
14.342666
12.287498
13.188720
14.202595
15.619993
15.652776
15.766621
18.573999
20.412803
20.813942
21.600723
25.633574
25.598407
27.856827
27.239919
27.956963
26.635528
24.777651
23.793578
22.865534
20.007491
19.710660
20.289421
18.222928
19.615889
19.091964
19.680858
19.088984
16.890764
17.318726
18.823743
18.629432
17.904639
17.977953
##ZVALUE=235
15.078783
17.677546
37.085414
86.904764
135.988593
220.968723
295.476913
381.206870
413.089991
427.494645
379.688740
314.058661
212.291479
151.174664
102.259517
78.916550
68.995953
73.860884
78.673959
83.124638
77.429414
61.015487
54.459572
35.211444
25.824904
15.677810
12.526512
10.601878
10.082722
10.296702
10.715723
10.296702
10.254979
11.226535
12.042522
11.032820
12.310743
11.542439
13.007522
12.450814
11.858940
11.989474
10.212660
11.885762
10.760427
11.179447
12.038946
10.855794
12.885928
11.931658
11.946559
11.563897
12.465715
11.995435
12.358427
13.143420
12.782812
14.140606
13.137460
13.140440
14.519691
13.900995
15.228987
16.721487
16.135573
19.058585
17.932653
18.408895
20.874739
21.981597
24.245977
24.644732
27.424693
31.297803
32.520890
31.782985
31.479597
29.567480
34.227967
28.577447
29.580593
30.781627
28.725863
29.761791
28.962493
29.468536
27.006865
26.874542
25.290847
25.415421
24.461746
25.560856
25.667548
25.083423
25.238991
25.548935
##ZVALUE=240
2.322793
1.740456
6.541610
18.479824
48.420429
93.565583
188.266635
299.301744
453.448892
562.279820
665.572882
684.918761
642.743707
525.839925
400.573015
255.525708
176.799893
113.962889
97.961426
98.852515
106.151700
117.269754
110.563636
103.975534
81.587434
66.877604
53.514838
35.739541
23.542643
18.235445
15.342832
13.311505
13.973713
12.931824
12.451410
11.832714
12.529492
13.328791
11.835694
12.144446
12.414455
11.096597
11.338592
12.097955
11.226535
12.718439
10.808706
11.923909
12.261868
11.885762
11.713505
11.718869
13.107657
13.485551
11.362433
13.130903
13.084412
13.217926
14.193654
14.490485
13.808608
16.665459
17.250776
18.081665
17.511845
18.787980
19.464493
20.874739
20.788908
24.895668
27.659535
28.087497
30.278563
33.852458
36.944747
36.703944
36.651492
34.520626
37.655830
37.237406
36.774874
37.111640
37.472844
34.698844
33.714771
34.491420
34.309626
33.483505
32.773614
32.392740
32.648444
31.122565
32.888651
29.960871
31.492710
32.571554
##ZVALUE=245
1.409650
1.342893
1.657605
1.905560
4.348755
12.704730
40.229559
81.969500
198.508501
318.688750
546.076894
721.575618
863.378644
970.264673
939.337015
806.700587
661.134720
431.644917
282.736421
157.487988
114.142895
101.654530
114.377737
129.619837
134.975910
130.549669
112.068653
96.890926
76.222420
58.123469
43.990612
29.780865
20.182729
16.949773
15.882850
13.070703
13.290644
12.284517
11.976957
12.845993
11.879802
11.059642
12.036562
10.770559
10.962486
11.835694
10.003448
10.923743
11.287928
11.849999
10.983944
11.056662
10.937452
11.510849
11.462569
11.389852
11.165738
12.457967
12.821555
13.712645
12.720823
13.845563
14.037490
14.816523
15.977621
16.964674
17.642975
17.813444
20.896792
21.708608
22.631884
25.430918
26.197433
29.288530
29.852986
32.202601
32.642484
33.726692
32.942891
33.743978
34.655929
32.952428
32.693744
33.695698
35.728812
33.227801
33.254623
32.305717
32.625794
33.848882
33.029914
31.529665
32.670498
32.020807
32.880902
32.020807
##ZVALUE=250
1.237988
1.100898
1.246929
1.493692
1.502633
1.339912
2.930760
9.840727
40.987730
79.618692
189.417005
316.312909
464.705825
660.935640
805.009007
909.652710
902.186632
812.774897
684.533715
457.904935
314.761996
199.860930
116.750002
98.320842
107.255578
122.466683
136.489868
143.637657
138.732791
122.338533
109.416842
83.469748
63.068867
43.954849
29.931664
19.316673
15.587807
14.007688
13.092756
12.399554
12.127757
11.615753
12.575984
11.940598
10.985732
11.124611
11.302829
10.703802
10.492802
10.597706
10.241866
9.951591
10.030866
10.844469
9.857416
10.531545
10.644794
10.452867
11.785626
11.380911
11.389852
11.725426
11.531711
13.257861
14.484525
13.415813
14.995933
17.281771
16.988516
18.515587
19.609928
22.534728
24.227500
23.598671
25.956631
27.377605
28.010607
28.406978
29.022694
29.535890
29.839873
29.916763
29.755831
30.914545
30.606985
30.413866
29.886961
30.937791
30.816793
30.107498
30.185580
29.940605
30.312538
30.428767
31.042695
29.284954
##ZVALUE=255
1.135468
1.025796
1.103878
1.215935
0.978708
0.919700
1.466870
1.640916
1.920462
5.261898
29.903650
68.808794
136.531591
283.343792
430.310965
650.187731
804.775953
959.460735
1006.493568
950.973034
834.893584
652.769804
410.558581
260.566473
139.205456
97.061992
93.374848
109.530687
128.791928
146.008730
150.235891
145.019889
132.832527
107.541680
87.676644
59.194565
44.596791
27.594566
19.276738
14.922619
13.316870
12.542605
11.993647
13.126731
12.513995
10.338426
10.680556
11.359453
10.680556
10.818839
10.572672
10.657907
10.513663
10.497570
10.725856
10.028481
10.622740
10.123849
10.066628
10.976791
11.583567
10.943413
11.767745
12.038946
12.088418
13.124943
13.677478
14.631748
15.511513
16.612411
17.880797
18.676519
20.662546
23.324490
22.997856
23.674965
23.476481
25.045872
25.385618
24.874806
25.160909
28.028488
25.925636
26.407838
27.107596
28.157830
27.839541
28.555989
28.376579
27.838945
28.141737
29.399991
28.414726
29.325485
27.890801
28.803945
##ZVALUE=260
0.830889
0.922680
1.076460
1.074672
1.226664
1.141429
0.925660
1.183748
1.495481
1.559854
1.693964
2.174973
11.934638
37.024617
110.585690
214.152932
410.534739
590.455532
835.448503
999.523997
1015.584469
1015.584469
1009.767652
849.508643
639.023781
386.452675
240.824819
122.960806
89.641809
88.732839
105.375648
133.123994
145.638585
154.748559
150.778890
134.955645
112.661719
87.422729
65.157413
42.334795
30.648708
22.127628
17.236471
14.883876
14.036894
12.781620
13.250709
12.703538
13.457537
12.444854
13.126731
12.240410
12.104511
11.802912
11.538863
10.903478
11.806488
11.429787
11.312962
11.425614
11.458993
11.758804
11.379719
12.175441
12.722611
12.898445
13.901591
15.381575
15.408993
16.117692
17.646551
19.752979
20.008683
21.460652
21.885633
23.853779
22.981763
23.641586
24.051666
24.070740
24.521947
24.142861
24.645925
24.985671
25.535822
26.472807
25.888681
27.316809
26.466846
26.280880
27.551651
27.174950
26.556849
27.569532
25.524497
27.669668
##ZVALUE=265
1.006722
0.996590
0.780821
1.089573
1.043677
0.888705
1.330972
1.324415
1.321435
1.403689
1.671910
1.873970
1.912713
2.457500
5.240440
32.860637
109.673738
301.051736
510.495901
873.822570
1015.582681
1015.582681
1015.582681
1015.582681
1015.582681
1015.582681
812.712908
580.049753
322.336555
187.117457
109.180808
76.501966
86.003542
115.107894
136.388540
154.650807
160.086751
153.313875
139.057636
112.928748
89.698434
62.891841
46.692491
30.709505
23.021698
17.059445
15.827417
15.026927
14.154911
14.278889
13.705492
13.799667
12.497902
12.651682
12.372732
12.644529
12.734532
13.025999
12.448430
12.173653
11.459589
12.328625
12.275577
12.830496
13.857484
13.653636
14.468431
15.422702
15.599728
16.840696
17.508864
18.897653
20.294785
20.969510
21.544695
22.528768
22.351742
23.082495
23.637414
23.381710
22.938848
22.908449
23.750663
23.905635
23.481846
24.188757
24.422407
24.671555
25.347471
24.972558
24.987459
25.063753
25.546551
25.277734
25.505424
25.283694
##ZVALUE=270
0.927448
0.874996
0.820756
1.033545
0.771880
0.872612
0.944734
1.137853
0.979900
1.235604
1.265407
1.231432
1.498461
1.493692
1.592636
2.046824
3.113747
15.353560
45.599937
145.777464
288.842916
491.108894
815.529823
1015.584469
1015.584469
1015.584469
1015.584469
1015.584469
984.859467
742.006898
514.424443
260.642767
141.964555
69.589615
67.048669
91.871619
111.847520
139.690638
153.585672
159.392953
153.802633
135.657787
116.964579
88.673830
67.017674
44.594407
32.594800
22.091866
17.308593
14.924407
14.181733
13.316870
13.524890
12.337565
13.291836
12.225509
12.523532
11.847615
12.677908
11.924505
12.555718
11.937618
12.443662
13.004541
12.317896
13.278723
13.193488
13.699532
14.213920
15.340447
16.043782
16.390681
16.828775
18.650889
19.562840
19.940734
19.915700
20.879507
21.243691
21.095872
20.920634
21.716952
21.128654
20.953417
22.634864
22.418499
22.692680
22.353530
22.164583
22.616982
23.164749
23.334622
23.228526
23.622513
23.404956
23.777485
##ZVALUE=275
0.681877
0.719428
0.636578
0.647902
0.649691
0.667572
0.683665
0.817776
0.983477
0.820756
1.114607
0.979900
0.990629
1.121759
1.438856
1.277924
1.464486
1.686811
1.881719
4.922748
20.591617
59.952736
167.240500
304.805636
544.778705
740.814805
1000.531912
1015.581489
1015.581489
1015.581489
1015.581489
961.461663
683.649778
359.916687
199.041963
85.137486
56.790709
65.146685
84.481835
112.268925
133.168697
152.989626
156.833529
147.956610
140.088797
107.398629
88.980794
64.014792
46.940446
29.768944
21.748543
16.585588
13.934970
12.991428
12.461543
13.003945
12.301803
12.248755
12.230873
12.706518
12.389421
12.506843
12.352467
13.047457
13.243556
13.164878
12.733936
14.472604
14.329553
15.393496
16.212463
17.190576
17.944574
18.783808
18.975735
19.028783
19.066930
20.763874
20.898581
20.814538
21.703839
21.091700
20.718575
20.910501
21.626949
22.035837
21.840930
21.588802
21.451712
22.037625
22.133589
21.588802
22.498965
22.817850
22.333860
22.767782
##ZVALUE=280
0.600815
0.462532
0.450611
0.658631
0.774860
0.889897
0.735521
0.774860
0.762939
0.946522
1.044869
0.795722
0.981688
0.907779
1.170635
1.049638
1.321435
1.191497
1.611710
1.498461
1.993775
2.086759
11.289716
37.249923
119.622946
221.435428
415.140986
616.208911
903.862715
1015.594602
1015.594602
1015.594602
1015.594602
1015.594602
868.816972
511.487722
307.015777
130.171776
65.119863
48.089623
57.773590
84.309578
105.078816
131.649971
146.344900
152.694583
147.621632
129.354000
110.490918
83.782673
63.453913
41.390657
29.787421
19.235611
14.929771
12.491941
11.684895
11.978745
11.817813
11.979938
12.187958
12.203455
12.925863
13.459921
13.422966
13.677478
14.673471
14.590621
14.861822
15.384555
16.484857
16.912818
16.650558
18.617511
18.982887
19.738674
19.745827
20.217896
20.785928
20.403862
20.536780
20.950437
22.240877
21.283627
21.080971
20.994544
20.808578
21.270514
21.792650
21.407604
21.661520
21.570921
21.182895
21.147728
21.340847
21.899939
##ZVALUE=285
0.499487
0.414848
0.429749
0.359416
0.602603
0.486970
0.413656
0.631809
0.473857
0.562668
0.617504
0.759959
0.682473
0.656843
0.555515
0.963807
0.842810
0.857711
0.986457
0.874996
1.008511
1.193881
1.423955
1.617670
5.225539
18.147826
64.245462
137.559772
306.185484
477.137566
670.841932
941.511989
1015.434861
1015.434861
1015.434861
1015.434861
861.815810
558.047891
363.399982
176.794529
88.694692
41.290522
36.937594
54.007769
75.410604
103.075504
121.355653
140.177608
145.344734
140.686631
129.392743
107.151866
86.606741
60.065985
43.448806
26.898980
19.586682
13.847947
12.587905
11.561513
11.235476
11.228919
12.021661
12.861490
12.860894
12.949705
13.626814
14.083982
15.139580
15.690923
16.414523
16.800761
16.373992
17.656684
18.164515
19.716620
18.568635
19.321442
19.407868
19.880533
20.106435
19.925833
20.005703
20.496845
20.414591
21.415949
21.030903
21.131635
20.725727
21.596551
20.926595
21.190643
21.155477
21.249652
20.980835
20.946860
##ZVALUE=290
0.444651
0.349879
0.548959
0.556707
0.463724
0.610948
0.559688
0.502467
0.700951
0.641942
0.614524
0.621676
0.620484
0.748634
0.560880
0.768900
0.838637
0.810623
0.787973
0.709891
0.877976
0.905991
1.125932
1.252890
1.596808
1.507998
2.298951
7.799864
35.357475
82.040429
198.796988
339.500904
594.150424
803.637505
1012.883782
1015.584469
1015.584469
978.126526
740.661621
550.865531
324.704647
191.464424
82.100630
43.062568
26.171803
31.374693
49.258471
66.972971
92.426538
113.578439
133.240819
139.846802
136.224627
126.403570
105.158687
84.635615
57.370663
41.520000
27.356744
20.614862
15.029907
13.032556
11.636615
12.288690
12.229681
12.607574
13.240576
14.082789
15.062690
15.433431
16.318560
16.513467
17.339587
17.500520
17.815828
18.929839
18.790960
19.092560
19.417405
19.990802
19.845963
20.269752
20.637512
21.038651
20.772815
21.161437
21.110773
21.604896
21.404624
20.842552
21.272898
20.770431
20.841956
20.574927
20.788908
20.804405
##ZVALUE=295
0.631809
0.516772
0.541806
0.428557
0.432730
0.419617
0.471473
0.572801
0.472665
0.538826
0.593662
0.756979
0.518560
0.501871
0.497699
0.756979
0.714660
0.594854
0.727773
0.920892
0.686646
0.925660
0.795722
1.038909
1.042485
1.202822
1.228452
1.458526
1.623631
3.173947
11.367798
48.554540
112.988949
270.224810
442.451835
713.877678
901.280642
1015.584469
1015.584469
1010.522842
874.058008
625.867844
433.923006
228.562951
124.913454
47.558546
25.160909
21.598935
28.623939
45.853853
62.794685
89.063644
106.916428
125.669837
133.470893
129.826665
119.681954
100.336671
80.940723
57.626963
42.517781
27.064681
21.061897
15.160441
13.270974
13.071895
12.761950
13.747811
14.172792
15.343428
15.258789
16.552806
16.946793
17.777681
18.332601
18.554926
18.946528
19.484758
19.526482
19.842982
20.699501
20.558834
20.301938
20.492673
21.469593
21.127462
21.372437
21.202564
20.856857
21.077991
20.951629
20.617843
20.892620
21.011829
20.833611
20.481944
##ZVALUE=300
0.471473
0.451803
0.315905
0.540614
0.458956
0.432730
0.411868
0.488758
0.601411
0.482798
0.390410
0.371933
0.373721
0.486970
0.718832
0.532866
0.512600
0.554919
0.614524
0.676513
0.557899
0.737906
0.738502
0.777841
0.894666
1.136661
0.952482
0.863671
1.133680
1.237988
1.454949
1.851916
6.603003
24.268627
88.024735
170.012712
351.097584
543.030500
813.851953
978.378654
1015.584469
1015.584469
948.065519
771.652460
511.084795
332.204700
166.352987
87.709427
32.644868
18.209815
18.188953
25.215745
42.146444
57.529807
81.756711
98.876953
119.739771
126.479864
124.931931
116.725564
97.475648
79.998970
57.552457
43.568611
29.196739
22.738576
16.905665
14.861822
14.109612
14.801621
15.206933
15.946627
16.608834
17.336607
17.785430
18.826723
19.014478
19.588470
19.987822
20.146966
20.761490
21.057725
21.125674
21.179914
21.279454
21.351576
21.756887
21.132827
21.161437
21.869540
21.603703
21.137595
20.820498
21.174550
20.845532
21.121502
##ZVALUE=305
0.330806
0.292659
0.359416
0.528693
0.522733
0.369549
0.403523
0.393987
0.376701
0.347495
0.352859
0.559688
0.400543
0.373721
0.462532
0.615716
0.579953
0.526905
0.453591
0.491738
0.499487
0.738502
0.728965
0.815988
0.754595
0.831485
0.794530
0.798702
1.009703
0.888705
1.150966
1.145601
1.329780
1.586676
3.134608
18.072724
50.152540
140.216947
255.519748
479.362011
676.617622
931.711793
1015.584469
1015.584469
1015.584469
817.894936
635.568500
399.061441
247.295499
109.874606
55.017471
20.311475
13.785958
17.167926
23.915768
40.440559
56.021810
79.244971
94.877481
112.812519
119.418502
119.120479
111.785531
95.773935
78.299642
56.383610
42.929649
29.800534
22.522807
18.179417
16.674995
16.404986
17.086864
17.689466
17.915964
18.322468
19.159913
19.574761
19.588470
20.363927
20.728707
21.482706
21.250844
22.282600
22.144914
21.604896
22.252798
22.039413
22.270679
21.635890
22.154450
21.906495
21.713972
21.168590
20.925999
21.499991
##ZVALUE=310
0.230670
0.333786
0.383854
0.298619
0.464916
0.298619
0.444651
0.479817
0.357628
0.360608
0.423789
0.422597
0.292659
0.420809
0.402927
0.307560
0.372529
0.458956
0.515580
0.430942
0.671744
0.504851
0.607967
0.704527
0.629425
0.793934
0.791550
0.721812
0.783801
0.736713
0.849962
0.932813
1.018643
1.334548
1.256466
1.526475
1.903772
5.866885
31.091571
75.074434
186.231732
318.288803
570.320487
784.931779
1010.234952
1015.584469
1015.584469
1009.968519
774.474740
568.033457
324.207544
189.797878
80.452561
37.302971
14.500618
12.106895
16.206503
22.326708
35.113692
48.395991
69.783926
86.359978
103.690624
113.892555
115.740895
109.249949
94.276667
78.526735
58.182478
44.133663
32.061934
25.211573
20.320415
19.242764
19.119978
18.745661
19.229650
19.185543
19.626617
20.637512
21.247864
21.754503
21.785498
22.559762
22.486448
22.723675
22.272468
22.902489
22.325516
22.480488
22.943616
22.566915
21.495819
22.192597
22.130609
22.031665
##ZVALUE=315
0.347495
0.390410
0.402927
0.376701
0.256896
0.363588
0.313520
0.340939
0.570416
0.377893
0.261664
0.291467
0.327826
0.406504
0.385642
0.570416
0.451803
0.528693
0.482798
0.416636
0.469685
0.398755
0.457764
0.447631
0.556707
0.606775
0.534654
0.559688
0.668764
0.826716
0.878572
0.907779
0.881553
0.847578
1.060963
1.046658
1.383424
1.423955
1.499653
2.954602
16.382933
46.086907
133.806467
245.082974
467.554927
673.524737
932.911634
1015.584469
1015.584469
1015.584469
903.898478
700.765848
422.953963
258.114934
115.759969
55.610538
18.457770
11.193752
11.505485
14.310479
22.040606
31.572580
48.406720
63.928962
84.415674
98.945498
110.546947
111.113787
103.258491
90.987682
73.037744
59.898496
43.763518
34.017563
26.622415
22.720695
20.408630
19.690990
20.609498
20.670891
21.515489
21.553636
21.509528
21.948814
22.905469
22.516847
22.032857
23.051500
23.052692
22.550821
22.484660
22.454858
22.516847
22.130609
21.979809
22.118688
##ZVALUE=320
0.357628
0.382662
0.455976
0.370741
0.373721
0.389814
0.400543
0.487566
0.300407
0.437498
0.513792
0.360608
0.398755
0.230670
0.453591
0.356436
0.376701
0.372529
0.435710
0.427961
0.529885
0.340939
0.542998
0.477433
0.527501
0.675917
0.514984
0.662804
0.558496
0.701547
0.930429
0.615716
0.659823
0.794530
0.720620
1.053810
0.953674
1.009703
1.065731
1.302958
1.408458
1.851916
5.820394
30.450821
79.539418
203.329921
337.711573
560.405850
759.825706
994.082689
1015.584469
1015.584469
1015.584469
806.041956
585.734844
320.158601
178.806782
74.081421
34.315586
12.770891
10.098815
11.692643
14.322996
20.993948
30.071735
46.055913
60.667992
79.388618
93.406439
104.573965
106.790662
101.473927
91.212988
73.215961
59.961677
43.221712
34.822822
27.248859
24.570823
21.657944
21.796823
21.501780
21.726489
22.535920
22.134781
22.988915
22.897720
23.075938
22.641420
22.496581
22.714734
22.421479
22.322536
22.410750
22.399426
22.414923
##ZVALUE=325
0.161529
0.260472
0.261664
0.292659
0.289679
0.229478
0.230670
0.320673
0.387430
0.405908
0.382662
0.361800
0.163913
0.261664
0.439882
0.462532
0.322461
0.373721
0.436902
0.447631
0.548959
0.340939
0.423789
0.592470
0.420809
0.439882
0.549555
0.603795
0.555515
0.687838
0.532866
0.525713
0.590682
0.615716
0.796914
0.760555
0.819564
0.771880
0.899434
0.863671
1.071692
1.166463
1.317859
1.607537
3.273487
20.142794
53.158402
142.069459
251.518488
468.981862
653.323531
893.572569
1015.584469
1015.584469
1015.584469
864.542723
658.958554
390.696526
237.644911
102.881789
48.550963
17.031431
10.529757
10.140538
11.162758
15.167594
20.342469
31.488538
43.521523
62.818527
77.284575
91.442466
100.136995
101.640821
97.382665
83.871484
71.695447
56.157708
45.344830
34.017563
28.193593
23.997426
23.124814
22.250414
22.714734
22.296906
21.948814
21.801591
22.426844
22.431612
22.666454
22.724867
22.085905
22.207499
22.045970
22.212863
##ZVALUE=330
0.272989
0.287890
0.272989
0.175834
0.259876
0.172853
0.340939
0.217557
0.401735
0.294447
0.440478
0.352859
0.133514
0.230670
0.163913
0.491738
0.321865
0.248551
0.259876
0.399947
0.384450
0.275970
0.408888
0.554919
0.470877
0.566840
0.558496
0.558496
0.518560
0.501871
0.491738
0.488758
0.516772
0.638962
0.612736
0.585914
0.682473
0.632405
0.742674
0.774860
0.880957
0.842810
0.921488
1.122952
1.205802
1.339912
1.805425
8.901954
29.320717
96.128583
183.332562
366.666913
538.871884
786.488652
945.566893
1015.584469
1015.584469
916.150808
752.884746
501.731634
326.240659
154.050589
76.162815
27.485490
13.572574
10.502934
10.558963
12.111664
14.985800
21.793842
30.545592
43.869615
57.595968
75.071454
87.483525
96.540451
97.564459
91.846585
83.679557
68.137646
55.706501
42.455792
35.222769
28.857589
25.468469
22.918582
22.213459
21.676421
21.521449
22.255778
22.116899
21.571517
21.515489
21.698475
21.459460
21.560788
##ZVALUE=335
0.288486
0.180602
0.319481
0.146627
0.298619
0.136495
0.178814
0.387430
0.249743
0.281930
0.246763
0.351667
0.413656
0.308752
0.375509
0.250936
0.371933
0.348687
0.302792
0.259876
0.278950
0.312924
0.318885
0.246763
0.278950
0.413656
0.433922
0.467896
0.519753
0.501871
0.448823
0.582933
0.627637
0.793934
0.557899
0.673532
0.619888
0.460744
0.553727
0.616908
0.516772
0.789762
0.765920
0.910759
1.012683
0.972748
1.146793
1.197457
1.369715
3.916621
14.968514
59.424639
124.449730
278.071761
440.402627
689.876676
862.919688
1001.856923
1013.856530
912.434459
764.181614
522.680879
358.353853
189.177990
99.173784
36.329627
17.059445
10.881424
10.465980
11.204481
12.468696
16.276836
21.339655
32.213926
42.431951
57.010651
70.345998
84.471703
90.796947
92.834830
87.683797
77.550411
67.167878
54.796934
45.539737
35.153627
29.443502
24.699569
22.731423
21.699667
20.977855
21.106601
21.086931
20.872951
20.764470
21.024942
##ZVALUE=340
0.224710
0.184774
0.126958
0.259876
0.231862
0.282526
0.317693
0.330806
0.293851
0.301600
0.299811
0.302792
0.295639
0.291467
0.265837
0.220537
0.058413
0.174642
0.199676
0.171661
0.152588
0.264645
0.368953
0.349879
0.410676
0.417829
0.391603
0.432730
0.477433
0.440478
0.473857
0.356436
0.473857
0.372529
0.480413
0.492930
0.623465
0.500679
0.658631
0.501871
0.563860
0.688434
0.697970
0.745654
0.630617
0.749826
0.902414
0.896454
1.105666
1.186728
1.314878
2.007484
7.178783
34.948587
86.065531
213.588476
355.982780
591.328740
765.959620
953.525901
1012.844443
958.044529
833.742023
612.828732
430.730581
227.009654
127.140880
53.138733
23.572445
11.675954
10.692477
10.651946
11.882782
13.800859
15.842915
22.062659
29.588938
41.458607
53.565502
69.667697
79.068542
87.370872
87.734461
83.790421
76.395869
64.830780
55.292845
41.802526
34.890771
27.907491
24.620891
21.901727
20.596981
20.254850
20.142794
20.049810
##ZVALUE=345
0.235438
0.146627
0.284910
0.276566
0.183582
0.237823
0.399947
0.309944
0.265837
0.170469
0.273585
0.243783
0.151992
0.238419
0.135899
0.330806
0.259876
0.393987
0.122786
0.262856
0.266433
0.188947
0.193715
0.299811
0.201464
0.210404
0.319481
0.264645
0.346899
0.223517
0.423789
0.575781
0.355840
0.492930
0.441670
0.446439
0.445843
0.448823
0.595450
0.479817
0.395775
0.497699
0.515580
0.621676
0.611544
0.661612
0.547767
0.674725
0.785589
0.859499
0.911951
1.086593
1.167655
1.356602
3.298521
19.299984
54.287910
143.506527
254.776478
464.857817
644.146800
862.993598
969.281793
987.546444
900.439024
689.126849
510.870814
301.418900
173.379779
69.955587
33.949614
14.566779
10.943413
10.950565
11.256933
12.162924
13.134480
15.945435
20.151734
29.279590
38.377643
52.043796
62.328577
73.400736
78.852773
82.223415
79.134703
72.391629
63.569546
52.252412
43.063760
32.995939
27.715564
22.884607
21.185875
19.399524
##ZVALUE=350
0.294447
0.241995
0.291467
0.305772
0.341535
0.274777
0.515580
0.293851
0.278950
0.227690
0.359416
0.371933
0.420809
0.466704
0.286698
0.299811
0.346899
0.241995
0.180602
0.330806
0.286698
0.310540
0.381470
0.268817
0.462532
0.458956
0.433922
0.351667
0.449419
0.596642
0.340939
0.495911
0.582933
0.356436
0.518560
0.359416
0.432730
0.579953
0.407696
0.483990
0.512600
0.546575
0.676513
0.638962
0.652671
0.735521
0.763535
0.657439
0.674725
0.941753
0.989437
1.032948
0.875592
1.141429
1.111627
1.292825
1.892447
9.735823
31.539798
99.072456
187.118649
369.234681
536.248684
759.083629
897.523761
982.421637
940.436721
780.456662
595.475435
348.558426
213.840008
98.932981
47.442913
16.348958
11.193752
10.311604
10.330677
10.964870
11.855960
13.169646
15.309453
20.860434
26.530623
35.589933
44.608712
57.490468
65.388680
73.522925
76.443553
73.116422
68.104863
57.623982
49.677491
39.666891
32.714605
26.210546
##ZVALUE=355
0.193715
0.342727
0.238419
0.192523
0.255704
0.332594
0.087619
0.272989
0.090599
0.308752
0.141859
0.349879
0.147820
0.349879
0.316501
0.293851
0.251532
0.237823
0.186563
0.293851
0.249743
0.291467
0.327826
0.363588
0.288486
0.391603
0.410676
0.380874
0.287890
0.264645
0.363588
0.438690
0.309944
0.448823
0.436902
0.516772
0.529885
0.487566
0.496507
0.434518
0.315905
0.491738
0.621676
0.496507
0.495911
0.599623
0.601411
0.511408
0.665784
0.785589
0.766516
0.809431
0.806451
1.057982
1.063943
0.929832
0.993609
1.119971
1.291633
4.409552
16.777515
64.495802
131.646991
277.196765
435.438752
666.072965
813.320875
930.184722
938.961506
803.771615
651.095510
432.438850
273.984671
121.735930
59.411526
21.518469
11.749864
9.891987
9.712577
10.176897
10.559559
11.558533
12.118816
14.845729
17.694831
23.561716
30.303001
40.673614
49.575567
58.915615
65.027475
68.524480
68.407655
61.688423
55.363774
46.053529
##ZVALUE=360
0.210404
0.263453
0.269413
0.249743
0.145435
0.089407
0.242591
0.174642
0.206828
0.167489
0.118613
0.279546
0.264645
0.219941
0.313520
0.547767
0.221729
0.296831
0.248551
0.310540
0.153780
0.330806
0.220537
0.248551
0.267625
0.374913
0.221729
0.352859
0.450611
0.238419
0.350475
0.230670
0.348687
0.237823
0.353456
0.302792
0.381470
0.476837
0.223517
0.322461
0.318885
0.451803
0.385642
0.416636
0.384450
0.450611
0.481606
0.472665
0.630617
0.584722
0.695586
0.617504
0.762939
0.871420
0.820756
0.893474
0.924468
1.000762
0.948906
1.286864
1.444817
2.251863
7.190704
33.915639
84.083676
206.491947
338.271856
546.169877
715.788603
880.025625
921.089649
847.820640
712.838769
488.891602
331.887007
174.812675
91.164708
32.859445
15.287995
9.309649
9.346604
9.473562
10.028481
10.265708
10.412931
11.193752
12.708902
15.859604
19.302964
25.853515
33.063889
43.557882
50.616860
58.301687
61.362982
61.480999
##ZVALUE=365
0.209808
0.253916
0.161529
0.322461
0.046492
0.157952
0.221729
0.326633
0.221729
0.258684
0.233650
0.331998
0.266433
0.228882
0.293851
0.288486
0.250936
0.365973
0.344515
0.230670
0.215769
0.230670
0.273585
0.282526
0.162721
0.306964
0.380874
0.292659
0.397563
0.324845
0.396967
0.424981
0.341535
0.381470
0.339746
0.288486
0.386834
0.268817
0.372529
0.504851
0.475645
0.519753
0.557899
0.563860
0.640750
0.417829
0.559688
0.392795
0.537634
0.613928
0.519753
0.638962
0.693798
0.796914
0.565648
0.664592
0.733733
0.838637
0.907779
0.941753
1.025796
1.106858
1.277924
1.513958
3.268719
18.613935
50.921440
134.835839
245.800018
454.250574
617.975593
802.824497
885.700583
875.105858
773.802996
573.096871
406.842828
224.147439
122.065544
45.095682
20.324588
9.369850
8.854866
8.940697
8.889437
9.340644
9.410977
9.583831
10.153651
11.348724
13.273954
17.364621
22.009611
29.487610
36.351681
45.150518
##ZVALUE=370
0.162721
0.180602
0.199676
0.222921
0.147820
0.235438
0.196695
0.224710
0.100732
0.129938
0.169873
0.082850
0.170469
0.248551
0.176430
0.298619
0.116825
0.207424
0.120997
0.219941
0.272989
0.159740
0.087619
0.216961
0.236630
0.264645
0.305772
0.320673
0.157952
0.180602
0.185966
0.232458
0.217557
0.279546
0.438690
0.330806
0.332594
0.410676
0.368953
0.357628
0.428557
0.496507
0.590682
0.279546
0.388622
0.334978
0.413656
0.551939
0.450611
0.524521
0.486970
0.546575
0.556707
0.612736
0.457764
0.546575
0.734925
0.615716
0.555515
0.651479
0.798702
0.832677
0.932813
1.074672
1.017451
1.222491
1.626611
9.120703
30.854940
100.873709
188.659430
360.119939
527.907014
744.084716
849.105716
879.070759
808.766484
641.744733
474.203825
269.389749
152.959824
61.811805
29.533505
12.249947
8.231997
7.787943
8.039474
8.200407
8.168817
8.162856
8.723736
9.229779
9.876490
12.025833
14.677644
19.528866
##ZVALUE=375
0.202656
0.116825
0.158548
0.304580
0.276566
0.335574
0.318885
0.177622
0.209808
0.188947
0.234842
0.280738
0.223517
0.150800
0.086427
0.234842
0.219941
0.379682
0.330806
0.274777
0.257492
0.239611
0.403523
0.236630
0.208616
0.263453
0.434518
0.182986
0.260472
0.283718
0.339746
0.383854
0.253916
0.313520
0.332594
0.385642
0.337958
0.349879
0.195503
0.433922
0.361800
0.305772
0.408888
0.336766
0.306964
0.471473
0.454783
0.331998
0.232458
0.484586
0.466704
0.513792
0.426769
0.419617
0.483990
0.441670
0.602603
0.567436
0.581741
0.585914
0.579953
0.625849
0.645518
0.648499
0.807643
0.927448
0.988841
1.301765
1.432896
4.643798
16.487837
59.236884
128.116608
283.788443
439.672470
655.193925
785.585642
868.279934
848.404765
709.106922
552.114844
340.334773
217.801929
109.166503
55.928826
19.066930
9.674430
7.291436
7.290840
7.108450
7.304549
7.548928
7.828474
8.063912
8.376837
8.980632
##ZVALUE=380
0.018477
-0.003576
0.056624
0.159740
0.155568
0.195503
0.179410
-0.062585
-0.005960
0.137687
0.143647
0.190735
-0.034571
0.186563
0.223517
0.085831
0.119805
0.023842
0.146627
0.209808
0.134706
0.094771
0.183582
0.198483
0.198483
0.097752
0.134706
0.065565
0.099540
0.329614
0.140667
0.258684
0.145435
0.191927
0.219941
0.199676
0.250936
0.078678
0.207424
0.196695
0.272989
0.174642
0.343919
0.167489
0.225902
0.223517
0.175834
0.264645
0.179410
0.338554
0.277758
0.299811
0.389814
0.341535
0.408888
0.307560
0.372529
0.340939
0.399947
0.362992
0.523925
0.524521
0.529885
0.554919
0.606775
0.614524
0.754595
0.872612
1.114607
1.208782
1.241565
2.413988
8.727908
42.519569
98.132491
228.945613
367.357731
574.116707
727.211833
852.907896
860.753655
747.971535
617.937446
434.865952
293.626785
149.287581
78.491569
29.079914
13.303757
6.927848
6.421804
6.537437
6.771684
6.820560
7.110834
7.044673
##ZVALUE=385
0.133514
0.083447
0.038743
0.208616
-0.068545
0.067949
0.123978
0.233650
0.096560
0.359416
0.232458
0.119805
0.175834
0.187755
0.299811
0.105500
0.108480
0.119805
0.285506
0.257492
0.273585
0.182986
0.154972
0.300407
0.271797
0.316501
0.117421
0.159740
0.121593
0.288486
0.181794
0.301600
0.201464
0.055432
0.314713
0.164509
0.223517
0.418425
0.187755
0.368953
0.291467
0.272989
0.426769
0.433922
0.360608
0.373721
0.308752
0.318885
0.355840
0.381470
0.307560
0.193715
0.308752
0.301600
0.326633
0.486970
0.252724
0.384450
0.444651
0.479817
0.339746
0.467896
0.427961
0.399947
0.608563
0.522733
0.534654
0.707507
0.656843
0.941753
0.992417
1.010895
1.255870
1.478791
4.096627
23.684502
61.762929
155.086517
275.033712
485.761762
649.580956
811.952949
859.266520
826.079845
728.441477
536.999702
379.990935
206.370950
116.625428
48.212409
20.737648
7.891655
6.014705
5.865693
6.075501
6.412864
##ZVALUE=390
0.126958
0.124574
0.202656
0.104904
0.062585
0.171661
0.002980
0.046492
0.116825
0.253916
0.241995
0.226498
0.093579
0.149608
0.126958
0.089407
0.094771
0.191927
0.328422
0.346899
0.178814
0.196695
0.109673
0.177622
0.268817
0.124574
0.166893
0.242591
0.211596
0.233650
0.167489
0.302792
0.292659
0.319481
0.190735
0.264645
0.201464
0.151992
0.257492
0.289679
0.266433
0.215769
0.295639
0.242591
0.175834
0.261664
0.266433
0.225902
0.288486
0.272989
0.376701
0.256896
0.249743
0.334978
0.376701
0.365973
0.296831
0.491738
0.485778
0.466704
0.468493
0.314713
0.356436
0.367761
0.514984
0.634789
0.620484
0.578761
0.674725
0.848770
0.897646
0.931621
0.949502
1.081824
1.000762
1.369715
2.449751
12.456775
38.735867
119.583607
223.780870
417.613983
575.875640
763.713717
875.006914
920.740962
858.343840
690.571666
531.792641
321.393609
183.573961
72.276592
32.774806
10.166764
6.322861
5.583763
##ZVALUE=395
0.013709
0.153780
0.121593
0.015497
0.122786
0.130534
0.207424
0.235438
0.234842
0.302792
0.161529
0.269413
0.181794
0.218749
0.272989
0.127554
0.249743
0.212789
0.221729
0.219941
0.103712
0.127554
0.167489
0.093579
0.219941
0.155568
0.281930
0.287890
0.181794
0.224710
0.241995
0.255704
0.136495
0.224710
0.229478
0.336766
0.236630
0.310540
0.146627
0.250936
0.137687
0.184774
0.426769
0.294447
0.267625
0.480413
0.121593
0.420809
0.059605
0.405908
0.440478
0.233650
0.233650
0.358820
0.316501
0.349879
0.388622
0.382662
0.356436
0.324845
0.385642
0.385642
0.436902
0.448823
0.450611
0.408888
0.449419
0.676513
0.649691
0.692606
0.737906
0.858903
0.892878
0.791550
0.727773
0.986457
0.909567
1.100898
1.372695
6.367564
24.093986
84.081888
164.672732
322.830677
470.260978
670.633912
791.610479
864.370465
842.119455
712.952018
565.022826
350.178480
223.742723
105.418563
51.318407
17.518997
##ZVALUE=400
0.213981
0.276566
0.197887
0.136495
0.267625
0.050664
0.201464
-0.002980
0.167489
0.262856
0.242591
0.120997
0.198483
0.136495
0.252724
0.093579
0.191927
0.254512
0.168681
0.284910
0.056624
0.176430
0.126958
0.131726
0.123978
0.167489
0.287890
0.107884
0.253916
0.237823
0.289679
0.246763
0.259876
0.319481
0.267625
0.157952
0.281930
0.390410
0.257492
0.298619
0.111461
0.182986
0.301600
0.216961
0.217557
0.164509
0.332594
0.255704
0.279546
0.231862
0.253916
0.423789
0.156760
0.499487
0.411868
0.358820
0.491738
0.420809
0.362992
0.342727
0.439882
0.462532
0.400543
0.484586
0.424981
0.524521
0.562668
0.580549
0.697970
0.801682
0.830889
0.671744
1.002550
0.706911
0.805855
0.834465
0.688434
0.933409
0.917912
0.936985
1.199841
3.397465
13.168454
49.342513
107.385516
238.600969
378.795862
584.025979
718.155503
828.735828
840.425491
742.823482
608.150959
404.352546
266.971588
134.168863
##END
