##TITLE=FQP00352
##FORMAT=SPECTACLE-ASCII V-1.2
##DATA TYPE=ULTRAVIOLET SPECTRUM
##SECOND TYPE=ULTRAVIOLET SPECTRUM
##DATE=01/24/18
##TIME=17:31:13
##SPECTROMETER/DATA SYSTEM=SPECTACLE
##XUNITS=NM EM
##YUNITS=ENERGY
##YFACTOR=1
##FIRSTX=220
##LASTX=410
##NPOINTS=96
##3DDATA=Equidistant
##ZUNITS=NM EX
##FIRSTZ=210
##LASTZ=400
##ZPOINTS=39
##XYDATA=(Y..Y)
##ZVALUE=210
1.924634
2.003908
1.915693
2.014637
1.760721
1.810789
2.032518
2.556443
2.653599
1.975894
2.291799
1.915693
2.512932
2.559423
2.780557
3.076792
3.215671
3.290772
3.744960
3.874898
3.467798
4.012585
4.593730
4.019737
4.598498
5.170703
5.580783
6.222725
7.036924
6.951690
6.289482
7.079840
7.983446
7.711649
7.799864
8.483529
6.900430
7.704496
7.602572
7.238984
7.849932
8.065701
7.571578
7.465482
7.948875
8.156896
8.729696
8.347631
7.206798
6.915927
7.835627
7.097721
7.789731
6.913543
7.361770
7.887483
8.178949
8.059740
7.718801
7.988811
8.001924
7.759929
7.810593
8.811951
7.689595
8.107424
9.468794
9.047985
12.075901
12.823939
16.007423
17.370582
20.881891
23.179650
25.533438
25.588870
26.756525
28.082728
23.954511
22.147894
21.129847
17.482638
15.836954
14.228821
10.444522
9.796619
8.099675
8.926988
8.018613
7.216930
7.029772
7.818937
6.961823
7.283688
7.439852
7.300973
##ZVALUE=215
6.228685
5.865693
4.793406
4.035830
4.141927
4.430413
3.590584
3.928542
4.149675
4.412532
5.747676
4.087687
4.255772
3.709793
2.808571
3.361702
3.344417
3.361702
3.251433
3.369451
3.608465
4.117489
3.745556
4.405975
5.335808
5.473495
5.439520
6.632805
8.098483
9.181499
9.265542
8.969903
10.738969
10.857582
10.510683
11.180639
8.897781
10.407567
9.536743
10.311604
10.280609
10.208488
10.220408
9.815693
8.216500
9.703636
8.072853
9.280443
8.329749
8.004904
7.747412
7.682443
7.265806
7.914901
6.669760
6.759763
6.857514
7.437468
7.444620
6.661415
7.067919
6.006956
6.540418
7.216930
6.769896
6.765723
7.590652
7.971525
8.320808
9.882450
11.397600
12.312531
13.457537
15.366673
15.455484
17.412901
17.316937
16.188622
15.502572
15.154481
14.035702
14.003515
10.108948
10.297894
9.139776
7.282495
7.578731
6.567836
5.506873
6.543994
5.253553
5.125999
5.420446
5.777478
5.395412
5.173683
##ZVALUE=220
17.742515
17.541647
18.444657
18.925667
18.618703
16.427636
13.137460
11.113882
9.072423
10.330677
9.139776
11.449456
9.309649
9.754896
8.185506
6.501675
5.423427
4.536510
2.774596
4.737973
3.272891
3.491640
4.357696
4.339814
4.632473
5.056858
5.654693
8.073449
8.409619
9.791851
11.759996
12.827516
13.676882
14.532804
13.463497
16.114712
14.790893
14.003515
14.042854
13.603568
12.624860
12.000799
11.475682
12.091994
10.858774
10.591745
10.334849
9.406805
10.091662
9.766817
9.265542
8.153915
8.607507
7.597804
7.742643
7.608533
7.766485
8.201599
7.975698
6.590486
7.747412
7.210970
6.158948
7.002950
7.260442
7.809997
7.258654
7.011890
8.156896
9.790659
11.618733
13.572574
14.707446
15.478730
17.316937
16.172528
17.909408
17.592907
16.471744
15.046597
15.679598
14.660954
12.048483
11.619925
10.315776
8.789897
7.108450
6.424785
6.940961
6.712675
6.387830
6.286502
5.058646
5.886555
6.102920
5.727410
##ZVALUE=225
31.667948
36.325455
44.629574
58.809519
65.158606
63.445568
61.466694
45.676827
36.370754
27.683973
21.468997
20.069480
20.834804
22.996664
22.771955
23.251772
18.671751
16.558766
13.057590
9.352565
6.973743
4.953742
4.124641
4.683733
5.431771
6.665587
8.402467
8.732677
11.763573
12.831688
13.905764
17.198920
17.025471
16.420484
19.229650
18.451810
17.378926
18.693805
17.256737
17.435551
17.610788
16.269684
15.317798
13.663769
13.222694
12.867451
12.742877
12.041926
12.417436
11.044741
11.158586
10.506511
10.458827
10.599494
10.027885
10.086894
10.026693
9.282827
8.575916
9.370446
8.904934
9.127855
7.879734
8.698702
8.918643
9.215474
8.472800
9.144545
10.950565
11.574626
12.127757
13.222694
15.859604
17.135739
16.512871
18.698573
19.015670
17.571449
16.770959
15.747547
17.091632
14.559627
12.584925
11.848807
10.373592
8.859634
9.515882
9.470582
9.187460
8.324981
8.254647
7.888675
7.449985
7.832646
7.997751
7.990599
##ZVALUE=230
32.516718
38.131475
57.521462
92.692971
121.755600
157.097578
172.536969
173.096657
165.349841
136.045814
91.897845
64.410567
44.639707
40.593743
42.259693
44.941902
49.014688
47.664642
39.580464
34.753680
28.517842
17.949939
13.454556
9.388924
7.010698
6.813407
7.951856
8.752942
11.344552
11.928678
13.065934
14.989972
15.757680
17.703772
18.794537
17.124414
19.152761
19.187927
17.259717
17.470717
18.219948
16.660690
14.875531
14.442801
15.114546
13.866425
14.009476
12.431741
12.530684
12.021661
11.139512
11.017919
11.485815
11.406541
11.702776
11.681914
11.477470
11.501908
11.184812
10.612607
11.572838
11.678934
10.793805
11.399984
12.151599
11.788607
11.047721
12.405515
13.459921
14.044642
15.417933
16.604662
17.318726
19.156933
19.841790
17.885566
19.524693
19.430518
18.190742
18.442869
16.364455
16.936660
14.909506
15.058517
13.793707
12.796521
12.244582
12.625456
13.094544
12.900829
11.680722
11.348724
11.834502
10.543466
11.386871
10.306835
##ZVALUE=235
12.050867
16.007423
30.875802
71.202517
115.316510
179.120898
247.762799
323.095918
361.123681
372.193456
332.500935
276.935697
189.322829
147.035718
95.736980
77.089667
71.056485
75.912476
79.534650
80.431700
75.892806
62.570572
53.161979
37.152767
25.352836
15.888810
13.478994
9.772778
11.013746
10.547638
11.352897
13.454556
14.081597
13.993979
14.289618
13.672709
13.902783
15.068650
14.767647
15.461445
12.711883
14.637709
14.607906
13.114810
12.995601
13.219714
12.981892
13.392568
12.562871
13.671517
13.197660
12.059808
13.054609
12.536645
11.296868
12.208819
12.077689
13.916492
13.023615
11.817813
12.496710
13.596416
13.138652
11.761785
12.923479
13.881922
14.449954
15.448928
15.851855
17.983913
18.418431
18.507838
21.716952
21.132827
21.731853
23.313761
22.966862
22.765994
20.973682
20.757914
19.818544
20.021796
18.295646
20.249486
18.656850
18.539429
18.275976
16.044974
16.654730
17.488599
16.557574
17.061830
17.113686
17.205477
16.296506
17.149448
##ZVALUE=240
1.762509
1.666546
6.629825
18.054843
47.058463
91.585517
183.287859
276.561975
414.918661
514.287949
582.549572
582.077503
536.523461
433.923602
332.526565
207.335949
146.123767
104.532838
93.993545
98.340511
113.249421
115.846992
111.090541
97.503662
81.633925
64.061880
49.297810
34.622550
24.369955
18.420815
15.550852
14.792681
13.082623
12.868643
15.490651
14.806986
15.550852
13.972521
14.242530
15.254617
14.551878
14.367700
14.486909
15.723705
13.909936
13.462901
14.179945
14.158487
13.428926
13.157725
13.816953
12.889504
13.494492
13.091564
13.340712
12.752414
13.880730
14.640689
12.198687
13.089776
12.891889
13.295412
14.686584
13.403893
15.183687
15.554428
14.546514
15.696883
16.967654
18.438697
20.454526
20.155907
22.237897
24.534464
25.043488
27.897954
25.995970
23.615956
24.214983
24.704933
23.512840
22.495985
22.627711
21.952987
23.510456
20.998716
21.140575
20.748973
21.177530
23.006797
20.683408
19.817948
20.616651
18.465519
20.613670
19.941926
##ZVALUE=245
1.482964
1.197457
1.199841
1.440644
2.860427
14.846921
35.930872
95.588565
168.984532
276.933908
434.178710
555.949807
659.085512
682.682991
640.147924
564.712882
410.856009
299.905539
212.020874
129.585862
103.754997
102.558732
112.322569
127.684474
128.503442
127.547979
114.939809
100.521445
81.928968
59.103966
46.285987
31.523705
23.572445
19.194484
18.024445
16.294718
18.322468
17.860532
15.923977
17.055869
15.146732
16.524792
15.907884
16.187429
15.512705
14.527440
15.360713
14.779568
15.035868
14.223456
13.636947
13.010502
13.965964
13.473630
13.290644
12.617707
13.481975
12.763739
13.105869
13.046861
13.469458
11.461973
12.629628
13.924837
13.794899
15.684962
14.106631
16.275644
16.051531
17.941594
18.677711
20.752549
21.433830
23.375750
24.662614
25.299788
24.420619
24.437904
25.045872
24.468899
22.946000
22.328496
23.461580
22.758842
21.691918
21.840930
21.687746
22.080541
21.590590
21.161437
22.365451
22.017956
20.961761
20.575523
21.227598
22.171736
##ZVALUE=250
1.391768
1.081824
1.429915
1.641512
1.535416
1.593828
2.988577
14.614463
61.671734
122.178793
263.265967
402.787924
549.143553
705.469847
798.172951
845.705867
821.889639
700.798631
575.100780
396.469831
267.554522
176.969767
111.845732
98.189712
107.287765
122.035742
139.672756
143.216848
139.415860
130.704641
117.566586
88.464618
72.682500
47.773719
36.132932
26.587844
23.694634
21.545887
20.130873
20.222664
19.382834
18.726587
18.799901
18.826723
17.336607
17.264485
17.171502
17.636418
15.520453
15.069842
14.617443
13.575554
14.262795
13.557673
13.663769
12.999773
12.329817
12.007952
11.719465
11.662841
11.968613
11.553764
12.501478
11.939406
11.513829
12.090802
13.331771
13.582706
14.499426
14.719963
16.553998
17.544627
19.208789
20.174980
19.851923
21.721721
21.596551
20.453930
21.842718
23.112893
21.455884
21.548867
21.732450
20.650625
21.508932
20.579696
19.937754
19.141436
20.345449
20.354986
20.323992
20.218492
20.021796
19.253492
18.821955
19.244552
##ZVALUE=255
1.143813
1.058578
1.256466
1.204610
1.178980
1.359582
1.174808
1.478791
2.297759
5.149841
29.777884
72.095990
142.161846
286.217928
420.276523
622.575879
749.553442
876.187682
909.640789
841.072798
730.673671
575.266480
368.109941
234.346986
131.973624
98.026991
95.124841
109.346509
135.989785
150.519609
154.325962
152.955651
143.174529
118.401647
99.457502
70.792437
53.566694
36.589503
31.839609
23.506880
22.160411
21.962523
21.856427
20.768642
20.976663
18.866658
18.801689
16.945601
17.026663
16.608834
15.777946
14.959574
15.208721
13.424754
13.569593
12.910962
12.729764
11.877418
11.428595
11.818409
11.345744
11.492968
10.567904
10.991693
10.138750
11.149645
11.653900
11.694431
12.665987
13.133883
13.409853
15.044808
15.089512
16.145706
17.963648
16.504526
17.535686
17.743707
17.686486
18.473864
18.194914
17.572641
18.350482
17.760992
17.563701
17.209649
18.321872
17.385483
17.106533
17.263889
18.427968
17.986894
18.312931
17.446876
17.802715
18.512607
##ZVALUE=260
0.941753
1.065731
0.905991
1.076460
1.009703
1.220703
1.262426
1.174808
1.335740
1.305938
1.528859
2.008677
7.814765
33.667684
74.857473
183.392763
299.331546
498.117805
655.493736
858.640671
960.060954
965.855718
856.359005
708.074570
467.185974
320.260525
182.818770
118.671656
85.887909
93.785524
110.341907
140.925646
158.493519
169.339776
165.054798
146.371722
131.129622
100.104809
78.378916
57.552457
43.594837
32.735467
28.156638
25.246739
23.660660
21.497607
21.493435
20.954609
18.805861
19.604564
17.921925
16.500950
15.817881
14.410615
14.389753
13.517737
12.548566
11.930466
12.081861
11.754632
11.787415
10.565519
10.879636
11.126995
11.073947
10.778904
10.960698
10.730624
11.322498
11.977553
12.048483
12.923479
13.517737
14.992952
13.863444
14.606714
14.992952
14.947653
15.553832
15.980601
15.423894
15.076995
15.570521
16.309619
16.087890
15.582442
16.165972
17.499924
16.559958
16.318560
16.540885
16.482472
15.922785
16.813874
17.330647
17.262697
##ZVALUE=265
0.833869
0.904799
0.873804
0.914931
0.909567
1.014471
0.792742
1.002550
1.203418
1.339912
1.442432
1.418591
1.672506
1.511574
4.008412
21.399856
54.304004
131.989717
233.458877
432.720780
606.032014
779.524446
953.086615
986.747742
901.253819
779.476762
592.412949
421.173573
238.089561
153.058767
97.564459
87.148547
100.921988
129.946470
151.200891
171.851516
177.354813
169.460773
158.605576
128.682852
105.778575
75.304508
58.296919
40.267706
32.459497
26.191473
23.364425
22.068620
20.322800
18.898845
19.100904
17.917752
16.726851
15.476942
14.825463
13.718605
12.833476
12.644529
12.165904
11.067986
11.608601
10.909438
10.630488
10.528564
10.555983
10.403991
10.284781
10.269880
10.484457
11.633635
12.011528
12.717843
12.211800
13.167858
13.205409
13.250709
13.885498
14.425516
13.697743
14.326572
14.066696
13.250709
14.012456
14.256835
14.629960
14.446974
14.236569
14.234781
15.088916
14.840961
15.216470
15.491843
15.457869
15.229583
15.782714
15.863776
##ZVALUE=270
0.643730
0.945926
0.686646
0.712872
0.801682
0.993609
0.969768
0.726581
0.893474
0.987649
1.172423
1.115799
1.161695
1.359582
1.248717
1.630783
2.227426
7.350445
31.907558
77.046752
190.001726
323.454738
568.193793
760.495663
973.426700
1015.584469
1015.584469
955.588818
754.333735
571.768880
354.317427
227.079988
122.378469
86.236596
85.388422
103.234649
130.506754
150.907636
171.189904
174.677968
167.829990
153.634548
125.481486
101.950765
73.335767
54.805875
38.525462
28.993487
22.565722
20.173788
18.194914
16.696453
15.722513
14.866590
14.503598
13.844967
12.289882
12.404919
12.217760
11.378527
11.951923
11.443496
10.850430
10.324717
10.638833
10.073781
10.633469
10.329485
11.086464
10.715723
11.522770
12.033582
12.941957
12.685657
12.842417
13.496876
12.693405
13.560653
12.799501
13.454556
13.900995
12.655854
13.507605
13.660789
14.135838
13.818741
13.223886
14.033914
13.991594
13.683438
13.067722
14.589429
13.604760
14.248490
14.512539
13.763905
##ZVALUE=275
0.595450
0.667572
0.495911
0.747442
0.822544
0.834465
0.714660
0.727773
0.985861
0.921488
0.822544
0.886917
1.034737
1.149774
0.981688
1.289845
1.289845
1.443624
1.571774
4.499555
15.961528
59.595704
129.812956
252.076983
483.934879
679.392815
913.145542
1015.584469
1015.584469
1015.584469
906.372666
725.449920
463.611484
300.945640
149.775743
92.720985
66.544414
72.460771
98.007917
116.772652
145.357847
156.707764
167.310834
162.761807
142.320991
121.856928
93.184710
71.006417
48.285723
34.577847
22.367835
17.882586
15.052557
13.327599
12.701750
12.195706
11.825562
11.287928
11.263490
11.406541
11.393428
11.075735
10.686517
10.598898
10.368824
10.992885
10.490417
10.967851
10.512471
10.859966
11.900663
12.096763
12.989640
12.450814
13.417602
13.745427
13.337731
12.803674
13.234615
13.600588
12.700558
13.252497
13.298988
13.298988
12.933612
13.404489
13.565421
13.177991
12.803674
13.298988
12.517571
13.095737
12.981892
13.299584
13.534427
12.547970
##ZVALUE=280
0.618696
0.565648
0.622869
0.591874
0.446439
0.629425
0.464916
0.695586
0.693798
0.749826
0.843406
0.811815
0.714660
0.989437
0.858903
0.930429
1.095533
1.354814
1.225471
1.435876
1.567602
1.776814
10.794401
33.456683
107.206702
198.069811
382.432938
564.175844
815.541744
983.574986
1015.584469
1015.584469
995.338559
772.287846
569.528937
325.677991
196.957588
93.352795
56.560636
47.661662
60.807467
85.767508
107.503533
132.814646
148.269534
153.180957
147.966743
130.341649
112.384558
82.708597
62.414408
41.054487
28.947592
18.409491
14.272928
11.723638
10.848641
10.487437
10.085702
10.198951
10.374784
10.565519
10.037422
10.707974
10.138750
10.655522
10.665655
11.209846
10.610819
11.512637
11.230707
11.935830
12.288690
13.104677
13.066530
13.229847
12.888908
12.754798
12.948513
12.335777
12.948513
13.419986
12.414455
13.376474
12.862682
13.179779
12.627840
12.790561
12.856722
12.536645
12.821555
12.353659
12.146831
12.683868
12.856722
12.908578
##ZVALUE=285
0.573993
0.557899
0.524521
0.492930
0.638962
0.604987
0.476837
0.602603
0.752807
0.604987
0.813603
0.785589
0.843406
0.858903
0.768900
0.744462
0.964999
1.136661
1.255870
1.173615
0.922680
1.416802
1.322627
1.388788
4.433990
16.462803
57.879686
125.837922
278.964639
441.947579
688.400865
886.709690
1015.584469
1015.584469
1015.584469
892.353654
707.319975
443.876982
280.569792
132.564902
69.317818
36.312938
36.441684
54.789782
74.227452
103.573799
120.542645
139.527917
145.477653
141.498446
130.359530
106.096864
86.828470
60.365796
42.478442
27.082562
18.352866
12.686849
11.067986
9.969473
10.039806
10.292530
10.092854
10.224581
10.795593
11.392832
11.059642
11.624694
11.969805
11.828542
12.277961
12.411475
13.216734
13.136864
13.020635
13.346672
13.416409
13.393760
13.283491
12.685657
13.403893
13.242960
12.930632
12.559891
12.437701
13.128519
12.851954
12.478828
12.935996
12.693405
12.565851
12.598634
12.360811
11.811852
11.892915
12.255907
##ZVALUE=290
0.447631
0.579953
0.696778
0.594854
0.387430
0.352859
0.717640
0.487566
0.645518
0.629425
0.655651
0.696778
0.776649
0.908971
0.784993
0.845790
0.815988
0.969768
0.766516
0.747442
1.010895
0.966787
1.193881
1.131892
1.527667
1.549721
2.277493
6.818771
32.309890
78.368783
158.347487
336.038470
526.095629
808.748007
986.645818
1015.584469
1015.584469
987.811685
814.731717
552.460551
364.409685
183.748603
97.684860
40.258765
26.948452
34.890771
48.258901
71.095824
90.369582
117.680430
131.524801
140.738487
139.040947
123.542547
107.302666
78.543425
60.555935
39.481521
28.754473
18.245578
14.211535
12.017488
11.315942
10.750890
11.055470
10.802746
11.350513
12.097955
12.015700
12.301803
12.556911
13.503432
13.430715
13.196468
13.383627
13.557673
13.222694
13.661981
13.312697
13.286471
13.299584
13.653636
13.306737
13.650656
13.233423
13.403893
12.704730
12.199879
12.790561
12.481809
12.808442
12.483597
12.015700
11.856556
12.344718
12.324452
##ZVALUE=295
0.417829
0.457764
0.564456
0.547767
0.658631
0.362992
0.483990
0.480413
0.436902
0.479817
0.642538
0.504851
0.600815
0.520945
0.602603
0.682473
0.664592
0.638962
0.618696
0.796914
0.865459
0.847578
1.041889
0.856519
1.101494
1.035929
1.353621
1.507998
1.884699
2.880692
10.994673
48.183799
112.158656
269.177556
439.940691
716.251731
908.231735
1015.575528
1015.575528
1015.575528
915.290713
660.070777
461.629033
246.292949
134.497881
50.790906
26.847720
21.805763
29.628873
46.994686
64.648986
89.263916
109.061599
127.463937
134.184957
131.798983
120.313764
101.178885
82.277656
57.555437
42.817593
27.413964
19.976497
14.844537
12.939572
12.130737
11.499524
12.170672
12.030602
12.197495
12.927651
13.142824
13.323426
13.677478
13.483763
13.967752
13.681650
13.763905
14.076829
13.281703
13.629794
13.417602
13.830662
13.922453
13.340712
13.559461
13.074875
13.526678
12.927651
12.750626
12.992620
12.348890
12.503862
12.375712
12.116432
12.284517
##ZVALUE=300
0.427961
0.294447
0.350475
0.361800
0.505447
0.390410
0.489950
0.310540
0.191927
0.515580
0.664592
0.519753
0.674725
0.647902
0.584722
0.560880
0.519753
0.881553
0.692606
0.634789
0.659823
0.806451
0.807643
0.916719
0.776649
0.920892
1.286864
1.232624
1.264811
1.295805
1.473427
1.789927
6.873608
25.303960
86.062551
172.556639
362.351537
558.847785
834.204555
998.943448
1015.584469
1015.584469
987.426639
817.991495
548.094511
359.828472
178.923607
95.654726
36.513805
19.816756
19.153953
26.426911
42.895675
58.743954
83.231926
101.058483
120.072961
127.089620
125.578642
119.370818
99.143982
82.148910
60.119629
44.622421
30.264854
22.124648
15.829802
14.351606
13.154745
12.583733
12.799501
13.534427
13.462901
13.893843
13.852715
13.532639
13.820529
14.032722
13.778806
13.904572
13.248920
13.634562
13.829470
13.859868
13.384819
12.998581
13.599992
12.847781
12.897849
12.563467
12.843609
12.379885
12.541413
12.384653
12.201667
11.835694
##ZVALUE=305
0.419617
0.364780
0.322461
0.323653
0.430942
0.400543
0.416636
0.261664
0.420809
0.506639
0.355840
0.366569
0.636578
0.506639
0.523925
0.578761
0.615716
0.582933
0.344515
0.543594
0.507832
0.567436
0.729561
0.706911
0.774860
0.774860
0.832677
0.930429
1.156926
0.794530
1.096725
1.242757
1.452565
1.700521
2.968907
16.608834
49.272776
140.965581
257.362723
485.228896
688.052773
943.358541
1015.581489
1015.581489
1015.581489
861.935616
670.669675
429.041982
267.525911
120.824575
60.032606
21.980405
14.235973
17.844439
25.305748
41.244626
57.031512
80.154538
96.482635
114.505887
120.393634
122.553706
113.254786
96.495748
78.386664
55.151582
42.385459
28.938651
21.473765
15.472770
13.625622
13.369918
13.077855
13.222694
13.723969
13.581514
13.159513
13.614893
13.237596
13.414621
13.646483
13.379455
13.703704
13.973713
13.473630
14.047623
13.381839
13.538599
13.136864
13.269782
12.679696
12.287498
12.488961
11.848807
12.473464
12.064576
##ZVALUE=310
0.350475
0.460744
0.500679
0.400543
0.261664
0.304580
0.532866
0.325441
0.117421
0.460744
0.579953
0.345707
0.256896
0.506639
0.412464
0.487566
0.535846
0.517964
0.612736
0.635982
0.620484
0.583529
0.534654
0.641942
0.752807
0.671744
0.637770
0.798702
0.936985
1.013875
0.991821
1.088977
0.932813
1.318455
1.230836
1.394749
1.852512
7.247925
23.933649
84.410906
169.767737
355.370641
554.355979
834.566951
999.681950
1015.584469
1015.584469
994.444489
827.666521
557.733774
371.758938
187.093616
100.765824
36.447644
16.618967
12.547970
15.703440
24.884939
35.058856
52.647591
68.916678
89.887977
104.663968
114.628673
115.756989
107.819438
95.206499
75.715780
59.910417
40.256977
30.111670
21.189451
17.022491
14.245510
13.000965
13.111830
12.820959
12.846589
13.295412
13.233423
13.039708
13.129711
13.175607
13.335943
12.971759
13.363957
13.172626
12.921691
13.549924
12.968779
13.030767
12.376904
12.252927
12.506843
12.474656
11.805892
##ZVALUE=315
0.372529
0.384450
0.356436
0.213981
0.282526
0.298619
0.342727
0.299811
0.299811
0.384450
0.368953
0.435710
0.342727
0.400543
0.570416
0.254512
0.501871
0.560880
0.403523
0.545979
0.579953
0.457764
0.751615
0.651479
0.761747
0.587702
0.670552
0.634789
0.586510
0.826716
0.597835
0.792742
0.908971
0.951886
0.993609
1.089573
1.116991
1.402497
1.494884
3.181696
12.681484
53.931475
118.853450
272.037983
449.026823
737.933517
917.635560
1015.584469
1015.584469
1015.584469
921.787620
669.828653
475.817919
251.979828
138.018727
51.086545
22.414923
11.974573
11.317730
15.198588
21.266937
33.837557
46.410561
66.619515
82.801580
100.554824
108.870864
110.037923
103.983879
86.851716
73.662996
55.077672
41.874647
28.016567
20.938516
15.927553
13.687611
12.959838
12.487769
12.762547
12.580752
12.836456
12.955666
13.004541
13.050437
12.550950
12.825727
12.665987
12.499690
13.003945
12.769699
12.776852
12.404919
11.838675
12.218952
11.968613
##ZVALUE=320
0.200868
0.298619
0.327826
0.366569
0.339746
0.491738
0.387430
0.327826
0.399947
0.414848
0.510812
0.467896
0.412464
0.421405
0.350475
0.559688
0.398755
0.425577
0.455976
0.545979
0.645518
0.459552
0.385642
0.532866
0.590682
0.662804
0.531673
0.652671
0.736713
0.823736
0.781417
0.714660
0.771880
0.871420
0.718832
0.866652
0.882745
0.874996
1.160502
1.150966
1.315475
1.751781
6.994605
24.227500
87.667704
177.684426
363.855958
546.449423
814.281702
995.652676
1015.583873
1015.583873
992.122889
815.125704
549.769402
357.811451
167.194605
88.510513
32.957792
15.645623
10.003448
10.327697
13.895631
18.876791
30.161738
41.862726
60.923696
76.229572
94.285607
101.864934
103.848577
97.779632
84.946752
71.841478
52.269697
40.596724
27.993917
21.375418
15.453696
14.068484
12.794733
12.441874
12.580752
12.643933
12.351871
12.630820
12.285709
12.553930
12.113452
12.189746
12.178421
12.267828
12.025833
11.997819
12.122989
11.886954
##ZVALUE=325
0.333786
0.327826
0.201464
0.331998
0.181794
0.403523
0.420809
0.418425
0.367761
0.360608
0.157952
0.379682
0.325441
0.400543
0.276566
0.429749
0.270605
0.293851
0.376701
0.457764
0.506639
0.370741
0.352859
0.565648
0.546575
0.478625
0.435710
0.557899
0.626445
0.679493
0.576973
0.633597
0.523925
0.682473
0.774860
0.697970
0.941753
0.818968
0.829697
1.063943
1.276731
1.201630
1.308918
1.513958
3.640652
14.225841
57.610869
124.602914
283.728838
454.409719
718.851686
909.058452
1015.584469
1015.584469
1015.584469
890.332460
616.517663
429.206491
229.262710
126.109719
48.298836
20.965934
9.565949
8.746982
10.032654
12.467504
18.950701
27.163625
43.448806
57.709813
76.351762
86.551905
97.915530
98.075867
91.265440
80.243945
64.496994
50.501823
34.996867
26.608706
19.256473
15.496612
13.277531
12.495518
12.211800
12.063980
11.801720
12.049675
11.926889
12.100935
11.738539
11.621714
11.762977
11.653900
11.484623
11.398792
##ZVALUE=330
0.256896
0.252724
0.260472
0.157952
0.220537
0.305772
0.263453
0.239611
0.241995
0.234842
0.286698
0.321865
0.226498
0.371933
0.334978
0.460744
0.274777
0.249743
0.413656
0.317693
0.379682
0.287890
0.243783
0.302792
0.374913
0.523925
0.370741
0.367761
0.510812
0.532866
0.575781
0.483990
0.657439
0.576973
0.436902
0.612736
0.647902
0.363588
0.642538
0.761747
0.818968
0.788569
1.026988
1.124740
1.249909
1.406670
1.757741
8.067489
27.565956
93.104839
182.048678
369.289517
554.982424
825.976729
995.291471
1015.543938
1015.543938
947.965980
759.877563
494.533777
319.829583
150.045753
76.816678
27.595758
12.653470
8.483529
8.652806
9.587407
11.948943
18.454790
25.727749
39.953589
53.415895
71.073771
81.463456
90.336800
91.006756
85.329413
76.146722
59.921741
47.640800
33.063889
26.080608
19.523501
15.898943
13.306737
12.294650
11.603832
11.592507
11.528730
11.157990
11.284947
11.123419
11.177659
11.238456
11.332631
##ZVALUE=335
0.336766
0.283718
0.167489
0.234842
0.259876
0.300407
0.244975
0.164509
0.119805
0.277758
0.395775
0.268817
0.411868
0.351667
0.464916
0.487566
0.395775
0.359416
0.342727
0.324845
0.302792
0.446439
0.360608
0.373721
0.362992
0.463724
0.616908
0.377893
0.421405
0.525713
0.529885
0.545979
0.459552
0.667572
0.410676
0.503659
0.684857
0.563860
0.679493
0.576973
0.820756
0.754595
0.808835
0.716448
0.742674
0.945926
1.086593
1.143813
1.511574
3.798604
13.876557
56.828856
121.372938
279.197693
457.047820
735.767484
930.984020
1015.578508
1015.578508
1007.289886
855.856538
589.228868
400.284529
207.940936
109.747648
38.417578
16.829967
8.638501
8.070469
8.652806
9.391904
12.718439
16.821623
26.832819
36.644936
53.302646
65.684915
78.562498
84.884763
86.026788
81.522465
69.452524
59.029460
46.239495
36.608577
26.056767
20.038486
15.077591
13.090968
11.770725
10.922551
10.973811
11.120439
10.815859
10.952950
10.632873
##ZVALUE=340
0.329614
0.288486
0.121593
0.229478
0.190735
0.194907
0.264645
0.181794
0.232458
0.282526
0.156760
0.316501
0.283718
0.107884
0.320673
0.232458
0.268817
0.292659
0.318885
0.425577
0.232458
0.454783
0.314713
0.252724
0.423789
0.275970
0.329614
0.427961
0.375509
0.421405
0.279546
0.407696
0.483990
0.532866
0.550747
0.553727
0.507832
0.553727
0.578761
0.725985
0.553727
0.786781
0.681877
0.589490
0.775456
0.807643
0.949502
0.886917
1.003742
1.176596
1.248717
2.216697
6.442666
34.150481
84.741712
215.152502
367.887616
611.639023
806.455016
1004.206538
1015.584469
1015.584469
908.361673
674.918890
475.449562
250.081420
139.148831
57.203770
23.980737
10.037422
8.518696
8.332729
8.924603
9.926558
12.162924
17.766953
25.096536
36.816001
48.147440
63.666701
73.347688
80.844760
80.617666
77.013969
69.467425
56.094527
45.780540
34.461617
26.371479
19.092560
14.970899
12.202859
11.270642
10.777712
10.566711
10.411739
##ZVALUE=345
0.343919
0.295639
0.383854
0.481606
0.208616
0.242591
0.276566
0.238419
0.360608
0.299811
0.203848
0.355840
0.301600
0.405908
0.313520
0.396967
0.239611
0.255704
0.433922
0.475645
0.422597
0.456572
0.496507
0.461936
0.425577
0.480413
0.396967
0.423789
0.532866
0.498891
0.520945
0.515580
0.474453
0.673532
0.600815
0.537634
0.624657
0.685453
0.487566
0.568628
0.639558
0.618696
0.572801
0.824928
0.717640
0.745654
0.803471
0.816584
0.808835
0.977516
1.118779
1.380444
1.150966
1.519918
2.981424
18.690825
54.747462
149.853826
263.851881
480.362773
670.177937
908.102989
1010.521650
1015.671492
963.791609
748.913884
560.569763
331.858993
190.197825
76.562762
35.361648
13.352633
8.853674
8.310676
8.144975
8.483529
9.484887
11.633635
15.387535
24.212599
32.995939
46.566725
56.777596
67.282915
72.332621
74.280500
72.890520
64.583421
55.663586
44.314861
35.336614
24.620891
19.262433
14.327765
12.097955
10.997653
##ZVALUE=350
0.270605
0.222921
0.160933
0.174642
0.205636
0.294447
0.278950
0.256896
0.180602
0.236630
0.189543
0.203848
0.336766
0.393987
0.330806
0.122786
0.114441
0.197887
0.288486
0.338554
0.190735
0.229478
0.193715
0.365973
0.402927
0.319481
0.305772
0.349879
0.426769
0.446439
0.402927
0.421405
0.453591
0.618696
0.500679
0.379682
0.479817
0.419617
0.456572
0.411868
0.515580
0.550747
0.561476
0.572801
0.689626
0.632405
0.635982
0.788569
0.757575
0.701547
0.842810
1.066923
0.846982
1.109838
1.058578
1.143813
1.795888
9.080768
30.169487
97.926855
187.128782
378.299952
556.602478
793.618560
947.846770
1015.584469
998.173952
833.452940
645.622015
388.575792
240.324736
112.451911
52.623749
16.466975
9.080768
7.634759
7.372499
7.747412
8.004904
8.974671
10.857582
15.897751
20.600557
30.060410
38.962960
51.035881
59.053898
66.840649
68.980455
66.769719
61.051846
50.804615
42.601824
31.024814
25.233626
18.023849
##ZVALUE=355
0.195503
0.379682
0.283718
0.073910
0.165701
0.469685
0.364780
0.331998
0.144839
0.360608
0.340939
0.275970
0.314713
0.357628
0.353456
0.387430
0.403523
0.258684
0.428557
0.355840
0.296831
0.316501
0.422597
0.365973
0.403523
0.394583
0.274777
0.311732
0.546575
0.443459
0.392795
0.423789
0.550747
0.403523
0.482798
0.410676
0.401735
0.394583
0.470877
0.531673
0.583529
0.325441
0.464916
0.504851
0.578761
0.688434
0.633597
0.722408
0.752807
0.885725
0.767708
1.069903
0.971556
1.032948
0.840425
1.094937
1.054406
1.201630
1.383424
4.266500
16.322732
64.857602
133.590698
284.204483
454.564691
713.656545
877.794623
1004.580855
1010.471582
872.138739
709.639788
471.318960
300.717950
135.187507
65.349936
21.094680
10.059476
7.722974
7.359982
7.208586
7.203817
7.709861
8.299947
10.152459
12.916923
18.374920
25.031567
35.447478
43.816566
53.978562
59.634447
62.494874
61.031580
55.314898
48.403740
39.139986
##ZVALUE=360
0.284910
0.143647
0.388622
0.323653
0.458956
0.316501
0.406504
0.157952
0.288486
0.369549
0.329614
0.295639
0.258684
0.323653
0.364780
0.305772
0.409484
0.393987
0.171661
0.306964
0.336766
0.275970
0.256896
0.316501
0.503659
0.440478
0.509620
0.390410
0.343919
0.302792
0.396967
0.352859
0.414848
0.497699
0.472665
0.496507
0.625849
0.570416
0.607967
0.473857
0.628829
0.629425
0.507832
0.409484
0.604987
0.626445
0.652671
0.732541
0.609756
0.845790
0.643730
0.641942
0.795722
0.776649
0.951886
1.176596
1.076460
1.202822
1.123548
1.319647
1.460910
2.249479
7.112622
33.319592
84.701777
219.367743
369.981527
615.323782
816.738009
1001.901627
1015.637517
962.072015
804.705620
546.574593
370.763540
192.695856
100.533962
34.473538
14.978647
7.790923
7.076859
7.197857
6.680489
6.950498
7.164478
7.606745
8.653998
11.417866
14.868975
21.306872
27.957559
38.265586
45.497417
53.052902
56.507587
56.934953
##ZVALUE=365
0.260472
0.162721
0.259876
0.146627
0.377893
0.241995
0.255704
0.352859
0.250936
0.248551
0.427961
0.234842
0.293851
0.207424
0.376701
0.271797
0.296831
0.321865
0.215769
0.346899
0.267625
0.356436
0.404716
0.354648
0.313520
0.268817
0.290871
0.283718
0.435710
0.352859
0.306964
0.356436
0.354648
0.463724
0.478625
0.385642
0.439882
0.348687
0.509620
0.411868
0.430942
0.410676
0.350475
0.543594
0.605583
0.432730
0.650883
0.629425
0.764728
0.636578
0.543594
0.803471
0.680685
0.814795
0.590682
0.749826
0.842810
0.944734
1.011491
0.774860
1.159906
1.233816
1.445413
1.598001
3.378987
18.616915
53.919554
154.548883
293.099880
553.280711
748.806596
955.836773
1015.587449
1006.027460
882.142782
643.994808
457.845926
255.178809
139.368773
51.610470
21.377802
8.150935
6.637573
6.465912
6.567836
6.550550
6.314516
6.469488
6.418824
7.805824
9.432435
12.982488
17.651916
25.707483
32.587647
40.790439
##ZVALUE=370
0.094771
0.104904
0.143647
0.144839
0.089407
0.033975
0.146627
0.082850
0.238419
0.112653
0.100732
0.196695
0.096560
-0.017881
0.076890
0.162721
0.224710
0.239611
0.227690
0.245571
0.131726
0.246763
0.271797
0.137687
0.129938
0.396967
0.124574
0.197887
0.180602
0.172853
0.220537
0.295639
0.293851
0.320673
0.198483
0.277758
0.249743
0.287890
0.247955
0.276566
0.265837
0.404716
0.284910
0.326633
0.294447
0.310540
0.441670
0.354648
0.402927
0.463724
0.437498
0.576973
0.482798
0.540614
0.448823
0.539422
0.626445
0.596642
0.510812
0.788569
0.738502
0.940561
0.827909
1.058578
1.182556
1.420975
1.859665
9.155869
32.245517
119.346976
236.880779
450.134873
653.063655
921.924710
1015.456915
1015.456915
927.588940
721.296668
529.547930
297.884941
167.456865
67.466497
30.897856
11.361837
6.842613
5.949736
5.945563
5.705953
5.531907
5.477667
5.342960
6.075501
6.548762
8.072853
10.514855
15.307665
##ZVALUE=375
0.122786
0.075698
0.101924
0.180602
0.066757
0.077486
0.137687
0.169873
0.206828
0.047684
0.066757
0.043511
-0.002980
0.080466
0.133514
0.039935
-0.076890
0.147820
0.110865
0.188947
0.204444
0.145435
0.242591
0.030994
0.248551
0.201464
0.145435
0.140667
0.108480
0.231862
0.230670
0.059605
0.013709
0.194907
0.112653
0.146627
0.082850
0.165701
0.102520
0.338554
0.151992
0.060797
0.389814
0.119805
0.331998
0.386834
0.377893
0.331998
0.418425
0.395775
0.327826
0.412464
0.368953
0.429749
0.339746
0.550747
0.344515
0.337958
0.346899
0.517964
0.565648
0.607967
0.632405
0.631809
0.837445
0.886917
0.924468
1.079440
1.318455
4.677773
16.683936
60.663819
134.525895
310.111642
488.669872
739.519596
885.809660
979.002714
952.606797
783.649683
605.612993
371.489525
238.349438
116.639733
58.870912
19.637942
8.504987
5.607605
5.271435
5.173683
5.424619
5.018711
4.955530
4.996657
5.278587
5.871654
##ZVALUE=380
0.266433
0.110865
0.275970
0.264645
0.284910
0.289679
0.281930
0.187755
0.250936
0.187755
0.323653
0.205636
0.080466
0.165701
0.280738
0.208616
0.150800
0.217557
0.372529
0.276566
0.286698
0.470877
0.246763
0.256896
0.329614
0.327826
0.321865
0.334978
0.215769
0.357628
0.205636
0.305772
0.421405
0.376701
0.226498
0.283718
0.297427
0.398755
0.280738
0.252724
0.454783
0.178814
0.418425
0.164509
0.439882
0.350475
0.301600
0.389814
0.366569
0.481606
0.355840
0.466704
0.484586
0.265837
0.457764
0.430942
0.684857
0.428557
0.476837
0.614524
0.586510
0.572801
0.551939
0.894666
0.729561
0.796914
0.767708
0.835657
1.047850
1.174808
1.275539
2.514720
8.713603
42.456985
98.387599
233.812928
379.904509
602.664948
767.181516
917.121768
940.532684
834.971666
689.010024
468.496680
313.798785
156.319737
81.401467
28.959513
12.011528
5.786419
4.792809
5.060434
4.769564
4.869699
4.897714
4.739761
##ZVALUE=385
0.231862
0.145435
0.095963
0.066757
0.156760
0.123978
0.275970
0.281930
0.295639
0.187755
0.282526
0.240803
0.207424
0.204444
0.159740
0.257492
0.246763
0.140667
0.146627
0.239611
0.169873
0.118613
0.322461
0.225902
0.331998
0.186563
0.187755
0.308752
0.260472
0.298619
0.313520
0.296831
0.333786
0.276566
0.360608
0.337958
0.347495
0.294447
0.315905
0.227690
0.273585
0.361800
0.249743
0.214577
0.219941
0.359416
0.420809
0.307560
0.268817
0.392795
0.451803
0.137687
0.487566
0.343919
0.404716
0.336766
0.533462
0.304580
0.412464
0.402927
0.499487
0.539422
0.565648
0.604987
0.586510
0.670552
0.554919
0.670552
0.772476
0.896454
1.011491
1.029968
1.320839
1.463890
3.962517
23.698807
62.521696
159.416795
285.107493
510.531664
688.274503
866.449475
924.845934
889.115930
787.148476
584.885478
417.375565
229.523778
130.918622
53.438544
22.121668
7.035732
4.855990
4.465580
4.283786
4.524589
##ZVALUE=390
0.279546
0.222921
0.275970
0.139475
0.236630
0.258684
0.202656
0.130534
0.178814
0.197887
0.160933
0.192523
0.217557
0.167489
0.164509
0.203848
0.094771
0.062585
0.261664
0.255704
0.315905
0.120997
0.320673
0.117421
0.283718
0.204444
0.277758
0.345707
0.133514
0.317693
0.332594
0.429749
0.264645
0.328422
0.077486
0.329614
0.438690
0.190735
0.167489
0.354648
0.307560
0.322461
0.292659
0.548959
0.385642
0.323653
0.348687
0.113845
0.328422
0.315905
0.380874
0.256896
0.413656
0.317693
0.226498
0.286698
0.299811
0.545979
0.546575
0.440478
0.387430
0.464916
0.502467
0.468493
0.447631
0.490546
0.678897
0.720620
0.782609
0.938773
0.963807
0.967979
1.051426
1.365542
1.048446
1.201630
2.078414
12.092590
38.355589
117.377639
222.860575
426.324606
596.457720
797.671676
898.120999
925.346613
859.205723
680.092573
519.988537
318.224430
185.584426
76.684952
36.418438
11.394620
5.513430
4.128814
##ZVALUE=395
0.099540
0.168681
0.076890
0.035763
0.131726
0.236630
0.076890
0.282526
0.265837
0.239611
0.090599
0.238419
0.235438
0.142455
0.171661
0.227690
0.169873
0.253916
0.137687
0.162721
0.245571
0.217557
0.261664
0.231862
0.356436
0.342727
0.372529
0.331998
0.490546
0.241995
0.354648
0.321865
0.344515
0.235438
0.082850
0.159740
0.214577
0.345707
0.279546
0.154972
0.271797
0.275970
0.378489
0.443459
0.317693
0.419617
0.404716
0.356436
0.410676
0.244975
0.340939
0.229478
0.363588
0.330806
0.346899
0.286698
0.418425
0.359416
0.299811
0.373721
0.465512
0.456572
0.458956
0.374913
0.455976
0.505447
0.617504
0.591874
0.759959
0.645518
0.866652
0.874996
0.957847
0.918508
0.917912
1.052618
1.017451
1.092553
1.569986
5.260706
29.830933
73.506832
176.461935
299.509764
514.296889
685.613751
878.011584
946.559906
917.605758
804.901719
599.870682
423.498750
227.347612
121.923685
45.802593
19.762516
##ZVALUE=400
0.067949
0.134706
0.311732
0.140667
0.188947
0.360608
0.246763
0.191927
0.134706
0.171661
0.236630
0.262856
0.280738
0.213981
0.309944
0.314713
0.073910
0.118613
0.210404
0.211596
0.287890
0.262856
0.114441
0.299811
0.355840
0.240803
0.149608
0.252724
0.184774
0.105500
0.246763
0.244975
0.294447
0.160933
0.154972
0.260472
0.249743
0.361800
0.470877
0.279546
0.313520
0.200868
0.302792
0.282526
0.342727
0.237823
0.191927
0.312924
0.211596
0.416636
0.353456
0.276566
0.269413
0.448823
0.319481
0.353456
0.332594
0.241995
0.378489
0.541806
0.252724
0.322461
0.408888
0.487566
0.506639
0.524521
0.680685
0.415444
0.828505
0.734925
0.796914
0.943542
0.869632
0.842810
0.708699
0.701547
0.854731
0.990629
0.916719
0.976920
1.312494
3.626943
13.150573
49.338937
107.655525
244.878531
397.844911
622.285604
779.690742
911.780596
931.504965
830.618739
684.404969
457.026958
301.967859
153.154731
##END
