##TITLE=FQP00601
##FORMAT=SPECTACLE-ASCII V-1.2
##DATA TYPE=ULTRAVIOLET SPECTRUM
##SECOND TYPE=ULTRAVIOLET SPECTRUM
##DATE=01/24/18
##TIME=17:48:19
##SPECTROMETER/DATA SYSTEM=SPECTACLE
##XUNITS=NM EM
##YUNITS=ENERGY
##YFACTOR=1
##FIRSTX=220
##LASTX=410
##NPOINTS=96
##3DDATA=Equidistant
##ZUNITS=NM EX
##FIRSTZ=210
##LASTZ=400
##ZPOINTS=39
##XYDATA=(Y..Y)
##ZVALUE=210
1.950860
1.892447
1.526475
1.900792
1.784563
2.539754
2.531409
2.266765
2.294779
2.657771
2.662539
2.754927
2.243519
3.602505
2.869964
3.552437
3.315806
3.480911
3.127456
3.883839
4.170537
4.189610
4.956722
4.193783
4.914999
6.081462
5.064607
5.897880
6.944537
4.963875
6.259680
6.354451
7.304549
6.490946
7.727742
7.808805
6.649494
7.845759
7.374883
7.810593
7.749796
7.831454
7.335544
7.396936
7.224679
8.160472
8.921623
8.200407
7.678866
8.119941
8.334517
7.948875
8.233786
8.654594
8.756518
8.103848
7.847548
8.308887
7.824898
7.503629
9.061694
8.435845
8.594990
8.591413
9.777546
8.619428
9.906888
11.177659
12.464523
14.961958
17.355680
18.769503
23.289919
24.991632
28.589964
31.834841
32.152534
31.206608
32.169819
30.000806
26.951432
23.334622
19.375682
17.835498
13.637543
13.295412
10.219812
8.417964
8.124709
8.261800
8.897781
8.501410
8.478761
8.810759
8.345842
8.537769
##ZVALUE=215
5.832911
5.606413
5.494952
5.456805
4.157424
4.293919
4.501939
4.072785
4.244447
5.232692
4.690886
4.289746
4.404783
3.331900
3.360510
3.160834
2.891421
3.427863
3.596544
4.430413
4.022717
5.394816
5.701780
5.065799
4.696846
4.933476
5.932450
5.822778
5.994439
5.414486
6.691813
6.405711
7.504821
8.024573
7.594824
7.555485
8.140802
7.707477
7.151961
7.908940
8.518696
8.928776
7.538795
7.536411
8.215904
8.781552
7.756948
7.502437
7.575750
7.650852
7.310510
8.095503
8.566976
8.010864
7.119775
7.412434
7.693768
7.841587
8.451939
7.753968
7.934570
7.912517
7.288456
7.653832
7.437468
7.833838
8.524656
8.247495
10.045767
10.901690
14.361739
16.202927
19.034743
20.375848
23.196936
26.619434
27.308464
28.299689
25.498867
24.170876
21.293759
18.599629
15.972853
13.525486
10.974407
10.660887
8.852482
9.379983
7.473826
7.653832
6.827712
7.695556
6.439686
7.554889
7.273555
7.945895
##ZVALUE=220
22.701621
19.278526
23.294687
25.257468
24.513602
20.128489
16.633868
12.495518
10.369420
10.448694
10.921955
10.469556
10.523796
10.033846
7.513762
6.362796
6.018877
4.958510
4.810691
4.319549
3.600717
4.051924
4.491806
5.435944
5.230904
6.029606
6.355643
6.669760
6.909966
6.981492
8.299947
9.194613
8.801818
9.546876
9.997487
9.729862
10.728836
9.919405
8.952618
10.500550
10.497570
9.295940
11.679530
10.495782
10.371804
8.162856
9.485483
9.173751
8.550882
10.394454
9.412766
7.834435
9.832978
8.029938
8.748770
8.887649
8.512735
8.977652
8.726716
8.375645
7.729530
8.325577
7.684827
8.489490
9.752512
9.122491
9.049773
9.201765
10.131598
10.893941
13.587475
15.586615
18.601418
19.821525
20.938516
24.122000
24.954677
25.417805
25.218725
23.958683
22.830963
20.270944
18.674731
15.231967
12.581944
11.356473
10.810494
9.221435
9.384751
8.450747
8.292794
8.649826
8.622408
8.138418
7.437468
8.563995
##ZVALUE=225
34.266710
34.961700
50.375462
59.851408
68.781972
71.132779
66.457987
58.433414
42.811632
32.539964
25.564432
22.433996
22.617579
26.260614
24.725795
24.068952
20.328760
16.583800
10.653734
8.297563
6.220937
5.464554
4.382730
5.315542
5.053878
5.943775
5.967617
6.841421
7.146597
7.765889
9.187460
10.828972
10.798573
11.079907
12.274981
11.590719
12.041926
12.689829
12.138486
11.908412
11.083484
12.536645
10.862947
10.160804
11.277795
10.817647
10.356903
11.126995
10.791421
9.261966
9.292960
9.532571
10.381937
9.423494
9.203553
9.607673
9.114742
9.382963
9.844899
8.721948
8.682609
9.059906
9.581447
9.005666
9.744763
11.027455
10.963678
11.767745
12.657642
13.957620
13.019443
15.346408
17.616749
19.032955
19.524693
21.824837
22.340417
20.144582
21.318793
21.252632
21.462440
18.437505
19.590855
15.398860
15.720725
13.840795
13.424754
13.320446
11.608601
11.562705
11.589527
11.185408
9.780526
11.893511
10.391474
9.877682
##ZVALUE=230
34.662485
38.968921
60.076714
101.902485
135.938525
167.420506
189.816952
196.999907
173.069835
151.007771
104.594827
73.857903
49.528480
44.408441
41.789412
46.042800
48.718452
46.370625
42.284727
36.651492
27.343631
18.188953
13.287663
8.007884
6.788969
7.042885
7.487535
7.583499
9.072423
9.114742
9.414554
11.348724
11.102557
11.556745
12.349486
12.088418
12.428761
11.675954
12.756586
13.200641
13.521910
13.459921
12.434721
12.322664
12.328625
11.831522
12.362599
11.851788
11.170506
11.992455
10.921955
11.416674
11.108518
10.791421
10.172725
10.030866
10.472536
11.194944
12.027621
12.659431
12.670755
11.817813
12.874603
12.675524
12.310743
12.562871
13.110638
15.429854
15.258789
16.205907
17.853975
20.456910
21.291971
23.476481
26.578903
27.714968
26.810765
26.912689
24.759769
25.810599
24.955869
23.037791
22.232533
20.279884
20.490885
19.127727
18.940568
19.765496
19.356608
17.875433
17.743707
19.324422
18.768907
17.394423
18.065572
18.051863
##ZVALUE=235
14.775991
17.454624
35.468936
83.198547
132.488608
212.473869
286.441445
371.979475
407.233834
393.121839
349.925756
281.378627
186.333656
138.390660
92.601776
74.254870
71.384907
74.369907
80.751777
80.375671
74.374676
65.911412
52.595735
34.761429
26.149750
16.678572
13.157725
9.391904
9.882450
10.157824
10.967851
9.721518
11.362433
12.294650
12.944937
13.286471
11.985898
12.250543
11.498928
13.365746
12.445450
12.745857
12.165904
12.432933
12.421608
13.647676
12.780428
12.401938
12.643933
11.159778
11.392832
12.434721
10.966659
12.520552
12.042522
14.046431
12.822747
11.989474
12.788773
13.243556
14.247894
14.959574
16.207695
14.922619
17.244816
16.736984
16.888976
19.761920
19.282699
21.136999
22.519827
26.661754
27.415752
29.406548
31.040907
30.661821
33.425689
31.360984
32.398701
31.710863
31.083822
31.121969
28.969646
27.400851
28.315783
28.173923
26.296973
25.411844
26.434660
26.234984
25.522709
25.496483
23.715496
26.081800
24.427772
24.250746
##ZVALUE=240
2.499819
2.786517
10.597706
25.755763
68.483949
119.435787
233.578682
348.986983
512.562990
618.446469
682.529807
674.389601
615.651011
474.641919
363.296866
231.077671
163.703561
109.471679
97.674727
102.406740
112.023950
119.157434
111.833811
103.757977
82.891583
65.860748
51.218867
35.355687
24.722815
18.364787
17.463565
13.601780
12.707710
14.320612
14.110804
12.835860
13.048649
13.861656
13.499856
14.009476
14.476776
13.855696
13.572574
13.002753
12.174845
12.979507
12.210608
11.804700
12.969971
12.460947
12.434721
12.760758
12.841821
12.553930
13.027787
12.853742
15.049577
14.741421
16.324520
15.182495
16.183853
16.157627
15.961528
17.282963
17.114878
18.924475
19.765496
21.023750
21.349788
25.844574
27.460456
30.189753
32.606721
35.976768
35.411716
40.166974
37.712455
37.598610
39.211512
39.731860
38.236976
39.033890
37.231445
35.263896
35.394430
35.052896
33.139586
33.040643
33.201575
34.748912
34.930706
34.392476
34.035444
36.017895
34.361482
34.984946
##ZVALUE=245
1.366735
1.633763
1.565814
2.253652
7.242560
17.931461
58.596730
112.695694
244.608521
374.420881
596.999526
757.494569
883.408785
938.058496
915.859938
769.774914
627.329946
413.911939
279.775858
160.893798
117.678642
103.595853
116.319656
126.166940
133.944750
131.790638
116.754770
104.901791
78.451633
60.577989
47.372580
30.551553
24.393797
18.440485
16.582608
15.227795
14.965534
14.661551
14.510751
13.189912
14.669895
12.780428
11.625886
13.121963
13.195872
13.505816
12.728572
12.063980
11.895895
12.752414
12.287498
11.636615
12.810826
12.587905
11.937618
12.106895
12.571812
12.687445
13.141632
13.486743
13.053417
14.271736
15.213490
15.189648
16.538501
17.934442
18.244982
19.065738
22.027493
23.484826
25.443435
25.085807
28.004646
32.306910
33.396482
34.783483
35.051703
34.592748
34.610629
34.837723
33.844709
37.026405
35.396814
34.276843
36.686659
33.660531
33.710599
32.665730
34.957528
34.479499
33.499599
34.816861
35.323501
32.285452
34.251809
34.978986
##ZVALUE=250
1.565814
1.438856
1.791716
1.761913
1.702905
1.968741
3.165603
10.045767
39.884448
83.657503
200.513601
342.682600
532.341599
818.295479
999.342799
1015.570760
1015.570760
1015.570760
960.371494
673.459768
462.067723
276.510715
147.540569
107.238889
111.059546
124.231577
138.602853
147.307515
142.456889
132.521987
112.359524
88.791847
67.449808
42.677522
33.293962
22.491813
18.329620
16.885996
15.137792
14.880896
14.886856
15.127659
13.742447
14.799833
13.559461
14.532804
13.173819
13.127923
12.738705
12.636781
11.874437
11.703968
11.734962
11.121631
11.778474
11.748672
12.087822
12.638569
12.536645
11.962652
12.289882
13.300776
13.563633
14.352798
14.670491
15.137792
16.128421
18.412471
19.338727
20.245910
21.373630
24.296641
25.982857
27.024746
29.141903
28.741956
29.473901
31.110644
30.721426
31.429529
32.675862
30.467510
31.186938
31.210780
31.710863
32.656789
31.720996
31.708479
33.010840
32.336712
33.848882
32.416582
29.995441
32.071471
32.931566
32.623410
##ZVALUE=255
1.254678
1.379848
1.170635
1.248717
1.354814
1.375675
1.951456
1.822710
2.188683
5.349517
27.702451
69.251657
143.639445
325.657725
519.611835
873.394012
1015.523672
1015.523672
1015.523672
1015.523672
1015.523672
1014.834046
665.309429
417.032838
192.992687
127.231479
102.016926
111.656785
134.080648
148.186684
153.056979
148.979425
138.763785
112.963915
90.336800
63.528419
45.686960
29.750466
23.179650
19.042492
16.237497
15.232563
15.246868
15.492439
14.510751
14.378428
13.864636
14.333725
13.616681
13.296604
13.053417
13.284683
12.414455
12.064576
11.935830
11.994839
11.367798
12.599826
12.012720
12.149811
12.226701
12.376904
13.048649
13.307929
13.908744
13.937950
15.034676
15.663505
17.495751
18.732548
20.000935
21.147728
23.182631
24.212599
24.172664
26.243925
27.364492
26.570559
27.122498
27.562976
27.005672
27.444959
28.196573
30.480623
27.797818
29.556751
28.652549
29.387474
29.129982
29.327869
29.530525
29.566884
28.525591
29.243827
31.564832
30.592680
##ZVALUE=260
1.144409
1.248717
1.176000
1.322627
1.284480
1.343489
1.484752
1.361966
1.622438
1.463890
1.756549
2.221465
11.306405
33.272505
101.330876
205.718875
450.899005
690.025687
996.669531
1015.584469
1015.584469
1015.584469
1015.584469
944.073796
699.548721
426.794887
270.742774
138.293505
99.927783
94.468594
109.988451
138.083696
155.386925
162.011981
157.064795
138.875842
119.952559
89.192986
68.907738
45.698881
34.142733
24.239421
19.633770
18.495917
16.545653
15.441775
15.231967
15.433431
15.446544
14.376640
13.555884
13.707876
13.373494
12.324452
12.882948
12.557507
12.290478
11.805892
12.113452
12.141466
12.965798
12.517571
12.519956
13.237596
13.261437
14.136434
14.277697
14.366508
15.786886
15.669465
17.359853
19.730926
19.660592
21.302700
22.898912
22.820830
23.550987
23.688674
24.982691
25.801659
25.393963
24.388433
26.246905
26.198626
25.429726
26.637912
26.937723
25.883913
27.142763
26.348829
27.295947
28.469563
27.112961
28.729439
27.981997
27.257800
##ZVALUE=265
1.146793
1.182556
0.990629
1.143813
1.050830
1.178980
1.083612
1.037717
1.224875
1.431704
1.462698
1.628995
1.712441
2.235770
4.969835
23.736954
59.877634
171.106458
322.328806
648.070574
944.921970
1015.584469
1015.584469
1015.584469
1015.584469
1015.584469
740.772486
500.574708
269.132853
163.910985
94.710588
79.829693
91.939569
119.334459
141.644478
159.723759
166.244507
156.667829
143.038630
115.758777
92.718601
66.516995
48.479438
31.677485
23.385882
19.400716
17.077923
15.893579
15.331507
14.865994
14.779568
14.310479
13.698936
13.857484
13.748407
12.921691
12.166500
12.925863
12.393594
12.262464
12.392998
13.004541
12.431741
12.920499
12.619495
12.869835
13.921857
14.832616
14.936924
16.044974
17.084479
17.682910
18.988848
20.739436
21.223426
22.157431
22.459626
22.413731
22.770762
22.153854
24.201870
23.904443
23.779869
23.200512
22.698641
24.569631
24.314523
23.491979
24.534464
25.167465
25.064945
25.491714
25.524497
26.177764
26.314855
26.640892
##ZVALUE=270
0.884533
1.142621
1.229644
1.046658
0.945926
1.080632
1.045465
1.033545
1.121759
1.462698
1.392961
1.231432
1.576543
1.861453
1.865625
2.035499
2.637506
11.345744
33.628941
129.811764
290.992856
543.075800
961.277485
1015.579700
1015.579700
1015.579700
1015.579700
1015.579700
955.327749
683.287978
452.994704
233.034492
135.237575
74.771643
75.072646
95.233917
119.418502
146.513581
160.264969
167.022943
162.163973
142.628551
122.836828
91.339946
69.223642
45.624971
33.894777
23.479462
19.717813
16.648769
15.598536
14.754534
14.321804
14.214516
14.232993
13.513565
12.784600
12.593865
12.983680
13.238788
13.409853
13.277531
12.742877
12.808442
14.081597
13.347864
13.942719
14.349818
14.379621
16.177893
16.828775
18.315911
19.102693
20.707846
20.849705
21.833777
21.819472
21.999478
21.889806
22.180676
22.764802
22.874475
22.936463
22.165775
23.083687
23.462772
22.836924
23.395419
23.122430
24.215579
23.874640
24.211407
23.987889
23.318529
24.227500
25.135875
##ZVALUE=275
1.054406
1.007915
0.757575
0.981688
0.905991
0.955462
0.817776
1.102686
1.039505
1.188517
1.112819
1.384616
1.466870
1.093745
1.517534
1.842976
1.703501
2.289414
2.082586
9.042621
33.385754
83.826780
239.062905
475.367904
910.187960
1015.592813
1015.592813
1015.592813
1015.592813
1015.592813
1015.592813
872.918963
587.772727
303.668976
176.940560
85.997581
61.578751
71.397424
88.406801
120.120645
139.599442
157.553554
164.355636
158.084631
141.352415
114.453435
90.698600
66.169500
47.785640
31.024814
22.676587
17.467737
15.337467
13.861656
13.222694
13.241768
12.903810
13.139844
12.731552
12.567639
13.006926
13.132691
13.566613
13.585687
14.255643
14.190674
14.564991
14.864802
15.219450
16.052723
16.634464
17.904639
18.407702
20.498633
19.484758
20.614862
20.744801
21.084547
21.620989
21.662712
20.817518
22.088885
20.993948
22.252798
21.877885
21.605492
22.922754
22.679567
22.853613
22.946596
22.745728
22.690892
22.437572
23.562908
23.491979
22.902489
##ZVALUE=280
0.715852
0.755787
0.850558
0.983477
0.848770
0.819564
0.864863
1.000762
1.046658
1.107454
1.065731
1.230836
1.022816
1.256466
1.327991
1.176596
1.384616
1.775622
1.630783
1.844764
2.090931
2.522469
13.836622
44.386983
139.001608
263.405442
531.104803
817.468762
1015.721560
1015.721560
1015.721560
1015.721560
1015.721560
990.420580
722.154975
394.868851
231.374502
105.638504
60.822964
50.697923
61.791539
87.830424
110.474825
137.974620
152.865648
155.167580
152.046680
131.919980
113.813877
85.062981
63.846707
42.305589
29.881597
19.741654
15.529990
13.074875
12.473464
12.261868
12.268424
12.244582
12.517571
12.857914
13.324618
13.012886
13.361573
14.146566
14.233589
14.478564
15.525818
16.306639
17.034411
17.824769
18.658638
19.332767
19.666553
19.904971
20.399690
20.912886
20.791888
20.408630
20.707846
21.222830
21.026731
21.488667
21.654963
21.954775
22.450686
21.686554
22.066832
22.014976
22.023916
22.504926
22.732615
22.091866
22.091866
21.851659
##ZVALUE=285
0.688434
0.661612
0.533462
0.839829
0.648499
0.696778
0.856519
0.706911
0.791550
0.765920
0.806451
0.841618
0.915527
0.753999
0.795722
0.909567
0.993609
0.958443
1.190901
1.177788
1.176000
1.558661
1.867414
2.083778
4.995465
25.005937
63.589811
164.940357
290.964842
544.180870
783.025026
1015.584469
1015.584469
1015.584469
1015.584469
1015.584469
830.813646
506.928563
316.430926
145.582557
75.045824
39.469600
39.129853
57.920814
76.747537
106.385946
125.938654
144.287944
150.470734
143.300891
131.222606
107.569695
87.754726
60.540438
44.500828
26.984811
19.741654
14.334917
12.604594
11.477470
11.739731
12.126565
12.627840
12.578964
13.182759
13.607740
13.222694
14.424920
15.434623
15.694499
15.972853
17.566681
17.899871
18.273592
18.649697
19.457936
19.260645
19.464493
20.065904
20.591617
20.892620
20.044446
21.225810
21.366477
21.447539
20.890832
21.176934
21.438599
21.113753
21.867752
21.321774
21.051764
21.331906
21.003485
21.996498
20.854473
##ZVALUE=290
0.589490
0.562668
0.569820
0.625849
0.573993
0.682473
0.687838
0.634789
0.623465
0.712872
0.724792
0.769496
0.839829
0.856519
0.767708
0.803471
0.848770
0.982881
1.057982
1.000762
1.132488
1.351833
1.385808
1.457930
1.449585
1.800656
2.674460
8.150935
38.749576
89.726448
143.492818
367.672443
580.440760
919.068456
1015.584469
1015.584469
1015.584469
1015.584469
993.695855
677.204728
448.916554
220.878720
110.707879
43.067932
28.970838
36.521554
50.583482
73.087811
93.986988
118.401647
134.289861
141.863823
140.699744
124.024749
107.868910
80.437660
62.003732
40.101409
28.116703
18.769503
15.076995
12.482405
11.885762
12.097955
12.262464
12.956858
13.323426
14.180541
15.058517
16.064644
16.177893
16.319752
17.486811
17.936826
18.431544
18.901825
19.379854
20.070672
20.383000
20.483732
20.286441
20.592809
21.149516
21.252632
20.939708
21.711588
21.468997
21.365881
21.253824
20.710826
21.336675
21.372437
21.397471
21.418929
21.172762
20.777583
##ZVALUE=295
0.428557
0.362992
0.493526
0.662804
0.486970
0.504851
0.591874
0.673532
0.389814
0.624657
0.771880
0.509620
0.504851
0.549555
0.586510
0.814795
0.805855
0.741482
0.646710
0.907779
0.808835
1.081824
1.221895
1.086593
1.318455
1.302958
1.509786
1.744628
2.021790
3.557801
13.091564
57.605505
130.144954
304.288864
494.859815
796.358585
998.993516
1015.584469
1015.584469
1015.584469
1015.584469
803.908706
565.384626
303.957462
166.306496
60.504675
30.837655
22.956729
29.982924
47.454834
66.560507
92.442632
110.067725
127.708912
135.725737
130.859613
120.602846
99.348426
81.266761
57.219863
41.553974
27.013421
20.443797
15.336871
13.616681
12.762547
13.262630
13.406873
13.828874
15.741587
15.593767
16.721487
16.870499
17.986894
18.719435
18.860698
19.449592
19.708872
19.959807
19.901991
20.758510
20.757914
20.493865
21.355748
21.523833
21.013618
21.626949
21.586418
21.988750
21.536946
21.501780
21.707416
20.837784
20.973682
20.661950
21.226406
##ZVALUE=300
0.415444
0.369549
0.370741
0.474453
0.442863
0.556707
0.476837
0.681877
0.517964
0.550747
0.633597
0.564456
0.644922
0.722408
0.725985
0.459552
0.730753
0.864863
0.839829
0.773668
0.766516
0.888705
0.824928
1.018643
0.836849
1.071692
1.177788
1.259446
1.505613
1.396537
1.679659
1.916885
8.493662
29.765964
101.311803
198.951960
407.493711
621.384978
915.326476
1015.584469
1015.584469
1015.584469
1015.584469
914.579630
610.318780
403.304696
204.711556
110.921860
40.784478
20.195842
19.311905
26.801825
43.344498
58.902502
84.376931
102.517605
122.148991
127.282739
126.394629
117.231607
98.824501
80.748796
58.802962
44.598579
29.149652
21.336675
16.246438
14.295578
14.256835
14.986992
15.879869
16.148686
17.164946
17.309785
17.967820
18.969774
18.974543
19.440651
20.246506
20.753741
20.393729
21.275878
21.823645
21.700859
22.123456
22.272468
21.555424
21.889806
22.391677
21.939874
21.887422
21.642447
21.713972
21.346807
20.904541
20.952821
##ZVALUE=305
0.375509
0.205636
0.316501
0.375509
0.527501
0.539422
0.353456
0.236630
0.449419
0.416636
0.474453
0.650883
0.486970
0.475645
0.520945
0.638962
0.578761
0.652671
0.537634
0.757575
0.605583
0.693798
0.762939
0.913739
0.801682
0.871420
0.940561
1.030564
1.141429
1.051426
1.113415
1.395941
1.506805
1.882911
3.099442
19.459724
56.123734
160.775781
291.555524
544.636846
768.792629
1015.555859
1015.555859
1015.555859
1015.555859
969.548821
761.177540
487.374663
304.223895
137.275457
67.701936
23.308992
14.372468
17.470717
25.326610
42.137504
58.028698
80.505610
98.076463
116.177797
123.715997
121.098757
113.334656
95.547438
77.550411
56.370497
43.085814
29.975772
22.600889
17.880797
17.102957
16.244650
17.293692
17.381907
18.161535
18.830895
19.200444
19.725561
20.035505
21.120906
21.178722
21.682978
22.035837
22.465587
22.402406
22.408962
22.932887
22.657514
22.916794
22.154450
22.620559
22.073984
22.084713
21.429658
21.070838
21.288991
##ZVALUE=310
0.360608
0.429749
0.379682
0.380874
0.471473
0.334978
0.534654
0.497699
0.479817
0.538826
0.548959
0.533462
0.369549
0.440478
0.543594
0.713468
0.493526
0.675917
0.583529
0.541806
0.629425
0.779629
0.537634
0.824928
0.702739
0.730753
0.871420
0.842810
1.095533
0.802875
0.925660
1.094937
1.279712
1.222491
1.386404
1.501441
2.072453
7.989407
27.275681
95.955729
191.079974
398.347974
619.353652
928.347707
1015.595794
1015.595794
1015.595794
1015.595794
939.082503
635.450482
425.348878
216.434002
114.593506
40.799975
18.115640
12.382865
15.933514
24.381876
35.317540
54.006577
70.998669
91.560483
106.324553
117.262602
117.893815
108.524561
95.881820
78.289509
61.912537
43.697953
33.638477
25.266409
21.779537
18.811822
18.608570
19.119978
19.738674
19.865632
20.054579
21.234751
21.561980
22.051930
21.944642
22.703409
22.882819
22.966862
22.809505
23.095608
22.990704
23.378730
22.599697
22.972822
22.793412
22.449493
22.511482
22.596717
##ZVALUE=315
0.509620
0.498891
0.505447
0.403523
0.472665
0.522733
0.312924
0.391603
0.533462
0.484586
0.501871
0.491738
0.462532
0.408888
0.385642
0.596642
0.542998
0.635982
0.503659
0.613928
0.522733
0.586510
0.557899
0.775456
0.564456
0.835657
0.692606
0.756979
0.751615
0.733733
0.989437
1.013875
0.926852
1.120567
1.044869
1.379848
1.408458
1.594424
1.762509
3.828406
14.202595
59.970617
132.321715
304.212570
499.379635
809.329748
1002.069712
1015.627980
1015.627980
1015.627980
1003.052592
750.818849
536.952615
288.280845
159.789920
58.517456
24.630427
11.574626
11.256933
15.699863
21.793842
35.389662
49.744844
69.818497
86.267591
102.905631
112.408996
113.793612
106.616616
90.260506
77.484846
59.098601
46.432614
32.923818
26.571751
22.704601
21.036863
20.497441
20.247698
20.636916
21.625757
22.053719
22.834539
22.520423
23.115873
23.537874
23.748875
23.764968
23.313761
23.371577
23.249984
22.892952
22.833943
22.716522
22.775531
22.749901
##ZVALUE=320
0.351667
0.428557
0.343919
0.384450
0.311732
0.278950
0.297427
0.322461
0.273585
0.274777
0.367761
0.337958
0.278950
0.593662
0.629425
0.475645
0.469685
0.481606
0.546575
0.606775
0.531673
0.498891
0.708699
0.669956
0.615716
0.485778
0.630617
0.704527
0.779629
0.750422
0.642538
0.809431
1.036525
0.789762
0.863671
1.037717
1.029968
1.191497
1.161695
1.522899
1.553893
2.128482
5.976558
32.763481
83.716512
223.708749
375.068784
634.921789
852.831006
1015.584469
1015.584469
1015.584469
1015.584469
860.718489
637.354851
360.063910
208.730698
90.069771
41.151643
14.399886
10.518432
11.559725
14.420748
21.920800
30.143857
47.334433
62.945485
83.999634
96.783638
107.712746
109.682679
103.718638
92.453957
75.087547
60.475469
44.526458
35.164952
27.626753
24.360418
22.866726
21.923780
22.033453
22.393465
22.651553
22.821426
23.197532
22.915602
23.598671
23.191571
23.142695
23.369789
23.099780
23.018718
22.926927
22.515655
23.023486
##ZVALUE=325
0.451803
0.245571
0.357628
0.333786
0.293851
0.412464
0.390410
0.274777
0.327826
0.420809
0.442863
0.237823
0.370741
0.486970
0.249743
0.499487
0.429749
0.408888
0.459552
0.543594
0.454783
0.740886
0.510812
0.511408
0.531673
0.642538
0.475645
0.484586
0.626445
0.734925
0.768900
0.649691
0.648499
0.651479
0.939965
0.810623
0.883937
0.868440
0.934601
1.132488
1.008511
1.134872
1.501441
1.672506
3.361702
20.264983
55.026412
148.325562
269.914865
516.656041
732.779503
994.004607
1015.584469
1015.584469
1015.584469
922.712684
702.661872
423.956513
261.153579
119.685531
56.731701
18.943548
11.096001
10.410547
11.879802
15.456676
20.805597
32.316446
44.231415
64.963698
79.452991
94.497800
103.488564
104.994774
99.136829
85.110664
71.933866
56.048632
45.054555
34.500957
28.665662
25.099516
23.709536
22.727847
22.892952
22.677779
23.112893
22.628903
22.801757
22.985935
22.771955
22.778511
22.999644
22.480488
22.845864
22.381544
##ZVALUE=330
0.303984
0.217557
0.394583
0.233650
0.438690
0.272989
0.219941
0.209808
0.213981
0.382662
0.248551
0.444651
0.294447
0.334978
0.308752
0.259876
0.374913
0.435710
0.489950
0.378489
0.474453
0.470877
0.395775
0.447631
0.461936
0.336766
0.653863
0.655651
0.472665
0.381470
0.404716
0.563860
0.620484
0.523925
0.758767
0.719428
0.791550
0.715852
0.769496
0.930429
0.963807
0.968575
1.075864
1.203418
1.434684
1.406670
1.858473
9.158850
29.277802
96.808672
189.001560
388.659835
584.708452
872.196555
1015.584469
1015.584469
1015.584469
994.674563
811.336040
526.181459
344.128609
162.695646
83.877444
30.509830
14.262795
10.224581
10.681748
12.501478
15.330911
23.446679
31.115413
45.654774
59.162974
77.816844
90.197921
99.243522
99.301934
93.897581
84.677935
69.000721
57.586432
42.616725
36.206841
28.537512
26.122928
23.779869
23.152828
22.841692
22.280812
22.385716
22.571683
22.912621
22.452474
22.239685
22.643805
22.243857
##ZVALUE=335
0.307560
0.335574
0.271797
0.402927
0.278950
0.360608
0.297427
0.326633
0.239611
0.373721
0.395775
0.327826
0.192523
0.306964
0.328422
0.310540
0.423789
0.277758
0.240803
0.387430
0.299811
0.399947
0.386834
0.382662
0.474453
0.503659
0.316501
0.386834
0.480413
0.613928
0.460744
0.500679
0.450611
0.733733
0.603795
0.508428
0.728965
0.508428
0.690818
0.638962
0.766516
0.863671
0.667572
1.020432
0.929832
1.230836
1.219511
1.311898
1.709461
4.084706
15.145540
58.921576
124.278665
283.506513
463.135839
750.957727
958.923697
1015.584469
1015.584469
1015.584469
905.167460
625.706911
430.346727
228.669643
121.414661
42.079687
18.999577
11.176467
10.777712
11.476874
12.842417
16.823411
21.629930
32.048821
43.921471
60.028434
73.616505
86.517930
93.117952
94.605684
89.288950
78.193545
67.146420
55.072904
45.850873
35.216808
30.229688
26.067495
23.884773
22.439957
22.123456
21.732450
21.523833
21.615624
21.597743
21.901727
##ZVALUE=340
0.225902
0.195503
0.341535
0.231862
0.178814
0.230670
0.460744
0.190735
0.342727
0.358820
0.353456
0.218749
0.266433
0.317693
0.353456
0.293851
0.357628
0.333786
0.222921
0.287890
0.324845
0.327826
0.456572
0.392795
0.393987
0.381470
0.344515
0.462532
0.381470
0.400543
0.405908
0.540614
0.368953
0.379682
0.533462
0.435710
0.436902
0.507832
0.600815
0.667572
0.632405
0.614524
0.904799
0.820756
0.932813
0.892878
0.947714
0.942945
1.103878
1.119971
1.295805
2.124906
6.879568
36.731958
89.414716
223.610401
379.074812
631.726980
833.778977
1015.575528
1015.575528
1015.575528
957.903862
719.466805
510.810018
271.787643
152.058601
63.154697
27.358532
11.994839
10.878444
11.572838
12.083650
14.020801
16.840696
22.905469
30.925870
43.392777
55.371523
71.359873
82.570910
89.390874
90.190768
85.064769
77.095628
64.304471
54.461956
42.016506
35.110712
28.718710
24.824739
22.376776
21.626949
21.047592
20.928979
20.796657
##ZVALUE=345
0.229478
0.138879
0.468493
0.397563
0.239611
0.310540
0.331998
0.369549
0.188947
0.212789
0.359416
0.415444
0.423789
0.298619
0.305772
0.321865
0.483990
0.321865
0.282526
0.315905
0.441670
0.318885
0.329614
0.189543
0.435710
0.492930
0.429749
0.450611
0.323653
0.305772
0.272989
0.511408
0.453591
0.483990
0.519753
0.527501
0.480413
0.534654
0.592470
0.527501
0.610948
0.564456
0.712872
0.675917
0.736713
0.837445
0.808835
0.865459
0.953674
1.086593
1.306534
1.359582
1.326799
1.548529
3.394485
19.758940
55.446625
147.629976
267.470479
494.178534
689.562559
931.359529
1015.610695
1015.610695
1008.692980
800.395012
603.610873
362.678766
209.712982
83.498955
39.619803
16.073585
11.819601
11.369586
11.457801
12.633801
13.633966
16.872883
21.476746
30.483603
40.203929
54.407716
65.159798
75.429678
81.696510
83.898902
81.091523
72.971582
64.294934
53.014755
43.432713
33.579469
28.116703
23.806691
21.419525
20.680428
##ZVALUE=350
0.270605
0.220537
0.310540
0.183582
0.339746
0.122786
0.289679
0.376701
0.120997
0.422597
0.398755
0.283718
0.149608
0.371933
0.344515
0.237823
0.285506
0.262856
0.231862
0.143647
0.212789
0.360608
0.393987
0.375509
0.350475
0.411868
0.210404
0.401735
0.488758
0.424981
0.310540
0.448823
0.419617
0.357628
0.444651
0.437498
0.407696
0.292659
0.477433
0.492930
0.580549
0.558496
0.460744
0.440478
0.748634
0.707507
0.732541
0.563860
0.719428
0.823736
0.890493
0.862479
0.977516
0.968575
1.185536
1.336932
1.741648
10.716915
32.121539
98.501444
190.406442
386.701822
570.885539
815.680027
976.947546
1015.584469
1015.584469
879.743695
687.255859
417.612791
258.113742
121.288896
57.069659
19.234419
11.634827
10.561943
10.967851
11.276603
11.690855
13.441443
16.054511
21.260977
27.430654
36.996603
45.873523
59.448481
67.156553
74.902773
77.140927
74.467659
68.980455
58.679581
50.248504
39.195418
32.746792
25.578737
##ZVALUE=355
0.267625
0.269413
0.228882
0.297427
0.292659
0.443459
0.255704
0.161529
0.197887
0.377893
0.311732
0.248551
0.289679
0.282526
0.159740
0.292659
0.363588
0.129938
0.177622
0.337958
0.362992
0.422597
0.327826
0.413656
0.388622
0.278950
0.350475
0.536442
0.465512
0.301600
0.464916
0.495911
0.637770
0.429749
0.507832
0.416636
0.422597
0.507832
0.498891
0.412464
0.428557
0.335574
0.404716
0.486970
0.579953
0.571609
0.747442
0.746846
0.744462
0.786781
0.830889
0.905991
0.924468
0.925660
0.984669
1.118779
1.072884
1.285672
1.564622
3.373623
19.406676
55.093765
150.174499
261.823535
481.401682
675.261617
910.156965
1014.147997
1015.584469
931.671858
706.130862
520.451665
298.696756
168.394446
67.169666
29.838681
12.028813
10.411739
10.319948
10.761619
11.371970
11.588931
13.131499
14.674664
18.700957
23.663640
32.642484
40.414929
51.764846
59.687495
67.486763
70.408583
68.274736
63.937902
55.575967
48.421621
##ZVALUE=360
0.170469
0.140667
0.232458
0.237823
0.298619
0.209808
0.253916
0.396967
0.247955
0.302792
0.351667
0.280738
0.272989
0.269413
0.265837
0.318885
0.251532
0.328422
0.238419
0.359416
0.285506
0.482798
0.400543
0.336766
0.327826
0.475645
0.461936
0.352859
0.329614
0.373721
0.267625
0.404716
0.412464
0.377893
0.492930
0.387430
0.595450
0.469685
0.460744
0.546575
0.617504
0.577569
0.680685
0.575781
0.447631
0.549555
0.607967
0.397563
0.592470
0.567436
0.706911
0.773668
0.845790
0.817776
0.867844
0.983477
0.957847
1.148582
1.147985
1.402497
1.264811
1.818538
9.400845
28.773546
91.094971
178.700686
362.288952
543.633699
802.224874
948.259830
1015.584469
975.543857
807.462931
623.183846
377.484560
227.747560
94.266534
42.131543
14.862418
10.208488
9.544492
10.041595
10.262728
10.158420
10.961890
11.700988
13.408661
15.550852
20.696521
26.371479
36.658645
44.203997
53.961873
59.654713
63.760877
64.007640
##ZVALUE=365
0.231862
0.250936
0.313520
0.201464
0.194907
0.224710
0.269413
0.199676
0.243783
0.165701
0.304580
0.191927
0.291467
0.366569
0.263453
0.354648
0.265837
0.388622
0.300407
0.353456
0.326633
0.280738
0.315905
0.539422
0.232458
0.380874
0.363588
0.229478
0.211596
0.435710
0.483990
0.439882
0.487566
0.357628
0.354648
0.357628
0.411868
0.377893
0.516772
0.487566
0.519753
0.418425
0.504851
0.513792
0.434518
0.403523
0.534654
0.518560
0.572801
0.551939
0.510812
0.495911
0.599623
0.598431
0.726581
0.858903
0.864863
0.924468
0.936985
1.028776
1.108646
1.158714
1.367927
1.549721
3.507733
18.771887
51.461458
137.006640
252.435803
476.876497
657.226443
860.898495
970.314741
979.687572
883.168578
663.010478
476.606488
266.511440
149.045587
57.333708
25.193691
10.572672
9.090900
8.833408
9.348989
9.541512
9.718537
9.877682
10.649562
11.793971
13.667941
18.003583
22.620559
30.280948
36.689639
46.532750
##ZVALUE=370
0.173450
0.173450
0.141859
0.043511
0.128746
0.156760
0.052452
-0.060797
0.300407
0.152588
0.095963
0.060797
0.054836
0.226498
0.269413
0.191927
0.234842
0.131726
0.189543
0.120997
0.218749
0.219941
0.201464
0.218749
0.169873
0.157952
0.275970
0.293851
0.315905
0.251532
0.269413
0.326633
0.330806
0.347495
0.396967
0.321865
0.263453
0.187755
0.215769
0.325441
0.407696
0.398755
0.466704
0.267625
0.530481
0.431538
0.457764
0.555515
0.404716
0.534654
0.463724
0.645518
0.612736
0.492930
0.581741
0.487566
0.745654
0.642538
0.537634
0.750422
0.576973
0.881553
0.758767
1.037717
0.925660
1.368523
1.941919
9.619594
31.562448
103.105903
191.868544
372.110605
552.150011
792.343020
922.034979
977.128744
916.667581
736.597776
555.887818
320.613980
183.899999
74.639916
35.379529
13.872981
8.911490
8.180737
7.989407
8.360744
8.556843
8.589625
8.989573
9.373426
10.305643
12.198687
15.206933
20.367503
##ZVALUE=375
0.175834
0.171661
0.304580
0.332594
0.275970
0.307560
0.112653
0.147820
0.369549
0.394583
0.223517
0.283718
0.287890
0.280738
0.211596
0.328422
0.275970
0.351667
0.336766
0.330806
0.287890
0.337958
0.201464
0.240803
0.254512
0.304580
0.276566
0.240803
0.360608
0.409484
0.379682
0.335574
0.387430
0.374913
0.417829
0.476837
0.309944
0.325441
0.410676
0.273585
0.518560
0.406504
0.535846
0.478625
0.445843
0.491738
0.461936
0.403523
0.574589
0.509620
0.548959
0.582933
0.584722
0.496507
0.508428
0.489950
0.548959
0.562668
0.684857
0.746846
0.605583
0.742674
0.879765
0.915527
0.887513
0.939965
1.168847
1.186728
1.491904
4.762411
16.654730
60.190558
129.962564
291.246772
459.165573
699.079633
849.792957
960.443020
950.363874
809.378028
638.844967
399.668813
253.774524
128.393769
65.023899
22.189617
10.357499
7.800460
7.383823
7.411838
7.660985
7.795691
8.013844
8.261800
8.855462
9.204745
##ZVALUE=380
0.189543
0.218749
0.193715
0.278950
0.191927
0.159740
0.396967
0.283718
0.088811
0.130534
0.278950
0.343919
0.197887
0.234842
0.308752
0.148416
0.327826
0.211596
0.342727
0.311732
0.377893
0.107884
0.258684
0.239611
0.058413
0.248551
0.201464
0.214577
0.349879
0.249743
0.134706
0.233650
0.323653
0.253916
0.334978
0.290871
0.349879
0.421405
0.317693
0.305772
0.360608
0.424981
0.315905
0.327826
0.431538
0.360608
0.329614
0.388622
0.448823
0.471473
0.338554
0.412464
0.347495
0.448823
0.514984
0.563860
0.468493
0.547767
0.530481
0.658631
0.449419
0.513792
0.500679
0.629425
0.710487
0.697970
0.759959
0.940561
0.870824
1.318455
1.452565
2.551675
8.822680
42.521954
99.589825
234.318972
381.556749
606.788993
778.442621
938.268900
961.169004
852.414966
712.746978
507.393479
346.840620
172.928572
89.614987
32.640696
14.555454
7.446408
6.927848
6.853938
7.048845
7.216930
7.079840
7.465482
##ZVALUE=385
0.234842
0.167489
0.243783
0.303984
0.224710
0.270605
0.292659
0.211596
0.261664
0.169873
0.234842
0.210404
0.369549
0.347495
0.162721
0.381470
0.245571
0.335574
0.140667
0.234842
0.305772
0.233650
0.206828
0.337958
0.288486
0.351667
0.373721
0.279546
0.313520
0.567436
0.362992
0.265837
0.370741
0.317693
0.423789
0.117421
0.232458
0.219941
0.343919
0.378489
0.394583
0.319481
0.377893
0.400543
0.432730
0.306964
0.286698
0.374913
0.411868
0.380874
0.267625
0.445843
0.461936
0.557899
0.451803
0.419617
0.522733
0.435710
0.473857
0.500679
0.542998
0.524521
0.617504
0.787973
0.584722
0.575781
0.766516
0.770688
0.891685
1.182556
1.063943
1.260638
1.451969
1.495481
4.255772
23.959875
62.312484
158.737898
284.497738
510.028601
690.540671
880.165696
941.447616
914.406776
815.583467
617.580414
443.394780
243.028998
139.824748
58.466792
24.808645
8.513927
6.331801
6.034970
6.227493
6.221533
##ZVALUE=390
0.159740
0.212789
0.182986
0.195503
0.223517
0.317693
0.262856
0.092983
0.066757
0.175834
0.117421
0.152588
0.173450
0.075698
0.153780
0.208616
0.252724
0.190735
0.274777
0.170469
0.061989
0.230670
0.305772
0.159740
0.222921
0.296831
0.365973
0.207424
0.208616
0.448823
0.312924
0.445843
0.442863
0.261664
0.247955
0.509620
0.319481
0.426769
0.355840
0.256896
0.413656
0.398755
0.234842
0.117421
0.335574
0.309944
0.319481
0.392795
0.224710
0.312924
0.268817
0.347495
0.446439
0.449419
0.469685
0.448823
0.422597
0.548959
0.448823
0.295639
0.378489
0.468493
0.414848
0.471473
0.560880
0.558496
0.714660
0.621676
0.604987
0.956655
0.965595
0.971556
1.153946
1.158714
1.244545
1.281500
2.242923
12.635589
39.049983
120.518804
228.262544
432.149768
595.008731
786.910653
900.660753
948.569775
887.828469
717.082620
550.010800
339.852571
202.021599
83.715916
39.827824
13.087988
6.222725
5.981922
##ZVALUE=395
0.131726
0.028610
0.190735
0.037551
0.097752
0.183582
0.233650
0.207424
0.149608
0.210404
0.104904
0.178814
0.130534
0.127554
0.130534
0.208616
0.307560
0.296831
0.233650
0.135899
0.124574
0.155568
0.304580
0.268817
0.270605
0.365973
0.343919
0.280738
0.196695
0.421405
0.292659
0.245571
0.216961
0.351667
0.373721
0.304580
0.303984
0.346899
0.267625
0.404716
0.269413
0.337958
0.264645
0.265837
0.368953
0.331998
0.118613
0.235438
0.209808
0.283718
0.392795
0.422597
0.381470
0.380874
0.391603
0.328422
0.324845
0.308752
0.441670
0.517964
0.376701
0.441670
0.412464
0.522733
0.497699
0.352859
0.489950
0.622869
0.473857
0.901818
0.814795
1.033545
0.932813
0.879765
0.904799
1.063943
1.004934
1.351833
1.514554
6.882548
25.460720
87.973475
165.949464
318.467617
477.081537
706.794858
850.448608
955.605507
945.536494
817.462802
653.818846
413.279533
260.156989
115.032792
55.697560
18.735528
##ZVALUE=400
0.240803
0.193715
0.086427
0.197887
0.280738
0.271797
0.123978
0.198483
0.221729
0.268817
0.169873
0.119805
0.206828
0.148416
0.161529
0.258684
0.321865
0.165701
0.179410
0.148416
0.177622
0.013709
0.179410
0.212789
0.098944
0.255704
0.300407
0.170469
0.358820
0.153780
0.341535
0.192523
0.239611
0.206828
0.250936
0.163913
0.339746
0.269413
0.268817
0.272989
0.335574
0.361800
0.128746
0.310540
0.362992
0.358820
0.461936
0.426769
0.318885
0.331998
0.149608
0.292659
0.363588
0.410676
0.468493
0.473857
0.330806
0.526905
0.465512
0.380874
0.401735
0.262856
0.605583
0.496507
0.439882
0.504851
0.605583
0.625849
0.784993
0.782609
0.855923
0.767708
0.783801
0.783801
0.715852
0.674725
0.789762
0.939965
1.106858
1.259446
1.414418
2.617836
15.084743
42.573810
120.466948
215.618610
389.368534
557.991862
776.049495
891.115665
927.896500
855.242014
670.920014
499.193668
289.919972
174.332857
##END
