##TITLE=QP00652
##FORMAT=SPECTACLE-ASCII V-1.2
##DATA TYPE=ULTRAVIOLET SPECTRUM
##SECOND TYPE=ULTRAVIOLET SPECTRUM
##DATE=01/24/18
##TIME=18:02:47
##SPECTROMETER/DATA SYSTEM=SPECTACLE
##XUNITS=NM EM
##YUNITS=ENERGY
##YFACTOR=1
##FIRSTX=220
##LASTX=410
##NPOINTS=96
##3DDATA=Equidistant
##ZUNITS=NM EX
##FIRSTZ=210
##LASTZ=400
##ZPOINTS=39
##XYDATA=(Y..Y)
##ZVALUE=210
1.552701
1.381636
1.482964
1.826882
1.571774
1.797676
2.055764
1.737475
1.956820
2.233982
2.107620
1.795888
2.499819
1.970530
1.840591
2.159476
2.243519
2.536774
2.800822
2.642870
2.702475
3.174543
3.364682
3.247857
3.128648
3.154874
4.363656
3.427863
3.734827
4.455447
4.543662
4.248619
5.064607
4.634857
4.440546
4.967451
5.017519
4.645586
4.610419
4.598498
4.413724
4.828572
5.145669
5.270839
5.329847
5.139709
4.999638
6.049871
5.484819
5.308986
5.368590
5.391836
5.984902
6.235838
6.267428
6.491542
5.684495
5.529523
6.411672
6.528497
6.513596
7.028580
6.642938
5.833507
6.152987
7.355809
7.878542
9.467602
8.711815
11.015534
12.755990
14.128685
17.349720
19.594431
21.417737
21.934509
22.089481
22.425652
21.226406
19.962788
17.157793
15.445948
13.003945
11.666417
9.429455
9.543896
6.451607
7.111430
6.351471
6.223917
6.781816
7.367730
6.506443
6.421804
7.520914
5.681515
##ZVALUE=215
5.747676
5.618930
4.896522
4.657507
3.685951
3.800988
4.366636
4.059672
4.143715
4.795790
3.911853
3.982782
3.800988
3.224611
3.415942
2.324581
2.361536
3.093481
3.139973
3.139973
2.467632
3.213882
3.011823
3.788471
4.142523
3.634691
4.747510
3.745556
4.165769
3.717542
4.336834
4.508495
4.987717
4.637837
5.173683
5.059838
5.065799
4.630685
5.376935
5.683899
4.766583
6.387830
5.842447
5.934834
5.114675
5.060434
5.640984
5.251765
5.924702
6.738901
6.226897
6.270409
5.882978
5.567670
6.242990
7.292628
5.909801
5.949736
6.329417
5.625486
6.395578
5.919933
6.405711
6.004572
6.015897
7.301569
8.536577
8.416772
9.792447
10.157824
12.602806
14.794469
15.677810
18.420815
18.573999
19.926429
19.736886
18.998981
19.763708
16.879439
15.723705
13.621449
12.657642
10.701418
9.451509
7.438660
7.200837
7.251501
6.173849
6.282926
5.146861
5.443692
5.585551
5.151629
7.503629
6.220937
##ZVALUE=220
21.509528
23.425817
23.798943
21.427870
19.993782
16.853809
12.351871
11.887550
9.104609
8.670688
10.357499
10.659695
10.002851
9.375811
8.060932
6.408691
5.337596
3.979802
4.047751
2.940893
3.071427
2.874732
4.033446
4.524589
3.805757
3.662705
4.079938
4.728436
5.046725
4.068613
4.816651
4.797578
4.724860
6.404519
5.966425
5.434752
5.898476
5.750656
5.295873
6.331801
5.899668
6.373525
5.683899
6.964803
5.817413
6.119609
6.896853
6.306767
6.515980
6.829500
6.492734
6.590486
6.070733
7.067919
6.551743
6.420612
6.962419
6.281734
7.016659
6.865859
6.031990
6.942749
6.853938
6.693602
6.970763
7.937551
9.017587
8.899570
8.638501
11.360645
12.954473
15.187860
15.435815
19.193888
19.317865
19.371510
19.239783
19.671917
19.593835
16.886592
17.838478
15.428662
13.502836
12.415648
11.185408
9.623766
9.039640
7.850528
8.230805
7.097721
6.994605
7.539988
6.428957
6.562471
6.480813
6.577969
##ZVALUE=225
43.837428
43.631792
58.307648
66.248775
70.502758
71.927905
62.873960
50.900578
39.260983
27.654767
20.721555
19.581914
21.467805
22.798777
23.405552
21.725893
19.415617
16.738772
12.923479
9.081960
5.473495
4.765987
4.115701
4.583597
3.978610
4.644990
4.743934
5.064607
5.081892
5.855560
5.440712
6.046891
6.290674
6.143451
5.954504
5.449653
6.567836
6.101727
6.074905
6.552935
7.575750
5.509853
6.867647
6.931424
6.393790
6.206632
6.540418
6.571412
7.299781
7.353425
6.577969
6.768703
7.061958
7.406473
6.631613
7.321835
8.283854
6.908774
7.704496
8.488894
6.325841
8.089542
8.125901
8.421540
8.878708
8.801818
9.006858
9.789467
9.708405
13.412833
13.054609
14.604926
15.987754
20.354986
19.693971
18.982887
18.809438
18.699765
16.697645
17.084479
15.394688
14.909506
14.124513
11.679530
11.954904
9.404421
8.616447
9.306669
8.010864
8.415580
8.680820
8.003712
8.483529
8.115768
7.245541
8.464456
##ZVALUE=230
40.854812
42.632818
68.372488
112.508535
139.644742
167.719722
183.456540
170.941949
161.513686
134.587884
91.854930
68.688989
46.723485
41.975975
42.401552
42.979717
47.654510
46.425462
40.371418
36.282539
26.752949
17.070770
12.707710
7.572770
6.481409
5.600452
6.256700
6.207824
6.367564
6.598830
6.732941
7.240772
6.679893
8.053780
6.724596
6.893873
7.311702
7.034540
7.050633
7.506609
7.632971
6.842613
8.432865
7.485747
7.823706
7.700920
7.293820
8.205771
7.274747
6.696582
6.591678
8.478761
7.298589
7.857680
7.304549
7.802844
8.426905
8.447766
7.664561
8.251667
8.724928
9.338856
8.735657
9.761453
9.361506
9.281635
10.661483
12.381673
12.410879
13.493896
14.978647
18.238425
19.413829
19.815564
20.962954
21.436810
20.525455
20.095706
20.413995
18.091798
17.649531
16.835928
16.555786
13.644695
13.420582
12.771487
13.526678
11.756420
10.959506
10.815859
10.181665
11.804700
10.897517
11.850595
9.448528
10.562539
##ZVALUE=235
16.957521
18.262863
38.998723
85.318685
133.369565
215.353966
271.806717
344.812870
363.878012
362.780690
329.398513
244.261622
184.110999
123.740435
90.251565
75.358748
67.916512
76.581836
81.449747
81.222653
76.342821
64.569712
49.286485
36.593676
23.491979
18.404722
12.178421
9.266734
8.248687
7.832646
8.142591
8.662939
8.224845
8.311868
7.723570
9.042621
8.229613
8.372664
7.607937
8.774996
7.229447
8.279681
7.002950
7.658601
7.861853
8.705854
8.039474
7.371902
8.458495
7.096529
7.943511
8.729696
9.003878
8.938909
8.537769
9.296536
8.832812
8.881688
8.375645
9.086728
11.747479
10.196567
11.372566
10.807514
10.271668
11.498928
12.519956
12.996793
15.013814
15.845895
17.473698
21.159649
21.360517
22.265911
23.181438
23.922920
24.709702
23.720860
23.637414
21.204948
20.631552
19.480586
18.504858
17.905831
18.018484
17.935634
15.982985
16.985536
16.580820
17.805696
15.635490
14.765859
15.193820
13.779998
15.055537
14.601946
##ZVALUE=240
1.852512
1.897812
8.800626
24.045706
63.739419
114.269853
218.315721
315.485597
458.282828
541.440845
602.374673
593.718886
541.518927
431.823730
331.448913
216.518641
151.628852
110.276937
92.568994
101.408958
110.738873
117.029548
112.995505
106.922984
83.281994
66.338778
48.674941
36.905408
23.795962
17.001629
13.571978
11.356473
11.702776
10.628700
10.782480
11.424422
12.335777
9.815693
9.198785
9.029508
8.871555
8.558631
8.804798
8.496642
8.463860
7.517934
7.472634
8.685589
7.728934
7.462502
7.833838
7.780790
8.526444
8.830428
8.127689
9.296536
8.822680
9.603500
9.521842
9.616613
10.896921
10.037422
10.107756
11.801720
11.100769
12.386441
12.067556
14.822483
15.542507
18.486977
18.823743
22.509694
23.567677
24.301410
26.215911
27.200580
26.714802
26.478767
24.533868
24.503469
24.257898
23.389459
23.144484
21.697879
20.161867
20.176768
20.121932
19.137859
18.791556
18.625855
19.081831
19.816756
18.811822
18.252730
18.009543
18.928647
##ZVALUE=245
1.737475
1.267791
1.153946
1.835823
6.742477
18.687844
54.775476
114.623904
239.586830
352.132916
525.115728
644.536614
723.513961
737.736821
699.405670
572.351813
461.533666
312.808752
217.196941
133.452415
109.055638
101.645589
115.643740
128.627419
135.762691
128.431916
114.403963
100.442767
74.688792
59.662461
39.283633
28.774738
20.915866
14.642477
13.220906
11.911988
11.606812
10.808706
9.663701
9.989738
9.155869
8.920431
8.949637
7.761717
7.917881
7.622838
8.284450
7.089972
7.129908
6.657839
7.993579
7.428527
6.961823
7.017851
7.253885
7.074475
7.382631
7.932782
8.126497
9.214878
8.675456
9.935498
10.169744
9.545684
10.680556
11.455417
11.437535
12.619495
13.622642
14.764667
16.930699
17.852783
20.103455
22.998452
23.093820
24.367571
23.761988
24.203658
23.042560
22.598505
21.942854
22.692680
21.660924
19.491911
19.638538
21.205544
19.273758
19.113421
19.858479
18.153787
18.415451
19.285679
20.221472
18.922687
17.908812
19.417405
##ZVALUE=250
1.400709
1.259446
1.246929
1.494884
1.482964
1.753569
2.873540
11.019707
46.558976
99.257827
221.764445
349.770784
490.731597
685.541034
786.987543
855.301023
842.970610
731.942654
626.750588
425.537825
292.620659
189.104676
116.452575
98.800659
110.372901
124.942660
145.000815
146.481991
141.998529
128.606558
113.374591
85.273981
63.724518
41.375756
28.129816
18.765926
13.463497
12.194514
10.552406
10.047555
9.535551
8.543730
8.034706
7.157922
7.214546
7.332563
6.584525
7.151961
7.242560
6.990433
7.045865
6.939769
6.808639
6.955862
7.253885
6.858706
6.727576
7.253885
7.303953
7.417798
7.979870
7.689595
7.987618
8.319616
9.489655
9.677410
10.426641
11.143684
12.228489
13.423562
13.962984
15.773773
17.114878
18.996000
19.346476
20.851493
21.819472
21.530986
19.399524
21.246672
19.363761
18.767715
18.284917
17.135739
17.083883
17.503500
17.275810
17.822981
16.889572
18.634796
18.226504
17.227530
17.505884
17.770529
17.135739
16.918778
##ZVALUE=255
0.936985
1.305938
0.999570
1.452565
1.546741
1.278520
1.643896
1.665950
1.778603
5.984902
33.116937
77.337623
149.701834
311.858654
457.223654
678.011775
825.066566
951.668024
985.671878
901.826620
778.264999
617.621541
389.781594
250.555873
138.881803
101.777911
96.380711
105.299950
132.148862
146.553516
151.295662
145.635605
134.572983
107.113719
85.616708
56.556463
39.049983
23.286939
16.188622
10.363460
8.596778
7.491708
6.685853
7.050633
6.526709
6.224513
5.868673
5.941987
6.089807
6.365776
5.821586
5.818605
6.066561
5.898476
6.396770
6.309748
5.729795
5.708933
6.488562
6.186962
6.785989
6.672740
7.471442
7.383823
7.951856
8.075833
7.513762
9.074807
10.192990
10.932684
11.690855
14.241934
16.022921
14.983416
16.783476
16.710758
16.990900
16.353726
15.860796
15.655756
16.515851
15.958548
15.076995
14.655590
14.601946
15.466809
14.959574
15.051961
15.556812
16.171932
15.381575
15.804768
15.382767
15.200973
15.383959
15.589595
##ZVALUE=260
1.065731
0.896454
1.078844
1.353621
0.953674
1.152754
1.102686
1.314878
1.182556
1.513958
1.691580
3.141761
16.899705
44.100881
118.734837
223.219991
425.890684
603.871942
779.390931
990.895033
1015.584469
1015.584469
972.301960
748.216510
547.564626
319.811702
209.551454
118.529797
89.824796
87.946653
104.906559
131.929517
145.319700
153.717995
149.433613
130.104423
111.619830
81.918836
60.161948
36.730766
24.000406
13.884902
9.194613
6.783605
6.389618
5.627871
5.738735
5.701780
5.243421
5.209446
5.315542
5.369782
5.876422
5.621910
5.530715
5.477667
5.761981
5.346537
5.565882
5.654693
5.622506
6.349683
5.894899
6.010532
6.216764
6.824732
7.644892
7.933974
8.301735
9.995699
9.854436
11.651516
11.900663
12.677908
13.328791
13.967752
14.221668
14.242530
13.962984
14.168620
14.306903
13.052821
13.673902
14.175773
13.193488
13.426542
13.657808
12.764931
13.072491
13.317466
14.518499
13.089776
14.505982
13.921857
13.959408
12.945533
##ZVALUE=265
1.064539
1.217723
1.263618
1.206994
1.159906
1.348853
1.020432
1.563430
1.475811
1.375675
1.741648
1.880527
2.130866
2.222657
6.538630
34.457445
77.771544
189.894438
325.141549
579.149723
803.747773
991.747975
1015.777588
1015.777588
1015.777588
928.527713
689.423680
493.590832
277.599692
167.825818
104.369521
73.645711
81.029534
110.578537
131.267905
150.251985
153.233409
146.599412
134.808421
104.932785
82.925558
55.302978
36.968589
20.917654
13.005733
7.891655
6.291866
5.828738
5.700588
5.708933
6.231666
5.184412
5.774498
5.922914
5.257726
5.443692
5.495548
6.048679
5.635619
5.199909
5.831718
5.830526
5.615950
6.400943
6.357431
6.501675
6.606579
7.690787
7.891655
8.399487
9.401441
10.402799
11.037588
11.600852
11.687875
12.997985
12.753606
12.851954
12.345910
12.066960
11.898875
12.606978
12.066960
11.765957
12.019873
11.748672
12.210608
12.267828
12.272596
12.642741
12.520552
12.012720
12.440681
12.183785
13.553500
13.051629
##ZVALUE=270
1.092553
0.989437
1.004934
1.252890
1.289845
1.326799
1.274943
1.408458
1.405478
1.434684
1.645684
1.596808
1.765490
1.728535
1.761913
2.226830
3.144741
14.405847
43.803453
133.475661
263.848901
453.608632
766.304731
995.764732
1015.873551
1015.873551
1015.873551
1015.873551
888.522863
667.312741
466.096997
243.430734
136.970878
70.181489
63.572526
83.020926
105.760694
131.428838
147.964954
153.878927
148.211718
131.592751
112.481713
81.736445
59.347749
34.847856
22.976995
13.120770
9.085536
6.223917
5.457997
5.296469
5.166531
5.399585
5.152822
5.394816
5.453825
5.609989
6.170869
5.745888
5.269647
6.053448
6.075501
6.043911
6.085634
6.329417
6.565452
7.276535
7.482767
8.528829
8.978844
10.151863
9.825826
10.957718
11.118650
11.075735
11.218786
11.815429
11.306405
11.321902
11.027455
11.474490
11.085868
11.032820
10.882616
10.907650
11.098981
11.225939
10.916591
11.264682
11.369586
11.258721
11.577606
11.402965
11.965632
11.728406
##ZVALUE=275
0.665784
0.745654
0.860691
0.810623
0.680685
0.702739
0.967979
0.884533
0.733733
1.105666
1.160502
1.052618
0.970960
1.213551
1.290441
1.378655
1.513958
1.820922
2.258420
6.179810
24.118423
70.430636
201.739669
374.018550
676.426888
906.950831
1015.584469
1015.584469
1015.584469
1015.584469
1015.585065
819.954872
576.602817
306.047797
176.648498
82.026720
54.407716
59.530735
78.914762
107.668638
127.528906
149.194002
151.389837
147.030950
132.596493
104.516745
84.036589
56.884885
39.653778
21.445751
13.565421
8.350611
6.863475
5.113482
5.228519
5.042553
5.052686
4.992485
5.073547
5.768538
5.485415
5.537868
5.840659
6.013513
6.005764
6.245971
6.024837
6.490946
6.957650
7.678866
8.867979
9.333491
9.526610
10.459423
10.211468
11.350513
11.281967
10.626912
10.428429
9.780526
9.731650
9.732842
10.126829
9.936690
10.214448
10.195971
9.920597
9.996891
9.962916
9.974837
10.250807
9.946823
9.652972
10.084510
10.433793
10.481477
##ZVALUE=280
0.582933
0.624657
0.951886
0.778437
0.702739
0.645518
0.726581
0.820756
0.879765
0.752807
0.982881
0.984669
0.926852
1.122952
1.228452
0.982881
1.057982
1.337528
1.477599
1.385808
1.845956
2.659559
15.566945
51.902533
160.622001
298.641920
545.200706
794.583559
1015.584469
1015.584469
1015.584469
1015.584469
1015.584469
951.087475
691.740513
391.567945
234.152675
103.693008
57.393909
42.041540
54.453611
79.296827
102.993846
129.313469
142.197609
147.288442
142.116547
125.391483
108.322501
77.548623
57.773590
35.882592
23.779869
13.332963
8.431673
5.933642
5.281568
5.127788
5.701780
5.190969
5.457997
5.568862
5.619526
6.257892
6.085634
6.223917
6.431937
7.216930
6.909966
7.532835
8.329749
8.845925
9.011626
9.303689
10.060668
10.068417
10.521412
9.843707
9.663701
10.038614
9.606481
9.429455
9.785891
9.391904
9.726882
9.381771
9.435415
9.557605
9.670854
9.656549
9.826422
9.519458
9.354949
9.808540
9.459853
9.932518
##ZVALUE=285
0.551939
0.841618
0.593662
0.491738
0.801682
0.727773
0.713468
0.550747
0.655651
0.755787
0.815988
0.805855
0.888705
0.898838
1.137853
0.978708
1.194477
1.177788
1.073480
1.491904
1.383424
1.616478
1.644492
2.292991
6.269813
34.650564
87.381601
221.814513
379.060507
688.046813
959.206820
1015.584469
1015.584469
1015.584469
1015.584469
1015.584469
890.658498
541.909933
336.909890
155.101418
78.969002
36.577582
35.180449
53.372979
72.104931
101.458430
120.471716
139.868855
147.930980
141.517520
129.400492
105.741620
84.219575
58.271885
40.049553
22.745728
14.913678
8.868575
6.860495
6.007552
5.898476
5.740523
5.943775
6.115437
5.742908
6.155968
6.504655
6.755590
6.913543
7.716417
7.817745
8.433461
9.195805
9.715557
9.853840
9.769797
9.860992
9.394884
9.751916
9.515882
9.213686
9.355545
9.279847
8.992553
9.010434
9.183884
9.120703
9.211898
9.200573
9.384751
8.926988
9.574890
8.793473
9.562969
9.102821
9.215474
##ZVALUE=290
0.680685
0.594854
0.669956
0.689626
0.622869
0.622869
0.727773
0.607967
0.858903
0.719428
0.636578
0.773668
0.909567
0.950694
0.705719
0.867844
0.816584
0.974536
1.097918
0.998974
1.056790
1.383424
1.239777
1.511574
1.752973
2.090931
3.081560
11.126399
55.197477
125.812888
294.277668
492.756963
842.592716
1015.584469
1015.584469
1015.584469
1015.584469
1015.584469
983.380675
740.978718
427.084565
255.046487
106.741786
51.543713
27.007461
30.895472
50.050616
66.052675
92.986822
113.739967
134.454966
140.025616
137.060881
125.776529
104.092956
82.222819
54.611564
39.303899
23.552775
15.754700
9.759665
7.688999
6.384850
5.938411
6.222725
6.244779
6.563663
6.747842
7.388592
7.550716
7.949471
8.572936
9.118915
9.648800
9.493828
9.374619
9.350777
9.084940
9.440780
9.088516
8.869767
8.890629
9.062886
8.644462
9.415746
8.828640
9.112954
9.152889
9.023547
8.906722
8.760691
8.770823
8.814931
8.993745
9.113550
8.874536
##ZVALUE=295
0.493526
0.515580
0.587702
0.544786
0.703931
0.556707
0.602603
0.609756
0.676513
0.577569
0.645518
0.519753
0.734925
0.703931
0.843406
0.818968
0.965595
0.864863
0.869632
0.842810
0.865459
1.032948
1.106858
1.305938
1.371503
1.401901
1.811981
1.746416
2.154708
4.798770
18.771887
81.493855
183.163881
422.226787
670.099854
1005.347967
1015.584469
1015.584469
1015.584469
1015.584469
1015.585065
886.169076
609.801412
324.176550
175.629854
63.305497
30.500889
22.716522
28.587580
46.136975
63.480735
89.110732
107.367635
127.072930
134.590864
131.511688
120.105743
97.003579
78.242421
54.101944
39.472580
23.122430
15.497804
10.295510
7.449985
6.569624
6.374717
7.067919
6.743670
7.347465
8.178949
8.411407
8.606911
8.784533
8.717775
9.320974
9.064674
9.129643
9.332895
9.067655
9.063482
8.531809
8.995533
8.459687
8.789897
8.837581
9.390712
8.931756
8.924603
9.001493
9.244680
8.733869
8.835793
8.473992
8.769631
8.734465
##ZVALUE=300
0.507832
0.559688
0.597835
0.639558
0.538826
0.493526
0.551939
0.518560
0.512600
0.517964
0.528693
0.630617
0.478625
0.696778
0.637770
0.606775
0.746846
0.711679
0.786781
0.698566
0.969768
1.074672
1.117587
1.058578
1.006722
1.420975
1.308918
1.489520
1.512766
1.717806
1.869798
2.328753
10.654926
41.885972
141.713023
275.691748
550.554991
827.142596
1015.584469
1015.584469
1015.584469
1015.584469
1015.584469
1015.585065
718.178749
462.508798
229.504704
120.497942
42.495728
20.720959
18.137693
25.778413
41.418672
56.883693
80.893636
99.636912
118.902922
128.393769
125.627518
117.116570
97.056627
78.096986
55.343509
39.657950
24.888515
16.826987
11.449456
9.120703
7.684827
7.952452
8.469820
8.498430
8.766651
8.897781
9.310842
9.150505
9.231567
8.889437
8.884668
9.135604
9.033680
8.654594
9.023547
9.098649
9.465814
8.917451
8.958578
9.265542
9.535551
8.743405
9.054542
8.690953
8.778572
8.696914
8.865595
8.592606
##ZVALUE=305
0.383854
0.546575
0.566840
0.568628
0.493526
0.393987
0.593662
0.525713
0.522733
0.503659
0.449419
0.548959
0.559688
0.596642
0.623465
0.778437
0.609756
0.539422
0.804663
0.668764
0.801682
0.753999
0.840425
0.835657
1.062751
1.133680
0.882745
1.080632
1.450777
1.365542
1.280904
1.767874
1.771450
2.345443
4.512668
31.596422
87.108612
235.451460
415.856838
738.560557
994.807482
1015.584469
1015.584469
1015.584469
1015.584469
1015.584469
885.756016
555.939674
346.249938
153.630972
74.197650
24.733543
14.431477
17.590523
24.558902
39.814711
56.090951
78.027844
95.952749
113.655925
119.751692
119.668841
111.135840
91.817975
75.739622
52.978992
38.493872
24.856925
17.141700
11.392832
9.533763
8.940697
8.528829
8.970499
9.122491
8.745790
9.140968
8.954406
8.816719
9.124875
8.851886
8.930564
8.907914
9.062886
9.380579
9.143949
9.143949
9.159446
9.313822
8.950830
9.163618
8.752942
8.748770
9.159446
8.908510
8.726716
##ZVALUE=310
0.502467
0.502467
0.467896
0.413656
0.382662
0.541806
0.431538
0.367761
0.444651
0.520945
0.627637
0.557899
0.609756
0.674725
0.528693
0.655651
0.636578
0.721812
0.514984
0.625849
0.745654
0.733733
0.647902
0.802875
0.683665
0.810623
0.974536
0.985861
1.054406
1.142621
1.478791
1.293421
1.527667
1.457930
1.663566
2.011657
2.317429
13.010502
46.292543
153.101683
299.006701
601.884723
897.659659
1015.584469
1015.584469
1015.584469
1015.584469
1015.584469
1015.584469
719.688535
473.112464
230.034590
120.465755
41.343570
17.453432
11.963844
14.940500
23.068786
33.096671
51.821470
67.956448
91.128945
103.651881
113.665462
115.452409
106.962919
94.130635
71.834922
56.687593
37.864447
26.963949
17.894506
13.721585
10.961890
10.221601
9.225607
9.093881
9.078979
9.117723
8.976460
8.990765
9.119511
9.205937
9.521842
9.387732
9.305477
9.228587
9.565949
9.275675
9.779930
9.209514
9.184480
8.809566
8.646846
8.529425
8.674860
##ZVALUE=315
0.469685
0.398755
0.492930
0.326633
0.362992
0.335574
0.402927
0.550747
0.565648
0.455976
0.414848
0.587702
0.544786
0.541806
0.496507
0.593662
0.692606
0.640750
0.745654
0.824928
0.534654
0.665784
0.573993
0.614524
0.769496
0.816584
0.763535
1.008511
0.891685
0.967979
1.014471
1.170635
1.180768
1.341701
1.395941
1.462698
1.677871
1.988411
2.054572
5.818605
23.369789
99.089742
224.859715
503.738523
791.482925
1015.584469
1015.584469
1015.584469
1015.584469
1015.584469
1015.584469
913.386941
635.208488
329.963565
175.822973
62.644482
25.076866
11.028647
10.518432
14.606714
20.083785
33.149719
44.353604
65.244436
80.285668
99.377632
107.655525
108.313560
103.539824
86.911917
72.409511
52.741766
40.215850
25.937557
18.778443
12.867451
10.846853
9.931922
9.403825
8.863807
9.204745
9.305477
9.130836
9.072423
9.426475
9.416938
9.492636
9.597540
9.498000
9.197593
9.254813
9.161830
9.274483
8.890629
8.977652
8.840561
##ZVALUE=320
0.336766
0.433922
0.314713
0.486970
0.381470
0.294447
0.424981
0.340939
0.470877
0.499487
0.493526
0.344515
0.550747
0.519753
0.419617
0.560880
0.828505
0.635982
0.453591
0.588894
0.646710
0.587702
0.733733
0.719428
0.612736
0.713468
0.807643
0.794530
1.002550
0.890493
0.929832
0.827909
1.000762
1.277924
1.085997
1.252890
1.260638
1.403689
1.796484
1.973510
1.937747
3.028512
10.759830
59.783459
150.872469
377.549529
615.668893
981.735587
1015.584469
1015.584469
1015.584469
1015.584469
1015.584469
1015.585065
845.513940
456.525683
257.968903
106.663704
45.480728
14.161468
10.017753
10.590553
12.611747
19.162893
27.433634
44.449568
58.917999
78.291893
90.941787
102.572441
103.361607
97.581744
87.130666
67.850947
53.371787
35.956502
26.068687
17.872453
13.659000
10.549426
9.921789
9.438992
9.735823
8.980632
9.472966
9.395480
9.717941
9.390712
9.287596
9.542704
9.139776
8.995533
9.197593
9.103417
8.753538
8.766651
##ZVALUE=325
0.512600
0.522733
0.424981
0.323653
0.419617
0.279546
0.372529
0.443459
0.361800
0.328422
0.509620
0.471473
0.544786
0.641942
0.417829
0.459552
0.580549
0.562668
0.538826
0.527501
0.579953
0.448823
0.400543
0.601411
0.488758
0.586510
0.625849
0.758767
0.760555
0.829697
0.823736
0.879765
0.941753
1.005530
0.928640
0.884533
1.075864
1.238585
1.053810
1.416802
1.384616
1.703501
1.940727
2.253652
5.625486
39.284825
103.883743
271.101594
474.431515
846.881866
1015.584469
1015.584469
1015.584469
1015.584469
1015.584469
1015.584469
896.506906
524.492860
315.740705
141.275525
64.958930
19.418597
10.332465
9.098649
9.789467
13.318658
18.180609
29.019713
40.550828
59.608817
73.967576
88.561773
96.574426
97.117424
92.725754
77.335835
65.001845
48.253536
36.019683
23.456812
17.115474
12.759566
11.076927
9.917617
9.810925
9.342432
9.421706
9.126663
9.233952
8.872747
8.995533
8.900762
8.785725
8.764863
8.561611
8.790493
##ZVALUE=330
0.412464
0.275970
0.241995
0.368953
0.249743
0.393987
0.255704
0.178814
0.479817
0.393987
0.330806
0.488758
0.385642
0.494719
0.564456
0.486970
0.386834
0.461936
0.506639
0.430942
0.499487
0.473857
0.628829
0.386834
0.498891
0.510812
0.661612
0.604987
0.549555
0.681877
0.785589
0.614524
0.993609
0.834465
0.858903
0.831485
0.947714
0.903606
1.041889
0.930429
1.231432
1.224875
1.412630
1.682639
1.656413
2.184510
2.669692
16.263723
54.850578
178.932548
339.187980
662.542582
949.327946
1015.580893
1015.580893
1015.580893
1015.580893
1015.580893
1015.580893
682.562590
435.112715
200.511813
98.997951
33.525825
13.817549
8.684993
8.863807
9.882450
12.427568
18.605590
26.568770
40.243864
53.705573
73.102713
82.156658
91.791749
92.524886
85.079670
75.628757
59.521794
46.860576
32.341480
24.008751
16.713738
13.674498
11.015534
10.153651
9.402633
8.983612
8.887649
8.914471
8.630753
8.641481
8.524656
8.800626
8.722544
##ZVALUE=335
0.339746
0.305772
0.306964
0.357628
0.342727
0.329614
0.403523
0.304580
0.430942
0.340939
0.464916
0.403523
0.486970
0.457764
0.332594
0.347495
0.370741
0.328422
0.399947
0.450611
0.463724
0.389814
0.398755
0.611544
0.630617
0.595450
0.679493
0.708699
0.682473
0.771880
0.585914
0.500679
0.649691
0.699759
0.718832
0.792742
0.833869
0.769496
0.896454
1.036525
0.901818
1.205802
1.298785
1.380444
1.484752
1.532435
1.588464
1.990795
2.282858
7.274747
29.567480
118.371844
248.636603
531.655550
825.288892
1015.584469
1015.584469
1015.584469
1015.584469
1015.584469
1015.584469
826.456547
555.378795
285.650492
148.549676
48.691630
19.773841
9.562969
8.525848
8.826852
9.771585
13.226867
17.918944
27.818680
37.471652
52.867532
65.206885
78.958869
84.906816
85.795522
81.246495
67.951679
58.426857
44.294596
34.586787
24.168491
18.327832
13.420582
11.101961
9.529591
8.968711
8.565784
8.539557
8.534789
8.063912
8.273721
##ZVALUE=340
0.366569
0.264645
0.222921
0.386834
0.354648
0.272989
0.383854
0.410676
0.455976
0.330806
0.336766
0.376701
0.517964
0.286698
0.178814
0.350475
0.428557
0.332594
0.443459
0.589490
0.472665
0.485778
0.355840
0.552535
0.545979
0.478625
0.432730
0.492930
0.568628
0.575781
0.627637
0.475645
0.653863
0.606775
0.721812
0.806451
0.723600
0.594854
0.825524
0.837445
0.785589
0.957847
1.015663
0.930429
0.971556
1.336932
1.403689
1.470447
1.611710
1.838803
1.793504
3.358722
13.736486
74.929595
182.014704
434.163809
700.600743
1015.587449
1015.587449
1015.587449
1015.587449
1015.587449
1015.587449
962.916017
662.997961
343.976617
187.618732
73.235631
29.027462
10.718703
8.828640
8.679628
8.808970
10.370612
12.183785
17.954707
24.804473
37.057996
48.005581
63.869953
73.849559
80.286860
80.764890
75.263977
68.286657
55.111647
44.236779
31.096935
24.535656
17.080903
12.936592
10.015965
9.269714
8.573532
8.286834
8.176565
##ZVALUE=345
0.355840
0.282526
0.352859
0.525713
0.323653
0.284910
0.232458
0.423789
0.308752
0.422597
0.439882
0.393987
0.355840
0.510812
0.391603
0.343919
0.444651
0.475645
0.447631
0.453591
0.469685
0.558496
0.468493
0.365973
0.538826
0.585914
0.501871
0.469685
0.500679
0.490546
0.748634
0.593662
0.602603
0.714660
0.683665
0.811815
0.715852
0.855923
0.695586
0.707507
0.824928
0.730753
0.891685
0.931621
0.907779
1.015663
1.126528
1.183748
1.290441
1.510978
1.565814
1.788735
2.126694
2.419949
6.273985
44.334531
125.857592
320.812464
549.657941
930.117965
1015.653014
1015.653014
1015.653014
1015.653014
1015.653014
1015.653014
794.934034
464.425683
264.002681
102.212429
44.622421
15.208721
9.696484
8.942485
8.529425
8.306503
9.121895
11.891723
15.559793
23.814440
32.860637
46.786666
56.749582
66.903830
72.797537
74.384809
70.856810
62.894821
55.523515
42.999983
33.469796
22.590756
17.328858
12.616515
10.128617
8.888841
##ZVALUE=350
0.301600
0.462532
0.471473
0.464916
0.244975
0.384450
0.278950
0.351667
0.291467
0.291467
0.353456
0.410676
0.521541
0.443459
0.454783
0.474453
0.389814
0.448823
0.510812
0.360608
0.471473
0.483990
0.520945
0.378489
0.644922
0.455976
0.673532
0.514984
0.596642
0.649691
0.565648
0.633597
0.475645
0.738502
0.496507
0.497699
0.705719
0.692606
0.669956
0.805855
0.701547
0.752807
0.882745
0.808835
1.011491
0.970960
0.970960
1.186728
1.221895
1.039505
1.057982
1.289845
1.347661
1.748800
1.768470
2.178550
3.399849
20.473003
67.263842
209.431648
393.669009
757.711530
1014.640927
1015.653014
1015.653014
1015.653014
1015.653014
1015.653014
964.301825
565.819740
346.322656
159.606934
73.155761
19.802451
10.200739
8.479953
8.084774
7.764697
7.811785
8.655787
10.604858
15.630722
20.623803
29.743910
37.749410
50.150752
58.235526
65.462589
68.414807
66.138506
60.720444
49.787760
41.241646
29.668808
22.455454
16.264915
##ZVALUE=355
0.655651
0.710487
0.730753
0.599623
0.424981
0.624657
0.676513
0.657439
0.641942
0.705719
0.791550
0.707507
0.768900
0.770688
0.688434
0.605583
0.548959
0.529885
0.724792
0.778437
0.627637
0.694990
0.711679
0.854731
0.823736
0.849962
0.717640
0.856519
0.816584
0.873804
0.702739
0.923872
0.939965
0.884533
0.860691
0.795722
0.994802
0.908971
0.924468
0.930429
1.012683
1.147985
0.941753
1.170635
1.072884
1.086593
1.256466
1.257658
1.228452
1.198649
1.392961
1.549721
1.442432
1.528859
1.560450
1.847744
2.091527
2.455711
2.765656
11.048913
40.233731
151.775479
299.899578
599.979758
904.078484
1015.897989
1015.897989
1015.897989
1015.897989
1015.897989
1009.540558
680.191517
423.219800
184.337497
88.344812
26.591420
12.033582
8.178949
7.710457
7.427931
7.507801
7.687807
8.340478
10.151863
12.746453
18.443465
24.844408
34.983754
43.432713
53.400993
58.592558
62.485933
61.273575
55.154562
48.394799
37.987828
##ZVALUE=360
0.351667
0.419617
0.407696
0.357628
0.354648
0.329614
0.448823
0.247955
0.336766
0.282526
0.389814
0.496507
0.389814
0.430942
0.360608
0.342727
0.381470
0.404716
0.313520
0.359416
0.368953
0.399947
0.460744
0.404716
0.536442
0.386834
0.585914
0.569820
0.479817
0.694990
0.411868
0.461936
0.459552
0.660419
0.591874
0.649691
0.563860
0.696778
0.700951
0.692606
0.620484
0.687838
0.705719
0.692606
0.846982
0.773668
0.763535
0.904799
0.921488
0.881553
1.019835
0.969768
1.013875
1.194477
1.236796
1.331568
1.345873
1.621842
1.786947
2.060533
2.526641
4.285574
15.275478
70.554614
174.160600
420.779586
687.592030
1015.584469
1015.584469
1015.584469
1015.584469
1015.584469
1015.585065
819.079876
539.832711
271.477699
137.947798
43.941736
17.341971
8.165836
7.255673
7.232428
6.930828
7.143617
6.754994
7.092953
8.388758
10.974407
14.108419
20.621419
27.620792
38.225651
45.549870
52.787662
56.603551
56.228638
##ZVALUE=365
0.353456
0.253916
0.282526
0.363588
0.351667
0.378489
0.375509
0.381470
0.362992
0.468493
0.482798
0.281930
0.383854
0.220537
0.451803
0.472665
0.393987
0.500679
0.564456
0.480413
0.530481
0.610948
0.525713
0.458956
0.603795
0.499487
0.559688
0.368953
0.481606
0.463724
0.525713
0.531673
0.593662
0.468493
0.529885
0.611544
0.584722
0.525713
0.602603
0.624657
0.609756
0.744462
0.632405
0.758767
0.875592
0.745654
0.768900
0.769496
0.672936
0.753999
0.941753
0.995994
1.004934
1.157522
1.266599
1.140833
1.326799
1.522899
1.488924
1.613498
1.704693
1.961589
2.296567
2.740622
6.863475
42.420626
115.898848
309.525728
554.513931
971.390009
1015.594006
1015.594006
1015.594006
1015.594006
1015.594006
942.225456
651.798844
350.463986
183.771849
64.760447
25.344491
8.904934
7.250905
6.856918
6.501675
6.462932
6.192923
6.009936
6.253719
7.033944
8.773804
12.487769
16.854405
24.863482
31.192899
40.329695
##ZVALUE=370
0.251532
0.323653
0.288486
0.312924
0.319481
0.178814
0.178814
0.383854
0.303984
0.326633
0.447631
0.392795
0.247955
0.285506
0.376701
0.478625
0.453591
0.304580
0.428557
0.371933
0.277758
0.430942
0.346899
0.397563
0.379682
0.502467
0.388622
0.531673
0.534654
0.525713
0.469685
0.407696
0.475645
0.432730
0.517964
0.597835
0.518560
0.397563
0.618696
0.604987
0.670552
0.760555
0.582933
0.586510
0.763535
0.742674
0.586510
0.810623
0.645518
0.831485
0.772476
0.803471
0.881553
0.791550
1.034737
0.899434
1.038909
1.120567
1.168847
1.260638
1.371503
1.496673
1.552701
1.834631
1.898408
2.254844
3.521442
21.228790
70.628524
224.648714
414.463878
762.167573
1015.583873
1015.583873
1015.583873
1015.583873
1015.583873
1015.583873
853.180885
458.912849
247.948766
91.489553
40.625930
13.798475
7.539988
6.463528
6.035566
5.683899
5.813837
5.294681
5.359650
5.582571
6.166697
7.984638
10.431409
15.416741
##ZVALUE=375
0.075698
0.065565
-0.005960
0.118613
0.042915
-0.063777
0.160933
0.095963
0.057817
0.130534
0.079870
0.125766
-0.033975
0.064969
0.098944
0.069737
0.086427
0.089407
0.050664
0.100732
0.073910
0.042915
0.108480
0.233650
0.184774
0.211596
0.189543
0.188947
0.157952
0.058413
0.347495
0.222921
0.155568
0.272989
0.035763
0.108480
0.197887
0.141859
0.303984
0.263453
0.355840
0.007749
0.231862
0.308752
0.263453
0.221729
0.107884
0.390410
0.395775
0.425577
0.454783
0.369549
0.461936
0.512600
0.505447
0.492930
0.645518
0.615716
0.632405
0.577569
0.792742
0.835657
0.886917
0.837445
1.160502
1.241565
1.449585
1.816750
2.266765
10.027885
37.831664
137.835741
286.342502
615.319610
924.506783
1015.332937
1015.332937
1015.332937
1015.332937
1015.332937
997.342467
609.170794
367.329717
161.685944
76.713562
23.241639
9.256601
5.827546
5.221963
5.142689
4.902482
4.919767
4.652739
4.585981
4.970431
5.399585
##ZVALUE=380
0.345707
0.373721
0.198483
0.283718
0.307560
0.251532
0.198483
0.204444
0.261664
0.348687
0.272989
0.301600
0.315905
0.396967
0.287890
0.401735
0.327826
0.213981
0.319481
0.363588
0.311732
0.337958
0.324845
0.383854
0.240803
0.385642
0.330806
0.332594
0.554919
0.395775
0.279546
0.509620
0.379682
0.386834
0.445843
0.459552
0.376701
0.399947
0.449419
0.413656
0.471473
0.575781
0.500679
0.373721
0.530481
0.555515
0.582933
0.494719
0.547767
0.642538
0.676513
0.740886
0.719428
0.632405
0.664592
0.697970
0.645518
0.733733
0.572801
0.906587
0.887513
0.917912
0.978708
1.059771
1.171827
1.171827
1.296997
1.424551
1.796484
2.107620
2.569556
4.258752
25.152564
80.582500
241.803527
438.446999
793.485641
1015.584469
1015.584469
1015.584469
1015.584469
1015.584469
1015.584469
848.860741
486.324430
280.307531
111.951828
48.881769
12.775660
6.464720
5.435944
5.168915
4.663467
4.795790
4.423857
4.593730
##ZVALUE=385
0.236630
0.180602
0.265837
0.431538
0.235438
0.357628
0.238419
0.232458
0.168681
0.273585
0.325441
0.241995
0.182986
0.214577
0.351667
0.155568
0.073910
0.246763
0.246763
0.208616
0.215769
0.186563
0.359416
0.347495
0.279546
0.373721
0.288486
0.410676
0.373721
0.229478
0.355840
0.382662
0.194907
0.473857
0.323653
0.452995
0.350475
0.203848
0.313520
0.388622
0.348687
0.306964
0.447631
0.444651
0.357628
0.279546
0.551939
0.475645
0.528693
0.468493
0.468493
0.465512
0.632405
0.448823
0.617504
0.656843
0.560880
0.572801
0.623465
0.662804
0.649691
0.726581
0.883937
0.794530
0.886917
0.872612
1.075864
1.249909
1.443624
1.491904
1.842976
1.971722
2.162457
2.694726
8.818507
53.657889
137.324929
344.483852
597.577691
989.140868
1015.566587
1015.566587
1015.566587
1015.566587
1015.566587
994.990468
728.624463
390.608907
218.091011
84.637403
31.953454
8.308887
5.398989
4.857779
4.483461
4.488826
##ZVALUE=390
0.160933
0.364780
0.212789
0.210404
0.314713
0.197887
0.210404
0.234842
0.135899
0.231862
0.114441
0.237823
0.212789
0.241995
0.325441
0.391603
0.255704
0.277758
0.364780
0.300407
0.403523
0.364780
0.328422
0.298619
0.460744
0.328422
0.261664
0.150800
0.245571
0.252724
0.183582
0.282526
0.255704
0.291467
0.256896
0.462532
0.449419
0.544786
0.555515
0.472665
0.381470
0.337958
0.465512
0.431538
0.367761
0.382662
0.344515
0.358820
0.406504
0.299811
0.439882
0.518560
0.465512
0.553727
0.663996
0.537634
0.536442
0.573993
0.646710
0.617504
0.666976
0.734925
0.862479
0.794530
0.688434
0.965595
1.016855
1.075864
1.342893
1.572967
1.674891
1.981854
1.937747
1.946688
1.969934
2.233982
4.247427
28.397441
89.422464
265.417695
489.724874
894.411802
1015.584469
1015.584469
1015.584469
1015.584469
1015.584469
1015.584469
926.539898
542.938709
304.099917
117.056966
50.233603
13.064742
6.134510
4.787445
##ZVALUE=395
0.144839
0.342727
0.165701
0.241995
0.145435
0.297427
0.295639
0.291467
0.206828
0.252724
0.335574
0.241995
0.230670
0.122786
0.121593
0.186563
0.137687
0.174642
0.253916
0.261664
0.192523
0.392795
0.315905
0.268817
0.410676
0.350475
0.398755
0.527501
0.494719
0.151992
0.338554
0.313520
0.294447
0.309944
0.284910
0.387430
0.304580
0.436902
0.375509
0.522733
0.459552
0.390410
0.315905
0.355840
0.423789
0.382662
0.342727
0.425577
0.532866
0.455976
0.537634
0.407696
0.521541
0.593662
0.527501
0.579953
0.490546
0.618696
0.531673
0.701547
0.649691
0.647902
0.703931
0.762939
0.830889
0.888705
1.073480
1.201630
1.417994
1.403689
1.492500
1.455545
1.564622
1.713634
1.659989
1.658797
1.838803
1.919866
2.717972
18.785596
67.964792
218.814015
395.715833
710.432529
987.920761
1015.584469
1015.584469
1015.584469
1015.584469
1015.584469
1008.101702
636.581779
385.049582
159.514546
72.162747
21.631718
##ZVALUE=400
0.187755
0.279546
0.142455
0.232458
0.140667
0.186563
0.183582
0.390410
0.257492
0.218749
0.189543
0.305772
0.154972
0.175834
0.283718
0.243783
0.134706
0.328422
0.291467
0.237823
0.323653
0.202656
0.411868
0.298619
0.224710
0.286698
0.225902
0.376701
0.329614
0.281930
0.307560
0.291467
0.272989
0.361800
0.320673
0.325441
0.356436
0.383854
0.339746
0.378489
0.300407
0.355840
0.579953
0.340939
0.450611
0.392795
0.477433
0.277758
0.450611
0.479817
0.497699
0.330806
0.543594
0.629425
0.392795
0.539422
0.627637
0.562668
0.733733
0.647902
0.839829
0.808835
0.630617
0.753999
0.809431
1.058578
0.881553
1.036525
1.179576
1.267791
1.343489
1.515746
1.503825
1.571774
1.414418
1.469851
1.369715
1.632571
1.781583
2.125502
2.567768
11.776686
46.744943
157.028437
310.881734
650.717616
967.700481
1015.584469
1015.584469
1015.584469
1015.584469
1015.584469
1015.584469
727.262497
466.637611
224.567652
##END
