##TITLE=QP00602
##FORMAT=SPECTACLE-ASCII V-1.2
##DATA TYPE=ULTRAVIOLET SPECTRUM
##SECOND TYPE=ULTRAVIOLET SPECTRUM
##DATE=01/24/18
##TIME=17:45:16
##SPECTROMETER/DATA SYSTEM=SPECTACLE
##XUNITS=NM EM
##YUNITS=ENERGY
##YFACTOR=1
##FIRSTX=220
##LASTX=410
##NPOINTS=96
##3DDATA=Equidistant
##ZUNITS=NM EX
##FIRSTZ=210
##LASTZ=400
##ZPOINTS=39
##XYDATA=(Y..Y)
##ZVALUE=210
1.785755
1.906753
1.635551
1.681447
1.986623
1.801848
2.363920
2.268553
2.276897
2.389550
1.964569
2.036691
2.310872
2.462864
2.227426
2.322793
2.188683
2.506971
2.864599
3.099442
3.276467
3.120899
3.391504
3.389716
3.835559
3.654957
4.117489
3.998876
4.067421
4.466772
4.460812
3.527999
4.869699
5.094409
4.577637
5.017519
5.577803
5.486608
5.359650
6.421804
5.631447
4.910827
6.839633
5.866885
6.314516
5.617738
5.303621
6.978512
6.488562
6.657839
7.343888
6.778836
7.831454
7.957816
7.463694
8.291602
7.411838
8.657575
6.875992
7.984638
8.228421
6.926656
8.241534
8.246899
8.590817
8.438826
9.712577
10.729432
11.667609
14.685988
18.994808
19.434690
23.358464
28.018951
28.163791
30.131936
29.883981
31.276941
29.548407
27.159452
25.159717
23.587942
19.762516
18.221736
15.942454
14.641881
11.092424
9.812713
9.146929
9.271502
8.522868
8.650422
8.807778
7.492900
8.606911
8.395910
##ZVALUE=215
4.744530
5.426407
3.755689
4.484653
3.485680
3.706813
4.108548
3.940463
4.639626
4.554987
3.854632
4.107952
3.075600
2.893806
2.702475
3.049970
3.006458
3.292561
3.659725
2.960563
2.915859
3.274679
3.366470
3.524423
4.147887
4.347563
5.006790
4.467964
5.269647
5.017519
4.337430
4.951954
5.128980
4.996657
6.087422
5.307794
5.344748
5.555749
6.393790
5.713701
5.954504
6.970763
5.553961
6.686449
6.916523
6.357431
7.507801
7.166862
7.267594
8.348823
7.993579
8.109808
7.610917
7.380843
8.108616
7.267594
7.791519
8.324981
8.155704
8.270741
8.173585
8.689761
8.308887
8.341670
8.762479
8.723736
9.889603
10.734797
12.989640
13.939738
15.198588
18.134713
20.675659
24.218559
24.826527
26.942492
27.769804
27.330518
28.588772
26.819706
24.272799
22.755861
19.524693
17.496943
15.103817
14.030933
11.102557
10.308623
9.812713
8.601546
8.739829
9.254813
7.919669
8.740425
8.259416
7.676482
##ZVALUE=220
17.928481
17.039776
20.025969
20.859838
19.087791
17.425418
15.022755
11.807680
9.081960
9.825826
10.462999
10.825992
11.089444
10.424852
9.401441
7.440448
5.558729
4.258752
3.583431
3.474951
3.787875
3.668666
3.695488
4.032850
4.497766
4.557967
4.542470
5.217791
4.784465
5.331635
4.602671
5.897880
6.113648
5.743504
6.140471
6.005764
7.153749
6.574988
5.805492
6.132722
6.682873
7.145405
7.202625
7.133484
7.058978
7.585883
8.020997
6.787777
8.053780
8.077621
7.457733
7.472634
8.367896
8.454919
8.258820
7.465482
9.233952
8.497834
8.428693
8.570552
9.544492
9.509921
9.354949
9.735823
8.904934
9.688735
9.960532
11.664629
12.808442
13.524890
15.497804
19.570589
21.362901
24.410486
25.432706
27.704835
27.377605
27.703643
27.577877
26.015639
27.236938
23.135543
21.007657
17.184615
14.129877
14.886856
10.644794
10.775924
9.778738
10.206699
9.576678
9.751916
10.017753
9.364486
9.394884
9.989738
##ZVALUE=225
32.361746
35.941601
43.335557
64.237714
67.703724
72.789788
66.276789
51.974654
43.430924
29.723644
26.444793
22.018552
21.877885
25.178790
25.144815
23.847818
17.965436
16.970634
11.825562
9.339452
6.677508
6.079674
4.654527
4.506707
5.212426
5.122423
5.734563
5.604625
4.985929
5.555749
6.409883
5.795956
6.475449
6.636977
7.500648
6.451607
7.925630
7.246733
6.745458
8.166432
8.268952
8.049607
7.519722
8.183718
8.310676
7.722974
8.568764
9.702444
7.477999
8.020997
8.710623
8.617640
8.556843
9.333491
9.052753
10.728836
10.641813
9.218454
10.015965
10.819435
10.316968
10.784864
11.444688
10.563731
10.670424
10.842681
12.183785
14.031529
14.246702
16.485453
19.611716
21.048784
21.960735
25.470853
28.742552
26.757717
28.499961
27.129650
25.641918
23.922920
23.848414
22.525787
21.299720
17.131567
16.800761
14.782548
14.356971
12.705922
12.263656
13.183951
12.330413
12.261868
12.091994
11.743903
12.172461
11.007786
##ZVALUE=230
30.577779
33.829808
54.499507
90.337992
128.042698
159.890652
179.323554
187.077522
174.408555
150.195956
107.497573
73.928833
51.735640
43.769479
42.944551
47.681928
48.688650
47.204494
42.209625
35.632849
27.747750
18.912554
12.008548
8.770823
6.783605
6.116629
5.358458
5.874634
6.982684
6.389618
6.771684
7.680655
6.100535
6.399751
7.670522
8.480549
7.374883
7.888675
7.844567
6.792545
8.077621
8.070469
8.749962
8.945465
8.942485
8.656979
8.682609
8.657575
8.977652
8.559823
10.131598
9.342432
9.731650
9.974837
9.655952
10.321736
11.338592
10.488629
11.606812
11.132956
11.492968
11.157990
11.923909
13.432503
13.983846
12.681484
15.263557
16.045570
17.638803
19.604564
20.718575
24.416447
26.052594
30.128956
30.637980
30.579567
29.645562
29.365420
29.306412
29.867887
28.436780
24.970770
26.345849
23.826957
22.557974
22.223592
21.376610
19.579530
19.342899
19.737482
19.744635
18.967986
19.871593
19.478798
19.250512
19.459724
##ZVALUE=235
12.304783
15.985966
29.084682
70.052743
115.926862
193.979740
255.590677
346.896648
381.499529
388.411880
347.147584
285.894871
189.935565
135.763884
93.524456
77.262521
70.531964
73.860884
82.373619
82.110763
77.672601
65.193772
52.109957
36.268830
24.293661
16.112924
11.728406
8.986592
9.086728
8.447766
7.302761
9.191632
9.052753
9.732842
8.742809
8.968711
8.056760
8.942485
8.697510
8.968711
9.655952
9.291768
10.141730
9.682775
9.683967
10.115504
9.231567
9.517670
9.777546
9.590983
9.811521
10.394454
10.544658
10.155439
10.937452
10.886788
11.245608
11.859536
12.398958
11.692643
13.721585
14.234781
14.724731
14.872551
15.892982
17.297864
18.351674
20.606518
20.792484
22.692680
24.556518
27.867556
30.592680
33.151507
34.572482
34.632683
37.155747
35.533905
35.755634
33.181906
35.814643
32.566786
30.433536
30.110478
29.355884
28.699636
28.347969
28.479695
26.661754
28.100610
27.282834
26.305914
26.863813
25.674701
25.950670
26.683807
##ZVALUE=240
2.158880
2.188683
6.989837
19.066930
56.364536
100.758672
198.376775
301.329494
443.391800
548.399687
634.593964
632.354617
584.447980
451.693535
360.234976
232.183933
157.082677
112.472773
99.480748
100.211501
110.770464
117.918849
112.854838
102.357864
82.045794
68.295002
48.669577
36.374927
23.465753
18.254519
14.571548
11.363626
11.663437
12.008548
10.883808
10.343790
10.792613
10.445714
10.032654
9.073615
10.600686
9.566545
9.668469
9.023547
8.951426
9.552836
9.646416
10.024905
9.578466
10.176897
10.937452
10.199547
10.449886
9.887815
10.879636
10.114908
12.164712
12.511611
11.940598
13.571978
13.388991
14.906526
14.926791
16.563535
16.140938
17.697811
18.792748
22.198558
22.988915
23.196936
28.939843
32.054782
32.984614
35.948753
38.507581
39.896965
40.740967
41.411519
40.023923
37.884712
39.498806
37.437677
36.036968
33.511519
35.299659
34.866929
34.253597
33.908486
33.784509
34.392476
33.890605
33.110976
33.465624
34.524798
31.000972
34.362674
##ZVALUE=245
1.499653
1.567602
1.716614
1.958609
4.678965
14.407635
48.043728
100.901723
225.655437
351.384878
552.472472
677.331686
773.364902
814.964771
779.508948
641.371012
518.057942
342.745781
234.950781
142.966509
108.238459
101.516843
117.622614
130.562782
135.363936
128.589869
115.815997
100.272894
77.303648
56.834817
44.826865
29.105544
20.831823
14.638901
12.497902
12.711883
11.510849
10.991693
10.151863
10.198951
10.595918
10.030866
9.427667
8.907914
8.999705
9.168983
8.048415
9.095669
8.972883
7.944703
9.130836
8.342862
9.069443
9.537935
9.210706
10.521412
10.921955
11.695623
11.589527
11.308789
12.607574
13.855696
13.034940
13.824701
15.427470
16.743541
18.712878
19.777417
20.523667
22.781491
24.720430
28.011799
29.627681
33.467412
34.249425
37.557483
37.352443
39.169788
36.804676
37.188530
35.801530
35.232902
33.948421
35.547614
33.766627
32.883883
33.087730
35.309792
35.094619
33.525825
34.188628
32.050610
32.948852
33.657551
32.532811
33.860803
##ZVALUE=250
1.409650
1.592636
1.270771
1.149774
1.206994
1.380444
2.303720
10.992885
31.636953
92.708468
177.148581
352.828503
509.359837
723.230839
849.670768
923.815966
925.530791
839.460492
656.766891
500.103831
302.748680
201.851726
116.968751
101.790428
109.744668
124.792457
139.886737
142.075419
136.322975
127.826929
106.738806
84.220767
64.372420
40.862560
27.065873
17.883778
14.146566
11.442900
11.418462
10.717511
9.115934
9.324551
8.198619
8.158684
8.020997
7.433891
8.094907
7.800460
8.504987
9.006858
7.858872
7.489920
7.797480
7.872581
8.330941
8.236766
8.575916
9.624958
9.243488
9.533763
9.618998
10.770559
11.174679
11.826754
13.020635
14.437437
15.385747
15.292764
17.782450
19.239783
22.326708
22.478700
24.924874
28.099418
29.447675
30.609965
30.295849
31.070709
31.438470
30.822754
31.729937
30.694604
31.899810
30.640960
30.092001
30.137897
31.641722
30.467510
30.168891
30.724406
31.422973
31.170845
30.767918
30.803680
30.620694
30.678511
##ZVALUE=255
1.259446
1.169443
1.116991
1.267791
1.232624
1.596808
1.421571
1.616478
2.083778
4.553795
22.061467
59.571862
159.105659
275.017619
479.160547
648.589730
872.342587
997.643471
1015.584469
995.258689
825.665593
650.281906
395.611525
258.798003
142.759681
103.280544
96.001625
109.780431
132.353902
143.132806
150.230527
144.575834
131.369829
110.143423
80.277920
60.198903
36.840439
26.030540
15.395880
11.644959
8.868575
7.913709
8.224845
7.527471
8.149743
7.832646
6.946921
7.193685
7.715821
6.934404
7.254481
6.793737
6.558895
6.509423
7.431507
8.350611
7.618666
8.421540
8.314848
8.562803
8.714795
9.024739
9.753704
10.472536
10.604858
11.860728
12.960434
13.077855
14.832616
15.836954
18.128753
19.011497
22.302866
23.056865
23.929477
25.701523
26.593804
26.055574
27.379990
26.454926
26.625991
26.569963
26.585460
26.510954
25.876760
25.955439
26.907921
28.389692
26.778579
28.164983
28.366446
28.014779
27.947426
29.099584
28.292537
28.464794
##ZVALUE=260
0.987649
1.113415
0.858903
1.123548
1.036525
1.107454
1.178980
1.289845
1.317859
1.485944
1.659989
2.769828
9.661913
40.828586
90.991855
221.930742
367.149711
615.502000
815.127492
1015.584469
1015.584469
1015.584469
1015.003920
852.450728
577.713847
394.760966
224.479437
139.858723
88.784695
86.575747
106.585622
127.205849
147.092938
152.270794
149.420500
134.850740
107.376575
86.096525
55.516958
40.109754
23.198724
15.184879
10.182858
7.860661
7.573962
6.882548
7.521510
6.922483
7.302761
7.106662
7.272959
7.286668
7.523894
7.207990
7.025599
6.958842
7.814765
7.549524
7.807612
8.193851
8.641481
9.164810
9.530783
9.256601
9.875894
11.290908
12.042522
12.641549
13.369918
14.318824
16.608834
18.527508
19.298792
19.589663
21.534562
23.203492
22.895932
24.316907
24.674535
22.652745
23.275614
25.330782
24.063587
25.104880
24.684668
25.418997
24.801493
25.783777
26.969910
25.637746
26.738644
24.860501
26.427507
27.025938
26.940703
27.201772
##ZVALUE=265
0.991821
0.940561
0.851750
1.139641
1.075864
0.811815
1.130700
1.073480
1.144409
1.416802
1.592636
1.563430
1.728535
2.140999
4.721880
26.490688
63.794851
163.242817
293.548703
564.982891
805.015564
1013.023853
1015.584469
1015.584469
1015.584469
1009.965539
779.045820
564.207435
327.687860
198.406577
123.144984
78.191757
82.129836
110.509992
134.028792
152.700543
157.496929
147.095919
132.350922
106.925964
85.498691
55.877566
37.855506
21.366477
13.425946
9.277463
8.440614
7.034540
7.272959
6.231666
7.157922
7.807612
7.157922
7.456541
7.917881
7.529855
7.780790
7.827878
7.289648
8.418560
8.548498
8.525848
8.967519
9.268522
9.491444
9.784698
10.503531
11.543632
12.178421
14.621615
15.416741
16.382933
18.575788
19.918680
19.664764
19.756556
20.652413
21.120906
22.041798
21.551847
21.532774
21.723509
22.846460
21.412969
22.609830
22.924542
22.452474
22.912621
24.282932
23.780465
23.554564
25.460720
25.207996
25.097728
24.005771
25.507808
##ZVALUE=270
0.881553
0.978708
0.844598
0.729561
0.948906
0.846982
0.824928
1.100898
1.061559
1.350641
1.212955
1.313686
1.459718
1.619458
1.750588
1.773834
3.014803
10.927916
48.548579
114.308596
273.690820
464.122891
792.559981
1007.353663
1015.584469
1015.584469
1015.584469
1015.584469
958.393812
659.572482
445.331931
225.501657
133.380890
74.075460
64.882636
85.109472
107.776523
135.305524
150.081515
154.989958
150.705576
132.621527
110.584497
81.130862
59.189796
35.764575
24.863482
14.692545
10.848641
8.030534
7.354617
7.277727
6.955862
7.306933
7.935762
7.598996
7.727742
8.602738
8.650422
8.317828
7.734895
8.643866
9.550452
9.641647
10.031462
9.997487
11.049509
12.250543
12.270808
14.184713
14.878511
15.379786
16.578436
18.235445
18.559694
19.256473
20.123720
20.725727
20.141602
20.411611
20.528436
20.732880
21.353960
21.425486
21.606684
21.790862
21.687746
21.308661
22.644997
21.892786
23.045540
22.132993
22.728443
21.886826
22.754669
23.926497
##ZVALUE=275
0.642538
0.713468
0.740886
0.784993
0.996590
0.907779
0.822544
1.054406
0.938773
0.898838
1.144409
1.078844
1.229644
1.217723
1.335740
1.440644
1.694560
1.806617
1.896620
5.548596
23.173690
69.713593
201.002955
374.675393
702.784657
961.641669
1015.584469
1015.584469
1015.584469
1015.584469
1015.584469
941.751599
661.971569
348.486900
195.431709
82.679987
54.984689
62.270761
79.982877
107.934475
128.427744
148.775578
152.344704
148.667693
132.044554
105.821490
83.567500
57.339668
41.251779
25.114417
16.172528
11.055470
8.733869
8.067489
7.960796
7.640719
8.543730
8.354783
7.882714
8.576512
9.051561
9.697676
9.594560
9.858608
10.319948
10.584593
11.386871
11.777878
13.128519
14.300942
14.800429
16.544461
17.456412
17.769933
18.609762
19.333959
19.931793
20.132661
20.711422
20.440817
20.797849
20.935535
20.444989
21.165609
20.693541
21.151900
21.096468
21.207929
22.010803
21.027923
21.297932
22.155643
21.998882
21.669865
22.239685
21.713972
##ZVALUE=280
0.706911
0.435710
0.692606
0.690818
0.815988
0.995994
0.938773
0.856519
0.860691
0.990629
1.040697
0.973940
1.050830
1.064539
1.153946
1.342893
1.245737
1.520514
1.519918
1.715422
1.862645
2.639890
12.910962
44.030547
146.339536
276.416540
527.374744
779.723525
1015.656590
1015.656590
1015.656590
1015.656590
1015.656590
1015.656590
762.173533
515.252948
258.067846
133.129954
56.618452
43.660998
58.470964
77.045560
107.411742
126.362443
144.032836
151.391625
144.759417
132.156610
105.801821
83.078742
56.380630
40.313601
24.579763
16.459823
11.161566
9.463429
8.472800
8.533597
8.773804
9.019971
9.421706
9.513497
9.958744
10.146499
10.790825
11.510849
11.826754
12.698770
13.076663
14.047623
15.624762
16.425848
16.811490
17.336607
19.161701
19.015670
19.518733
19.681454
19.434690
19.935966
19.495487
20.056963
20.659566
19.881725
20.170808
20.902753
20.662546
21.034479
21.714568
21.491647
20.602942
21.390915
21.095872
20.994544
20.874739
21.033883
##ZVALUE=285
0.566840
0.693798
0.687838
0.816584
0.761747
0.730753
0.893474
0.763535
0.790954
0.883937
0.865459
0.679493
0.617504
0.737906
0.927448
0.838637
1.182556
1.087785
1.208782
1.235604
1.385808
1.621842
1.866817
2.326965
5.699992
29.051900
72.399974
194.999576
345.616937
648.266673
915.893912
1015.584469
1015.584469
1015.584469
1015.584469
1015.584469
974.720716
595.852733
366.765857
168.557763
85.645914
38.898587
36.275983
54.319501
73.608756
103.861690
122.064948
141.027570
146.431923
139.272809
129.977465
106.128454
84.928870
59.264898
41.750669
24.982691
17.545819
12.166500
10.390878
9.256601
9.028912
9.655952
9.912848
10.403991
10.690689
11.099577
11.834502
13.179779
13.684630
14.077425
15.176535
16.335845
16.554594
17.707944
18.717647
19.044876
18.836856
19.208789
19.854903
19.408464
20.157695
20.000935
20.163655
19.886494
20.123720
20.495653
20.373464
20.375848
20.780563
20.007491
20.228624
19.886494
20.507574
20.512938
20.421743
20.852685
##ZVALUE=290
0.333786
0.486970
0.440478
0.283718
0.468493
0.263453
0.358820
0.529885
0.502467
0.461936
0.474453
0.514984
0.627637
0.808835
0.623465
0.693798
0.832677
1.088977
0.955462
0.894666
1.051426
1.140833
1.177788
1.290441
1.555681
1.692772
3.047585
9.257793
46.265721
107.209682
196.723938
468.631983
753.359795
1015.380621
1015.380621
1015.380621
1015.380621
1015.380621
1015.380621
834.173560
547.565818
271.312594
137.233734
50.077438
29.087663
34.588575
49.129725
71.825981
92.597604
117.288828
132.714510
141.006708
138.660669
124.669671
106.656551
79.834461
60.648918
39.917827
27.883649
17.340779
13.222694
11.228919
10.063648
10.861754
10.551810
11.506677
11.526942
12.560487
12.842417
14.394522
15.232563
16.289949
17.558932
17.772913
18.659830
18.880963
18.795729
19.020438
19.370914
19.221902
19.747615
19.356608
19.282699
20.073652
19.506812
20.135641
19.907951
19.870996
20.414591
20.041466
20.326972
20.236969
19.867420
19.870996
20.222664
19.974709
##ZVALUE=295
0.585914
0.561476
0.584722
0.632405
0.547767
0.665784
0.555515
0.519753
0.579953
0.663996
0.699759
0.634789
0.727773
0.735521
0.804663
0.880957
0.761747
0.955462
0.873804
0.956655
1.028776
1.096725
1.324415
1.513958
1.464486
1.811981
1.829863
2.165437
2.197623
4.119873
14.862418
66.225529
155.509710
382.104516
639.787912
1010.156870
1015.575528
1015.575528
1015.575528
1015.575528
1015.575528
989.300013
713.313818
383.177996
206.608772
73.688626
34.242868
23.046732
29.805899
47.055483
64.914823
90.267658
107.819438
127.853751
134.278536
132.201910
122.053623
101.129413
81.584454
57.887435
42.032599
26.947856
20.028949
14.610887
12.820959
12.468696
12.327433
12.935996
13.453960
14.613867
15.418530
15.945435
16.733408
18.427968
18.119812
18.805861
19.270778
19.485950
19.929409
20.628572
20.229816
20.048618
20.383596
20.517707
20.634532
20.436645
20.689964
20.993948
21.597743
20.838976
20.799637
20.447969
20.321608
19.879937
20.109415
19.992590
##ZVALUE=300
0.591874
0.408888
0.534654
0.522733
0.494719
0.473857
0.484586
0.471473
0.533462
0.722408
0.597835
0.583529
0.768900
0.726581
0.864863
0.763535
0.800490
0.913739
0.780821
0.833869
0.902414
0.933409
0.880957
0.981688
1.179576
1.475811
1.451969
1.371503
1.734495
1.976490
2.043843
2.479553
7.223487
40.918589
104.159713
266.566873
465.329885
830.541849
1015.584469
1015.584469
1015.584469
1015.584469
1015.584469
1015.585065
887.820721
508.934855
306.213498
133.487582
60.358644
21.976829
18.658638
29.054880
39.420724
60.800910
81.453919
105.319619
120.268464
129.981637
128.067732
115.336776
100.836754
78.022480
61.903000
42.036772
30.768514
21.046996
16.890764
14.327765
13.704896
14.529824
15.791655
16.269684
17.524958
17.838478
18.198490
18.551946
19.310713
19.452572
19.606948
19.673705
19.893646
21.073818
21.075606
20.539761
20.891428
21.057725
21.674633
21.700859
21.363497
20.846725
21.397471
20.970702
20.848513
20.951629
20.162463
20.528436
##ZVALUE=305
0.525713
0.678897
0.524521
0.664592
0.531673
0.596642
0.765920
0.611544
0.685453
0.743866
0.639558
0.612736
0.785589
0.759959
0.775456
0.910759
0.735521
0.781417
0.789762
0.912547
0.924468
0.984669
1.055598
1.170635
1.014471
1.246929
1.309514
1.324415
1.142621
1.361966
1.675487
1.820922
1.968741
2.251863
4.115701
24.382472
70.017576
202.546716
366.582870
706.915855
988.371968
1015.687585
1015.687585
1015.687585
1015.687585
1015.687585
1015.687585
693.213940
428.187847
187.620521
88.119507
27.949810
16.173720
18.396974
25.851727
41.827559
57.965517
80.775619
98.435879
116.540790
124.047995
121.763945
113.698840
96.587539
80.271959
58.535933
43.808818
30.303597
23.343563
18.441677
17.190576
17.080903
17.337799
17.929673
18.770695
19.334555
19.765496
20.134449
20.647645
20.611882
20.533800
21.061897
20.979643
21.954775
21.566749
21.633506
21.630526
22.244453
21.604896
22.012591
21.134615
21.249652
21.620989
21.559000
20.820498
21.055937
##ZVALUE=310
0.314713
0.403523
0.288486
0.287890
0.306964
0.255704
0.378489
0.282526
0.328422
0.519753
0.396967
0.388622
0.233650
0.575781
0.303984
0.500679
0.632405
0.565648
0.720620
0.581741
0.390410
0.568628
0.553727
0.607967
0.733733
0.695586
0.738502
0.859499
0.877976
0.948906
1.082420
1.351833
1.297593
1.463890
1.709461
1.962781
2.484918
10.512471
37.280917
134.256482
267.479420
564.852953
869.668722
1015.414596
1015.414596
1015.414596
1015.414596
1015.414596
1015.414596
884.285569
585.652590
287.576914
149.417520
49.773455
20.315647
13.028979
16.431808
24.769902
34.647584
54.235458
69.862604
93.310475
106.319785
117.502809
117.866993
109.672546
97.340941
78.215003
62.374473
44.284463
34.210682
25.423765
22.235513
19.557476
19.113421
19.237995
18.838644
19.287467
20.105839
20.311475
20.617843
21.472573
21.984577
21.674633
22.938848
22.329688
22.382736
22.197962
22.648573
22.008419
22.009611
21.727681
21.725893
20.911694
21.333694
20.839572
##ZVALUE=315
0.160933
0.314713
0.407696
0.317693
0.163913
0.284910
0.365973
0.529885
0.290871
0.386834
0.315905
0.321865
0.465512
0.423789
0.413656
0.494719
0.592470
0.436902
0.519753
0.520945
0.379682
0.457764
0.386834
0.681877
0.710487
0.819564
0.908971
0.796914
0.766516
0.812411
1.215935
1.094937
1.113415
0.914931
1.359582
1.335740
1.645684
1.892447
1.880527
4.822612
19.155741
84.567666
194.745660
450.139642
732.820034
1015.456915
1015.456915
1015.456915
1015.456915
1015.456915
1015.456915
1004.746556
745.756626
399.752855
215.998888
79.350471
30.742884
13.074875
11.974573
15.880466
22.108555
35.076737
47.718883
68.053603
85.368752
103.762746
110.514760
112.582445
107.092857
92.567801
77.695847
61.166883
48.179626
34.152865
23.697615
22.423863
20.146966
20.285845
20.807981
20.374656
21.256804
21.430850
21.279454
21.868944
22.190809
22.513866
22.878647
22.578835
22.453666
22.280812
22.010803
22.731423
21.831989
21.987557
21.466613
21.348596
##ZVALUE=320
0.313520
0.421405
0.421405
0.506639
0.520945
0.414848
0.544786
0.637770
0.475645
0.519753
0.620484
0.446439
0.566840
0.392795
0.590682
0.443459
0.572801
0.549555
0.555515
0.489950
0.497699
0.520945
0.578761
0.619888
0.676513
0.769496
0.813603
0.819564
0.819564
0.896454
1.016855
0.985861
1.045465
1.071692
0.984669
1.439452
1.346469
1.375675
1.681447
1.774430
1.967549
2.676845
7.825494
45.334697
116.648674
311.655998
543.487668
951.173902
1015.584469
1015.584469
1015.584469
1015.584469
1015.584469
1015.584469
933.910012
520.619750
298.487544
127.438903
56.082606
18.138885
11.520982
12.332797
15.564561
21.791458
30.874610
46.928525
61.987638
84.140897
96.843839
106.830001
110.121965
103.965998
94.677806
75.637698
61.958432
44.903755
35.845637
27.408600
24.172664
21.920800
21.391511
21.307468
21.899939
22.478700
22.348762
22.906661
22.798777
22.733808
22.399426
22.389889
22.591949
22.436976
22.484660
21.760464
22.316575
22.116899
##ZVALUE=325
0.381470
0.348687
0.359416
0.355840
0.342727
0.430942
0.425577
0.506639
0.363588
0.408888
0.317693
0.341535
0.443459
0.494719
0.511408
0.432730
0.493526
0.470877
0.286698
0.551939
0.609756
0.681877
0.726581
0.549555
0.721812
0.791550
0.700951
0.683665
0.775456
0.832677
0.917912
0.941753
1.022816
0.986457
1.016855
1.310706
1.152754
1.208782
1.305938
1.540780
1.585484
1.646876
1.990795
2.372861
4.277825
26.714802
76.865554
218.579769
408.144593
781.424642
1015.584469
1015.584469
1015.584469
1015.584469
1015.584469
1015.584469
1015.585065
660.139918
401.145816
179.525614
83.477497
24.671555
12.713671
11.254549
12.087822
16.107559
21.440983
32.065511
45.671463
65.058470
79.839826
94.576478
103.283525
104.683638
100.721717
86.692572
73.873997
57.955980
46.276450
34.235716
28.859973
24.675727
22.907853
22.653937
22.348762
21.963716
22.458434
22.028685
22.775531
22.513866
22.293925
21.924973
22.285581
21.541715
22.297502
22.261739
##ZVALUE=330
0.260472
0.343919
0.362992
0.390410
0.387430
0.406504
0.314713
0.407696
0.392795
0.540614
0.520945
0.380874
0.443459
0.485778
0.387430
0.612736
0.452995
0.604987
0.530481
0.373721
0.535846
0.575781
0.681877
0.540614
0.617504
0.507832
0.674725
0.736713
0.743866
0.704527
0.912547
0.800490
0.780821
0.846982
0.937581
1.092553
1.115799
0.933409
1.131892
1.264811
1.370907
1.307726
1.397729
1.658797
1.940727
2.123713
2.674460
12.671947
41.969419
142.161846
286.302567
612.935424
957.865715
1015.584469
1015.584469
1015.584469
1015.584469
1015.584469
1015.584469
837.875605
531.019568
239.632726
121.698976
41.845441
17.728806
11.102557
11.697412
13.220906
16.078949
23.219585
31.801462
45.826435
59.820414
78.938603
90.564489
99.690557
99.674463
93.734860
84.232688
68.173409
56.162477
42.211413
35.842657
29.789805
25.780797
23.393631
22.619963
22.210479
22.191405
21.920800
21.882653
21.651983
21.538734
21.429658
21.296740
21.248460
##ZVALUE=335
0.314713
0.410676
0.463724
0.494719
0.342727
0.329614
0.384450
0.311732
0.211596
0.360608
0.358820
0.478625
0.346899
0.337958
0.291467
0.345707
0.577569
0.419617
0.488758
0.502467
0.625849
0.530481
0.417829
0.495911
0.585914
0.666976
0.515580
0.483990
0.605583
0.643730
0.669956
0.672936
0.767708
0.716448
0.704527
0.847578
0.953674
0.922680
0.920892
1.023412
1.026988
1.126528
1.279712
1.219511
1.423955
1.572967
1.561642
1.917481
2.305508
5.780458
21.214485
86.066723
186.326504
432.586670
719.522834
1015.584469
1015.584469
1015.584469
1015.584469
1015.584469
1015.584469
936.327577
636.734962
334.277749
175.569654
58.949590
24.044514
12.633801
11.640787
12.760758
13.709664
17.370582
22.656918
33.264756
43.233633
61.142445
73.342919
85.987449
92.790723
94.227791
90.885758
78.565478
68.164468
54.602623
44.995546
35.121441
29.791594
24.745464
22.967458
22.206903
21.455884
21.008849
20.415783
20.612478
20.969510
20.744801
##ZVALUE=340
0.325441
0.228882
0.310540
0.397563
0.229478
0.156760
0.150800
0.375509
0.408888
0.243783
0.361800
0.450611
0.512600
0.315905
0.304580
0.382662
0.250936
0.362992
0.299811
0.347495
0.433922
0.351667
0.428557
0.477433
0.461936
0.480413
0.407696
0.445843
0.541806
0.536442
0.602603
0.639558
0.432730
0.700951
0.736713
0.547767
0.580549
0.599623
0.703931
0.848770
0.823736
0.884533
0.967979
1.134872
1.292825
1.212955
1.149774
1.344681
1.630783
1.742840
1.884699
3.044605
10.577440
54.719448
134.489536
336.672664
583.972931
979.747772
1015.584469
1015.584469
1015.584469
1015.584469
1015.584469
1007.862687
734.748840
382.913947
212.344527
85.629821
34.999847
13.908744
11.805892
12.044907
13.203621
14.862418
17.229915
23.021698
30.092001
43.509603
55.399537
71.191788
81.936717
88.232756
88.976622
84.771514
77.563524
65.490603
54.715872
42.632818
35.383701
28.773546
24.855733
21.771789
21.054745
20.028949
20.101666
20.082593
##ZVALUE=345
0.314713
0.322461
0.209808
0.147820
0.330806
0.330806
0.368953
0.319481
0.542998
0.341535
0.235438
0.253916
0.396967
0.509620
0.535846
0.469685
0.490546
0.433922
0.407696
0.287890
0.324845
0.400543
0.283718
0.538826
0.611544
0.361800
0.476837
0.662804
0.518560
0.645518
0.585914
0.635982
0.530481
0.565648
0.475645
0.740886
0.700951
0.678897
0.557899
0.837445
0.725985
0.794530
0.807643
0.844598
0.931621
0.978708
1.150966
1.266599
1.368523
1.357794
1.615882
1.645684
1.868606
2.268553
4.875660
30.950904
89.096427
238.707662
426.456928
805.653930
1015.584469
1015.584469
1015.584469
1015.584469
1015.584469
1015.585065
931.703448
542.602539
299.560428
115.782619
51.551461
18.710494
13.193488
12.375712
12.633801
13.201833
13.996959
17.154813
21.000504
29.684901
39.213896
53.096414
63.782930
75.600743
80.760717
82.685947
81.437826
73.286891
64.070821
52.239895
43.257475
33.066869
27.959943
23.759604
21.041632
19.926429
##ZVALUE=350
0.587702
0.705719
0.541806
0.710487
0.588894
0.480413
0.503659
0.553727
0.562668
0.618696
0.669956
0.511408
0.479817
0.653863
0.678897
0.623465
0.576973
0.652671
0.716448
0.494719
0.709891
0.645518
0.628829
0.696778
0.634789
0.682473
0.732541
0.818968
0.634789
0.731945
0.825524
0.718832
0.815988
0.807643
0.689626
0.829697
0.831485
0.896454
0.865459
1.121759
1.024604
0.988841
0.915527
0.929832
0.962615
1.239777
1.169443
1.185536
1.221895
1.376867
1.395941
1.435876
1.596808
1.860857
1.895428
2.276897
3.118515
15.655756
51.349998
163.633823
313.988924
636.109710
940.743685
1015.800834
1015.800834
1015.800834
1015.800834
1015.800834
1015.800834
669.495463
404.526591
183.187723
83.184838
24.141669
13.677478
11.908412
12.093782
12.242794
12.761950
14.158487
16.323924
21.450520
27.209520
36.686659
46.055913
57.916641
66.974759
74.588656
77.342987
75.282454
68.884492
59.232712
50.763488
38.855672
32.453537
26.394725
##ZVALUE=355
0.389814
0.193715
0.389814
0.371933
0.354648
0.428557
0.438690
0.340939
0.543594
0.232458
0.306964
0.473857
0.527501
0.436902
0.422597
0.372529
0.442863
0.337958
0.363588
0.377893
0.424981
0.274777
0.503659
0.338554
0.590682
0.392795
0.464916
0.412464
0.400543
0.554919
0.515580
0.588894
0.475645
0.486970
0.620484
0.552535
0.690818
0.661612
0.684857
0.757575
0.708699
0.657439
0.684857
0.945926
0.675917
0.781417
0.767708
0.986457
0.949502
0.959635
1.035929
1.180768
1.354814
1.364946
1.424551
1.623631
1.835823
1.903772
2.247691
8.088946
29.980540
111.598969
229.035616
479.408503
760.412812
1015.584469
1015.584469
1015.584469
1015.584469
1015.584469
1015.584469
868.812799
557.281971
253.101587
119.983554
34.784675
15.103817
11.157990
11.353493
11.315942
11.512637
12.088418
13.196468
15.251637
18.235445
24.360418
31.321645
42.411685
50.245523
60.414672
66.445470
69.847703
68.183541
62.382817
56.366920
46.632886
##ZVALUE=360
0.319481
0.280738
0.366569
0.263453
0.374913
0.394583
0.363588
0.347495
0.489950
0.477433
0.312924
0.353456
0.477433
0.319481
0.509620
0.334978
0.404716
0.522733
0.519753
0.439882
0.432730
0.397563
0.478625
0.596642
0.461936
0.360608
0.420809
0.575781
0.653863
0.557899
0.553727
0.611544
0.462532
0.434518
0.266433
0.598431
0.564456
0.704527
0.532866
0.602603
0.587702
0.741482
0.625849
0.733733
0.772476
0.831485
0.904799
0.957847
0.937581
0.895858
1.133680
1.051426
1.065731
1.271963
1.276731
1.265407
1.233816
1.504421
1.828671
1.910925
2.082586
4.030466
14.901757
72.881579
169.634819
394.859910
637.445450
984.154940
1015.584469
1015.584469
1015.584469
1015.584469
1015.584469
930.735469
620.280504
301.435590
155.348778
56.714416
22.493601
11.097789
10.691881
10.577440
10.794997
11.169910
11.351705
12.145638
13.171434
16.492605
20.215511
26.698709
33.583641
44.161677
51.192641
58.770776
62.247515
63.356757
##ZVALUE=365
0.327826
0.385642
0.396967
0.468493
0.366569
0.461936
0.293851
0.363588
0.452995
0.462532
0.377893
0.362992
0.337958
0.342727
0.523925
0.304580
0.435710
0.357628
0.305772
0.497699
0.429749
0.386834
0.435710
0.387430
0.354648
0.421405
0.471473
0.396967
0.390410
0.442863
0.529885
0.516772
0.511408
0.598431
0.637770
0.621676
0.515580
0.703931
0.596642
0.658631
0.605583
0.523925
0.770688
0.777841
0.810623
0.784993
0.857711
0.864863
0.885725
0.947714
1.045465
1.135468
1.063943
1.139641
1.241565
1.280904
1.225471
1.332760
1.438856
1.430511
1.735687
1.838803
2.176762
2.799630
5.518794
37.340522
105.709434
276.230574
501.485467
913.610458
1015.584469
1015.584469
1015.584469
1015.584469
1015.584469
1011.906862
752.337575
393.077731
213.027596
76.725483
31.394958
11.709929
10.284781
10.120869
9.834766
9.765625
10.063648
10.271668
10.506511
11.804700
13.397932
17.824769
22.030473
30.737519
37.072897
45.662522
##ZVALUE=370
0.273585
0.279546
0.314713
0.440478
0.351667
0.437498
0.363588
0.370741
0.311732
0.493526
0.377893
0.444651
0.345707
0.396967
0.501871
0.519753
0.368953
0.390410
0.284910
0.370741
0.459552
0.261664
0.501871
0.474453
0.502467
0.463724
0.472665
0.477433
0.465512
0.486970
0.568628
0.468493
0.431538
0.525713
0.621676
0.580549
0.600815
0.528693
0.555515
0.574589
0.634789
0.652671
0.746846
0.739694
0.650883
0.665784
0.657439
0.780821
0.810623
0.728965
0.871420
0.868440
0.832677
0.994802
0.928640
1.204610
1.235604
1.209974
1.226664
1.267791
1.406670
1.579523
1.802444
1.854897
1.937747
2.203584
3.322959
19.936562
69.052577
221.836567
401.838422
726.771951
996.792912
1015.584469
1015.584469
1015.584469
1015.584469
1015.584469
931.247473
523.660779
294.742584
118.917823
52.712560
17.861724
10.286570
9.057522
8.762479
8.903742
8.979440
9.309649
9.340644
9.478927
10.645986
12.661815
15.055537
20.270944
##ZVALUE=375
0.205636
0.442863
0.400543
0.278950
0.307560
0.400543
0.394583
0.451803
0.198483
0.286698
0.301600
0.364780
0.492930
0.475645
0.391603
0.349879
0.284910
0.494719
0.495911
0.297427
0.313520
0.402927
0.471473
0.454783
0.526905
0.593662
0.353456
0.461936
0.415444
0.495911
0.012517
0.419617
0.674725
0.521541
0.500679
0.490546
0.557899
0.528693
0.511408
0.508428
0.600815
0.691414
0.568628
0.632405
0.566840
0.624657
0.606775
0.600815
0.679493
0.540614
0.699759
0.748634
0.686646
0.727773
0.958443
0.835657
0.916719
0.939965
0.988841
1.065731
1.045465
1.185536
1.210570
1.641512
1.509786
1.639724
1.722574
2.170801
2.715588
10.650754
41.487813
147.922635
301.192999
617.644787
922.259688
1015.580893
1015.580893
1015.580893
1015.580893
1015.580893
1015.580893
675.973892
421.781540
204.076767
100.608468
31.715631
13.319850
8.277893
8.498430
8.220673
8.039474
8.334517
8.338690
8.621812
8.763671
9.386539
##ZVALUE=380
0.315905
0.491738
0.285506
0.290871
0.354648
0.470877
0.272989
0.286698
0.197887
0.278950
0.273585
0.296831
0.206828
0.222921
0.534654
0.352859
0.397563
0.233650
0.384450
0.278950
0.371933
0.466704
0.370741
0.430942
0.383854
0.405908
0.607967
0.361800
0.328422
0.422597
0.414848
0.372529
0.368953
0.490546
0.439882
0.441670
0.457764
0.402927
0.343919
0.457764
0.597835
0.521541
0.438690
0.493526
0.574589
0.546575
0.543594
0.479817
0.572801
0.711679
0.599623
0.468493
0.784993
0.686646
0.783801
0.701547
0.761747
0.879765
0.977516
1.016855
0.905991
0.975728
1.007915
1.091957
1.202822
1.399517
1.509786
1.699924
1.868606
2.324581
2.613664
4.770756
19.084811
100.574493
232.475400
518.571734
812.770724
1015.584469
1015.584469
1015.584469
1015.584469
1015.584469
1015.584469
957.456827
629.793406
297.775865
148.784518
51.377416
20.256639
8.901954
7.539988
7.544756
7.443428
7.642508
7.766485
7.710457
##ZVALUE=385
0.135899
0.159740
0.100732
0.038743
0.105500
0.081658
0.200868
0.086427
0.293851
0.289679
0.092983
0.211596
0.170469
0.141859
0.083447
0.126958
0.131726
0.208616
0.180602
0.323653
0.158548
0.181794
0.272989
0.363588
0.336766
0.235438
0.397563
0.235438
0.157952
0.209808
0.213981
0.242591
0.235438
0.327826
0.195503
0.312924
0.264645
0.243783
0.373721
0.369549
0.412464
0.378489
0.202656
0.414848
0.388622
0.289679
0.459552
0.306964
0.483990
0.409484
0.317693
0.427961
0.645518
0.603795
0.358820
0.427961
0.689626
0.761747
0.617504
0.749826
0.601411
0.728965
0.741482
0.671744
0.714660
0.865459
0.885725
1.141429
1.402497
1.596808
1.612902
2.065897
2.117753
2.831817
8.202791
47.304630
127.083659
341.812968
592.209697
989.768505
1015.456915
1015.456915
1015.456915
1015.456915
1015.456915
1015.123725
756.886005
411.930680
230.073929
91.788769
36.764741
10.525584
7.454753
6.650686
6.614923
6.592870
##ZVALUE=390
0.158548
0.154972
0.374913
0.260472
0.212789
0.345707
0.214577
0.232458
0.257492
0.322461
0.422597
0.264645
0.291467
0.228882
0.196695
0.285506
0.294447
0.188947
0.322461
0.223517
0.322461
0.348687
0.443459
0.295639
0.129938
0.330806
0.256896
0.324845
0.231862
0.470877
0.383854
0.315905
0.396967
0.292659
0.259876
0.444651
0.376701
0.422597
0.392795
0.416636
0.403523
0.317693
0.293851
0.492930
0.545979
0.306964
0.505447
0.531673
0.468493
0.508428
0.564456
0.672936
0.530481
0.520945
0.553727
0.436902
0.677705
0.526905
0.615716
0.752807
0.688434
0.735521
0.648499
0.608563
1.068711
0.913739
1.044869
1.176000
1.316667
1.433492
1.767874
1.970530
1.868606
2.050996
2.193451
2.315640
4.117489
26.581883
87.609887
275.629759
519.360900
962.531567
1015.584469
1015.584469
1015.584469
1015.584469
1015.584469
1015.584469
992.507935
598.389506
334.476829
131.338835
57.484508
15.611649
7.603765
6.612539
##ZVALUE=395
0.226498
0.166893
0.075698
0.308752
0.262856
0.159740
0.284910
0.261664
0.178814
0.200868
0.345707
0.222921
0.323653
0.210404
0.196695
0.162721
0.368953
0.199676
0.264645
0.294447
0.468493
0.243783
0.281930
0.317693
0.346899
0.268817
0.214577
0.228882
0.224710
0.399947
0.277758
0.308752
0.257492
0.166893
0.325441
0.317693
0.378489
0.420809
0.443459
0.452995
0.384450
0.402927
0.407696
0.467896
0.452995
0.477433
0.455976
0.476837
0.489950
0.464916
0.572801
0.405908
0.563860
0.490546
0.487566
0.467896
0.676513
0.691414
0.747442
0.587702
0.708699
0.704527
0.727773
0.689626
0.843406
1.023412
0.999570
1.099706
1.290441
1.471639
1.485944
1.546741
1.526475
1.560450
1.645684
1.758933
1.733899
2.003908
2.679825
14.111400
55.427551
195.678473
371.760726
690.614581
983.068943
1015.578508
1015.578508
1015.578508
1015.578508
1015.578508
1015.578508
721.849799
436.427593
185.915828
87.190866
26.763678
##ZVALUE=400
0.222921
0.254512
0.099540
0.227690
0.223517
0.328422
0.192523
0.311732
0.257492
0.287890
0.263453
0.256896
0.161529
0.205636
0.360608
0.204444
0.271797
0.276566
0.254512
0.375509
0.188947
0.363588
0.276566
0.241995
0.163913
0.435710
0.363588
0.462532
0.242591
0.476837
0.358820
0.364780
0.432730
0.329614
0.248551
0.460744
0.384450
0.290871
0.249743
0.355840
0.285506
0.400543
0.406504
0.311732
0.493526
0.403523
0.430942
0.464916
0.462532
0.430942
0.343919
0.424981
0.540614
0.639558
0.388622
0.617504
0.536442
0.586510
0.527501
0.525713
0.527501
0.626445
0.772476
0.813603
0.804663
0.900626
0.956655
0.961423
1.055598
1.297593
1.399517
1.545548
1.393557
1.492500
1.325607
1.472831
1.487732
1.689792
1.803637
1.947880
2.170801
6.780624
26.103854
101.739764
223.635435
508.606434
812.137723
1015.584469
1015.584469
1015.584469
1015.584469
1015.584469
1015.584469
856.977701
560.559630
272.924900
##END
