##TITLE=QP00352
##FORMAT=SPECTACLE-ASCII V-1.2
##DATA TYPE=ULTRAVIOLET SPECTRUM
##SECOND TYPE=ULTRAVIOLET SPECTRUM
##DATE=01/24/18
##TIME=17:24:10
##SPECTROMETER/DATA SYSTEM=SPECTACLE
##XUNITS=NM EM
##YUNITS=ENERGY
##YFACTOR=1
##FIRSTX=220
##LASTX=410
##NPOINTS=96
##3DDATA=Equidistant
##ZUNITS=NM EX
##FIRSTZ=210
##LASTZ=400
##ZPOINTS=39
##XYDATA=(Y..Y)
##ZVALUE=210
1.676679
1.891851
1.944900
2.011657
2.072453
2.128482
2.143979
1.892447
2.203584
2.398491
2.308488
2.202988
2.690554
2.460480
3.019571
3.028512
2.655983
3.242493
3.490448
3.160834
2.941489
3.164411
3.629923
3.314614
4.769564
4.296899
4.012585
4.047751
4.584789
4.506707
5.484819
5.476475
5.163550
5.934834
5.889535
5.457997
5.191565
5.282760
5.697608
5.364418
6.028414
6.353855
7.152557
6.658435
6.450415
7.257462
7.351637
7.093549
7.203817
6.732941
6.669760
6.687641
6.382465
7.292628
7.651448
7.446408
7.657409
8.284450
6.843805
8.597970
7.441640
8.039474
7.272959
8.678436
7.562637
9.023547
8.518696
10.468960
11.512637
14.532804
17.122626
19.989610
23.196936
25.004745
29.166937
30.499697
30.985475
30.163527
30.051470
28.191805
28.649569
23.531914
22.364855
17.273426
15.067458
13.149977
11.263490
9.686947
8.543730
8.458495
8.901954
8.341670
8.977652
8.962750
9.562969
9.016991
##ZVALUE=215
4.390478
5.175471
4.518628
4.064441
3.896952
3.728867
3.876686
3.898740
3.368855
4.220605
4.879832
4.110932
3.387928
3.415942
3.046989
3.126860
2.954602
3.206730
3.075600
4.386902
3.609657
3.844500
4.348755
4.313588
4.685521
4.765987
5.219579
5.204678
4.941821
5.550981
4.487634
5.373955
5.958676
6.486773
6.230474
6.170869
6.233454
6.208420
6.544590
6.559491
6.520748
6.989837
7.627606
7.878542
7.792711
7.187724
7.953644
7.301569
7.936954
7.749796
7.377863
8.437634
7.841587
8.179545
7.987618
8.010864
8.510947
8.228421
8.252859
9.454489
10.168552
9.756684
8.987784
9.754896
8.874536
10.062456
10.524988
10.995865
13.694763
13.989806
18.220544
21.206737
24.139881
25.905967
30.581951
32.474995
31.586885
29.899478
30.873418
27.818680
26.179552
23.776889
18.948913
17.076731
15.079975
13.596416
11.681914
11.124611
10.301471
8.800626
9.616613
8.979440
9.380579
9.496808
9.671450
9.432435
##ZVALUE=220
18.352866
20.294785
21.891594
22.608638
21.491647
18.818974
13.780594
11.946559
10.109544
9.725690
9.671450
11.081696
10.458827
9.710789
9.017587
6.964803
5.849600
4.205704
4.078746
3.228784
3.595948
4.630685
4.031658
4.777908
5.174875
4.560947
5.624890
5.769730
6.115437
5.902648
6.665587
6.222725
6.813407
6.507635
7.521510
7.235408
7.933974
7.877946
7.634759
7.579923
6.866455
7.023811
6.978512
7.632971
7.911921
7.478595
8.464456
8.303523
8.966923
9.064674
9.697676
8.359551
10.417700
8.626580
8.289814
9.659529
9.953976
10.935664
9.387732
9.955764
10.630488
10.660887
10.062456
11.456609
11.240840
11.802912
13.259649
13.717413
14.333725
17.824769
19.624829
23.705959
28.645992
29.268861
32.790899
35.845637
37.852526
36.456585
34.552813
31.399727
30.464530
26.111603
22.683740
21.244884
18.303990
17.181635
14.796853
11.833906
12.511611
11.722445
10.448694
10.488629
10.759830
10.544658
10.107756
11.274815
##ZVALUE=225
37.860870
36.326647
54.998994
65.306425
74.502826
74.796677
73.982477
59.906840
44.553876
36.211610
25.638938
22.672415
22.340417
23.955703
23.163557
21.795630
19.600987
14.802814
12.658834
8.315444
6.621480
5.224943
5.960464
6.264448
6.525517
5.267859
4.946589
6.323457
6.705523
7.982850
6.873608
7.650852
7.824898
8.764863
7.938743
8.403659
7.710457
8.647442
8.832812
8.842945
8.265972
8.991957
8.376837
7.799864
9.556413
8.616447
8.892417
9.206533
10.233521
11.121631
10.834932
10.674596
10.527968
10.876656
12.502670
9.877682
11.775494
10.794997
11.230707
11.390448
12.727976
11.695623
12.097955
11.858940
12.615919
14.200807
11.894703
16.262531
16.172528
20.003915
21.813512
23.746490
26.626587
30.919909
31.892657
32.154918
33.020973
33.010840
31.404495
28.383732
28.283596
25.630593
21.949410
20.329952
19.434690
16.494989
15.232563
15.087724
13.720989
13.257861
12.936592
13.522506
11.431575
13.246536
11.981726
12.199879
##ZVALUE=230
35.398602
36.625862
59.889555
100.001693
141.490698
180.535913
193.361640
206.626654
191.848874
162.063837
123.557448
88.011622
58.494806
48.536658
43.475628
46.233535
50.055981
46.636462
41.928887
34.734607
28.459430
20.438433
11.367798
9.468794
7.117987
6.504655
7.446408
7.303953
7.793903
8.615851
8.650422
8.471608
8.854866
9.345412
8.838773
9.440780
9.924769
9.878874
9.359717
9.091496
8.995533
9.693503
9.750724
10.355711
8.725524
9.722710
8.568764
10.087490
10.962486
10.139942
10.794997
11.854768
11.207461
11.617541
10.879636
11.963844
11.933446
12.307763
11.801720
12.548566
13.425946
13.273954
13.400912
14.748573
14.520884
16.382933
15.940666
15.990734
19.295812
20.868778
22.406578
26.536584
29.576421
33.676624
30.888915
35.810471
34.206510
33.243895
31.948686
30.917525
28.118491
25.500655
22.840500
21.406412
21.313429
18.619895
18.017888
16.704798
16.163588
17.463565
17.231703
16.462803
14.434457
15.586615
15.000701
14.698505
##ZVALUE=235
12.742877
13.596416
35.314560
68.739653
115.883946
194.678903
276.395679
378.183722
430.525541
438.134670
404.333472
313.592553
241.284966
154.456496
108.950734
79.531670
73.256493
77.494979
81.337690
83.146691
76.244473
68.000555
48.547983
38.432479
24.626851
18.490553
12.467504
10.062456
9.931922
8.663535
10.555983
9.635687
11.080503
10.943413
9.306669
11.072755
11.476874
11.015534
11.146665
9.855628
9.867549
10.508895
9.327531
10.794997
11.629462
10.710955
9.684563
9.917617
10.512471
11.096597
11.023879
11.566877
11.059642
10.731816
11.984706
11.764765
11.972785
12.776852
12.351871
13.549924
13.800859
13.590455
14.805794
15.522838
16.195774
16.096830
15.968680
18.863678
20.613670
21.048784
25.215745
26.888847
29.853582
34.614801
32.853484
36.561489
35.897493
35.392642
32.569766
33.189654
29.769540
27.277470
25.284886
22.444725
22.388697
23.210645
21.004677
20.010471
20.138621
21.013618
20.494461
20.023584
19.371510
20.295978
20.329952
18.941760
##ZVALUE=240
2.292991
1.757741
5.600452
19.981861
45.112967
106.281638
184.425712
338.554978
468.142629
604.983568
735.991597
749.596953
692.994595
582.787991
425.913930
298.969746
173.794627
127.083659
100.822449
98.764896
108.625889
115.284920
114.365816
101.954937
88.685751
66.168904
49.741864
33.690929
26.970506
17.978549
15.581846
13.263822
13.594627
13.733506
13.182759
11.670589
12.027621
12.545586
12.224913
10.834932
10.599494
9.797812
11.683702
11.433959
11.280775
11.057854
11.666417
11.205673
10.074973
11.480451
11.349916
10.798573
12.542605
12.193918
12.090802
13.512969
12.304783
13.320446
15.150905
15.260577
15.366673
15.523434
15.908480
16.284585
18.604994
19.096732
19.725561
20.567775
22.610426
24.279952
26.388764
30.272603
32.623410
34.682751
38.130879
37.162900
38.699508
37.308931
34.328699
34.030676
33.183694
31.314492
29.105544
27.319789
27.079582
27.005672
25.392771
25.931597
24.953485
24.770498
24.865866
22.567511
23.496747
21.872520
23.023486
23.591518
##ZVALUE=245
1.383424
1.602769
1.546741
1.285672
4.786849
14.289618
44.021606
90.916753
219.228864
339.880586
571.782589
718.163848
846.878886
927.035809
893.477798
763.005614
617.298484
410.271883
278.993845
159.551501
117.060542
104.605556
114.785433
126.962662
133.874416
129.617453
113.293529
99.759698
75.884461
57.063699
41.179657
28.791428
20.430684
15.390515
14.679432
14.007688
12.641549
12.168884
12.201667
11.517406
10.703802
10.547638
10.064840
10.845661
10.461807
8.810759
9.574890
9.231567
9.829998
8.889437
9.996891
11.131763
10.503531
11.384487
9.660721
11.669993
10.674000
11.041760
11.518598
11.302829
12.410879
12.507439
12.625456
14.559627
13.932586
15.053749
15.749931
17.063618
17.051697
19.786954
23.207664
24.434924
28.276443
30.156970
30.349493
32.582879
32.828450
31.253695
29.211640
30.169487
28.061867
29.773712
25.354624
25.551915
25.743842
22.822618
23.505688
23.642778
23.328662
23.492575
23.406744
21.919608
22.854805
22.493601
21.937490
22.517443
##ZVALUE=250
1.293421
1.086593
1.330972
1.832843
1.536608
1.716614
2.609491
10.660887
29.527545
71.009994
180.023909
335.498452
593.643785
806.939602
1015.584469
1015.584469
1015.584469
1015.584469
962.678790
723.443627
482.653975
255.770683
153.673887
108.357668
107.241869
123.223662
139.672756
142.817497
142.750740
126.555562
106.088519
82.214475
62.844753
41.848421
29.343963
18.597841
14.255643
12.324452
11.269450
10.434985
10.143518
9.989738
9.746552
10.222793
9.173751
8.699894
7.665753
8.640885
8.338690
8.474588
8.609891
7.940531
9.252429
9.294748
9.441972
8.575916
9.529591
10.348558
10.314584
9.787679
10.211468
10.748506
10.606647
11.194944
11.702776
12.703538
12.913942
15.259981
16.747713
17.581582
19.725561
21.792650
24.584532
26.354790
27.849674
28.836727
30.300617
28.298497
27.389526
27.393699
25.911927
24.364591
23.476481
23.254752
22.680759
21.875501
22.415519
21.815896
22.309422
20.461679
20.931959
22.479892
23.351908
21.290779
19.928813
21.879673
##ZVALUE=255
1.057982
1.346469
1.290441
1.429915
1.353621
1.460910
1.410842
2.024770
1.949668
6.237626
18.436909
62.099695
132.732391
303.543806
493.075848
822.500587
1015.584469
1015.584469
1015.584469
1015.584469
1015.584469
996.598005
640.888810
395.715833
189.345479
126.048923
101.165771
110.996962
131.042004
146.361589
150.289536
147.401690
132.791996
108.082891
86.518526
61.144829
41.610599
25.333762
16.382933
11.913776
9.909868
9.325743
8.688569
8.876920
8.496642
8.185506
8.417964
7.686615
7.798672
8.130670
7.960796
8.295774
8.565784
8.222461
7.817745
8.550882
8.264780
8.749962
8.275509
8.820891
9.896755
9.531975
9.173751
9.852648
10.144711
11.406541
11.409521
13.024807
14.551878
15.930533
16.946793
19.085407
20.074844
22.536516
24.094582
23.698807
23.549795
22.975802
22.457838
22.176504
20.229816
20.734668
19.747615
20.855665
18.978715
18.935800
18.482804
19.171834
18.599629
18.923879
18.821955
19.592643
18.725991
18.977523
19.149780
20.455718
##ZVALUE=260
1.023412
1.259446
1.049638
1.278520
1.409650
1.249909
1.425743
1.378655
1.780987
1.814961
1.966953
2.661943
9.004474
40.626526
88.307858
221.982598
379.056931
662.861466
930.396914
1015.584469
1015.584469
1015.584469
1015.584469
1015.584469
743.909478
492.960811
264.931917
153.348446
93.123913
89.285970
102.179646
127.915740
146.119595
153.399706
150.100589
133.141875
109.795928
83.377957
59.753656
37.008524
27.147532
15.396476
11.426806
8.888841
8.143783
6.963611
7.651448
8.073449
7.121563
7.499456
7.241964
7.990599
6.760955
7.379651
7.547736
7.701516
8.005500
7.453561
8.218884
7.657409
8.164644
8.160472
8.363724
8.729696
8.944869
9.857416
9.543896
10.015965
11.490583
12.699962
14.172792
15.075803
16.477704
17.707944
17.933846
18.829703
19.169450
18.818974
17.312765
18.162727
17.819405
17.526746
17.698407
16.492605
17.548800
16.568899
16.589761
16.015768
16.633868
16.820431
16.524792
17.496943
16.739964
16.328692
16.611814
16.725659
##ZVALUE=265
0.946522
0.982881
1.203418
1.159906
0.952482
1.118779
1.137853
1.163483
1.284480
1.501441
1.455545
1.468658
1.714826
2.323985
5.020499
24.424791
62.322617
163.313746
300.796628
586.158633
840.435028
1015.584469
1015.584469
1015.584469
1015.584469
1015.584469
853.645802
595.970750
320.140719
190.230608
101.204515
78.859925
83.063841
109.387636
128.189921
148.845911
153.965950
147.121549
130.569935
104.934573
82.467794
55.101514
37.391782
20.994544
14.279485
8.979440
7.608533
7.069707
6.917715
6.398559
6.847978
7.376671
6.787777
6.631613
7.283688
7.005930
7.169843
7.470846
7.263422
7.647872
7.201433
7.735491
7.227659
7.816553
8.485913
8.256435
9.004474
10.092854
11.233687
11.606812
12.168884
13.058782
14.583468
15.842915
16.204715
16.105771
16.241670
15.918612
15.710592
15.472770
15.299916
14.601946
15.516877
14.448762
14.545918
15.176535
14.608502
14.856458
14.723539
14.826655
14.580488
15.074611
14.968514
15.687943
16.360879
15.627742
##ZVALUE=270
0.940561
1.012683
0.889897
0.891685
1.096725
1.120567
0.932813
1.000762
1.114607
1.170635
1.091957
1.275539
1.529455
1.493692
1.336932
2.224445
2.273917
11.250973
34.147501
117.253661
236.079693
435.531735
803.653598
1015.610695
1015.610695
1015.610695
1015.610695
1015.610695
1015.610695
821.002722
561.215878
294.681787
161.428452
77.845454
65.188408
82.600713
103.946924
131.587982
145.467520
152.637959
149.086714
128.048658
107.749701
79.798698
58.092475
35.510659
23.777485
13.883710
9.935498
7.638931
6.950498
6.409883
6.629825
6.762743
6.262660
6.348491
6.673932
6.973743
7.173419
7.113814
7.298589
7.427931
7.433891
7.441640
7.215738
7.695556
8.441806
8.865595
9.883642
11.287928
11.537671
12.883544
13.372898
14.679432
14.652610
14.710426
14.769435
14.217496
14.796853
14.073849
13.528466
13.144612
13.603568
12.716651
13.342500
13.673902
13.400912
13.486743
13.107657
13.519526
14.198422
14.083982
13.954639
14.399886
15.174747
14.799833
##ZVALUE=275
1.080632
0.884533
0.748634
0.786781
0.922680
0.807643
0.950694
1.056790
0.939965
1.316667
1.086593
1.322627
1.328588
1.072884
1.325607
1.251698
2.002716
2.036691
2.037883
5.365610
21.515489
63.129663
194.593668
384.023786
746.974945
1013.081670
1015.579700
1015.579700
1015.579700
1015.579700
1015.579700
1008.070707
729.641914
379.473567
214.695930
92.669725
57.395697
60.069561
77.802539
107.417703
128.140450
146.083832
151.142478
144.221783
131.689906
103.853941
82.828999
57.054758
40.253997
23.987889
15.114546
9.646416
7.959604
6.882548
6.526709
6.373525
6.677508
7.397532
6.881952
7.038713
7.133484
7.840991
7.365942
7.520914
7.895827
7.771850
8.611679
8.525848
9.783506
9.761453
10.811687
12.026429
12.765527
13.516545
13.823509
14.479756
14.010668
13.598800
13.519526
13.591647
12.601614
13.053417
12.531877
12.695789
12.770891
12.501478
12.361407
12.431741
12.414455
13.370514
12.626648
12.447834
12.997985
12.631416
12.973547
12.636781
##ZVALUE=280
0.902414
0.866652
0.871420
0.891685
0.796914
0.962615
0.828505
0.799894
0.904799
0.846982
0.993609
1.064539
0.909567
1.088977
1.099706
1.108646
1.367927
1.431704
1.580715
1.761913
2.035499
2.848506
15.489459
49.889684
158.845782
304.553509
606.876016
915.412903
1015.584469
1015.584469
1015.584469
1015.584469
1015.584469
1015.584469
882.442594
492.134690
283.366442
120.467544
61.950684
42.998791
54.503679
79.120994
101.552606
128.086805
141.334534
149.930716
142.630935
124.170780
107.538700
80.014467
58.609843
37.058592
25.398731
14.786720
10.490417
7.355809
6.908774
6.689429
7.173419
7.274747
7.568598
7.517934
7.448792
7.635951
7.591844
7.608533
8.200407
8.934736
9.381771
9.828806
10.598898
10.913610
11.894703
13.058782
12.723804
13.199449
12.702942
12.648702
12.249947
12.367964
11.877418
11.661649
11.917949
12.126565
11.951923
11.749864
11.636615
11.781454
11.647940
11.613965
12.183785
11.576414
11.923909
11.627674
12.176633
12.098551
##ZVALUE=285
0.790954
0.701547
0.586510
0.647902
0.641942
0.622869
0.693798
0.681877
0.799894
0.835657
0.756979
0.729561
0.790954
1.024604
1.093745
1.184940
1.053810
1.382828
1.370907
1.420975
1.599789
1.650453
2.028942
2.072453
7.125735
24.644732
86.593628
182.639956
400.504470
642.910600
926.507711
1015.584469
1015.584469
1015.584469
1015.584469
1015.584469
1008.126736
650.956631
398.809910
186.094642
91.865659
39.941669
36.381483
51.819682
73.243976
101.979971
118.567944
137.166977
142.487884
139.288902
125.836730
103.519559
84.197521
57.392716
40.055513
23.839474
15.895963
10.258555
7.991791
7.389784
7.396936
6.788969
7.037520
6.792545
7.397532
7.920861
8.403659
8.940697
8.488894
9.291768
9.744763
10.742545
10.891557
11.352897
11.600852
12.275577
11.730790
11.606812
11.539459
11.718869
11.269450
11.381507
11.536479
10.872483
11.142492
11.436939
11.246800
11.343956
10.819435
11.609793
11.394620
11.209846
11.306405
11.239648
11.094809
11.355877
##ZVALUE=290
0.730753
0.636578
0.682473
0.718832
0.698566
0.917912
0.665784
0.736713
0.668764
0.690818
0.724792
0.807643
0.746846
0.833869
0.868440
0.843406
1.024604
1.255870
1.188517
1.090765
1.210570
1.560450
1.485944
1.547933
1.825690
2.165437
3.168583
10.484457
50.152540
116.764903
278.504491
483.438969
768.246651
1015.584469
1015.584469
1015.584469
1015.584469
1015.584469
1015.584469
907.036662
593.728423
294.597745
143.250823
49.147606
29.298663
35.242438
47.620535
70.889592
90.492964
114.510655
129.434466
140.996575
136.649609
122.235417
104.587674
77.634454
57.681799
37.163496
25.057793
15.644431
10.856986
8.678436
7.858872
7.331967
7.579923
7.818937
7.623434
8.235574
8.827448
8.881688
9.769797
10.383725
10.899901
11.201501
11.177659
11.736751
11.484623
11.198521
11.797547
11.681914
11.123419
10.980964
11.074543
11.313558
11.059642
11.126995
11.280775
11.003613
11.437535
10.791421
10.824800
10.631680
10.943413
10.776520
10.900497
10.687709
##ZVALUE=295
0.558496
0.614524
0.625849
0.601411
0.533462
0.659823
0.544786
0.627637
0.546575
0.595450
0.786781
0.689626
0.746846
0.714660
0.670552
0.681877
0.915527
0.823736
1.123548
1.035929
0.990629
1.184940
1.207590
1.223683
1.441836
1.506805
1.572967
1.913905
2.274513
4.579425
26.827455
78.909993
177.031755
417.497754
673.707724
1015.584469
1015.584469
1015.584469
1015.584469
1015.584469
1015.584469
977.115035
687.080622
354.501009
192.638636
71.535707
33.643842
22.698641
29.134750
46.124458
62.790513
87.975860
108.743906
124.600530
132.860541
130.106807
118.281841
99.064708
78.682899
53.948760
39.785504
23.334622
16.351938
10.796785
8.810759
8.080602
8.078814
8.097887
8.438826
8.932948
9.477735
9.758472
10.324717
10.723472
11.038780
11.259913
10.532737
10.857582
10.715723
11.097789
10.483861
10.723472
10.318756
11.088848
10.693669
10.684729
10.606647
10.904670
10.719895
10.460615
10.890961
10.238886
10.463595
10.598898
10.440946
10.235906
##ZVALUE=300
0.581741
0.551939
0.612736
0.549555
0.400543
0.428557
0.608563
0.595450
0.647902
0.603795
0.599623
0.566840
0.757575
0.775456
0.831485
0.727773
0.905991
0.713468
0.714660
0.855923
0.939965
0.906587
1.207590
1.062751
1.272559
1.178980
1.642704
1.370907
1.925826
1.953840
2.260804
2.702475
8.475780
49.041510
124.588013
317.591429
549.410582
960.396528
1015.584469
1015.584469
1015.584469
1015.584469
1015.584469
1015.584469
890.601873
496.809483
291.664004
125.948787
56.543946
21.185875
18.692613
27.482510
38.796663
59.692860
78.724623
103.644729
118.449926
127.832890
125.620961
112.167001
98.362565
73.586702
57.091713
38.512945
27.122498
17.095804
12.297630
9.802580
9.131432
8.963943
9.653568
10.173917
10.358691
10.948777
11.469722
11.041760
11.242628
10.667443
10.903478
10.790825
10.917783
11.517406
10.975599
10.719895
11.179447
11.292696
10.716915
10.517836
11.314750
11.095405
11.175871
10.613799
10.305643
10.170937
10.541677
10.521412
##ZVALUE=305
0.509620
0.555515
0.424981
0.542998
0.503659
0.641942
0.647902
0.691414
0.532866
0.623465
0.490546
0.547767
0.512600
0.604987
0.586510
0.679493
0.860691
0.637770
0.655651
0.728965
0.806451
0.831485
0.964999
1.048446
1.176000
1.191497
1.371503
1.349449
1.421571
1.495481
1.508594
1.838803
2.230406
2.634525
4.862547
33.463836
93.122721
249.874592
443.007946
812.536478
1015.584469
1015.584469
1015.584469
1015.584469
1015.584469
1015.584469
1015.584469
693.296790
426.021814
190.455914
91.277957
29.001832
15.253425
17.791986
24.921894
40.544868
56.493878
80.715418
97.170472
113.550425
119.601488
117.668509
108.923912
93.153715
75.865984
52.047968
39.250851
25.578737
18.150806
12.604594
10.799766
10.356903
10.627508
10.742545
10.917783
10.904670
11.061430
10.939837
10.869503
10.535717
10.780692
10.642409
11.047721
11.302829
10.814667
11.091828
11.266470
10.758638
10.828972
10.613799
10.596514
10.758638
10.552406
10.166764
10.530949
10.439754
##ZVALUE=310
0.510812
0.498891
0.455976
0.439882
0.381470
0.543594
0.475645
0.506639
0.522733
0.525713
0.440478
0.630617
0.454783
0.547767
0.576973
0.542998
0.618696
0.498891
0.495911
0.679493
0.694990
0.956655
0.692606
0.737906
0.932813
0.769496
1.123548
1.138449
1.334548
1.279712
1.411438
1.385808
1.632571
2.048612
1.877546
2.101660
2.708435
12.591481
45.907497
154.766440
304.147601
632.466674
943.854451
1015.573740
1015.573740
1015.573740
1015.573740
1015.573740
1015.573740
956.652761
640.465617
317.788720
164.765716
55.010915
21.671653
13.291836
16.371608
23.884773
33.846498
51.246881
67.524910
89.339614
102.865696
112.282634
113.441944
104.696751
93.408823
73.581934
57.251453
38.094521
28.517842
18.986464
14.503598
12.048483
11.281967
11.224747
11.162758
11.282563
10.795593
10.832548
10.949969
11.331439
11.150837
11.237860
11.290908
11.485815
10.542870
10.812879
11.509657
11.062622
10.836720
10.958910
10.737777
10.601878
9.989738
10.714531
##ZVALUE=315
0.495911
0.391603
0.430942
0.664592
0.383854
0.591874
0.469685
0.467896
0.600815
0.585914
0.561476
0.587702
0.525713
0.574589
0.742674
0.599623
0.568628
0.463724
0.541806
0.706911
0.715852
0.607967
0.633597
0.908971
0.924468
0.877976
0.884533
0.985861
1.287460
1.186728
1.089573
1.177788
1.290441
1.433492
1.521707
1.776814
1.814961
2.368689
2.431870
5.667806
23.122430
100.471973
223.248005
500.067472
818.286538
1015.584469
1015.584469
1015.584469
1015.584469
1015.584469
1015.584469
1015.585065
833.208561
440.634489
232.315660
81.765652
31.334758
12.214780
11.786819
15.307665
20.809770
33.115745
46.099424
65.881610
82.283616
101.152658
107.505918
108.407736
102.710724
86.525679
71.948767
54.202676
40.227771
26.616454
19.524693
14.508963
12.444854
11.119843
11.210442
10.566711
10.659695
11.287928
11.318922
10.847449
11.634827
10.941625
11.115670
11.047721
11.042953
11.285543
11.014938
10.984540
10.481477
10.997653
11.023879
10.340810
##ZVALUE=320
0.390410
0.381470
0.370741
0.524521
0.286698
0.515580
0.453591
0.368953
0.493526
0.548959
0.677705
0.505447
0.674725
0.570416
0.479817
0.589490
0.610948
0.771880
0.761747
0.614524
0.713468
0.543594
0.644922
0.715852
0.818968
0.732541
0.771880
0.980496
1.053810
0.946522
0.918508
1.117587
1.163483
1.073480
1.303554
1.244545
1.375675
1.616478
1.831651
2.056956
2.170801
2.746582
12.319684
45.297742
164.040923
331.704617
679.731965
982.815027
1015.626788
1015.626788
1015.626788
1015.626788
1015.626788
1015.626788
978.732705
654.206872
301.841497
153.516531
51.281452
19.998550
10.554790
11.175871
13.908744
18.837452
30.394793
42.471886
60.911775
75.134635
94.370842
103.683472
102.532506
98.669529
85.508823
71.398616
52.079558
40.250421
27.143955
19.880533
14.126897
12.411475
11.847615
10.983944
10.918975
11.173487
10.880828
10.833740
10.949969
10.957718
11.312962
11.118650
10.882616
10.834932
11.003613
10.859966
10.619760
10.898709
##ZVALUE=325
0.399947
0.435710
0.502467
0.543594
0.485778
0.389814
0.571609
0.425577
0.621676
0.312924
0.575781
0.300407
0.577569
0.383854
0.434518
0.403523
0.673532
0.740886
0.511408
0.594854
0.564456
0.661612
0.695586
0.665784
0.735521
0.786781
0.726581
0.733733
0.893474
0.923872
0.811815
0.931621
1.150966
1.107454
1.075864
1.251698
1.172423
1.415610
1.488924
1.601577
1.756549
2.122521
2.406836
2.830625
5.547404
42.037964
112.315416
306.196809
558.110476
995.355844
1015.584469
1015.584469
1015.584469
1015.584469
1015.584469
1015.584469
1015.584469
757.791996
450.794697
192.841887
88.034868
25.864840
12.224913
9.916425
10.835528
13.688803
18.769503
29.863715
41.806698
59.827566
74.739456
89.010000
96.251965
98.013878
91.778636
78.513622
65.277815
49.043894
37.273765
24.607778
19.280910
14.808774
12.415648
11.684895
11.391640
11.011958
10.907650
10.947585
10.931492
10.744929
10.944605
11.143684
10.697842
10.626912
10.824800
10.989904
##ZVALUE=330
0.332594
0.465512
0.338554
0.348687
0.444651
0.382662
0.383854
0.361800
0.545979
0.408888
0.465512
0.523925
0.465512
0.614524
0.525713
0.512600
0.652671
0.523925
0.484586
0.549555
0.520945
0.660419
0.554919
0.594854
0.516772
0.699759
0.735521
0.705719
0.699759
0.778437
0.761747
0.930429
0.880957
0.942945
0.898838
1.007915
1.054406
1.045465
1.256466
1.372695
1.566410
1.438856
1.744628
1.628995
1.945496
2.774596
3.424883
16.335845
55.717826
196.886659
390.729904
809.285641
1015.583873
1015.583873
1015.583873
1015.583873
1015.583873
1015.583873
1015.583873
981.494784
655.465722
302.711725
149.759650
46.890974
17.442703
9.788871
9.884834
11.074543
13.547540
19.873977
27.360916
40.833950
55.226684
72.764754
83.483458
92.351437
92.288852
85.515976
75.295568
59.425831
46.405792
33.570528
25.488734
18.525720
15.175939
12.776852
11.606812
11.201501
10.677576
10.723472
10.785460
10.868907
10.528564
10.469556
10.915995
10.671616
##ZVALUE=335
0.345707
0.455976
0.322461
0.310540
0.197887
0.205636
0.351667
0.336766
0.351667
0.327826
0.425577
0.364780
0.471473
0.405908
0.413656
0.393987
0.402927
0.435710
0.378489
0.468493
0.536442
0.295639
0.617504
0.542998
0.555515
0.722408
0.738502
0.580549
0.537634
0.641942
0.638962
0.828505
0.801682
0.758767
0.948906
0.767708
0.807643
0.948906
1.002550
1.010895
1.092553
1.203418
1.183748
1.505613
1.576543
1.908541
1.991987
2.502799
2.608895
7.306933
27.766824
118.055940
259.232521
602.021813
968.503952
1015.517712
1015.517712
1015.517712
1015.517712
1015.517712
1015.517712
1015.517712
846.940875
435.376763
222.525001
69.823861
25.656819
11.234879
9.826422
10.178685
11.280775
14.163852
18.734932
28.311610
38.728714
54.627657
66.996813
79.704523
86.504817
85.512996
81.459880
68.799853
58.075786
45.102835
35.346746
25.077462
19.738674
14.685988
12.451410
11.119843
10.909438
10.249615
10.361671
10.164976
10.416508
10.533929
##ZVALUE=340
0.393987
0.192523
0.178814
0.350475
0.322461
0.449419
0.317693
0.452995
0.476837
0.398755
0.481606
0.405908
0.497699
0.390410
0.479817
0.297427
0.341535
0.456572
0.441670
0.539422
0.553727
0.512600
0.590682
0.632405
0.568628
0.629425
0.442863
0.531673
0.708699
0.735521
0.552535
0.679493
0.718832
0.758767
0.849962
1.012683
1.006722
1.136661
0.893474
1.039505
1.208782
1.152754
1.188517
1.509786
1.411438
1.560450
1.769662
1.808405
2.126694
2.491474
2.717972
4.267693
14.975667
77.800751
190.658569
493.910909
868.130922
1015.530825
1015.530825
1015.530825
1015.530825
1015.530825
1015.530825
1015.530825
1009.158492
544.397831
292.913914
110.607743
41.610599
13.540983
10.743737
10.938644
10.947585
11.914968
13.744831
19.840598
25.971532
38.391948
48.749447
65.219998
74.097514
80.932975
80.780983
76.893568
68.350434
56.189895
45.402646
33.379793
26.345849
18.504858
14.702678
11.989474
10.950565
10.096431
10.113716
9.721518
##ZVALUE=345
0.094771
0.124574
0.156760
0.119805
0.040531
0.200868
0.221729
0.169873
0.269413
0.186563
0.146627
0.301600
0.047684
0.245571
0.174642
0.105500
0.222921
0.437498
0.341535
0.284910
0.317693
0.465512
0.265837
0.442863
0.378489
0.299811
0.270605
0.400543
0.309944
0.438690
0.440478
0.579953
0.513792
0.558496
0.570416
0.550747
0.694990
0.595450
0.728965
0.726581
0.731945
0.769496
0.958443
0.998974
0.971556
1.067519
1.128912
1.452565
1.537800
1.456738
1.543760
2.146959
2.247691
2.816916
6.399751
42.977929
124.813914
338.554978
621.157885
1015.375853
1015.375853
1015.375853
1015.375853
1015.375853
1015.375853
1015.375853
1015.375853
765.860677
426.890850
159.653425
66.072941
19.794703
11.538863
10.779500
10.197759
10.014772
10.853410
12.804866
16.360879
24.785995
33.381581
47.182441
56.808591
67.285895
72.842836
75.396895
72.585940
63.981414
55.831671
42.881966
34.199953
24.042726
18.381476
13.565421
11.510849
10.408759
##ZVALUE=350
0.359416
0.399947
0.463724
0.424981
0.268817
0.239611
0.527501
0.411868
0.284910
0.409484
0.398755
0.424981
0.380874
0.449419
0.386834
0.503659
0.585914
0.503659
0.359416
0.468493
0.692606
0.572801
0.549555
0.481606
0.542998
0.676513
0.613928
0.447631
0.529885
0.667572
0.516772
0.548959
0.652671
0.471473
0.768900
0.658631
0.830889
0.682473
0.800490
0.803471
0.878572
0.925660
0.973940
1.059771
0.972748
1.082420
1.100898
1.213551
1.144409
1.385808
1.515746
1.534820
1.840591
2.074838
2.322793
2.559423
3.641844
21.270514
77.886581
256.537795
485.326648
950.112939
1015.584469
1015.584469
1015.584469
1015.584469
1015.584469
1015.584469
1015.584469
812.117457
493.786931
222.937465
98.917484
25.656819
11.966825
9.574890
9.364486
8.702874
8.541942
10.005832
11.835694
16.587973
21.624565
30.928850
39.037466
51.538944
59.565902
67.729950
68.975687
66.533685
61.309934
50.629973
41.227937
30.378699
24.105906
17.383695
##ZVALUE=355
0.387430
0.404716
0.536442
0.520945
0.459552
0.340939
0.555515
0.509620
0.463724
0.364780
0.491738
0.474453
0.432730
0.405908
0.513792
0.466704
0.411868
0.319481
0.450611
0.546575
0.453591
0.384450
0.509620
0.616908
0.612736
0.645518
0.534654
0.606775
0.735521
0.561476
0.628829
0.581741
0.632405
0.527501
0.640750
0.718832
0.791550
0.677705
0.717640
0.787973
0.817776
0.807643
0.871420
1.002550
0.965595
0.975728
1.076460
1.208782
1.184940
1.318455
1.374483
1.375675
1.655817
1.679659
1.699924
2.052784
2.244711
2.715588
2.905726
9.634495
36.955476
152.182579
316.880941
669.901967
1001.350880
1015.584469
1015.584469
1015.584469
1015.584469
1015.584469
1015.584469
971.179605
618.362427
266.843438
123.583674
35.585761
14.007688
9.271502
8.941889
8.563995
8.352995
8.532405
8.990765
11.007786
13.468862
19.303560
25.301576
35.459995
43.837428
53.713918
59.605837
62.221885
61.579943
56.013465
48.877597
39.371848
##ZVALUE=360
0.472665
0.396967
0.500679
0.407696
0.280738
0.550747
0.560880
0.495911
0.406504
0.377893
0.489950
0.521541
0.389814
0.471473
0.429749
0.540614
0.526905
0.451803
0.503659
0.518560
0.471473
0.373721
0.610948
0.623465
0.568628
0.423789
0.556707
0.572801
0.606775
0.558496
0.518560
0.791550
0.564456
0.782609
0.647902
0.775456
0.598431
0.647902
0.801682
0.807643
0.708699
0.735521
0.907779
0.826716
0.946522
0.832677
0.896454
0.793934
1.091957
1.157522
1.185536
1.336932
1.379848
1.499653
1.534820
1.549721
1.578927
1.878738
2.186894
2.234578
2.822876
4.792809
16.955733
77.789426
181.679726
438.128710
748.358965
1015.582681
1015.582681
1015.582681
1015.582681
1015.582681
1015.582681
1015.582681
794.306993
375.170708
189.037919
63.681602
23.483634
9.601712
8.585453
8.313656
8.353591
7.705688
7.856488
8.285642
9.278655
11.832714
15.326738
21.849871
29.056668
39.067864
46.164989
53.326488
56.628585
56.798458
##ZVALUE=365
0.493526
0.400543
0.379682
0.387430
0.409484
0.355840
0.336766
0.360608
0.390410
0.243783
0.496507
0.446439
0.418425
0.460744
0.386834
0.412464
0.536442
0.507832
0.499487
0.458956
0.686646
0.553727
0.593662
0.683665
0.442863
0.466704
0.450611
0.554919
0.614524
0.412464
0.737906
0.620484
0.629425
0.683665
0.585914
0.765920
0.635982
0.636578
0.569820
0.833869
0.705719
0.838637
0.827909
0.718832
0.943542
0.995994
0.892878
0.917912
0.919700
1.123548
0.984669
1.347661
1.119971
1.465678
1.348853
1.411438
1.345873
1.640916
1.737475
1.973510
2.097487
2.545714
2.715588
3.240705
6.689429
41.389465
117.769837
320.720673
593.313575
1015.584469
1015.584469
1015.584469
1015.584469
1015.584469
1015.584469
1015.584469
920.946002
585.291982
158.153772
91.172457
36.806464
8.502603
8.615851
7.724762
7.958412
7.554889
7.347465
7.409453
7.585883
9.607673
10.025501
17.368793
18.066764
25.407672
31.676888
44.639707
##ZVALUE=370
0.346899
0.301600
0.309944
0.327826
0.431538
0.586510
0.506639
0.509620
0.444651
0.416636
0.571609
0.417829
0.335574
0.371933
0.392795
0.331998
0.479817
0.521541
0.603795
0.556707
0.635982
0.615716
0.543594
0.575781
0.606775
0.652671
0.522733
0.672936
0.522733
0.571609
0.597835
0.725985
0.682473
0.613928
0.539422
0.750422
0.782609
0.709891
0.659823
0.637770
0.771880
0.633597
0.660419
0.853539
0.863671
1.019835
0.751615
0.953674
0.872612
0.986457
0.948906
1.094937
1.130700
1.142621
1.199841
1.225471
1.304746
1.364946
1.692772
1.654625
1.624823
1.865625
1.904964
2.045631
2.587438
2.975464
4.553795
18.719435
101.298690
236.757994
535.506606
894.538760
1015.584469
1015.584469
1015.584469
1015.584469
1015.584469
1015.584469
870.269537
704.456568
332.672596
90.165734
52.255988
10.587573
8.669496
7.557869
7.345676
6.869435
6.944537
6.397963
6.718636
6.784797
7.423759
8.767843
15.120506
16.623735
##ZVALUE=375
0.433922
0.202656
0.287890
0.373721
0.509620
0.467896
0.312924
0.300407
0.460744
0.356436
0.488758
0.531673
0.424981
0.403523
0.325441
0.211596
0.464916
0.510812
0.501871
0.641942
0.540614
0.439882
0.445843
0.526905
0.473857
0.555515
0.564456
0.584722
0.575781
0.622869
0.450611
0.530481
0.532866
0.529885
0.606775
0.589490
0.736713
0.785589
0.644922
0.579953
0.595450
0.786781
0.720620
0.704527
0.600815
0.687838
0.612736
0.626445
0.774860
0.754595
0.713468
0.761747
1.016855
0.978708
0.854731
1.017451
0.979900
1.195669
1.041889
1.187921
1.291633
1.419783
1.431704
1.670718
1.701713
1.979470
2.156496
2.419949
3.289580
11.876822
47.460794
176.320672
370.851755
784.548521
1015.584469
1015.584469
1015.584469
1015.584469
1015.584469
1015.584469
1015.584469
882.901549
553.044677
265.069008
124.918818
35.256743
12.699962
7.378459
6.933808
6.692410
6.504655
6.161928
6.209612
5.800724
6.204844
6.879568
##ZVALUE=380
0.277758
0.257492
0.296831
0.278950
0.431538
0.088811
0.233650
0.274777
0.364780
0.399947
0.340939
0.468493
0.240803
0.333786
0.441670
0.473857
0.309944
0.232458
0.372529
0.411868
0.487566
0.365973
0.360608
0.409484
0.381470
0.437498
0.460744
0.595450
0.413656
0.512600
0.573993
0.550747
0.442863
0.543594
0.589490
0.434518
0.544786
0.555515
0.513792
0.490546
0.504851
0.686646
0.470877
0.574589
0.536442
0.591874
0.589490
0.536442
0.629425
0.685453
0.770688
0.685453
0.710487
0.713468
0.762939
0.808835
0.885725
0.826716
0.798702
0.931621
0.934601
0.981688
1.160502
1.229644
1.374483
1.572967
1.783967
1.911521
2.296567
2.709627
2.975464
4.760623
26.857853
91.034770
289.326906
531.577468
971.064568
1015.584469
1015.584469
1015.584469
1015.584469
1015.584469
1015.584469
1015.584469
651.092529
377.160907
151.989460
66.224933
16.832948
7.901788
6.222725
6.021857
5.749464
5.447865
5.323887
5.353689
##ZVALUE=385
0.306964
0.260472
0.384450
0.343919
0.181794
0.304580
0.239611
0.167489
0.312924
0.298619
0.246763
0.273585
0.265837
0.373721
0.255704
0.391603
0.321865
0.268817
0.472665
0.272989
0.367761
0.364780
0.343919
0.337958
0.522733
0.429749
0.517964
0.419617
0.510812
0.455976
0.370741
0.433922
0.459552
0.542998
0.425577
0.474453
0.466704
0.619888
0.538826
0.619888
0.549555
0.431538
0.567436
0.440478
0.697970
0.552535
0.552535
0.425577
0.624657
0.581741
0.645518
0.512600
0.684857
0.782609
0.753999
0.651479
0.628829
0.766516
0.836849
0.912547
0.803471
0.803471
0.905991
1.043677
1.072884
1.142621
1.456738
1.654625
1.745820
2.080798
2.201796
2.339482
2.723932
3.494620
10.182858
56.217909
154.624581
429.407954
742.606521
1015.584469
1015.584469
1015.584469
1015.584469
1015.584469
1015.584469
1015.585065
943.945050
515.601635
291.824937
116.986632
44.446588
10.266900
6.165504
5.390644
5.563498
5.214810
##ZVALUE=390
0.448823
0.344515
0.331998
0.359416
0.366569
0.234842
0.170469
0.311732
0.382662
0.162721
0.281930
0.247955
0.382662
0.394583
0.425577
0.314713
0.379682
0.359416
0.408888
0.238419
0.228882
0.228882
0.393987
0.236630
0.474453
0.356436
0.337958
0.389814
0.380874
0.336766
0.447631
0.537634
0.385642
0.473857
0.352859
0.292659
0.411868
0.465512
0.432730
0.389814
0.379682
0.410676
0.430942
0.412464
0.546575
0.614524
0.453591
0.463724
0.520945
0.522733
0.507832
0.615716
0.609756
0.643730
0.532866
0.672936
0.814795
0.806451
0.710487
0.771880
0.676513
0.852942
0.856519
1.007915
1.118779
1.139641
1.116991
1.602769
1.553893
1.941919
1.970530
2.218485
2.001524
2.377629
2.504587
2.924800
5.339980
33.522844
106.000900
330.601931
629.279017
1015.578508
1015.578508
1015.578508
1015.578508
1015.578508
1015.578508
1015.578508
1015.578508
711.252689
405.047536
157.889724
68.569779
17.111897
7.228851
5.351901
##ZVALUE=395
0.318885
0.358820
0.240803
0.171661
0.283718
0.238419
0.208616
0.269413
0.332594
0.365973
0.416636
0.417829
0.371933
0.320673
0.395775
0.437498
0.299811
0.428557
0.180602
0.339746
0.452995
0.356436
0.154972
0.149608
0.248551
0.324845
0.378489
0.295639
0.384450
0.277758
0.399947
0.368953
0.371933
0.375509
0.401735
0.491738
0.478625
0.435710
0.379682
0.400543
0.296831
0.402927
0.385642
0.555515
0.516772
0.474453
0.516772
0.663996
0.548959
0.642538
0.588894
0.548959
0.532866
0.569820
0.603795
0.748634
0.741482
0.656843
0.683665
0.700951
0.718832
0.772476
0.843406
0.806451
0.885725
1.187921
1.157522
1.465678
1.387596
1.605749
1.592636
1.778603
1.876950
1.651645
1.868606
1.991987
2.130866
2.356768
3.178716
18.527508
69.318414
230.152607
428.969860
812.636018
1015.597582
1015.597582
1015.597582
1015.597582
1015.597582
1015.597582
1015.597582
829.851031
516.187549
222.998857
100.790858
29.925704
##ZVALUE=400
0.170469
0.111461
0.369549
0.163913
0.082850
0.110865
0.233650
0.403523
0.266433
0.223517
0.230670
0.298619
0.187755
0.292659
0.306964
0.125766
0.311732
0.287890
0.312924
0.183582
0.419617
0.451803
0.398755
0.268817
0.367761
0.319481
0.365973
0.496507
0.231862
0.320673
0.387430
0.395775
0.283718
0.358820
0.325441
0.431538
0.315905
0.311732
0.313520
0.396967
0.298619
0.525713
0.522733
0.470877
0.555515
0.536442
0.543594
0.447631
0.410676
0.467896
0.557899
0.386834
0.503659
0.654459
0.692606
0.560880
0.690818
0.584722
0.626445
0.655651
0.510812
0.563860
0.745654
1.010895
0.813603
0.910759
1.008511
1.177788
1.288652
1.343489
1.478791
1.694560
1.498461
1.838803
1.597404
1.612902
1.692772
1.813769
2.041459
2.481937
2.594590
10.001659
40.390491
144.179463
302.708745
651.634932
988.449454
1015.584469
1015.584469
1015.584469
1015.584469
1015.584469
1015.584469
995.708704
682.791471
335.642695
##END
