##TITLE=QP00651
##FORMAT=SPECTACLE-ASCII V-1.2
##DATA TYPE=ULTRAVIOLET SPECTRUM
##SECOND TYPE=ULTRAVIOLET SPECTRUM
##DATE=01/24/18
##TIME=17:56:18
##SPECTROMETER/DATA SYSTEM=SPECTACLE
##XUNITS=NM EM
##YUNITS=ENERGY
##YFACTOR=1
##FIRSTX=220
##LASTX=410
##NPOINTS=96
##3DDATA=Equidistant
##ZUNITS=NM EX
##FIRSTZ=210
##LASTZ=400
##ZPOINTS=39
##XYDATA=(Y..Y)
##ZVALUE=210
1.682639
1.982450
1.755953
1.720786
2.159476
2.000928
2.029538
2.831817
2.478957
1.822710
2.645850
2.543926
2.520680
2.439618
2.617836
2.395511
2.828836
3.908873
3.617406
3.390908
3.278852
3.617406
3.933907
3.921986
4.096627
4.487634
4.310608
5.341768
5.285740
4.298687
4.659891
5.710721
5.699992
5.253553
6.304979
5.815625
5.747676
6.311536
5.551577
5.994439
6.641746
6.301999
6.502867
6.834865
6.730556
6.398559
5.998611
6.584525
6.791949
6.093979
6.240606
6.571412
6.646514
8.183718
7.495880
7.173419
7.375479
7.937551
7.983446
6.999969
8.952618
8.433461
8.313656
7.622838
8.349419
8.834600
9.160638
10.639429
10.075569
12.525916
14.867783
18.467903
18.829703
24.282932
26.130676
25.966763
24.435520
27.290583
25.324821
23.099780
20.999908
19.452572
18.007755
14.938712
11.987686
9.874701
8.654594
9.246469
8.579493
7.233620
7.514954
7.000566
6.431937
6.728768
7.178783
8.272529
##ZVALUE=215
6.521940
5.864501
6.098747
4.662871
4.005432
3.085732
3.102422
4.364848
4.298687
4.758835
3.731847
4.543662
4.019737
2.611876
3.236532
3.266931
3.168583
2.574921
3.750920
3.467798
3.814697
3.243685
4.260540
4.524589
4.557967
3.752708
4.628897
5.495548
4.966855
5.141497
5.585551
5.176663
5.434752
5.739927
5.705953
5.821586
5.994439
6.024837
5.240440
5.966425
5.955696
6.069541
7.371902
6.154776
6.383657
6.307960
6.925464
6.306767
6.833673
6.804466
7.124543
7.748604
6.339550
7.759929
7.357597
7.238984
7.311702
7.999539
7.473826
6.726980
8.276701
8.645654
7.303953
9.217858
7.882714
7.958412
8.566976
9.155869
10.193586
12.133718
14.909506
16.951561
17.958879
22.296906
22.469759
24.011731
24.652481
23.001432
22.819638
20.583868
20.992756
16.171932
14.989972
13.254881
11.179447
10.256767
9.326935
8.954406
8.500814
7.365942
7.082820
7.622838
6.996989
7.740855
7.955432
7.545948
##ZVALUE=220
22.991896
23.911595
26.225448
26.968718
23.799539
20.530820
17.385483
11.807680
11.012554
9.586811
10.612607
11.215806
9.212494
9.833574
8.859634
7.286668
6.215572
5.561709
3.845692
4.177690
3.614426
4.084706
4.651546
4.228950
4.888773
5.162954
4.881620
5.317926
5.384684
5.083680
5.631447
5.943775
6.111860
5.911589
6.574988
6.048679
6.352663
6.458759
6.383657
7.518530
6.924868
7.335544
6.574988
7.060766
6.727576
7.586479
6.495714
7.243752
6.546974
7.598996
7.277727
7.636547
7.316470
7.870793
7.588863
7.185936
8.077621
8.104444
7.609725
8.005500
8.346438
9.069443
8.173585
7.978678
8.457899
8.460879
8.892417
10.031462
11.152625
13.181567
14.760494
16.159415
18.289685
20.939708
23.499727
24.950504
23.251772
23.428798
21.775961
19.046664
19.035935
16.371608
15.017986
13.084412
12.431741
10.132790
10.164976
8.751750
7.856488
7.926822
9.170771
8.650422
8.918643
7.982850
7.289648
7.332563
##ZVALUE=225
43.734908
46.813488
64.197779
81.354976
91.908574
88.384748
81.483722
61.130524
46.212673
32.423735
24.120808
21.799803
23.516417
25.042892
24.475455
22.818446
19.477606
16.015768
12.469888
9.014606
7.099509
5.447865
4.752874
5.037785
4.841685
5.100965
5.213618
5.734563
5.295873
5.933642
6.218553
5.803704
6.638765
6.893873
6.160736
6.941557
7.070899
7.343888
7.786751
7.434487
7.791519
7.344484
7.113814
7.458925
7.304549
8.057952
7.458925
7.033944
8.427501
7.092953
7.455945
8.027554
7.673502
7.582903
8.231997
8.301735
8.572936
8.888841
8.609891
8.198619
8.468628
8.743405
9.248853
7.993579
8.144975
9.636879
9.577870
10.683537
11.744499
14.049411
14.619827
16.952753
18.310547
20.109415
19.440651
21.496415
20.363927
18.095970
19.436479
17.926693
16.585588
15.607476
14.926791
11.998415
11.098981
10.942817
9.619594
8.847713
9.566545
9.561777
9.846687
9.077787
8.768439
8.737445
8.689761
8.400679
##ZVALUE=230
41.970611
47.420859
77.005625
126.769543
165.063739
198.262930
219.911933
201.247931
181.757808
149.320960
96.013546
68.856478
46.056509
43.978691
42.632818
45.308471
50.226450
49.374700
43.599606
34.744740
27.441978
18.499494
12.603998
7.673502
6.346703
6.141663
6.647706
6.839633
6.963611
5.775690
7.834435
6.732941
6.843805
7.969737
7.206798
7.021427
7.276535
7.840991
7.850528
7.334948
8.042455
7.149577
7.428527
7.208586
7.069707
7.096529
8.045435
7.533431
8.345842
7.251501
7.916689
8.132458
8.421540
8.522868
8.610487
8.376837
7.523894
8.912683
9.501576
9.727478
8.901954
9.400845
9.871721
9.085536
9.353757
10.767579
9.822845
10.898709
12.729764
14.320612
17.128587
18.658638
19.605756
20.982623
22.568703
23.496747
23.202896
21.424890
22.915602
20.173788
21.009445
20.089746
15.935898
15.463829
14.425516
13.097525
13.551712
12.776852
12.910962
11.825562
12.440681
11.972785
10.647774
12.594461
10.443926
11.313558
##ZVALUE=235
14.759898
19.641519
38.185716
88.256598
149.091482
237.360597
301.933885
382.211804
408.810973
402.934551
343.088508
277.795792
186.469555
133.837461
94.420910
71.219802
70.448518
74.755549
79.081655
83.646774
78.470707
65.415502
50.431490
34.452677
26.417971
16.986728
12.888908
10.866523
8.631945
9.067655
9.164810
9.282827
8.230805
9.670854
9.128451
9.279847
9.770989
8.355975
9.213686
7.378459
8.340478
8.942485
7.944703
8.887649
9.006858
9.148717
8.558631
8.893609
8.930564
9.181499
10.055900
10.169744
9.770989
9.745955
9.372830
9.848475
11.247993
10.674596
11.047721
10.480881
10.892749
12.359619
11.775494
11.314750
12.167692
12.800694
14.953613
14.107823
16.256571
16.642809
20.016432
22.373796
23.960471
27.251840
28.290749
29.389858
31.624436
29.914975
29.780865
25.865436
26.040673
23.043752
23.546815
20.786524
19.452572
20.304918
16.959906
17.117858
16.639829
16.833544
16.243458
15.701652
16.343594
16.509891
17.714500
15.580654
##ZVALUE=240
2.144575
2.310872
8.226633
21.529794
61.146617
118.010640
249.188542
367.507935
544.051528
649.948716
728.980899
713.422894
634.269714
502.266884
386.023521
231.673717
163.303614
114.132762
97.423792
101.239681
111.244917
119.104981
115.326643
104.885697
82.524419
70.898533
48.660636
38.630962
24.893880
18.407702
15.389919
13.563633
12.580752
12.110472
11.182427
12.069941
11.151433
10.451674
11.411905
10.054708
9.301901
10.338426
9.270906
10.361671
10.453463
10.664463
10.006428
10.529757
9.892583
10.438561
10.768771
10.626912
11.209846
11.290908
11.930466
10.648966
11.790991
10.487437
12.837648
12.395978
12.361407
13.005733
13.985634
13.861656
14.869571
15.674829
16.138554
17.768741
19.104481
19.974709
23.804903
26.031733
28.404593
32.969713
34.537911
35.803914
34.349561
35.467744
34.071803
37.252903
33.809543
31.615496
29.525757
27.742982
25.740862
23.841858
23.950934
22.634864
21.346807
21.410584
22.719502
22.475719
21.163821
21.367669
21.422505
20.562410
##ZVALUE=245
1.505613
1.632571
1.920462
1.936555
5.217791
14.726520
50.040483
116.219521
272.852778
420.171618
648.563504
808.355808
896.889567
922.227502
856.510997
698.601007
543.997884
357.837677
240.758657
146.279931
108.991861
107.131004
114.993453
127.393603
133.594871
133.202672
116.950870
101.019740
78.367591
59.173703
42.570829
31.025410
21.824837
16.011000
14.498830
13.119578
12.084842
11.395812
11.669993
10.894537
10.889769
9.543896
8.921623
9.330511
9.538531
8.239746
8.814931
9.348989
8.297563
9.054542
9.351969
9.885430
9.002686
9.343624
9.252429
9.473562
10.525584
10.430813
10.766983
10.568500
10.007620
10.847449
12.173653
13.028979
13.353825
14.231801
14.405847
16.000867
18.188953
19.008517
19.961596
23.034811
27.236938
26.829839
29.751658
31.395555
33.560991
31.016469
30.172467
30.413866
30.676723
28.039813
27.676821
25.727749
23.680925
24.349689
23.430586
21.527410
21.266937
22.381544
21.439791
21.695495
19.282699
20.159483
19.907951
20.339489
##ZVALUE=250
1.344681
1.450777
1.609921
1.286864
1.719594
1.653433
3.385544
9.246469
44.037700
99.596977
243.594646
397.298932
566.145778
784.590840
914.793015
1014.015675
991.602540
869.081616
714.531541
497.104526
340.511799
219.919682
127.912760
106.547475
110.674500
125.681758
140.409470
143.552423
140.627623
129.034519
112.783909
83.577633
64.686537
42.677522
29.649734
19.735694
15.434623
12.684464
11.607409
10.735989
10.947585
8.330941
8.848906
8.393526
8.249879
8.444786
7.985830
7.760525
8.391738
8.156896
7.263422
6.969571
7.539988
8.170605
8.026958
8.339882
7.969737
8.132458
7.952452
8.206964
8.673668
8.950830
9.426475
9.893775
10.221601
10.206699
10.832548
12.281537
13.259649
14.526844
15.678406
18.563867
19.212961
20.590425
21.182895
21.563768
22.259951
21.607876
21.288991
21.942854
21.404624
20.528436
19.490719
19.049644
18.772483
18.451810
18.970966
19.135475
17.359853
17.482638
18.719435
19.485950
18.737912
17.585754
18.384457
17.585754
##ZVALUE=255
1.230836
1.406670
1.159906
1.095533
0.983477
1.502633
1.170635
2.004504
1.533628
5.045533
17.182827
59.278607
120.584965
258.433819
406.142473
634.774566
796.962976
958.711505
1009.971499
941.293836
813.074708
656.391978
416.786671
257.523656
139.518976
101.717710
95.196962
107.962489
130.564570
144.876838
146.886706
147.256851
130.190849
111.700892
80.623627
59.838891
37.171841
26.126504
15.096664
10.816455
8.904934
8.174777
7.385612
6.518960
7.531643
7.276535
6.702542
6.545782
6.634593
6.610751
6.385446
6.105900
6.423593
6.401539
6.739497
7.117987
6.224513
6.654859
6.829500
6.806850
7.143617
7.431507
8.477569
7.371902
7.880926
8.647442
8.958578
9.890795
11.167526
12.480617
13.330579
14.083982
17.394423
16.953945
19.261837
18.338561
18.036962
19.131899
18.449426
17.315745
17.636418
16.611814
17.270446
16.910434
17.083883
16.988516
16.211867
16.838908
16.904473
17.085671
16.048551
17.375946
17.352700
16.703606
17.143488
16.978979
##ZVALUE=260
1.084805
1.292825
1.183748
1.203418
1.018643
1.051426
1.216531
1.401901
0.827909
1.329780
1.824498
2.134442
10.828972
30.236840
85.646510
167.465806
350.512862
516.652465
767.403841
926.953554
1015.584469
1015.584469
945.286751
789.622068
652.172565
349.711776
218.615532
117.724538
88.233948
87.803006
104.442835
132.224560
145.218968
153.662562
145.624876
132.903457
110.969543
80.891848
57.639480
36.856532
24.164915
13.378859
9.627938
7.059574
5.899668
5.787611
6.010532
5.921721
5.567670
6.025434
5.738735
5.429983
5.492568
5.787611
5.686879
5.502701
5.965829
5.719662
5.334616
5.632639
6.235838
5.991459
6.320477
6.356835
7.036924
7.437468
8.147955
8.070469
8.987784
9.895563
10.933876
12.512803
12.669563
14.300942
15.100837
14.800429
14.250875
14.898777
14.357567
14.493465
13.579726
13.945699
14.531612
14.224648
14.279485
13.844967
14.055967
15.273690
14.181733
14.001727
14.320612
14.950633
15.476942
14.886856
14.071465
15.096664
##ZVALUE=265
1.010895
1.010895
0.881553
0.950694
0.931621
0.857711
0.953674
0.947714
1.371503
1.487732
1.314878
1.467466
1.501441
1.930594
4.441738
22.286773
56.079626
144.372582
254.971981
499.537587
729.632974
961.263776
1015.591621
1015.591621
1015.591621
1004.921794
759.141445
539.573431
295.528769
172.552466
105.185509
75.490475
81.294775
110.306740
133.118629
151.342750
153.269768
146.286488
132.251978
106.434822
80.002546
55.707693
36.333799
20.345449
12.408495
8.249879
6.662607
5.575418
5.326867
5.539656
4.740953
5.535483
5.795956
5.807877
5.664825
5.786419
5.291700
5.292892
5.390644
5.620718
5.904436
6.107688
6.503463
6.026626
6.485581
6.867647
7.005930
7.400513
8.320808
9.222627
9.412766
10.176897
11.372566
12.783408
13.049841
12.704730
13.357997
12.936592
12.805462
13.158917
13.437867
12.278557
12.199879
13.723969
12.710690
12.589693
12.457967
12.745857
12.952685
13.365746
13.637543
13.284683
12.766719
13.378859
13.464689
13.293624
##ZVALUE=270
0.921488
0.764728
0.658631
0.855923
0.866652
0.958443
1.031756
1.030564
1.014471
1.010895
1.292825
1.309514
1.226664
1.450777
1.890659
1.631975
2.290606
10.686517
31.451583
102.028847
206.112862
370.006561
670.220852
915.963650
1015.581489
1015.581489
1015.581489
1015.581489
942.893624
706.296563
476.695895
245.233774
136.636496
71.153641
62.725544
84.437728
105.397701
133.809447
148.867965
152.544975
148.944855
131.097436
110.725760
78.571439
56.582689
34.301877
23.304820
13.147593
8.988976
6.082654
5.495548
5.026460
5.291700
5.458593
5.878806
5.481839
5.806684
5.491972
5.756617
6.159544
5.718470
6.296635
5.655885
6.319880
6.448627
6.687641
7.001758
7.503629
7.888675
8.493662
9.382963
9.865761
10.975599
11.766553
11.880994
13.042688
12.946725
12.534857
12.552738
12.418628
12.080669
12.150407
12.798905
11.552572
11.615753
11.116862
12.007952
11.792779
12.370944
12.365580
11.917949
12.190938
12.284517
12.222528
12.936592
12.557507
##ZVALUE=275
0.706911
0.781417
0.956655
0.703931
0.931621
0.816584
0.610948
0.887513
1.161695
0.937581
1.119971
1.246929
1.080632
1.307726
1.148582
1.383424
1.627803
1.939535
1.990795
5.161762
20.743608
57.827830
171.002746
327.584743
673.808455
961.194634
1015.584469
1015.584469
1015.584469
1015.584469
1015.584469
1004.249454
728.538036
368.630886
201.066732
84.815621
54.516792
60.991645
78.052878
107.655525
127.698779
144.504905
151.681900
144.345760
130.684972
104.334950
82.292557
56.661963
39.836764
22.424459
14.766455
8.960962
7.266998
6.145835
5.568862
5.823970
5.657673
5.864501
6.302595
6.224513
5.740523
6.500483
6.588697
6.843805
6.506443
6.896853
7.369518
7.352829
7.447600
8.334517
9.269714
10.329485
10.976791
11.765957
12.397766
12.501478
12.269616
12.307763
12.498498
12.636781
11.562705
11.522770
11.200905
11.114478
11.692643
10.609627
11.186600
10.953546
11.379719
11.002421
10.528564
11.229515
11.458993
11.482835
11.342764
11.719465
##ZVALUE=280
0.788569
0.765920
0.686646
0.738502
0.781417
0.766516
0.846982
0.796914
0.744462
0.798702
1.078844
0.899434
1.134872
1.113415
0.942945
1.217723
1.276731
1.485944
1.578927
1.623631
1.816750
2.532601
14.041662
45.278668
137.304664
253.812671
473.850965
702.756643
1013.916731
1015.587449
1015.587449
1015.587449
1015.587449
1015.587449
866.000652
485.959053
281.541944
116.385818
60.526729
43.281913
55.102706
81.366897
102.084875
127.699971
144.804716
149.107575
143.207908
125.775933
108.064413
77.814460
57.655573
36.568642
24.078488
13.680458
8.794665
6.357431
5.929470
5.582571
5.778670
5.793571
5.975962
6.307960
5.943775
6.252527
6.356835
6.649494
6.717443
7.271767
7.548928
8.216500
8.873940
9.682775
9.972453
10.894537
10.293722
10.590553
10.756850
11.266470
10.952950
11.415482
10.838509
10.843873
10.268688
10.458827
10.667443
9.842515
9.975433
10.629892
9.926558
10.854602
10.711551
10.523796
10.235906
10.817647
10.271668
10.356903
##ZVALUE=285
0.652671
0.640750
0.556707
0.692606
0.727773
0.622869
0.747442
0.661612
0.932813
0.826716
0.778437
0.879765
0.901818
0.855923
1.004934
0.970960
1.182556
1.189709
1.203418
1.194477
1.473427
1.777411
1.785755
2.216697
6.124973
35.974979
84.559917
213.807821
360.580683
637.706518
880.078673
1015.584469
1015.584469
1015.584469
1015.584469
1015.584469
923.591852
561.404824
348.038673
160.209537
80.056787
37.110448
35.115480
53.554773
71.990490
100.563765
120.908618
140.353441
143.424869
139.874816
128.088593
105.956793
84.855556
55.746436
38.734674
21.806955
14.285445
9.151697
6.994605
6.130934
5.740523
5.761981
6.013513
6.214976
5.966425
6.612539
6.485581
7.303953
7.750988
8.377433
9.124875
9.216666
9.704828
9.454489
10.064840
10.033846
10.382533
9.806752
10.166764
9.814501
9.974837
9.953976
9.774566
9.795427
9.890795
9.923577
9.978414
9.686947
9.982586
9.965897
9.576678
10.030866
9.759665
10.067821
9.747744
10.467768
##ZVALUE=290
0.682473
0.758767
0.725985
0.619888
0.692606
0.516772
0.698566
0.771880
0.557899
0.688434
0.731945
0.780821
0.712872
0.774860
0.986457
0.882745
1.094937
0.959635
1.111627
0.983477
1.176000
1.167655
1.342893
1.373887
1.695752
1.983643
2.996922
10.460615
50.528646
116.874576
205.367804
465.723872
725.667477
1015.638709
1015.638709
1015.638709
1015.638709
1015.638709
1015.638709
756.024718
500.276685
247.320533
124.324560
44.759512
27.582645
33.918619
48.084855
72.610974
92.036724
115.207434
131.548643
139.847994
137.621760
123.135448
104.686618
77.478886
58.342814
37.149787
24.891496
14.383793
9.894967
7.404685
6.200671
6.528497
6.498694
6.461740
6.850958
6.910563
7.217526
8.178949
8.825660
9.113550
10.079741
9.719729
9.904504
10.140538
10.340810
10.313988
9.554625
9.754896
9.709597
9.745955
9.349585
9.969473
9.888411
10.094643
9.573698
10.255575
9.628534
9.146929
9.623766
10.622740
9.778738
9.938478
9.999871
9.807944
##ZVALUE=295
0.647902
0.607967
0.645518
0.592470
0.558496
0.660419
0.589490
0.613928
0.544786
0.686646
0.670552
0.713468
0.534654
0.806451
0.925660
0.771880
0.871420
0.734925
0.884533
0.932813
1.039505
1.047850
1.028776
1.189709
1.409650
1.406670
1.962781
1.813769
2.375841
3.807545
15.807748
72.292686
166.487694
389.602780
628.569722
984.872580
1015.584469
1015.584469
1015.584469
1015.584469
1015.584469
930.278897
663.048625
359.658599
195.600986
71.365833
32.466650
22.489429
29.146671
46.851635
64.043999
90.482831
108.275414
126.243830
134.490728
130.654573
119.675994
97.768903
78.394413
54.239631
38.853884
23.165941
15.780926
9.828806
7.981658
7.324815
6.904602
7.331967
7.664561
8.185506
8.471608
9.026527
9.378791
9.720922
10.112524
10.571480
10.434985
10.241866
9.521842
10.038614
9.634495
9.598732
9.514689
9.404421
9.681582
9.807944
9.826422
9.688735
9.935498
9.817481
10.184646
10.064840
10.032654
9.652972
9.634495
9.552836
##ZVALUE=300
0.666976
0.553727
0.583529
0.584722
0.393987
0.565648
0.628829
0.540614
0.424981
0.482798
0.624657
0.696778
0.776649
0.626445
0.702739
0.749826
0.807643
0.704527
0.850558
0.807643
0.784993
0.808835
1.063943
1.022816
1.009703
1.188517
1.374483
1.449585
1.606941
1.780987
1.964569
2.294779
9.325743
34.962893
124.128461
248.623490
515.404940
780.622959
1015.584469
1015.584469
1015.584469
1015.584469
1015.584469
1015.585065
798.620582
536.195636
278.771520
148.784518
53.617954
22.854805
19.180775
25.968552
42.086840
58.133602
81.688762
101.275444
119.717717
127.256513
125.663877
115.689635
97.095966
79.531670
55.428743
40.611625
24.750829
16.993880
10.778904
9.122491
8.259416
8.254647
8.249879
9.067655
9.127855
9.489655
9.640455
10.064840
9.926558
9.938478
9.966493
9.658933
10.029674
9.490848
9.466410
10.162592
10.144711
9.996891
9.896755
9.861588
10.007620
10.096431
9.561777
9.624958
9.888411
9.729862
9.561777
9.737611
##ZVALUE=305
0.392795
0.427961
0.416636
0.368953
0.569820
0.431538
0.403523
0.551939
0.473857
0.361800
0.580549
0.513792
0.597835
0.643730
0.590682
0.468493
0.554919
0.835657
0.619888
0.864863
0.759959
0.529885
0.828505
0.855923
0.920892
1.005530
1.016855
1.141429
1.025796
1.118779
1.310706
1.687407
1.766682
2.158880
4.794598
17.896891
78.050494
179.325938
406.777859
643.609762
989.586711
1015.533805
1015.533805
1015.533805
1015.533805
1015.533805
919.109583
656.857491
359.518528
198.295712
74.936748
31.763911
14.458895
16.864538
26.294589
37.621856
59.579611
76.945424
97.313523
111.234784
121.661425
120.403767
109.018683
94.913840
73.194504
55.491924
37.199855
25.535822
15.987754
11.960864
9.874701
9.044409
9.544492
9.331703
9.629726
9.915829
9.374619
9.472966
9.827614
10.113716
9.888411
9.956956
10.221601
10.511875
10.702610
9.884834
10.099411
10.153651
10.126829
10.157824
9.953976
9.554625
9.580851
9.649992
9.505749
9.535551
##ZVALUE=310
0.509620
0.484586
0.410676
0.492930
0.254512
0.364780
0.535846
0.488758
0.592470
0.518560
0.614524
0.427961
0.409484
0.553727
0.658631
0.608563
0.627637
0.583529
0.643730
0.718832
0.627637
0.689626
0.688434
0.728965
0.863671
0.847578
0.885725
1.039505
0.913739
1.047850
1.314878
1.187921
1.178980
1.479983
1.527667
1.869798
2.310872
9.969473
34.440756
120.138526
245.541930
510.011911
792.279840
1015.584469
1015.584469
1015.584469
1015.584469
1015.584469
1015.585065
731.689930
483.144522
242.201686
127.633810
43.365955
17.765760
11.910796
14.696717
23.359656
33.408999
52.162409
67.279935
90.244412
103.900433
113.117695
114.393830
104.720592
93.281865
73.208809
56.786537
37.925839
27.295947
18.132925
13.701916
11.242628
9.919405
9.470582
9.791851
9.663701
9.682775
9.910464
9.471774
10.012984
10.188818
10.173917
10.185838
10.270476
10.260940
10.009408
9.826422
10.140538
10.070801
9.630919
9.789467
9.740591
9.530783
9.829998
##ZVALUE=315
0.364780
0.520945
0.380874
0.373721
0.419617
0.439882
0.424981
0.405908
0.342727
0.546575
0.419617
0.489950
0.363588
0.375509
0.722408
0.484586
0.514984
0.538826
0.589490
0.643730
0.498891
0.673532
0.733733
0.723600
0.775456
0.704527
0.724792
0.682473
0.982881
0.973940
0.965595
0.927448
1.230836
1.187921
1.214743
1.459718
1.359582
1.808405
1.950860
4.444718
17.235875
75.200796
175.406933
411.711931
661.057830
1004.729867
1015.584469
1015.584469
1015.584469
1015.584469
1015.584469
881.865621
628.056526
335.142016
184.268951
66.473484
27.025938
11.289716
10.534525
14.629960
20.080805
33.325553
46.483874
65.772533
81.582665
100.265741
108.964443
108.983517
102.759004
85.170865
72.240829
53.540468
39.668679
25.509000
18.458962
13.085604
11.577606
10.168552
9.786487
9.594560
10.121465
9.857416
9.814501
9.963512
10.061860
10.324717
10.312796
10.130405
10.025501
10.180473
10.275841
10.109544
10.277629
9.780526
9.632707
9.544492
##ZVALUE=320
0.387430
0.295639
0.480413
0.478625
0.397563
0.593662
0.505447
0.572801
0.478625
0.479817
0.568628
0.467896
0.343919
0.445843
0.456572
0.463724
0.381470
0.510812
0.522733
0.582933
0.503659
0.511408
0.635982
0.441670
0.532866
0.751615
0.590682
0.954866
0.751615
0.886917
0.857711
0.841618
0.834465
0.967979
1.036525
1.205802
1.155734
1.345873
1.363754
1.615882
1.852512
2.683997
8.107424
43.930411
115.461946
308.289528
517.506003
861.250758
1015.584469
1015.584469
1015.584469
1015.584469
1015.584469
1004.906893
754.604936
414.912701
239.597559
99.564791
44.351816
13.888478
9.330511
10.127425
12.271404
19.511580
28.060675
43.238997
58.580637
78.965425
90.998411
101.644993
103.199482
96.628666
86.110830
67.017674
53.667426
35.911798
26.289821
18.066764
14.543533
11.432767
10.528564
10.073781
10.102987
10.088682
10.285974
10.345578
9.888411
10.408759
10.212660
10.048747
9.821653
9.738803
9.656549
9.696484
9.848475
9.792447
##ZVALUE=325
0.300407
0.408888
0.367761
0.185966
0.454783
0.329614
0.482798
0.369549
0.576973
0.338554
0.420809
0.267625
0.443459
0.513792
0.368953
0.436902
0.533462
0.417829
0.535846
0.431538
0.437498
0.479817
0.610948
0.647902
0.678897
0.591874
0.608563
0.652671
0.555515
0.641942
0.639558
0.706911
0.818968
0.815988
1.073480
1.096725
1.160502
1.209974
1.137853
1.346469
1.429915
1.485944
1.754761
2.166629
4.567504
27.245879
75.072646
213.192701
397.070646
752.013922
1008.294821
1015.584469
1015.584469
1015.584469
1015.584469
1015.584469
851.688981
505.578518
315.399766
146.939754
71.896911
20.888448
10.126829
9.014606
9.640455
13.238788
18.376708
28.655529
40.169954
59.429407
74.810982
88.148713
96.200705
98.667741
92.287660
77.932477
65.035820
47.863722
35.359859
23.462772
17.593503
13.434887
11.591911
10.808706
10.204911
10.317564
10.128617
10.271668
9.970665
9.986758
10.025501
9.707808
9.510517
9.785891
9.579659
9.677410
##ZVALUE=330
0.270605
0.250936
0.440478
0.217557
0.332594
0.335574
0.357628
0.450611
0.398755
0.351667
0.493526
0.422597
0.365973
0.387430
0.284910
0.467896
0.397563
0.396967
0.273585
0.593662
0.548959
0.582933
0.497699
0.494719
0.640750
0.683665
0.598431
0.688434
0.616908
0.565648
0.666976
0.660419
0.670552
0.677705
0.753999
0.727773
0.880957
0.818968
0.995994
1.168847
1.136661
1.314878
1.430511
1.503825
1.364946
1.958609
2.595782
11.902452
40.685534
139.358640
272.833705
564.122796
837.990642
1015.584469
1015.584469
1015.584469
1015.584469
1015.584469
990.735888
654.721856
424.301624
200.692415
101.860762
35.557747
14.310479
8.553863
8.814931
10.224581
12.355447
19.063950
26.961565
40.303469
53.620934
72.329640
83.944798
91.980696
91.303587
85.518956
75.148940
58.563948
46.823621
31.986833
24.474859
17.889738
14.456511
11.376739
10.843873
10.163784
10.050535
9.805560
9.675622
9.261966
9.441972
9.360909
9.566545
9.493828
##ZVALUE=335
0.349879
0.242591
0.249743
0.247955
0.180602
0.228882
0.352859
0.396967
0.279546
0.352859
0.403523
0.318885
0.384450
0.411868
0.385642
0.491738
0.381470
0.482798
0.586510
0.409484
0.380874
0.359416
0.525713
0.416636
0.432730
0.402927
0.459552
0.554919
0.505447
0.570416
0.598431
0.633597
0.641942
0.707507
0.842810
0.609756
0.649691
0.915527
1.016855
0.816584
0.854731
0.910759
1.100898
1.210570
1.283884
1.438856
1.631975
1.775622
1.934767
5.609989
21.475554
85.468888
184.905529
414.468646
673.941970
1014.242768
1015.584469
1015.584469
1015.584469
1015.584469
1015.584469
762.246847
517.957807
273.415446
145.311952
47.991872
19.708872
9.354949
8.590817
8.942485
9.799600
12.628436
17.059445
26.986599
37.144423
53.866506
66.423416
78.907609
85.594654
86.204410
80.844760
69.356561
58.656931
45.704842
35.749674
24.545789
19.114614
13.576746
11.854768
10.277629
9.679794
9.394884
9.239912
9.202957
9.232759
9.043813
##ZVALUE=340
0.320673
0.207424
0.359416
0.401735
0.324845
0.167489
0.410676
0.161529
0.279546
0.319481
0.354648
0.344515
0.384450
0.288486
0.364780
0.333786
0.328422
0.280738
0.194907
0.524521
0.475645
0.314713
0.295639
0.296831
0.454783
0.436902
0.492930
0.553727
0.439882
0.525713
0.500679
0.570416
0.615716
0.553727
0.559688
0.689626
0.549555
0.659823
0.565648
0.696778
0.812411
0.754595
0.886917
0.948906
1.117587
1.047850
1.247525
1.287460
1.481771
1.643896
1.847744
2.986789
10.135770
51.758885
128.096938
320.816040
551.244617
914.431810
1015.584469
1015.584469
1015.584469
1015.584469
1015.584469
918.835998
637.101531
326.564908
178.050995
70.277452
28.387904
10.307431
8.780956
9.025931
8.936524
10.026693
12.366772
18.238425
25.123954
36.961436
48.380494
63.995719
72.939992
79.674721
80.491900
76.064467
67.644715
54.194927
44.149756
32.484531
24.780631
18.056631
13.752580
10.971427
9.761453
9.100437
9.080768
8.969903
##ZVALUE=345
0.265837
0.260472
0.177622
0.330806
0.302792
0.348687
0.433922
0.432730
0.361800
0.245571
0.215769
0.269413
0.287890
0.286698
0.371933
0.338554
0.353456
0.376701
0.406504
0.440478
0.404716
0.375509
0.434518
0.412464
0.519753
0.352859
0.483990
0.485778
0.486970
0.464916
0.480413
0.513792
0.615716
0.561476
0.585914
0.571609
0.494719
0.677705
0.671744
0.730753
0.741482
0.791550
0.615716
0.678897
0.967979
0.924468
1.036525
0.952482
1.097918
1.257658
1.363754
1.541972
1.703501
2.080798
4.701614
29.184818
79.719424
214.197636
393.360853
737.937689
1004.109979
1015.587449
1015.587449
1015.587449
1015.587449
1015.588045
820.732713
479.753613
268.527865
104.027987
45.318604
14.949441
9.801984
8.706450
8.674860
8.771420
9.246469
11.911988
15.930533
23.869872
32.898784
46.512485
56.990981
67.704916
72.920918
74.625611
72.172880
63.902736
55.274963
42.728782
33.564568
23.487806
17.921925
13.080835
11.131763
9.524822
##ZVALUE=350
0.334978
0.392795
0.289679
0.428557
0.273585
0.318885
0.340939
0.260472
0.327826
0.322461
0.234842
0.326633
0.479817
0.364780
0.379682
0.331998
0.309944
0.423789
0.452995
0.395775
0.396967
0.361800
0.264645
0.479817
0.447631
0.336766
0.300407
0.482798
0.393987
0.479817
0.593662
0.607967
0.454783
0.434518
0.497699
0.488758
0.527501
0.537634
0.750422
0.761747
0.737906
0.685453
0.798702
0.739694
0.662804
0.870824
0.956655
1.046658
0.935793
0.995994
1.062751
1.153946
1.357794
1.517534
1.581907
1.814961
2.795458
14.860630
49.256682
152.132511
290.571451
590.161681
868.700743
1015.584469
1015.584469
1015.584469
1015.584469
1015.584469
974.135399
580.059886
354.718566
161.908865
72.811842
20.013452
10.230541
8.275509
8.203983
7.977486
7.985830
8.887649
10.989904
15.491843
20.938516
30.141473
38.601756
51.234961
59.462786
66.921711
68.434477
66.563487
60.425997
49.927831
41.773915
30.325651
23.781657
16.843677
##ZVALUE=355
0.337958
0.301600
0.348687
0.275970
0.433922
0.299811
0.342727
0.322461
0.343919
0.564456
0.383854
0.298619
0.344515
0.553727
0.323653
0.361800
0.357628
0.295639
0.429749
0.475645
0.386834
0.345707
0.428557
0.597835
0.496507
0.326633
0.418425
0.421405
0.288486
0.367761
0.595450
0.547767
0.493526
0.490546
0.525713
0.565648
0.515580
0.659823
0.592470
0.710487
0.730753
0.566840
0.746846
0.815988
0.829697
0.824928
0.908971
0.874996
0.981688
0.910759
0.757575
1.116991
1.099706
1.137853
1.162887
1.445413
1.605749
1.916885
2.027750
6.507635
24.802685
99.372864
204.351544
430.297852
685.300827
1015.580893
1015.580893
1015.580893
1015.580893
1015.580893
1015.580893
738.174915
468.576550
210.605860
100.341439
29.834509
12.278557
8.145571
7.645488
7.374883
7.191896
7.793903
8.537769
9.977818
12.731552
18.525720
25.722980
36.100745
44.173598
53.519607
59.267879
62.800646
62.017441
54.996610
48.508644
38.341880
##ZVALUE=360
0.309944
0.303984
0.203848
0.174642
0.124574
0.333786
0.375509
0.389814
0.425577
0.336766
0.212789
0.275970
0.569820
0.443459
0.351667
0.448823
0.373721
0.390410
0.301600
0.394583
0.299811
0.504851
0.470877
0.490546
0.532866
0.481606
0.586510
0.535846
0.466704
0.453591
0.576973
0.511408
0.486970
0.434518
0.600815
0.500679
0.575781
0.792742
0.663996
0.501871
0.703931
0.586510
0.648499
0.798702
0.623465
0.675917
0.751615
0.676513
0.763535
0.858903
0.924468
1.064539
1.091957
1.130700
1.160502
1.221895
1.413822
1.486540
1.572967
1.718998
2.131462
3.374815
10.960698
52.307844
126.578808
315.708518
526.153445
869.220495
1015.584469
1015.584469
1015.584469
1015.584469
1015.584469
908.409953
630.213618
343.702435
185.872912
64.995885
24.361610
8.526444
7.726550
7.164478
6.953478
7.041693
7.113814
7.528663
8.484721
11.100769
14.843941
21.625757
28.082728
38.680434
45.586824
52.882433
56.522489
55.994987
##ZVALUE=365
0.422597
0.308752
0.422597
0.251532
0.397563
0.265837
0.450611
0.398755
0.273585
0.328422
0.338554
0.359416
0.225902
0.276566
0.243783
0.269413
0.287890
0.461936
0.424981
0.368953
0.267625
0.449419
0.462532
0.475645
0.382662
0.457764
0.440478
0.559688
0.478625
0.602603
0.589490
0.622869
0.604987
0.508428
0.593662
0.420809
0.449419
0.687838
0.689626
0.368953
0.482798
0.759959
0.757575
0.591874
0.766516
0.621676
0.688434
0.572801
0.755787
0.699759
0.943542
0.822544
0.892878
0.885725
1.061559
1.082420
1.183748
1.091957
1.449585
1.551509
1.533628
1.676679
1.907945
2.316833
4.778504
27.634501
78.311563
220.040679
398.527980
716.180801
987.167954
1015.584469
1015.584469
1015.584469
1015.584469
992.500782
721.184611
393.826962
211.356878
75.401664
30.022860
9.366870
7.321835
6.891489
6.776452
6.394982
6.391406
6.358624
6.379485
7.297993
9.020567
13.160706
17.313957
24.490952
30.954480
40.350556
##ZVALUE=370
0.232458
0.275970
0.211596
0.409484
0.268817
0.166893
0.371933
0.379682
0.540614
0.297427
0.225902
0.302792
0.455976
0.226498
0.362992
0.316501
0.290871
0.325441
0.215769
0.437498
0.332594
0.373721
0.355840
0.483990
0.449419
0.419617
0.433922
0.475645
0.424981
0.386834
0.494719
0.514984
0.508428
0.456572
0.558496
0.498891
0.552535
0.646710
0.436902
0.547767
0.562668
0.690818
0.611544
0.616908
0.501871
0.640750
0.779629
0.649691
0.730753
0.735521
0.810623
0.713468
0.904799
0.748634
0.750422
0.904799
0.765920
0.784993
1.085997
1.058578
1.171827
1.209974
1.258850
1.626611
1.514554
1.974702
2.931952
15.315413
51.003695
167.491436
311.217904
580.112934
845.210552
1015.581489
1015.581489
1015.581489
1015.581489
1015.582085
861.016512
478.583574
264.355540
97.317696
42.077899
14.000535
7.501841
6.271601
6.324649
5.806684
5.799532
5.722642
5.519986
5.906820
6.471872
8.414984
10.936856
15.665889
##ZVALUE=375
0.348687
0.298619
0.349879
0.422597
0.328422
0.273585
0.300407
0.292659
0.278950
0.386834
0.267625
0.231862
0.305772
0.476837
0.262856
0.144839
0.196695
0.470877
0.383854
0.279546
0.337958
0.483990
0.465512
0.294447
0.380874
0.486970
0.487566
0.367761
0.307560
0.386834
0.339746
0.386834
0.385642
0.363588
0.394583
0.426769
0.534654
0.469685
0.451803
0.454783
0.427961
0.356436
0.529885
0.467896
0.581741
0.568628
0.548959
0.629425
0.550747
0.636578
0.599623
0.555515
0.535846
0.717640
0.743866
0.754595
0.718832
0.712872
0.831485
0.918508
0.870824
1.008511
0.937581
1.237988
1.195669
1.375675
1.426935
1.911521
2.346635
7.161498
25.925636
98.244548
213.310719
482.878685
749.480724
1015.585661
1015.585661
1015.585661
1015.585661
1015.585661
925.126672
559.690595
349.775553
169.958472
82.673430
25.781989
10.160804
6.047487
5.810857
5.613565
5.525947
5.205870
5.171895
5.174875
5.016923
5.515814
##ZVALUE=380
0.380874
0.353456
0.325441
0.296831
0.388622
0.321865
0.301600
0.383854
0.474453
0.369549
0.377893
0.268817
0.371933
0.298619
0.223517
0.336766
0.389814
0.427961
0.344515
0.300407
0.379682
0.400543
0.386834
0.373721
0.318885
0.384450
0.578761
0.470877
0.638962
0.466704
0.351667
0.407696
0.307560
0.427961
0.560880
0.486970
0.481606
0.580549
0.479817
0.575781
0.409484
0.575781
0.519753
0.527501
0.390410
0.461936
0.608563
0.573993
0.545979
0.504851
0.527501
0.928640
0.531673
0.814795
0.779629
0.767708
0.843406
0.768900
0.693798
0.912547
0.805855
0.873804
1.021624
1.024604
1.066923
1.173615
1.262426
1.508594
1.622438
1.916885
2.270937
4.040599
14.235973
69.608688
166.206956
395.652652
645.940900
998.917818
1015.656590
1015.656590
1015.656590
1015.656590
1015.656590
767.988563
503.106713
236.248970
116.730928
38.591623
14.632940
6.413460
5.559921
5.217791
5.323887
5.022883
4.832745
4.717708
##ZVALUE=385
0.168681
0.218749
0.262856
0.284910
0.244975
0.361800
0.235438
0.286698
0.253916
0.079870
0.351667
0.366569
0.324845
0.185966
0.286698
0.290871
0.343919
0.434518
0.193715
0.321865
0.182986
0.391603
0.327826
0.336766
0.316501
0.222921
0.410676
0.251532
0.403523
0.151992
0.388622
0.366569
0.255704
0.528693
0.408888
0.532866
0.356436
0.299811
0.350475
0.602603
0.267625
0.367761
0.339746
0.353456
0.480413
0.465512
0.331998
0.596642
0.382662
0.508428
0.404716
0.514984
0.380874
0.515580
0.541806
0.372529
0.500679
0.588894
0.642538
0.638962
0.647902
0.760555
0.615716
0.777841
0.732541
0.867844
1.001954
0.976920
1.297593
1.394749
1.508594
1.770854
2.029538
2.655983
7.260442
44.378638
114.564896
287.748575
499.355793
882.758498
1015.576720
1015.576720
1015.576720
1015.576720
1015.576720
940.735936
645.264983
346.167684
191.137791
76.623559
30.468702
7.970929
5.097985
4.726648
4.710555
4.441738
##ZVALUE=390
0.212789
0.227690
0.152588
0.291467
0.379682
0.322461
0.341535
0.201464
0.327826
0.267625
0.261664
0.207424
0.287890
0.275970
0.330806
0.395775
0.274777
0.094771
0.156760
0.273585
0.195503
0.230670
0.254512
0.353456
0.296831
0.366569
0.333786
0.265837
0.244975
0.268817
0.351667
0.405908
0.379682
0.235438
0.375509
0.443459
0.473857
0.306964
0.379682
0.375509
0.469685
0.337958
0.541806
0.390410
0.437498
0.345707
0.396967
0.494719
0.472665
0.451803
0.405908
0.451803
0.431538
0.425577
0.575781
0.544786
0.515580
0.478625
0.468493
0.522733
0.616908
0.488758
0.683665
0.648499
0.740886
0.675917
1.066923
1.040697
1.050830
1.222491
1.441836
1.585484
1.625419
1.577735
1.771450
1.989603
3.358722
20.799637
67.043900
208.510756
398.979783
764.764547
1009.461880
1015.584469
1015.584469
1015.584469
1015.584469
1015.585065
799.238682
472.705960
267.288685
103.652477
43.329000
11.478662
5.674958
4.628897
##ZVALUE=395
0.316501
0.233650
0.291467
0.269413
0.319481
0.413656
0.348687
0.291467
0.318885
0.397563
0.534654
0.384450
0.304580
0.402927
0.304580
0.249743
0.346899
0.239611
0.367761
0.149608
0.357628
0.306964
0.356436
0.332594
0.397563
0.248551
0.341535
0.224710
0.374913
0.440478
0.253916
0.390410
0.383854
0.535846
0.380874
0.328422
0.445843
0.504851
0.384450
0.515580
0.623465
0.446439
0.437498
0.315905
0.402927
0.602603
0.432730
0.466704
0.431538
0.392795
0.631809
0.520945
0.550747
0.496507
0.634789
0.822544
0.619888
0.716448
0.660419
0.580549
0.795722
0.836849
0.783801
0.831485
0.735521
0.957847
0.903606
1.109838
1.144409
1.113415
1.316667
1.477599
1.410842
1.405478
1.458526
1.471639
1.590848
1.817942
2.402663
11.858940
44.711828
154.906511
297.834873
568.728447
847.699642
1015.663743
1015.663743
1015.663743
1015.663743
1015.663743
971.651673
597.316623
363.899469
150.054693
68.677664
20.802617
##ZVALUE=400
0.237823
0.171661
0.192523
0.214577
0.330806
0.245571
0.351667
0.308752
0.295639
0.334978
0.348687
0.216961
0.321865
0.293851
0.322461
0.191927
0.284910
0.245571
0.267625
0.287890
0.343919
0.399947
0.453591
0.334978
0.387430
0.442863
0.461936
0.340939
0.318885
0.146627
0.329614
0.380874
0.409484
0.357628
0.390410
0.348687
0.277758
0.444651
0.337958
0.450611
0.465512
0.383854
0.423789
0.547767
0.555515
0.416636
0.408888
0.505447
0.407696
0.403523
0.405908
0.457764
0.500679
0.600815
0.545979
0.575781
0.598431
0.622869
0.616908
0.702739
0.739694
0.630617
0.547767
0.743866
0.804663
0.852942
0.920892
0.945926
1.074672
1.247525
1.384616
1.449585
1.330972
1.309514
1.279712
1.344681
1.555681
1.600981
1.635551
1.856685
1.950860
5.682707
26.495457
160.574913
196.159482
581.759810
860.672593
1015.646458
1015.646458
1015.646458
1015.646458
1015.646458
1015.646458
802.642703
268.291831
178.165436
##END
