##TITLE=QP00351
##FORMAT=SPECTACLE-ASCII V-1.2
##DATA TYPE=ULTRAVIOLET SPECTRUM
##SECOND TYPE=ULTRAVIOLET SPECTRUM
##DATE=01/24/18
##TIME=17:20:10
##SPECTROMETER/DATA SYSTEM=SPECTACLE
##XUNITS=NM EM
##YUNITS=ENERGY
##YFACTOR=1
##FIRSTX=220
##LASTX=410
##NPOINTS=96
##3DDATA=Equidistant
##ZUNITS=NM EX
##FIRSTZ=210
##LASTZ=400
##ZPOINTS=39
##XYDATA=(Y..Y)
##ZVALUE=210
1.810789
2.041459
1.741648
1.629591
1.582503
2.240539
1.804829
2.214909
2.801418
2.076626
2.250671
2.123713
2.483726
2.667904
2.621412
2.257824
2.962947
3.078580
3.996491
3.548861
3.345609
4.089475
4.361868
4.757643
4.962683
4.194975
4.293919
4.969835
4.775524
4.245639
5.067587
4.780889
5.403757
5.933642
5.704761
6.481409
5.582571
5.605817
5.788803
5.560517
6.095767
5.887747
7.038713
6.492734
7.129908
7.898808
7.259846
7.181764
7.618666
6.849766
6.823540
7.790923
7.677674
7.806420
7.605553
7.861853
7.815957
8.272529
8.018613
7.160902
8.483529
8.646846
9.102821
8.024573
8.624792
8.472800
9.571910
10.677576
12.942553
15.452504
19.101501
20.756721
23.518801
25.704503
28.351545
29.355884
28.537512
31.898618
30.998588
27.233958
23.945570
21.136999
19.894838
18.124580
13.820529
11.291504
9.993911
9.802580
10.026693
8.804798
8.510947
8.648634
7.900000
8.078814
8.033514
8.163452
##ZVALUE=215
6.175637
6.175637
5.764961
4.751682
4.392862
4.674792
3.585815
4.334450
4.230738
4.389882
4.466772
3.773570
3.673434
3.319979
3.311634
3.248453
2.835989
3.392696
4.027486
4.290938
4.042983
3.873706
4.956722
4.842877
4.577637
4.836917
5.115867
4.722476
5.871654
5.903840
5.236864
5.705953
6.239414
5.825758
6.063581
7.108450
6.064773
6.142855
6.696582
6.603599
6.131530
7.588863
6.968975
8.185506
6.965995
7.226467
7.179976
7.919669
8.151531
8.139610
8.756518
7.232428
8.538961
9.811521
9.509921
9.656549
9.361506
8.948445
8.961558
8.663535
8.951426
9.627938
10.077953
10.180473
9.760857
9.214878
11.285543
11.195540
12.455583
15.698671
20.802617
21.487474
24.370551
28.206706
27.763844
28.591752
31.912923
30.343533
28.356910
26.365519
25.136471
20.008683
18.711686
16.785860
15.388727
13.222694
12.795925
11.692643
10.434985
9.260774
9.289980
8.311868
10.031462
8.783937
9.563565
9.093881
##ZVALUE=220
23.541451
22.377968
26.846528
29.813647
28.408766
24.365783
18.616915
14.374852
12.418628
10.293722
10.336637
10.221601
10.628700
10.318756
9.251833
7.127523
6.300807
5.440712
4.927516
4.318953
4.238486
5.110502
4.382730
5.179644
5.861521
5.721450
6.156564
5.281568
6.399751
7.813573
6.449819
6.541610
8.004904
7.039905
7.923841
7.945895
8.615851
7.683635
7.954836
9.034872
8.278489
8.454919
7.261634
8.152723
7.976890
8.639693
9.093881
8.131862
9.180903
10.309815
10.046959
8.781552
9.944439
9.825826
10.002851
10.201931
9.244680
11.161566
9.853840
11.434555
10.479689
10.498762
11.053681
11.358857
12.031794
10.755658
12.635589
15.301704
15.605688
17.872453
19.890666
24.933815
25.748610
31.174421
35.506487
34.094453
33.965707
34.806728
33.931732
31.137466
29.498935
26.401877
23.788810
20.306706
18.263459
14.512539
13.121963
13.213754
13.392568
9.839535
11.363626
11.357665
10.769963
10.457635
10.064840
10.008812
##ZVALUE=225
42.289495
47.945976
65.654516
82.341433
93.491673
90.879798
84.839463
65.100789
49.706697
32.743812
25.598407
23.490787
22.541881
23.772717
23.549795
22.044778
20.286441
17.195940
13.012886
10.184646
6.533861
5.786419
5.375743
5.684495
5.800724
6.301999
6.414652
6.967783
7.587671
7.914901
8.523464
7.953644
8.917451
8.020997
9.728670
9.869933
8.719563
9.217858
9.165406
8.920431
9.117723
9.478927
9.444952
9.518862
8.683801
10.219812
9.664893
9.138584
10.755658
10.803938
10.166764
10.927916
10.233521
9.916425
12.364984
11.651516
11.076927
11.512637
11.487603
11.539459
11.749864
13.207793
12.210608
12.904406
11.926889
13.766885
14.373660
14.939904
16.837716
18.198490
20.317435
26.056767
26.855469
30.686855
30.931830
33.559799
33.242702
30.078888
30.916929
28.619766
28.042793
25.407672
21.864772
19.407868
18.461943
15.914440
16.067624
13.562441
13.234615
12.921691
12.386441
12.638569
11.899471
11.368990
11.495948
11.400580
##ZVALUE=230
43.995976
45.900941
76.281428
123.073459
163.921714
208.131671
232.690573
245.359540
228.004456
186.219811
131.984949
93.261003
56.356788
46.866536
42.926669
46.565533
50.405860
46.707988
46.061873
35.988688
28.882623
21.209717
14.922619
10.229945
8.151531
8.262992
7.552505
8.315444
8.673668
9.371638
8.877516
10.207891
10.041595
9.388924
9.621978
10.661483
10.305643
11.463761
10.881424
12.140870
11.270642
11.625886
10.911822
10.668635
10.413527
12.096763
10.943413
13.277531
12.033582
12.449622
12.410879
12.606978
12.859702
13.762712
12.411475
13.666749
14.111996
15.189648
13.784766
14.575720
14.891624
14.329553
16.196966
15.295744
15.306473
16.712546
17.250776
18.996000
21.987557
23.311973
27.353764
31.139851
32.442808
38.097501
38.541555
39.178729
38.996935
39.282441
37.147999
37.283897
34.313798
30.429959
28.689504
24.246573
22.420883
21.898746
19.190907
18.209815
18.195510
19.166470
17.594695
16.365647
17.992854
16.104579
16.738772
18.581748
##ZVALUE=235
16.979575
18.408895
49.530864
91.026425
179.777741
262.296796
404.405594
497.255921
591.234565
598.433614
535.990596
447.647572
342.976451
208.611488
132.411718
86.457729
77.577829
77.726841
81.400871
84.026456
77.812672
67.517757
53.354502
38.076639
27.904510
19.917488
12.851954
12.418628
10.963678
10.615587
11.699796
11.534691
13.786554
12.242794
12.289882
12.062788
12.062788
12.378693
11.806488
11.593699
11.848807
11.551976
10.324717
12.107491
10.801554
12.827516
12.000799
12.659431
12.651682
12.316704
11.695623
12.121797
14.353991
12.433529
13.460517
12.919903
12.966990
14.633536
14.358759
14.499426
16.032457
15.440583
14.495850
17.079711
17.228723
17.506480
18.314719
19.932985
19.758940
25.818944
26.795864
30.229688
33.610463
37.181973
39.511919
41.077733
40.377975
40.618777
37.174821
33.137798
31.855702
29.040575
28.106570
24.851561
23.990870
24.418831
24.100542
23.194551
20.432472
22.422671
21.148920
21.518469
21.349788
19.969940
19.013882
19.938946
##ZVALUE=240
2.166629
2.418756
5.829930
21.835566
46.355724
107.624531
180.401802
324.113965
443.910956
550.873876
675.313473
691.967607
636.610985
552.492738
406.982899
290.201902
174.515843
128.513575
104.905963
102.551579
112.193823
117.852688
115.525723
99.126697
81.356764
63.449740
50.654411
35.372972
23.992658
18.745661
14.350414
12.382865
12.808442
11.596680
12.098551
11.972785
11.266470
11.290908
11.029840
11.275411
10.567904
10.030866
8.442998
9.420514
9.873509
10.120869
9.742975
10.012984
10.421872
10.996461
10.848641
11.001825
11.072755
11.314750
11.474490
11.052489
11.141896
11.603832
12.298822
12.188554
12.214780
14.101863
14.655590
15.210509
15.227795
15.389919
17.028451
17.179847
20.039678
22.854805
24.279952
28.390884
30.715466
31.088591
35.874844
35.588741
35.881996
35.795569
33.986568
31.155944
30.058622
28.165579
29.670596
27.802587
26.846528
24.715662
24.436712
24.668574
24.148822
24.129748
23.922920
22.443533
24.042726
22.589564
21.451712
21.932721
##ZVALUE=245
1.488924
1.220703
1.826882
1.616478
5.054474
13.690591
44.094920
95.106959
216.215849
334.433913
529.367924
668.468475
766.001940
844.296813
816.489458
696.187615
560.218692
385.951996
267.859697
160.599947
114.719868
103.032589
115.145445
128.414631
132.268667
125.404000
118.185878
101.611614
77.252984
60.032606
41.164756
28.749704
21.752715
16.192794
13.460517
13.413429
12.627840
10.900497
11.381507
9.937882
10.472536
10.112524
9.372830
8.899570
9.582639
8.586645
8.777976
9.174943
8.433461
8.976460
8.517504
9.005666
8.709431
9.015799
9.593964
9.703636
9.587407
10.604858
10.243654
10.232925
11.242628
10.660887
11.995435
11.734962
13.078451
14.125705
15.087724
15.559793
17.617941
17.744899
20.971894
22.882819
25.460720
28.138757
29.038787
29.809475
29.868484
29.482841
29.552579
27.923584
28.018951
27.611852
25.924444
26.125908
23.750663
22.129416
22.639632
22.702813
21.175742
23.034811
21.662712
22.895932
21.608472
21.138787
21.145940
21.049976
##ZVALUE=250
1.467466
1.337528
1.528859
1.404881
1.463890
1.819730
2.501607
8.641481
37.144423
79.549551
198.400617
325.073004
483.506918
722.005963
855.792761
973.183513
972.430706
866.924524
731.910467
502.193570
341.857672
214.207768
125.514865
99.993944
107.733607
121.187568
137.852430
143.430829
138.836503
129.662752
113.704801
86.637735
64.511895
41.251779
30.037761
19.849539
15.204549
11.609793
11.549592
9.939671
9.502769
8.676648
8.812547
9.159446
8.275509
8.943677
8.095503
7.696748
8.000731
7.688999
7.591844
8.478761
8.165836
8.084774
7.317662
8.832812
8.341670
8.509755
9.126663
9.513497
9.444952
10.761619
10.310411
10.688901
10.574460
11.434555
12.860894
13.294816
14.404655
15.635490
18.883944
20.049810
19.795895
23.828745
24.676919
25.328994
25.308728
24.927855
24.917722
23.838878
23.553967
22.413731
22.555590
21.569729
21.588802
20.734668
21.462440
20.209551
22.003651
20.123720
20.943880
21.716952
19.782782
19.978881
18.413663
19.382834
##ZVALUE=255
1.029968
1.444817
1.219511
1.374483
1.238585
1.349449
1.393557
1.456738
2.104640
4.818439
26.114583
63.756704
131.706595
285.577774
452.937484
697.749853
887.588859
1015.584469
1015.584469
1015.584469
919.596553
731.349587
452.401638
286.148787
149.226785
103.800893
92.303753
104.174614
129.444599
142.449737
148.187876
147.918463
134.204626
105.822682
83.183646
55.356622
40.755868
25.134683
16.958714
10.596514
9.287596
8.699894
7.962584
7.323623
7.457733
7.695556
7.885695
7.181764
6.897449
6.760955
7.523894
7.473826
7.445812
7.255673
7.014871
7.382631
6.777644
6.972551
7.949471
7.479787
7.330775
8.272529
8.199811
9.017587
8.770823
10.110736
10.107756
11.090636
11.833906
13.148785
15.002489
16.456842
17.143488
18.146634
19.939542
21.167994
20.645857
19.999743
20.267963
19.761920
19.286871
18.866658
18.523932
18.973947
17.898679
18.450618
17.777681
18.324852
18.463731
17.738938
18.000603
17.880797
17.848611
18.851757
18.614531
18.332601
##ZVALUE=260
1.045465
1.220703
0.971556
0.834465
1.150966
1.086593
1.394749
1.463890
1.490712
1.421571
1.659989
2.907515
8.876920
39.923787
91.125965
222.565532
380.927920
634.790659
852.456689
1015.584469
1015.584469
1015.584469
1015.584469
914.659500
607.479811
413.804650
230.162740
136.502981
87.506771
86.316466
106.826425
128.435493
141.177773
150.730610
147.686005
130.185485
110.551715
81.218481
59.590936
37.607551
24.763942
15.442967
10.171533
7.622838
6.803870
6.817579
7.009506
6.133914
6.377697
6.530881
6.687641
6.823540
6.195903
6.148815
7.057786
7.006526
6.071925
6.739497
6.707907
6.912947
6.844997
7.973909
7.782578
7.482767
7.989407
7.897615
9.678602
9.763837
10.517836
11.123419
11.998415
13.740659
14.094710
16.100407
16.700625
16.073585
16.935468
16.585588
17.286539
17.376542
15.951991
16.792417
15.667677
16.256571
15.873909
16.291738
16.639829
16.366839
16.508698
15.498996
16.693473
15.774965
16.766787
16.253591
16.382933
16.179681
##ZVALUE=265
1.088977
1.117587
0.958443
0.866652
0.802875
1.000762
1.119971
1.288652
1.161695
1.500845
1.354814
1.508594
2.140999
2.107620
5.588531
21.334887
81.385970
164.923668
290.772915
578.026772
848.217010
1015.584469
1015.584469
1015.584469
1015.584469
1015.584469
840.368867
528.819561
341.798663
171.905756
102.953911
73.124766
84.135532
107.438564
131.583810
148.872733
153.439641
146.104693
133.169889
105.729699
82.288980
54.892898
37.268996
21.498799
13.692975
9.119511
6.818771
6.008744
6.255507
6.023645
6.132722
6.461740
6.200671
6.829500
6.576777
6.768703
6.972551
6.693602
6.511807
6.457567
6.604791
7.500648
7.495880
7.705688
6.732941
7.590652
8.415580
8.438826
8.889437
10.799766
10.718703
12.363791
13.493896
13.652444
14.979839
14.682412
14.909506
15.429854
15.478730
14.508963
13.893843
15.370846
13.724566
13.810992
14.043450
14.374852
14.043450
13.766885
14.301538
14.246702
15.155673
14.617443
14.683604
15.089512
14.428496
14.503598
##ZVALUE=270
0.989437
0.875592
1.051426
0.913739
0.582933
0.955462
0.851750
1.183748
0.937581
0.937581
1.320839
1.258850
1.322627
1.435876
1.670718
1.804829
2.534986
11.307597
36.164522
118.629932
243.735909
435.702801
792.741776
1015.535593
1015.535593
1015.535593
1015.535593
1015.535593
1015.535593
802.654028
551.508665
280.649662
153.503418
73.949695
64.038634
82.168579
105.842948
132.471919
145.937800
153.231621
148.767829
130.681992
109.969974
80.343485
58.015585
35.760999
23.559928
13.950467
9.775758
7.252693
6.313920
5.935431
5.968809
6.241798
6.436706
6.598830
6.566644
6.707907
6.446838
6.311536
6.868839
6.524920
6.867647
7.024407
7.573962
7.368922
7.238984
8.172989
8.957982
10.025501
10.043979
12.186766
11.600852
13.469458
13.478994
13.788939
14.121532
13.836622
13.695955
12.827516
13.025999
13.479590
12.738705
12.278557
13.055801
13.240576
12.538433
13.460517
13.337731
12.635589
13.459921
13.074875
13.010502
13.736486
13.079643
12.862682
##ZVALUE=275
0.761747
0.596642
0.716448
0.912547
0.761747
0.874996
0.849962
1.069903
0.974536
0.957847
1.273751
1.288652
1.188517
1.358986
1.560450
1.433492
1.870990
1.611710
2.286434
5.014539
19.142628
61.089993
184.455514
353.571773
691.809654
968.344808
1015.584469
1015.584469
1015.584469
1015.584469
1015.584469
1009.526849
750.989914
402.197838
230.872631
98.748803
61.587691
60.320497
78.220963
106.467605
123.606920
145.413876
151.649714
142.483711
131.588578
102.777481
82.066655
56.602955
40.900707
23.189783
15.578866
9.525418
7.309914
6.184578
5.734563
6.724596
6.240606
6.715655
6.367564
6.963611
7.228851
7.405877
7.213950
7.275939
7.468462
7.775426
8.126497
8.550882
8.762479
9.688735
10.479689
11.228919
12.247562
13.019443
13.268590
13.392568
13.772845
13.372898
13.171434
13.038516
13.319850
12.738705
12.594461
12.093782
11.670589
11.725426
11.549592
11.470914
12.152791
11.586547
12.256503
11.722445
12.387633
12.128949
12.305975
12.526512
##ZVALUE=280
0.828505
0.713468
0.767708
0.683665
0.967979
1.003742
0.791550
0.863671
0.896454
0.868440
1.080632
0.972748
1.070499
1.177788
1.280904
1.337528
1.423955
1.485944
1.615882
1.789927
1.988411
2.869964
13.144612
46.492815
151.615739
286.692381
558.617711
847.395658
1015.584469
1015.584469
1015.584469
1015.584469
1015.584469
1015.584469
930.869579
532.502532
316.519737
136.974454
69.338679
44.499636
54.474473
80.320835
100.250840
126.596689
141.051412
146.318674
140.288472
124.383569
107.393861
78.154802
58.144927
36.185980
24.983883
14.304519
10.349751
7.559657
6.696582
6.585717
6.647706
7.004738
6.548762
7.470846
7.481575
7.244945
7.437468
7.233620
7.875562
8.251667
8.636713
9.069443
9.865761
10.635853
11.723638
12.171865
12.926459
12.901425
12.943745
12.691617
12.311935
11.644959
11.422634
11.397600
11.388659
11.602640
10.949969
11.091828
10.925531
11.751652
11.446476
11.411905
11.337996
11.672974
11.237860
11.302829
11.353493
11.387467
##ZVALUE=285
0.638962
0.701547
0.694990
0.405908
0.796914
0.819564
0.940561
0.889897
0.661612
1.034737
0.868440
0.903606
0.914931
0.981688
1.127720
1.330972
1.133680
1.297593
1.252890
1.512766
1.749992
1.776814
2.261996
2.052784
7.905960
27.128458
91.962814
191.027522
422.590971
687.178969
983.470678
1015.584469
1015.584469
1015.584469
1015.584469
1015.584469
1015.584469
774.763823
491.018891
227.400661
110.128522
44.574738
37.519932
52.294731
73.467493
101.141930
118.713975
137.766600
143.486857
138.740540
127.326846
103.969574
85.858703
57.149529
41.074753
24.308562
16.388893
10.202527
7.906556
6.987453
7.060766
7.399917
7.539988
7.281899
7.962584
7.474422
7.929802
8.079410
8.632541
9.209514
10.336637
10.984540
10.937452
11.985898
12.328625
12.248755
12.233853
11.861920
11.933446
11.651516
11.430979
11.854768
11.519790
10.829568
10.849833
10.893941
10.699630
10.981560
10.918975
10.894537
10.893941
11.118650
10.810494
11.316538
10.751486
10.679960
##ZVALUE=290
0.617504
0.547767
0.698566
0.613928
0.665784
0.798702
0.764728
0.669956
0.850558
0.740886
0.805855
0.809431
0.694990
0.836849
1.068711
0.934601
1.182556
1.159906
1.184940
1.108646
1.257658
1.274943
1.670718
1.814961
2.016425
2.061725
3.505945
11.707544
56.176782
135.442615
269.832611
568.899512
888.382792
1015.580893
1015.580893
1015.580893
1015.580893
1015.580893
1015.580893
978.865027
679.565668
343.629718
180.515647
64.661503
32.066703
34.336448
47.019720
70.547462
89.914799
115.635991
131.404996
139.895678
137.315989
123.727918
105.827451
78.750849
57.988763
37.490726
25.641918
15.424490
11.180639
8.169413
7.391572
7.316470
6.719828
7.912517
7.687807
8.229613
8.810759
9.287596
9.974837
10.569692
10.833740
11.247993
11.796951
11.894703
12.210608
11.108518
11.313558
10.813475
11.021495
11.273623
11.214614
10.748506
10.648966
10.961890
10.563731
10.612607
10.512471
10.902882
10.717511
10.959506
10.926723
10.732412
11.180639
10.904670
##ZVALUE=295
0.532866
0.538826
0.530481
0.547767
0.610948
0.664592
0.819564
0.768900
0.762939
0.687838
0.704527
0.713468
0.920892
0.699759
0.628829
0.934601
0.870824
1.019835
1.176596
1.286864
1.075864
1.357794
1.319647
1.563430
1.647472
1.813769
1.797676
2.126694
2.629757
5.021691
29.354692
85.461736
197.172761
474.475026
776.692629
1015.583873
1015.583873
1015.583873
1015.583873
1015.583873
1015.583873
1015.583873
794.317722
425.255895
236.360431
88.114738
38.563609
24.284720
29.457808
46.971440
63.483715
88.259578
107.773542
125.680566
132.836699
129.964948
119.356513
97.928643
78.547001
56.349635
40.402412
24.532676
16.940832
11.285543
9.055734
8.149743
8.493662
8.532405
8.952618
9.600520
10.076761
10.508895
11.325479
11.632442
11.755824
11.814833
11.909604
11.402965
11.200905
11.179447
11.211634
11.366606
10.827780
10.874867
11.191964
11.434555
11.144876
11.212826
11.109710
10.785460
10.753870
10.620952
10.860562
10.470748
10.422468
11.012554
##ZVALUE=300
0.470877
0.496507
0.626445
0.787973
0.506639
0.444651
0.497699
0.672936
0.769496
0.673532
0.699759
0.645518
0.631809
0.900626
0.731945
0.975728
0.802875
0.815988
0.742674
0.845790
1.088977
1.073480
0.999570
1.125932
1.226664
1.434684
1.577735
1.793504
1.839995
2.184510
2.300739
2.992749
12.892485
48.128963
168.555975
335.483551
690.899491
1007.323861
1015.584469
1015.584469
1015.584469
1015.584469
1015.584469
1015.584469
965.083838
642.423034
323.397517
172.892809
60.453415
25.749803
19.805431
27.277470
41.952729
58.413744
82.529783
101.284981
120.050907
126.679540
124.822855
116.389990
96.744895
78.378916
55.924654
40.858984
25.707483
18.019676
12.663603
10.222793
9.246469
9.401441
10.241866
10.918975
11.375546
11.430979
11.215806
11.498928
11.708736
11.580586
11.111498
11.076927
10.976791
10.844469
11.468530
11.066794
10.886788
11.265874
10.716915
10.735989
10.828972
10.864735
10.825992
10.652542
10.656714
10.531545
10.831952
10.682940
##ZVALUE=305
0.595450
0.568628
0.698566
0.658631
0.591874
0.678897
0.482798
0.513792
0.665784
0.518560
0.584722
0.537634
0.662804
0.801682
0.667572
0.747442
0.726581
0.787973
0.912547
0.816584
1.045465
0.948906
1.168847
1.132488
1.202822
1.403689
1.191497
1.386404
1.573563
1.808405
1.953840
2.006888
2.302527
2.653599
4.921556
34.622550
101.217628
293.890834
527.572036
961.716771
1015.584469
1015.584469
1015.584469
1015.584469
1015.584469
1015.584469
1015.584469
806.095004
513.072014
231.787562
114.973783
37.045479
17.232895
18.339753
25.866628
41.455626
57.158470
77.736974
95.626712
113.090873
120.509863
118.993521
110.015869
92.448592
76.357722
53.704977
39.026737
26.025772
19.063950
13.130903
11.827946
10.613799
11.229515
11.515617
11.805892
11.426806
11.180639
11.105537
11.048913
11.617541
10.937452
11.281967
10.974407
11.296868
11.378527
11.012554
11.270642
11.110902
10.842681
10.956526
11.118650
10.727644
11.196733
10.852814
10.527968
10.531545
##ZVALUE=310
0.597835
0.534654
0.628829
0.701547
0.470877
0.685453
0.505447
0.648499
0.501871
0.736713
0.657439
0.776649
0.800490
0.719428
0.716448
0.692606
0.717640
0.813603
0.747442
0.725985
0.758767
0.875592
0.991821
0.844598
1.058578
1.238585
1.158714
1.348853
1.437664
1.388788
1.483560
1.806617
1.829863
2.122521
2.368689
2.554655
3.672838
9.998679
62.116981
160.381794
428.468585
748.114586
1015.584469
1015.584469
1015.584469
1015.584469
1015.584469
1015.584469
1015.584469
1015.584469
640.619993
375.522971
156.593919
70.157647
22.176504
14.302731
17.476678
23.317933
36.141872
49.452782
70.476532
86.197853
105.051994
113.344789
113.658905
108.402967
92.196465
75.837970
54.027438
40.048957
26.996732
20.778775
15.795827
13.647676
12.297630
12.061596
11.688471
11.317730
10.966659
11.080503
11.354685
11.445880
11.439919
11.162758
11.272430
11.501908
11.407733
11.176467
11.081696
11.351705
11.199713
11.185408
11.088848
10.657907
10.539889
10.477901
##ZVALUE=315
0.628829
0.519753
0.566840
0.675917
0.561476
0.613928
0.467896
0.602603
0.615716
0.555515
0.731945
0.535846
0.732541
0.512600
0.565648
0.599623
0.852942
0.907779
0.824928
0.823736
0.806451
0.996590
0.842810
0.994802
0.953674
0.884533
1.251698
1.147985
1.217723
1.112819
1.341701
1.582503
1.732707
1.729727
1.846552
2.000928
2.309680
2.673864
3.059506
7.030964
27.508736
123.042464
285.985470
691.859722
1015.579700
1015.579700
1015.579700
1015.579700
1015.579700
1015.579700
1015.579700
1015.579700
935.181975
468.654633
242.466927
84.033608
34.713745
14.260411
13.023615
16.109943
21.484494
34.758449
47.388673
66.526532
81.719756
99.402666
107.874870
109.206438
103.504658
89.300871
74.395537
55.507421
41.673779
27.951598
21.113753
15.668869
13.484955
12.041926
11.561513
11.287928
10.984540
11.648536
11.588931
11.470914
11.751652
11.321902
11.525750
11.365414
11.656880
11.438727
11.471510
11.178851
11.241436
10.979772
11.203885
10.675788
##ZVALUE=320
0.540614
0.624657
0.714660
0.545979
0.699759
0.582933
0.744462
0.543594
0.709891
0.835657
0.738502
0.658631
0.797510
0.757575
0.666976
0.797510
0.757575
0.763535
0.781417
0.849962
0.889897
0.683665
0.822544
0.982881
0.981688
1.232624
1.124740
1.286864
1.355410
1.203418
1.371503
1.192689
1.566410
1.435876
1.574755
1.972914
2.013445
2.118945
2.271533
2.551675
3.145933
3.975630
10.986924
62.785745
173.950791
502.058864
881.067514
1015.660763
1015.660763
1015.660763
1015.660763
1015.660763
1015.660763
1015.660763
1015.660763
670.819879
366.956592
145.446658
61.706901
19.340515
11.965632
12.373924
14.667511
21.022558
29.489994
45.409799
59.242845
78.838468
93.267560
102.534890
105.071664
98.574758
88.453889
70.184469
55.692792
38.185716
28.481483
20.496845
15.535951
12.806654
11.833906
11.500716
11.453629
11.373758
11.720657
11.639595
11.478662
11.246800
11.648536
11.379719
11.278987
10.928512
11.254549
11.307597
10.897517
10.812879
##ZVALUE=325
0.694990
0.720620
0.673532
0.784993
0.782609
0.834465
0.762939
0.954866
0.911951
0.870824
0.840425
0.742674
0.823736
0.840425
0.776649
0.813603
1.008511
1.068711
0.831485
0.910759
0.925660
1.004934
1.306534
1.183748
1.181960
1.155734
1.013875
1.070499
1.173615
1.145601
1.195669
1.474619
1.411438
1.659989
1.515746
1.614690
1.734495
2.033710
2.144575
2.184510
2.383590
2.560616
2.901554
3.521442
6.322861
37.868619
107.948780
311.363935
598.557591
1015.822887
1015.822887
1015.822887
1015.822887
1015.822887
1015.822887
1015.822887
1015.822887
959.240794
571.476817
233.002901
103.703737
28.539896
13.915896
11.495948
12.127757
14.996529
19.981861
30.370951
42.424798
61.337948
75.892806
89.936852
97.816586
98.926425
92.767477
78.832507
65.825582
49.607754
37.798882
25.681853
19.567609
14.772415
13.274550
11.936426
11.918545
11.653900
11.341572
11.566877
11.438727
11.233687
11.375546
11.078715
11.310577
11.033416
11.191964
11.115670
##ZVALUE=330
0.307560
0.269413
0.449419
0.514984
0.420809
0.168681
0.387430
0.367761
0.235438
0.492930
0.470877
0.531673
0.419617
0.510812
0.601411
0.437498
0.527501
0.338554
0.389814
0.436902
0.502467
0.515580
0.637770
0.588894
0.579953
0.714660
0.685453
0.658631
0.669956
0.885725
0.916719
0.858903
1.049638
1.026988
1.041889
1.161695
1.216531
1.157522
1.242757
1.216531
1.556873
1.832843
1.831651
2.284646
2.513528
3.099442
3.878474
15.481710
52.929521
196.417570
404.904485
887.689590
1015.448570
1015.448570
1015.448570
1015.448570
1015.448570
1015.448570
1015.448570
1015.448570
767.229795
346.069932
168.263912
51.595569
19.032955
11.190772
10.638833
11.355877
13.923645
21.026731
28.457642
42.299628
55.006742
73.615909
83.980560
92.484951
92.300773
86.183548
75.522661
60.236454
46.949983
32.778978
25.643706
18.878579
15.268922
12.589693
11.670589
10.804534
11.122823
10.781884
10.976791
10.398626
10.410547
10.502934
10.488629
10.597706
##ZVALUE=335
0.447631
0.292659
0.421405
0.456572
0.559688
0.461936
0.514984
0.388622
0.513792
0.537634
0.478625
0.600815
0.594854
0.500679
0.555515
0.517964
0.513792
0.540614
0.632405
0.606775
0.627637
0.796914
0.540614
0.602603
0.734925
0.570416
0.592470
0.719428
0.810623
0.891685
0.900626
0.804663
1.050830
1.095533
1.107454
1.079440
1.104474
1.163483
1.220703
1.163483
1.324415
1.394749
1.498461
1.690984
1.915693
1.970530
2.304912
2.567768
3.014803
7.798672
27.987957
117.293000
264.796019
634.820461
1003.749967
1015.584469
1015.584469
1015.584469
1015.584469
1015.584469
1015.584469
1015.584469
943.436623
505.954027
274.912715
92.688799
32.527447
12.090802
10.869503
10.785460
11.637807
14.878511
18.952489
28.936863
38.828850
55.757761
66.292882
79.062581
85.576773
86.065531
81.779957
69.514513
59.785843
46.340823
36.538839
25.379658
19.480586
14.607906
12.923479
11.595488
11.025667
10.393858
10.248423
10.436773
10.232925
10.260940
##ZVALUE=340
0.414848
0.384450
0.436902
0.388622
0.417829
0.504851
0.499487
0.355840
0.504851
0.378489
0.444651
0.484586
0.468493
0.516772
0.524521
0.390410
0.546575
0.494719
0.528693
0.412464
0.588894
0.543594
0.566840
0.597835
0.668764
0.626445
0.690818
0.581741
0.785589
0.832677
0.688434
0.746846
0.832677
0.671744
0.758767
0.829697
0.849962
0.840425
1.007915
1.092553
1.144409
1.202822
1.271963
1.362562
1.597404
1.535416
1.679659
1.772642
2.166629
2.331734
2.804995
4.372597
15.281439
78.104734
191.500783
484.802723
832.850933
1015.584469
1015.584469
1015.584469
1015.584469
1015.584469
1015.584469
1015.584469
1015.584469
568.035841
295.830965
104.221702
41.077733
14.206767
10.708570
10.462999
10.359883
11.604428
13.782978
19.147992
25.515556
37.561655
47.692657
63.930750
73.421001
79.999566
80.947876
75.757504
68.129897
55.671930
44.812560
32.976866
25.836825
18.780828
14.888644
11.575818
11.283755
10.121465
9.646416
9.459853
##ZVALUE=345
0.315905
0.433922
0.324845
0.347495
0.467896
0.374913
0.350475
0.402927
0.521541
0.581741
0.410676
0.406504
0.460744
0.495911
0.398755
0.480413
0.528693
0.372529
0.465512
0.538826
0.521541
0.517964
0.498891
0.399947
0.622869
0.720620
0.680685
0.543594
0.548959
0.493526
0.732541
0.675917
0.624657
0.795722
0.701547
0.937581
0.763535
0.817776
0.843406
0.867844
1.017451
0.994802
1.106858
0.931621
1.145601
1.123548
1.293421
1.189709
1.488924
1.803637
1.868606
1.955628
2.097487
2.752542
6.595850
46.975613
130.919814
338.038802
597.429872
1008.247733
1015.584469
1015.584469
1015.584469
1015.584469
1015.584469
1015.584469
1015.584469
717.650652
401.237011
152.335763
64.894557
19.932985
11.447668
10.602474
10.107756
10.070801
10.332465
12.479424
15.999675
24.146438
33.442974
46.752691
56.124926
67.232847
73.194504
74.516535
72.661638
63.434839
56.108832
44.159889
34.097433
24.073720
18.556714
13.910532
11.973977
10.426641
##ZVALUE=350
0.317693
0.372529
0.447631
0.290871
0.332594
0.474453
0.423789
0.315905
0.379682
0.357628
0.390410
0.435710
0.425577
0.447631
0.426769
0.486970
0.468493
0.518560
0.431538
0.324845
0.608563
0.497699
0.600815
0.467896
0.528693
0.604987
0.438690
0.633597
0.660419
0.514984
0.562668
0.539422
0.648499
0.635982
0.689626
0.781417
0.615716
0.751615
0.815988
0.692606
0.865459
1.002550
0.894666
0.913739
1.143813
0.986457
1.070499
1.089573
1.205802
1.326799
1.545548
1.614690
1.632571
2.007484
2.207756
2.420545
4.202724
17.018914
88.649988
213.747621
512.755513
840.746760
1015.573740
1015.573740
1015.573740
1015.573740
1015.573740
1015.573740
1015.573740
832.781792
422.317982
232.433677
89.259744
33.799410
11.360645
9.861588
9.171963
8.984804
8.862615
9.176731
11.918545
15.467405
21.588802
29.153824
40.333867
49.419999
60.405731
66.500902
69.050789
66.990852
60.481429
52.319765
40.605664
32.172799
23.395419
18.290877
##ZVALUE=355
0.505447
0.418425
0.518560
0.286698
0.454783
0.426769
0.479817
0.523925
0.333786
0.316501
0.320673
0.527501
0.303984
0.513792
0.439882
0.644922
0.415444
0.462532
0.504851
0.471473
0.583529
0.491738
0.396967
0.542998
0.641942
0.578761
0.563860
0.510812
0.652671
0.511408
0.708699
0.628829
0.646710
0.675917
0.661612
0.658631
0.670552
0.895858
0.788569
0.668764
0.881553
0.861883
0.981688
0.846982
0.944734
1.080632
1.028776
1.106858
1.131892
1.174808
1.328588
1.492500
1.623631
1.646876
1.796484
1.957417
2.351999
2.513528
2.822876
9.431839
37.707686
156.633854
328.656435
683.397651
1008.165479
1015.584469
1015.584469
1015.584469
1015.584469
1015.584469
1015.584469
962.032676
611.263514
263.390541
123.596787
36.546588
14.466643
9.167790
8.540750
8.337498
8.458495
8.563995
9.040833
10.832548
13.230443
19.222498
25.648475
35.636425
43.708682
53.820610
58.735609
62.220693
61.421990
55.180788
48.885942
39.020777
##ZVALUE=360
0.465512
0.363588
0.467896
0.465512
0.481606
0.401735
0.338554
0.425577
0.522733
0.493526
0.463724
0.477433
0.379682
0.635982
0.416636
0.487566
0.377893
0.565648
0.444651
0.624657
0.380874
0.602603
0.432730
0.572801
0.636578
0.568628
0.664592
0.566840
0.543594
0.623465
0.622869
0.830889
0.608563
0.592470
0.798702
0.648499
0.609756
0.695586
0.794530
0.632405
0.820756
0.883937
0.744462
0.974536
1.000762
0.924468
1.014471
1.000762
1.061559
1.293421
1.157522
1.268983
1.362562
1.510978
1.519918
1.590848
1.955628
2.037883
2.303720
2.382994
2.922416
3.986955
20.380616
70.992708
239.223838
466.620922
911.321640
1015.555859
1015.555859
1015.555859
1015.555859
1015.555859
1015.555859
1015.555859
730.644464
428.859591
179.343820
77.629685
20.910501
10.405779
8.590817
8.345842
8.286834
8.009672
7.938743
8.322597
9.227991
11.551976
16.395450
21.373630
29.311776
37.525892
47.027469
52.525997
57.246685
56.083798
##ZVALUE=365
0.457764
0.296831
0.447631
0.390410
0.364780
0.374913
0.408888
0.390410
0.335574
0.407696
0.353456
0.404716
0.461936
0.422597
0.440478
0.484586
0.470877
0.530481
0.590682
0.485778
0.691414
0.596642
0.566840
0.657439
0.758767
0.601411
0.552535
0.601411
0.623465
0.748634
0.642538
0.527501
0.567436
0.697970
0.784993
0.867844
0.698566
0.753999
0.829697
0.861883
0.764728
0.968575
0.889897
0.830889
0.883937
0.961423
0.882745
0.948906
0.993609
1.090765
1.062751
1.128912
1.197457
1.483560
1.508594
1.513958
1.552701
1.742840
2.005696
2.112985
2.225637
2.257824
2.952814
3.507733
7.963777
45.819879
127.347708
355.629921
644.039512
1015.584469
1015.584469
1015.584469
1015.584469
1015.584469
1015.584469
1015.584469
960.489511
515.753627
273.244977
97.240806
37.783980
11.669993
8.896589
8.149743
8.015633
7.612705
7.272959
7.302761
7.389784
8.258820
9.928942
13.732910
18.054843
24.934411
31.521916
40.258765
##ZVALUE=370
0.417829
0.510812
0.370741
0.356436
0.374913
0.266433
0.500679
0.578761
0.369549
0.385642
0.326633
0.349879
0.421405
0.208616
0.367761
0.409484
0.441670
0.443459
0.529885
0.528693
0.381470
0.446439
0.622869
0.551939
0.402927
0.509620
0.553727
0.567436
0.546575
0.538826
0.565648
0.569820
0.680685
0.757575
0.676513
0.479817
0.702739
0.639558
0.680685
0.869632
0.710487
0.780821
0.863671
0.891685
0.946522
0.845790
0.865459
0.916719
0.794530
1.051426
1.032948
0.983477
1.194477
1.191497
1.212955
1.336932
1.370907
1.465678
1.585484
1.593828
1.680851
1.948476
2.135634
2.286434
2.671480
2.979636
4.939437
27.951598
94.074607
303.065777
564.420819
1004.595757
1015.543938
1015.543938
1015.543938
1015.543938
1015.543938
1015.543938
1015.543938
611.252785
325.155854
120.825768
53.943992
17.775893
9.257793
7.636547
7.282495
6.636977
6.676912
6.682873
6.374717
6.700754
7.137656
8.866787
10.887980
15.891790
##ZVALUE=375
0.416636
0.475645
0.365973
0.451803
0.358820
0.385642
0.418425
0.381470
0.477433
0.333786
0.470877
0.570416
0.392795
0.409484
0.465512
0.322461
0.529885
0.565648
0.405908
0.563860
0.569820
0.830889
0.483990
0.560880
0.440478
0.421405
0.531673
0.615716
0.602603
0.526905
0.433922
0.505447
0.677705
0.461936
0.572801
0.658631
0.589490
0.840425
0.758767
0.720620
0.692606
0.676513
0.791550
0.808835
0.820756
0.764728
0.771880
0.820756
0.685453
1.026988
0.848770
0.959635
0.939965
0.980496
1.013875
1.059771
1.089573
1.071692
1.355410
1.351833
1.366735
1.452565
1.509786
1.681447
1.841784
2.075434
2.261996
2.747774
3.318787
11.640787
47.749877
188.903809
407.955647
887.129903
1015.584469
1015.584469
1015.584469
1015.584469
1015.584469
1015.584469
1015.584469
831.740499
500.572920
219.166875
102.212429
29.832721
11.930466
7.214546
6.703734
6.348491
6.224513
6.246567
5.930662
5.636811
5.953908
6.402731
##ZVALUE=380
0.425577
0.305772
0.389814
0.434518
0.500679
0.429749
0.434518
0.457764
0.427961
0.500679
0.432730
0.413656
0.491738
0.514984
0.400543
0.327826
0.286698
0.508428
0.552535
0.340939
0.499487
0.457764
0.282526
0.446439
0.504851
0.410676
0.595450
0.485778
0.351667
0.490546
0.427961
0.455976
0.473857
0.515580
0.663996
0.476837
0.639558
0.426769
0.555515
0.662804
0.489950
0.510812
0.626445
0.626445
0.639558
0.716448
0.814795
0.774860
0.829697
0.729561
0.660419
0.797510
0.826716
0.840425
0.931621
0.938773
0.955462
0.934601
1.048446
1.038909
1.063943
1.054406
1.228452
1.299977
1.371503
1.675487
1.637936
1.894832
2.389550
2.637506
3.160834
4.903674
26.125908
86.455941
283.279419
543.795824
993.904471
1015.584469
1015.584469
1015.584469
1015.584469
1015.584469
1015.584469
1015.584469
657.565594
370.242596
145.660639
62.847733
16.382933
7.841587
6.503463
6.008744
5.955696
5.743504
5.601645
5.360842
##ZVALUE=385
0.480413
0.375509
0.380874
0.231862
0.319481
0.324845
0.290871
0.259876
0.295639
0.244975
0.320673
0.404716
0.405908
0.305772
0.313520
0.406504
0.381470
0.339746
0.382662
0.440478
0.492930
0.330806
0.439882
0.411868
0.415444
0.405908
0.374913
0.365973
0.409484
0.563860
0.444651
0.508428
0.565648
0.521541
0.590682
0.511408
0.564456
0.506639
0.518560
0.514984
0.447631
0.517964
0.513792
0.585914
0.577569
0.535846
0.734925
0.602603
0.516772
0.668764
0.726581
0.596642
0.592470
0.764728
0.811815
0.706911
0.797510
0.795722
0.831485
0.921488
0.969768
0.983477
1.061559
1.101494
1.200438
1.278520
1.570582
1.544952
1.800656
2.200603
2.540946
2.837777
2.875924
3.668666
9.257793
60.598850
168.491602
450.319648
816.074014
1015.584469
1015.584469
1015.584469
1015.584469
1015.584469
1015.584469
1015.584469
949.760675
497.369766
273.131728
107.776523
41.332841
9.873509
6.256700
5.704761
5.378723
5.289912
##ZVALUE=390
0.344515
0.216961
0.310540
0.284910
0.296831
0.293851
0.345707
0.386834
0.291467
0.360608
0.484586
0.377893
0.307560
0.369549
0.343919
0.442863
0.289679
0.355840
0.548959
0.464916
0.415444
0.450611
0.257492
0.247955
0.494719
0.484586
0.284910
0.391603
0.438690
0.552535
0.380874
0.493526
0.490546
0.406504
0.440478
0.416636
0.454783
0.530481
0.468493
0.415444
0.674725
0.516772
0.574589
0.492930
0.549555
0.456572
0.496507
0.608563
0.613928
0.578761
0.553727
0.799894
0.550747
0.613928
0.602603
0.648499
0.718832
0.747442
0.822544
0.650883
0.858903
0.821948
0.919700
1.082420
1.127720
1.212955
1.293421
1.438856
1.675487
2.007484
2.180934
2.329946
2.443790
2.629757
2.570748
2.996922
4.472733
30.464530
114.202499
376.536846
720.957518
1015.587449
1015.587449
1015.587449
1015.587449
1015.587449
1015.587449
1015.587449
1015.587449
684.665442
381.025672
148.283839
65.601468
16.708970
7.397532
5.692840
##ZVALUE=395
0.269413
0.233650
0.336766
0.278950
0.395775
0.339746
0.213981
0.292659
0.177622
0.311732
0.321865
0.321865
0.356436
0.387430
0.200868
0.243783
0.254512
0.381470
0.437498
0.405908
0.322461
0.412464
0.421405
0.429749
0.363588
0.450611
0.393987
0.264645
0.508428
0.437498
0.339746
0.481606
0.505447
0.501871
0.497699
0.380874
0.516772
0.509620
0.465512
0.476837
0.515580
0.360608
0.535846
0.577569
0.713468
0.581741
0.736713
0.653863
0.538826
0.724792
0.774860
0.762939
0.809431
0.625849
0.759959
0.854731
0.787973
0.843406
0.886917
0.886917
0.995994
0.918508
1.025796
1.033545
1.037717
1.228452
1.473427
1.498461
1.817942
2.105832
2.075434
2.439618
2.232790
2.316833
2.483726
2.459884
2.628565
2.942681
4.209876
10.778904
69.558620
197.894573
530.095696
939.209461
1015.584469
1015.584469
1015.584469
1015.584469
1015.584469
1015.584469
1015.584469
976.305604
491.835475
249.260664
89.133978
37.619472
##ZVALUE=400
0.056624
-0.000596
0.166893
0.031590
-0.005960
0.087619
0.005960
0.016689
0.007749
0.213981
0.074506
0.089407
0.007749
-0.013709
0.125766
0.120997
0.117421
0.072718
0.049472
0.163913
0.077486
0.045896
0.292659
0.165701
0.233650
0.140667
0.009537
0.091791
0.197887
0.208616
0.208616
0.148416
0.085831
0.218749
0.234842
0.179410
0.290871
0.123978
0.339746
0.290871
0.452995
0.217557
0.145435
0.241995
0.222921
0.302792
0.207424
0.292659
0.262856
0.119805
0.319481
0.482798
0.291467
0.378489
0.437498
0.398755
0.479817
0.459552
0.510812
0.471473
0.484586
0.508428
0.555515
0.649691
0.606775
0.904799
0.812411
1.066923
1.266599
1.348853
1.361966
1.454949
1.663566
1.664758
1.670718
1.551509
1.666546
1.890659
1.960993
2.330542
2.718568
7.051826
26.043653
103.485584
237.942934
562.172532
937.955976
1015.371680
1015.371680
1015.371680
1015.371680
1015.371680
1015.371680
1001.536846
667.280555
311.346650
##END
