##TITLE=QP00302
##FORMAT=SPECTACLE-ASCII V-1.2
##DATA TYPE=ULTRAVIOLET SPECTRUM
##SECOND TYPE=ULTRAVIOLET SPECTRUM
##DATE=01/24/18
##TIME=17:08:34
##SPECTROMETER/DATA SYSTEM=SPECTACLE
##XUNITS=NM EM
##YUNITS=ENERGY
##YFACTOR=1
##FIRSTX=220
##LASTX=410
##NPOINTS=96
##3DDATA=Equidistant
##ZUNITS=NM EX
##FIRSTZ=210
##LASTZ=400
##ZPOINTS=39
##XYDATA=(Y..Y)
##ZVALUE=210
2.136827
1.240969
1.517534
1.801848
1.649857
1.895428
2.439618
1.746416
2.046824
2.195835
2.404451
2.253652
2.728701
2.396703
2.028942
2.434850
2.684593
2.697706
2.550483
3.741980
3.127456
3.202558
4.069805
5.230904
4.093647
5.558729
5.467534
5.945563
4.616976
5.538464
5.428791
5.912781
6.117821
5.424619
6.066561
6.814599
7.070899
7.199645
8.188486
6.980896
8.139610
7.818937
7.747412
8.220673
8.236766
8.818507
8.238554
9.018779
8.534789
9.494424
9.710789
9.399652
9.284616
10.661483
10.289550
10.260940
10.948777
10.096431
10.597706
11.217594
10.736585
10.998845
11.111498
11.716485
11.540651
12.957454
13.450980
14.844537
17.278790
20.638704
26.600957
28.877854
34.742951
40.260553
42.032599
41.531920
44.675469
42.601824
43.060780
40.958524
36.278963
32.517910
29.051900
26.571751
21.174550
18.102527
15.727878
14.286637
13.106465
11.707544
12.199879
12.266636
11.468530
12.249947
12.358427
12.032986
##ZVALUE=215
5.805492
6.298423
5.287528
5.068779
4.316568
4.028678
3.955960
3.793836
4.598498
4.184842
4.320741
4.210472
3.612638
3.910661
3.009439
3.405809
3.494620
3.130436
4.005432
3.260970
4.210472
4.259944
4.143715
4.300475
5.074739
5.090833
5.204678
5.629659
5.722642
6.446838
5.035996
5.530715
6.930828
7.684827
8.056760
6.874800
7.768869
7.906556
7.936954
8.207560
8.876920
8.936524
9.749532
7.992983
8.712411
8.768439
9.927750
10.167956
9.859800
9.868741
10.783672
11.619925
11.266470
10.629892
11.455417
11.570454
12.469888
12.308955
13.569593
12.200475
12.622476
14.359951
12.519956
12.449622
14.288425
14.064908
16.064644
18.292665
19.539595
22.802949
26.817918
32.994747
37.869811
44.306517
44.857860
48.984885
48.457980
48.774481
47.618747
44.245720
40.076971
36.028624
33.023953
27.205944
25.479794
20.060539
19.033551
14.545918
13.973713
14.070868
14.483929
13.498664
13.222694
12.790561
12.342930
11.788607
##ZVALUE=220
22.013783
21.932721
26.174784
26.547909
22.896528
18.532872
15.442967
12.157559
9.785891
9.425879
10.421872
11.059642
10.665655
10.011792
8.606911
7.410645
5.400777
4.067421
4.311800
4.240870
5.030632
4.580617
5.230904
5.226731
5.915761
5.569458
6.951690
6.531477
5.424619
6.718636
7.132888
7.342696
7.455945
7.298589
7.687807
8.435845
7.701516
7.611513
8.426905
8.593798
8.006692
8.571744
9.604692
9.300709
10.344982
11.353493
10.402799
9.687543
10.309815
11.308789
10.034442
11.356473
12.198687
11.646748
11.858940
12.491941
12.445450
12.455583
12.693405
13.464689
12.724996
13.767481
14.312863
14.339685
14.098883
14.873743
15.333891
17.366409
18.642545
22.871494
26.489496
30.535460
33.945441
37.877560
41.353703
44.047832
43.190718
42.255521
41.629672
39.802790
37.544966
33.139586
29.220581
27.962923
21.941662
20.932555
16.639829
14.069676
17.197728
14.588833
14.290810
14.632940
12.775660
13.798475
12.979507
13.232827
##ZVALUE=225
36.945939
38.901567
57.381988
71.688890
79.627633
80.146790
78.414679
63.222647
44.903755
36.663413
24.067760
22.484660
21.099448
23.145676
22.027493
21.025538
19.941926
16.463995
13.101697
8.261800
7.397532
5.630851
5.419850
5.154610
5.938411
5.690455
6.024837
7.110834
6.286502
6.932616
7.070899
7.552505
7.148981
7.595420
7.931590
8.360744
9.217858
9.180903
8.219481
9.545684
10.205507
9.551644
10.382533
10.456443
10.488629
10.685921
11.037588
10.105968
10.902882
10.178685
11.446476
11.152625
12.612939
11.633635
12.467504
13.094544
12.013912
12.410879
11.943579
12.377501
12.506843
13.033748
13.187528
13.192892
13.914704
14.025569
15.369654
17.809868
19.669533
20.223856
25.033951
27.477741
32.713413
35.214424
38.012862
39.030910
38.744807
37.445426
33.424497
31.626821
31.153560
28.463602
26.438832
25.773644
21.454692
19.960999
18.776655
18.534660
18.419623
16.655922
17.133951
17.772913
16.563535
15.824437
14.608502
16.301870
##ZVALUE=230
37.396550
44.813752
72.301626
121.090412
157.536864
201.265812
224.182606
230.731964
209.401846
183.165669
126.063824
91.348886
58.412552
46.244860
45.043826
45.118928
48.891902
47.665834
44.648647
35.812855
28.383732
20.024776
14.477968
9.685755
7.742643
7.115602
6.833673
6.827712
8.050799
7.114410
8.794665
8.464456
9.759665
9.603500
10.080934
10.039806
10.726452
10.120869
10.878444
10.519624
11.599660
12.263656
11.386871
10.815859
11.841655
11.332631
11.099577
12.031794
12.155771
12.562871
13.438463
12.813807
13.284683
13.934970
14.540553
13.762712
13.677478
14.537573
14.671683
15.177727
14.249682
17.526746
17.736554
17.456412
17.837882
17.890930
18.946528
20.724535
22.015572
27.398467
27.978420
32.514930
33.816695
39.674640
42.890906
43.184757
42.427778
41.765571
41.091442
39.130449
35.616755
33.867955
30.425787
28.423667
28.098822
26.599765
25.327802
24.373531
23.424625
24.854541
22.378564
22.802949
23.080707
22.341609
23.364425
20.843744
##ZVALUE=235
14.019608
17.636418
34.728646
85.753798
146.351457
234.013796
318.951607
422.447920
477.075577
489.479899
444.389582
371.464491
257.527828
182.541609
115.869641
87.430477
76.362491
74.756742
80.667734
82.321763
77.956915
63.689947
47.739744
35.528541
29.133558
17.581582
14.461875
10.414720
10.569692
10.028481
8.973479
10.674596
11.254549
9.763837
10.918975
10.609627
10.462999
11.982918
12.313724
12.014508
12.298822
11.962652
11.672974
11.867881
12.586713
13.254881
12.254715
12.798905
13.097525
14.276505
13.930798
13.902783
13.879538
14.694929
15.817881
14.844537
15.269518
16.236901
16.282797
16.962886
17.089844
19.076467
18.586516
20.293593
21.745563
21.174550
23.239851
26.207566
27.452707
29.467940
32.909513
37.276745
39.931536
44.939518
46.485662
48.069954
47.718883
49.642920
47.965646
42.995811
42.151809
40.528774
40.287971
35.705566
36.127567
34.589767
32.703876
32.806993
31.584501
31.241775
29.326677
32.046437
30.140877
30.846000
30.356646
32.860637
##ZVALUE=240
1.743436
2.359748
8.816719
21.206737
58.182478
108.003616
226.381421
359.409451
542.478561
672.305822
779.943466
792.647600
745.828748
598.850846
458.211899
289.428830
200.304985
127.565861
104.566813
101.527572
110.531449
115.563869
112.587810
102.666616
84.619522
68.181753
47.754645
37.704706
26.256442
19.640923
16.463995
14.215708
13.843775
13.798475
13.227463
12.849569
13.196468
12.342930
13.038516
12.016892
13.012886
12.091994
12.452602
12.971759
12.201667
11.730790
12.318492
13.729930
12.476444
13.197660
13.205409
14.226437
15.229583
15.148520
15.037656
15.621781
15.475750
16.445518
18.193722
17.555952
18.421412
19.136667
20.144582
19.168854
22.514462
23.273826
26.444793
25.665760
30.272603
32.498837
35.372972
43.334961
43.735504
48.844814
51.287413
51.860809
50.825477
50.592422
50.310493
48.409700
45.991540
44.246912
43.251514
42.331815
41.148663
40.791631
41.080713
41.172504
37.434697
37.860870
40.643811
36.447644
39.187670
38.722754
39.529800
35.143495
##ZVALUE=245
1.141429
1.453757
1.588464
2.068877
4.085898
18.063784
44.839978
121.104717
225.702524
404.322743
569.448471
798.622966
927.871466
986.012816
946.882963
806.329846
655.997992
434.280634
305.182934
171.064734
123.256445
108.312964
119.212866
125.527978
136.164427
134.305954
115.938783
99.504590
76.986551
58.941841
42.722821
31.774640
22.555590
17.240644
16.412735
15.219450
13.876557
14.318824
13.871789
12.099743
13.552904
11.383891
11.465549
11.521578
11.050701
11.754632
11.854768
11.946559
11.593699
12.851954
12.209415
11.989474
12.731552
12.756586
11.812449
14.287829
13.920665
14.655590
13.377666
15.486479
16.067624
14.901757
18.793941
18.545985
19.539595
20.923615
21.744967
23.308992
25.144815
30.981898
31.446815
36.175847
38.451552
41.217804
43.972731
45.699477
45.510530
44.281483
43.235421
44.442415
43.214560
42.813420
41.700602
38.526654
38.481951
39.386749
36.784410
37.384629
37.371516
38.151741
36.587715
36.706924
35.490990
37.608743
36.410689
36.441684
##ZVALUE=250
1.529455
1.271963
1.450777
1.605749
1.626611
1.690984
3.519654
9.494424
42.571425
92.687011
227.023959
384.301543
561.728477
826.059580
996.238589
1015.583873
1015.583873
1012.981534
875.322819
621.677637
419.883728
269.600749
147.180557
112.132430
113.703609
127.053857
138.552785
146.304965
137.001872
122.779608
104.604959
85.655451
65.091848
42.518973
29.587746
19.912720
15.541911
13.801455
12.927651
12.093782
11.393428
11.191964
11.698604
11.182427
9.928942
10.906458
11.673570
11.159778
11.450648
11.140704
11.950731
10.822415
10.887980
12.511611
11.895895
12.501478
12.850761
12.731552
13.007522
13.127923
14.501810
14.919639
16.272664
16.006827
17.092824
18.736720
20.024776
21.107793
24.024844
27.737617
26.999712
31.500459
34.688711
36.509633
39.542913
40.911436
42.246580
42.727590
41.894913
38.690567
39.541721
37.028790
37.300587
36.973953
36.600828
36.277771
35.578609
35.391450
34.609437
35.746694
34.007430
34.261942
36.651492
35.850406
35.275817
35.268664
##ZVALUE=255
1.148582
1.284480
1.386404
1.440644
1.307726
1.475811
1.858473
1.951456
2.198815
5.303621
25.784969
70.468783
187.432766
333.260894
615.386963
899.358988
1015.584469
1015.584469
1015.584469
1015.584469
1015.585065
1015.584469
753.142834
412.527919
239.720941
125.793815
103.560686
113.110542
128.643513
141.960979
148.983002
144.784451
134.205818
107.150674
89.522004
60.860515
43.790936
26.510954
18.861890
13.903975
11.886954
11.298656
12.013912
10.323524
11.281967
10.563731
10.775924
10.804534
10.628700
11.319518
11.027455
10.813475
11.277795
10.978580
11.629462
11.439919
12.535453
12.067556
12.359619
12.497902
13.318658
13.832450
14.340878
14.970899
15.913844
16.193986
17.947555
18.925667
20.227432
21.672845
25.135875
28.176904
30.647516
33.268929
34.828782
36.435723
36.566854
36.184788
36.399961
34.954548
34.774542
33.530593
33.249855
32.911897
32.227635
33.076406
32.288432
32.914877
32.735467
32.228827
32.976866
33.013821
33.548474
32.143593
33.139586
33.657551
##ZVALUE=260
0.969768
1.136661
1.117587
1.082420
1.091957
1.759529
1.254678
1.556873
1.658797
2.218485
2.370477
3.232956
10.568500
47.999620
109.336972
272.892714
464.825630
830.708742
1015.552878
1015.552878
1015.552878
1015.552878
1015.552878
1015.552878
975.756645
668.545961
355.705619
196.056962
102.874637
93.813539
108.616948
127.148628
143.474936
150.343776
149.907470
129.147768
111.544728
83.489418
62.910914
41.509867
28.012991
18.045902
13.518929
10.910630
10.152459
10.404587
10.710955
10.629892
11.023879
10.663867
10.743737
10.469556
10.597706
10.745525
11.009574
11.366606
11.596680
11.419654
12.115836
11.976957
11.469722
12.187958
12.687445
13.011694
14.188886
14.752746
15.422702
17.406940
18.403530
20.632744
20.959973
24.156570
26.229620
27.457476
28.502941
30.932426
29.710531
30.511618
29.994845
29.708743
28.917789
29.217601
29.497743
28.066635
28.530955
29.042959
29.317737
28.766990
29.111505
28.265715
28.691888
29.298663
29.006600
30.777454
28.650761
30.489564
##ZVALUE=265
0.942945
1.143813
1.038909
1.121759
1.279712
1.186728
0.987649
1.335740
1.346469
1.443624
1.450777
1.824498
2.124906
2.598763
7.637739
26.718974
96.826553
191.219449
341.104865
669.880509
966.277719
1015.584469
1015.584469
1015.584469
1015.584469
1015.584469
995.180011
651.473999
429.156423
218.329430
129.551888
80.557466
84.125996
109.685659
129.609704
148.474574
154.289603
144.388676
131.214857
106.560588
82.476735
55.432916
39.702654
24.191737
16.132593
11.821985
10.381937
9.623766
10.148883
9.127855
9.045601
9.751916
10.311604
9.828806
10.332465
10.025501
10.080934
10.799766
11.410713
11.687875
11.209846
11.642575
11.846423
12.796521
12.550950
14.461875
13.928413
15.572906
16.738772
18.271804
19.018650
21.040440
22.618771
25.721788
26.178956
26.461482
26.014447
25.351644
24.705529
25.979877
25.308728
25.598407
25.356412
25.535822
25.865436
26.008487
24.371743
26.125908
26.162863
26.353598
27.677417
27.924776
27.258992
27.079582
27.980804
27.260780
##ZVALUE=270
0.895858
0.821948
1.030564
0.823736
1.207590
1.189709
1.067519
1.241565
1.044869
1.338720
1.409650
1.681447
1.767874
1.345873
2.119541
2.200603
2.914667
13.985634
45.204759
151.508451
305.974483
548.913479
968.474746
1015.584469
1015.584469
1015.584469
1015.584469
1015.584469
1015.584469
982.381105
687.495470
353.075862
192.387700
87.050796
69.146752
84.472895
105.850697
132.332444
147.719979
155.983567
152.111650
131.235719
111.120939
81.759691
60.507655
38.168430
27.113557
17.103553
12.845993
10.986924
10.424852
10.985732
10.297894
10.203719
10.920763
10.531545
11.556745
10.753870
11.230707
11.616945
12.326837
12.040734
11.958480
12.252927
13.910532
13.963580
14.621615
15.993714
16.481876
17.638803
19.354820
21.155477
22.057891
24.241805
24.118423
25.510788
25.722980
25.440454
25.148988
24.945736
24.316907
24.957657
24.854541
23.945570
24.401546
25.242567
24.861693
25.347471
25.257468
25.079846
24.354458
25.800467
24.602413
25.352836
26.105642
26.415586
##ZVALUE=275
0.798702
0.851750
0.886917
1.106858
0.673532
0.700951
1.013875
1.284480
1.106858
1.304746
1.334548
1.293421
1.428723
1.440644
1.535416
1.966953
1.898408
2.457500
2.211928
7.349849
30.968785
97.613931
293.579698
541.676879
968.833566
1015.584469
1015.584469
1015.584469
1015.584469
1015.584469
1015.584469
1015.584469
935.137868
493.264794
275.521874
114.429593
65.816641
63.458681
80.391765
107.556581
128.459930
148.486495
154.271722
148.655772
130.483508
105.920434
85.701942
59.563518
43.744445
27.391911
18.586516
13.840795
11.539459
11.159778
11.325479
11.237860
11.367798
11.513829
12.192726
12.360811
12.275577
12.125969
12.913942
12.944937
13.263822
14.210939
14.408827
15.997887
16.570687
18.338561
19.307733
20.423532
22.769570
23.570657
24.717450
24.880767
24.994612
24.424791
24.120808
24.817586
23.829937
22.869706
23.456812
22.628903
23.847818
23.465753
24.298429
23.654699
24.321675
23.181438
24.406910
24.052858
23.064613
23.954511
24.066567
24.946928
##ZVALUE=280
0.799894
0.863671
0.742674
0.835657
0.968575
0.966787
1.041889
1.125932
0.905991
0.916719
1.397729
1.262426
1.069903
1.234412
1.473427
1.495481
1.517534
1.913905
1.998544
2.251863
2.265573
3.027916
17.470717
65.719485
232.610703
443.598628
847.094655
1015.584469
1015.584469
1015.584469
1015.584469
1015.584469
1015.584469
1015.584469
1015.585065
638.088584
377.030969
158.400536
76.766610
48.492551
57.880878
82.037449
104.148984
128.681660
143.423676
150.340796
145.201683
126.355886
108.977556
80.546737
62.510967
40.088892
27.301908
18.532872
14.127493
11.711717
11.553764
11.465549
11.476874
11.405945
11.829734
12.048483
12.759566
13.003945
13.431907
14.257431
14.587641
15.543699
16.326904
17.737746
18.985868
19.616485
21.050572
21.722913
23.254752
23.871660
23.231506
23.476481
23.192763
23.318529
23.260713
22.091866
21.938682
22.661686
22.364855
22.274852
22.214651
22.795796
22.511482
22.862554
21.814704
22.485852
22.486448
22.242665
22.404790
22.609830
##ZVALUE=285
0.812411
0.738502
0.704527
0.830889
0.802875
1.011491
0.939965
0.949502
0.980496
0.990629
0.936985
0.983477
0.979900
1.444817
1.271963
1.176000
1.492500
1.388788
1.533628
1.652837
1.751781
2.123713
2.479553
2.916455
8.377433
31.119585
112.401843
250.113606
574.812889
916.540623
1015.625000
1015.625000
1015.625000
1015.625000
1015.625000
1015.625000
1015.625000
878.021717
545.559525
247.347951
118.856430
47.799945
39.158463
55.883527
74.398518
101.539493
119.195580
138.854980
144.939423
140.230656
127.028823
107.241869
86.929798
60.461760
44.159889
26.898980
19.517541
14.422536
13.083816
11.605620
11.950731
12.200475
12.612939
13.191700
13.225675
13.766885
14.302731
15.785694
16.159415
16.841888
18.303990
20.124912
20.137429
21.673441
22.029877
21.667480
22.378564
22.281408
22.278428
21.804571
22.037625
21.686554
21.797419
22.556782
22.683740
22.035837
22.288561
21.969676
22.193789
22.087693
22.411942
22.018552
21.251440
21.884441
21.565557
22.303462
##ZVALUE=290
0.692606
0.706911
0.635982
0.742674
0.842810
0.820756
0.859499
0.741482
0.835657
1.042485
0.776649
1.091957
0.983477
1.011491
1.167655
1.107454
1.136661
1.146793
1.250505
1.296997
1.391768
1.733899
1.981854
1.838803
2.343655
2.481937
4.003644
13.730526
66.510439
161.881447
322.842598
680.450797
1003.572941
1015.584469
1015.584469
1015.584469
1015.584469
1015.584469
1015.584469
1015.585065
766.584873
374.199748
187.701583
66.076517
34.700632
36.597848
49.973726
71.293712
91.959834
117.504597
132.026672
140.483975
139.937997
124.993920
107.917786
80.553889
62.155724
41.022897
30.188560
20.018816
15.732646
13.626814
13.463497
12.897849
12.941957
13.470650
14.423728
15.151501
16.035438
16.528964
18.310547
19.272566
19.724965
20.455718
21.444559
21.254420
21.778941
21.366477
21.637678
21.555424
21.692514
21.925569
22.072792
21.061897
21.591783
21.376610
21.905899
21.398664
22.029877
21.556616
21.408796
21.704435
21.482706
21.348596
21.506548
21.421909
##ZVALUE=295
0.783801
0.611544
0.662804
0.706911
0.786781
0.868440
0.786781
0.579953
0.665784
0.781417
0.809431
0.977516
0.895858
0.876784
0.870824
1.054406
1.170635
1.114607
1.238585
1.161695
1.249909
1.459718
1.676679
1.623631
1.785755
2.149940
2.166629
2.429485
3.342628
7.065535
46.585798
129.453540
280.573964
641.751885
981.780887
1015.584469
1015.584469
1015.584469
1015.584469
1015.584469
1015.584469
1015.584469
954.038501
499.787927
274.501443
98.173618
42.324662
24.792552
31.293631
48.071742
65.130591
90.401769
107.670426
127.102733
133.403540
131.847858
120.067596
99.784732
81.655979
58.221817
43.308735
28.961897
21.465421
16.530752
14.449954
14.069676
14.382601
14.956594
15.472770
16.381741
17.953515
18.718839
19.578934
21.116734
21.551847
21.648407
21.889806
21.898746
22.094846
21.498799
21.802783
21.921992
21.622777
22.037625
21.875501
21.882653
21.744967
22.279620
22.092462
21.952987
21.622777
21.166801
21.270514
21.081567
20.880699
21.666884
##ZVALUE=300
0.747442
0.728965
0.611544
0.516772
0.670552
0.791550
0.635982
0.686646
0.543594
0.574589
0.873804
0.758767
0.813603
0.747442
0.874996
0.795722
0.982881
1.034737
0.953674
1.106858
1.283884
1.063943
1.414418
1.401901
1.561642
1.503825
1.632571
1.911521
2.411604
2.538562
2.680421
3.520846
11.294484
73.005557
186.382532
479.111671
812.302828
1015.584469
1015.584469
1015.584469
1015.584469
1015.584469
1015.584469
1015.584469
1015.584469
695.881844
420.030951
184.916854
84.939599
27.223825
21.274686
30.084848
41.989684
62.326789
80.513954
104.292631
118.388534
127.208829
127.834678
114.573836
101.690888
78.605413
62.209964
43.317676
32.319427
21.893978
18.464923
16.253591
16.616583
16.911626
17.552972
18.657446
19.490719
20.282865
20.817518
20.648837
21.052957
21.633506
21.774769
20.719767
21.883845
21.952987
22.175908
22.127628
22.024512
22.055507
22.252798
22.208691
22.346973
21.984577
21.610856
21.929741
21.419525
21.012425
21.226406
21.409988
##ZVALUE=305
0.725985
0.640750
0.694990
0.613928
0.583529
0.637770
0.707507
0.668764
0.763535
0.611544
0.682473
0.819564
0.690818
0.827909
0.802875
0.843406
0.861883
0.762939
0.712872
0.942945
1.054406
1.005530
1.084805
1.301765
1.373887
1.446605
1.685619
1.549721
1.828671
2.072453
2.006888
2.170801
2.512932
3.227592
6.073713
43.012500
129.163861
383.837819
701.912642
1015.584469
1015.584469
1015.584469
1015.584469
1015.584469
1015.584469
1015.584469
1015.584469
906.648040
564.723015
254.173875
121.482611
39.625764
20.110607
20.234585
27.277470
42.771697
58.940649
81.682801
99.053979
114.463568
122.552514
120.930672
113.849640
97.228885
81.297755
58.194995
45.372844
32.034516
24.869442
20.507574
18.765926
19.062757
20.003915
20.380616
20.783544
21.768808
21.196604
21.024942
21.069646
21.965504
22.573471
22.229552
22.770762
22.474527
22.855997
22.994876
22.323728
22.969842
22.071600
22.567511
22.288561
21.808743
21.536946
21.839738
20.802617
22.004843
##ZVALUE=310
0.554919
0.498891
0.552535
0.636578
0.760555
0.649691
0.654459
0.596642
0.680685
0.643730
0.532866
0.499487
0.766516
0.710487
0.698566
0.635982
0.616908
0.739694
0.781417
0.888705
1.060963
0.946522
0.999570
1.110435
1.188517
1.357794
1.146793
1.473427
1.402497
1.364946
1.630783
1.876950
2.304912
2.326965
2.655983
3.021955
3.368855
18.178821
64.348578
227.761865
461.325645
954.163671
1015.584469
1015.584469
1015.584469
1015.584469
1015.584469
1015.584469
1015.584469
1015.584469
810.213685
390.073657
201.214552
67.599416
26.330948
15.343428
18.106699
26.378632
36.275983
55.586696
71.234703
93.180537
105.702877
116.400719
118.028522
110.149980
97.326636
79.213977
64.350963
45.737624
35.900474
27.490854
24.503469
22.091866
21.515489
21.243691
21.353960
21.432638
22.098422
21.881461
22.165775
22.142529
23.276806
23.231506
22.815466
23.505688
23.496747
23.551583
23.222566
23.095608
22.676587
22.735596
22.432804
21.639466
22.247434
22.124648
##ZVALUE=315
0.367761
0.442863
0.557899
0.596642
0.657439
0.513792
0.529885
0.504851
0.662804
0.778437
0.641942
0.770688
0.673532
0.701547
0.681877
0.621676
0.790954
0.781417
0.846982
1.088977
0.872612
0.938773
0.885725
1.022816
1.008511
1.149774
1.273751
0.966787
1.324415
1.245737
1.521707
1.513958
1.649857
1.852512
1.860857
2.208948
2.477765
2.627969
3.203750
7.758737
31.694770
138.783455
313.782692
719.903708
1015.584469
1015.584469
1015.584469
1015.584469
1015.584469
1015.584469
1015.584469
1015.584469
1015.584469
580.747724
302.297473
104.555488
39.537549
15.659928
14.378428
18.408895
23.907423
36.618710
48.741698
68.833828
84.156990
104.497671
111.269951
113.737583
108.096004
93.374848
79.907775
62.136650
49.064755
35.379529
29.123425
24.774671
22.958517
22.019744
21.784902
21.874905
21.998882
22.446513
22.994876
22.958517
22.882819
23.505688
23.472905
23.243427
22.811890
22.905469
23.026466
22.904873
22.656918
22.729635
22.477508
22.458434
##ZVALUE=320
0.577569
0.636578
0.639558
0.526905
0.697970
0.519753
0.697970
0.616908
0.566840
0.722408
0.883937
0.754595
0.674725
0.764728
0.670552
0.798702
0.659823
0.857711
0.830889
0.887513
0.886917
0.816584
0.952482
1.188517
1.062751
1.152754
1.221895
1.091957
1.167655
1.425743
1.338720
1.394749
1.492500
1.524687
1.618862
1.865625
2.092719
2.253652
2.614856
3.056526
3.221631
4.612803
14.246702
80.616474
217.560530
584.470630
969.282985
1015.681624
1015.681624
1015.681624
1015.681624
1015.681624
1015.681624
1015.681624
1015.681624
744.702816
417.737961
169.911981
72.240829
21.521449
14.072657
14.255643
16.949773
23.837686
32.179952
48.915744
63.158870
83.329678
96.487999
107.772946
109.325647
104.977489
94.210505
77.184439
63.197613
46.472549
37.061572
29.445887
25.771856
23.644567
23.081899
22.480488
22.913814
22.919774
23.362637
23.376942
23.320913
23.400784
23.421645
23.510456
23.193955
23.554564
23.248792
23.591518
22.380948
22.715926
##ZVALUE=325
0.531673
0.555515
0.512600
0.560880
0.509620
0.560880
0.597835
0.637770
0.641942
0.545979
0.678897
0.581741
0.725985
0.756979
0.802875
0.610948
0.617504
0.685453
0.855923
0.632405
0.844598
0.928640
0.929832
0.893474
0.986457
1.006722
0.919700
0.929832
0.912547
1.150966
1.138449
1.275539
1.289845
1.486540
1.525879
1.701713
1.717806
1.954436
1.998544
2.140999
2.515912
2.801418
3.155470
3.744960
7.838607
53.764582
148.627758
401.104689
739.221573
1015.583873
1015.583873
1015.583873
1015.583873
1015.583873
1015.583873
1015.583873
1015.583873
979.313850
604.893565
255.726576
114.249587
31.717420
15.837550
13.809800
14.248490
17.797947
23.315549
33.972859
46.021938
66.249967
79.850554
96.107721
103.502870
105.253458
100.044608
86.065531
73.638558
58.257580
46.262741
35.350919
29.291511
24.794936
23.851991
23.294687
23.188591
22.636652
23.449659
23.102760
22.938848
22.741556
23.115873
23.095608
22.587776
22.574663
22.462606
22.305846
##ZVALUE=330
0.550747
0.452995
0.560880
0.527501
0.421405
0.486970
0.591874
0.517964
0.395775
0.386834
0.394583
0.477433
0.638962
0.625849
0.509620
0.689626
0.802875
0.634789
0.704527
0.633597
0.608563
0.745654
0.734925
0.702739
0.877976
0.928640
0.836849
0.782609
1.064539
1.004934
0.887513
1.043677
1.158714
1.063943
1.249909
1.313686
1.183748
1.392961
1.590848
1.751781
1.803637
1.929998
2.286434
2.654791
2.850890
3.266931
4.476905
23.316741
81.818700
276.182890
539.687872
1013.244987
1015.584469
1015.584469
1015.584469
1015.584469
1015.584469
1015.584469
1015.584469
1015.584469
805.560946
364.616513
180.691481
60.752630
23.403764
13.720989
13.732910
15.031695
17.618537
24.892688
32.880902
47.393441
60.388446
78.279972
91.579556
98.824501
99.957585
94.368458
83.676577
69.047809
56.294799
43.055415
35.955906
29.815435
26.348829
24.251938
23.708940
22.849441
22.783875
22.456646
22.758842
22.356510
22.350550
22.288561
21.807551
22.284985
##ZVALUE=335
0.517964
0.559688
0.493526
0.491738
0.469685
0.501871
0.559688
0.426769
0.658631
0.473857
0.545979
0.431538
0.535846
0.515580
0.597835
0.666976
0.692606
0.688434
0.626445
0.631809
0.642538
0.706911
0.718832
0.562668
0.826716
0.734925
0.846982
0.783801
0.870824
0.931621
1.014471
1.110435
0.760555
1.052618
1.386404
1.180768
1.285672
1.302958
1.512766
1.347661
1.479983
1.526475
1.814961
1.834631
2.010465
2.423525
2.571940
3.190637
3.799796
10.356903
40.607452
176.931024
388.761759
874.596834
1015.584469
1015.584469
1015.584469
1015.584469
1015.584469
1015.584469
1015.584469
1015.584469
992.183685
522.088408
262.430906
85.199475
32.520890
15.130639
13.745427
15.024543
16.085505
19.257665
24.231672
34.550428
44.976473
61.315894
73.298812
85.569620
91.862679
94.060898
89.830756
78.492761
67.977905
55.374503
46.077967
35.546422
29.917955
26.105642
24.067760
22.834539
22.247434
21.638870
21.958947
21.240711
21.570921
21.395683
##ZVALUE=340
0.347495
0.465512
0.511408
0.284910
0.573993
0.503659
0.483990
0.432730
0.325441
0.452995
0.448823
0.533462
0.379682
0.562668
0.511408
0.408888
0.540614
0.747442
0.522733
0.539422
0.660419
0.561476
0.765920
0.540614
0.894666
0.681877
0.709891
0.749826
0.700951
0.735521
0.768900
0.818968
0.885725
0.885725
1.064539
0.958443
0.899434
1.150966
0.941753
1.320839
1.284480
1.491904
1.461506
1.622438
1.693964
1.840591
1.953840
2.261996
2.572536
2.876520
3.167391
5.169511
18.881559
99.756718
248.834491
629.935861
1002.099514
1015.609503
1015.609503
1015.609503
1015.609503
1015.609503
1015.609503
1015.609503
1015.609503
667.997599
359.791517
134.902596
50.018430
17.095804
14.610887
14.640689
15.211701
17.061830
19.223690
24.717450
32.059550
44.451952
56.076646
71.056485
80.751777
88.671446
90.065598
84.683895
77.701807
65.321922
55.369735
42.673945
35.181642
29.504895
25.386810
22.401810
21.992922
20.760894
20.900965
20.974874
##ZVALUE=345
0.296831
0.551939
0.458956
0.418425
0.447631
0.444651
0.539422
0.401735
0.450611
0.481606
0.581741
0.326633
0.448823
0.420809
0.655651
0.444651
0.467896
0.449419
0.533462
0.536442
0.535846
0.560880
0.413656
0.528693
0.584722
0.714660
0.559688
0.702739
0.658631
0.658631
0.813603
0.923872
0.719428
0.783801
0.809431
0.914931
0.940561
0.976920
0.837445
1.062751
1.121759
1.212955
1.113415
1.276731
1.501441
1.477599
1.715422
1.598597
1.835823
2.088547
2.287626
2.445579
2.895594
3.587604
8.149743
57.733655
160.577893
433.239937
770.812631
1015.578508
1015.578508
1015.578508
1015.578508
1015.578508
1015.578508
1015.578508
1015.578508
943.794847
534.045696
198.765993
81.629753
25.481582
15.402436
14.687777
14.356971
14.805794
15.417933
18.058419
21.970868
30.428767
39.270520
53.608418
63.830614
75.942874
80.743432
83.425641
81.273913
73.551536
64.569712
53.286552
44.486523
34.334660
29.084682
24.950504
22.845864
21.684766
##ZVALUE=350
0.442863
0.453591
0.351667
0.555515
0.369549
0.403523
0.547767
0.386834
0.394583
0.513792
0.503659
0.453591
0.383854
0.458956
0.612736
0.568628
0.534654
0.553727
0.479817
0.723600
0.678897
0.801682
0.588894
0.558496
0.480413
0.651479
0.528693
0.660419
0.673532
0.518560
0.544786
0.563860
0.583529
0.787973
0.647902
0.961423
0.932813
1.126528
1.056790
0.916719
1.080632
1.101494
1.107454
1.252890
1.189709
1.287460
1.287460
1.643896
1.520514
1.626611
1.730919
2.039671
2.346635
2.438426
2.658963
3.266931
4.637837
27.248859
91.512799
303.624868
596.825480
1015.585661
1015.585661
1015.585661
1015.585661
1015.585661
1015.585661
1015.585661
1015.585661
981.165767
628.111959
286.255479
126.920938
33.171773
16.600490
13.557673
13.648868
13.575554
13.695955
14.997721
17.247796
22.089481
27.836561
37.082434
46.011806
58.066845
67.108870
74.730515
77.514648
74.991584
70.061684
60.541630
52.331686
41.586757
35.257936
29.212832
##ZVALUE=355
0.441670
0.450611
0.431538
0.468493
0.620484
0.528693
0.440478
0.425577
0.438690
0.478625
0.518560
0.585914
0.523925
0.523925
0.512600
0.572801
0.796914
0.662804
0.601411
0.646710
0.616908
0.725985
0.663996
0.682473
0.728965
0.878572
0.623465
0.831485
0.620484
0.694990
0.807643
0.838637
0.792742
0.696778
0.921488
0.695586
0.888705
0.918508
0.848770
1.081824
1.086593
0.984669
1.106858
1.155734
1.009703
1.299977
1.408458
1.475811
1.424551
1.574755
1.578927
1.779795
1.998544
2.251863
2.390742
2.558827
2.909899
3.222823
3.871918
13.191700
50.794482
212.239027
457.366705
959.183574
1015.580893
1015.580893
1015.580893
1015.580893
1015.580893
1015.580893
1015.580893
1015.580893
776.590705
348.609686
169.324875
54.661632
21.308661
12.925863
12.742877
12.621880
12.669563
13.395548
14.621615
16.717911
19.123554
25.266409
31.443834
41.949749
50.279498
60.311556
67.628622
71.574450
71.120858
65.330863
59.441924
49.727559
##ZVALUE=360
0.310540
0.387430
0.465512
0.320673
0.301600
0.281930
0.453591
0.273585
0.237823
0.394583
0.322461
0.361800
0.266433
0.368953
0.395775
0.533462
0.474453
0.451803
0.413656
0.511408
0.423789
0.448823
0.399947
0.479817
0.559688
0.635982
0.543594
0.567436
0.602603
0.781417
0.660419
0.578761
0.644922
0.839829
0.725985
0.839829
0.957847
0.883937
0.876784
0.664592
0.945926
0.913739
0.919700
0.985861
1.109838
1.169443
1.283884
1.307726
1.268983
1.536608
1.467466
1.340508
1.565814
1.663566
1.893640
2.007484
2.248883
2.528429
2.667904
3.129840
3.748536
6.603599
23.551583
117.940903
290.057659
729.636550
1015.440822
1015.440822
1015.440822
1015.440822
1015.440822
1015.440822
1015.440822
1015.440822
979.097486
499.642491
259.103775
91.947913
33.224821
13.337731
12.562871
12.298822
12.390614
12.358427
12.527704
13.735890
14.864802
17.746687
21.753907
29.048920
36.545992
47.887564
55.413842
64.595938
68.343878
69.300532
##ZVALUE=365
0.459552
0.590682
0.517964
0.635982
0.584722
0.616908
0.560880
0.651479
0.569820
0.555515
0.601411
0.527501
0.597835
0.624657
0.587702
0.554919
0.581741
0.512600
0.654459
0.546575
0.699759
0.688434
0.626445
0.574589
0.643730
0.694990
0.732541
0.776649
0.785589
0.845790
0.748634
0.894666
0.651479
0.783801
0.917912
0.962615
0.951886
0.917912
0.966787
0.900626
0.951886
0.927448
1.066923
1.068711
1.082420
1.134872
1.284480
1.154542
1.287460
1.461506
1.379848
1.515746
1.775622
1.719594
1.754761
1.930594
2.091527
2.316833
2.273917
2.542734
2.802610
3.544688
3.827810
4.402399
9.625554
62.461495
185.908675
522.706509
938.203931
1015.584469
1015.584469
1015.584469
1015.584469
1015.584469
1015.584469
1015.584469
1015.584469
655.837655
352.844596
128.436685
49.882531
15.347600
11.846423
11.225939
11.688471
11.637807
12.068748
12.660623
13.469458
15.797615
18.841624
24.423599
30.324459
39.784908
47.992468
58.873892
##ZVALUE=370
0.545979
0.455976
0.536442
0.536442
0.339746
0.512600
0.517964
0.489950
0.516772
0.538826
0.602603
0.607967
0.622869
0.670552
0.804663
0.750422
0.524521
0.791550
0.714660
0.594854
0.628829
0.581741
0.539422
0.727773
0.568628
0.678897
0.722408
0.692606
0.688434
0.643730
0.565648
0.729561
0.788569
0.655651
0.857711
0.935793
0.789762
0.844598
0.860691
0.958443
1.045465
0.913739
0.946522
0.990629
0.933409
0.950694
1.109838
1.117587
1.255870
1.325607
1.333952
1.109838
1.240969
1.472831
1.578927
1.592636
1.749992
1.795888
2.018809
2.024770
2.189875
2.364516
2.857447
2.882481
3.392696
3.866553
5.652905
30.881763
113.746524
393.484831
749.743581
1015.584469
1015.584469
1015.584469
1015.584469
1015.584469
1015.584469
1015.584469
1015.584469
912.118554
501.599908
190.426707
84.144473
25.780797
13.143420
11.260509
11.407733
11.921525
12.421608
13.777614
15.158653
17.921925
20.205975
25.335550
29.367805
36.271811
##ZVALUE=375
0.263453
0.279546
0.360608
0.326633
0.502467
0.428557
0.242591
0.479817
0.250936
0.163913
0.339746
0.243783
0.544786
0.410676
0.425577
0.484586
0.369549
0.555515
0.152588
0.413656
0.383854
0.463724
0.391603
0.340939
0.371933
0.434518
0.434518
0.396967
0.490546
0.401735
0.391603
0.519753
0.430942
0.499487
0.495911
0.646710
0.540614
0.707507
0.662804
0.656843
0.620484
0.729561
0.648499
0.580549
0.748634
0.729561
0.796914
0.737906
0.742674
0.996590
0.975728
0.878572
0.906587
0.960827
1.120567
1.137853
1.158714
1.270771
1.319647
1.382828
1.596808
1.574755
1.848936
2.019405
2.184510
2.541542
2.914667
3.579855
4.114509
14.860630
53.209662
204.251409
463.848710
991.258621
1015.450954
1015.450954
1015.450954
1015.450954
1015.450954
1015.450954
1015.450954
1015.450954
669.378638
319.212675
158.493519
49.334764
18.222928
10.672808
10.381937
10.336637
10.918975
11.863708
12.555718
13.738871
14.568567
15.691519
##ZVALUE=380
0.381470
0.387430
0.359416
0.297427
0.416636
0.488758
0.355840
0.591874
0.386834
0.512600
0.449419
0.399947
0.426769
0.501871
0.524521
0.443459
0.491738
0.409484
0.498891
0.336766
0.493526
0.372529
0.488758
0.618696
0.458956
0.393987
0.470877
0.428557
0.514984
0.513792
0.534654
0.508428
0.617504
0.575781
0.758767
0.590682
0.632405
0.647902
0.670552
0.770688
0.753999
0.754595
0.693798
0.772476
0.738502
0.652671
0.785589
0.783801
0.806451
0.891685
0.743866
0.996590
1.006722
0.941753
1.020432
1.115799
1.158714
1.209974
1.213551
1.288652
1.420975
1.612902
1.594424
1.691580
1.836419
2.004504
2.341866
2.652407
2.936721
3.665686
4.286766
7.977486
31.853914
159.956813
373.385549
863.995552
1015.600562
1015.600562
1015.600562
1015.600562
1015.600562
1015.600562
1015.600562
1015.600562
881.896019
411.075950
202.193856
65.839887
25.461912
10.659695
9.210706
9.026527
9.047985
8.910894
9.365678
9.428859
##ZVALUE=385
0.535846
0.396967
0.369549
0.516772
0.414848
0.567436
0.513792
0.423789
0.512600
0.486970
0.545979
0.499487
0.333786
0.360608
0.600815
0.461936
0.436902
0.555515
0.366569
0.588894
0.657439
0.570416
0.556707
0.635982
0.585914
0.581741
0.574589
0.678897
0.429749
0.576973
0.569820
0.520945
0.683665
0.694990
0.656843
0.536442
0.702739
0.654459
0.759959
0.657439
0.673532
0.629425
0.672936
0.736713
0.811815
0.950694
0.825524
1.023412
1.060963
0.842810
0.886917
0.958443
0.899434
1.026988
1.125932
1.155734
1.068711
1.088977
1.103878
1.137853
1.359582
1.375675
1.446605
1.643896
1.741648
1.742840
2.004504
2.167821
2.599955
3.135800
3.420711
3.773570
4.005432
5.221963
14.554858
82.717538
224.251747
602.810979
989.933610
1015.696526
1015.696526
1015.696526
1015.696526
1015.696526
1015.696526
1015.696526
1015.696526
887.172818
507.084727
186.455846
62.645674
14.222860
8.805990
8.102655
8.133650
7.966757
##ZVALUE=390
0.353456
0.330806
0.447631
0.388622
0.314713
0.347495
0.220537
0.440478
0.446439
0.427961
0.244975
0.268817
0.485778
0.351667
0.411868
0.322461
0.472665
0.312924
0.393987
0.347495
0.450611
0.411868
0.188947
0.473857
0.415444
0.546575
0.323653
0.332594
0.264645
0.469685
0.355840
0.333786
0.442863
0.346899
0.308752
0.371933
0.717640
0.440478
0.483990
0.365973
0.561476
0.598431
0.721812
0.642538
0.563860
0.617504
0.464916
0.615716
0.691414
0.758767
0.569820
0.816584
0.847578
0.770688
0.876784
0.891685
0.891685
0.904799
0.960827
1.035929
1.058578
1.211762
1.151562
1.233816
1.292825
1.354814
1.652837
1.769662
1.906753
2.402663
2.607703
2.964735
2.988577
3.349781
3.529787
3.915429
6.992817
45.156479
145.288110
447.073579
850.649476
1015.577912
1015.577912
1015.577912
1015.577912
1015.577912
1015.577912
1015.577912
1015.577912
993.936658
605.061650
236.818790
103.995800
27.068853
10.357499
7.599592
##ZVALUE=395
0.376701
0.337958
0.304580
0.184774
0.347495
0.186563
0.497699
0.333786
0.350475
0.366569
0.280738
0.193715
0.354648
0.323653
0.431538
0.290871
0.414848
0.472665
0.426769
0.417829
0.383854
0.407696
0.396967
0.351667
0.410676
0.341535
0.453591
0.456572
0.490546
0.480413
0.434518
0.330806
0.520945
0.419617
0.426769
0.518560
0.396967
0.532866
0.450611
0.524521
0.556707
0.601411
0.567436
0.580549
0.500679
0.510812
0.674725
0.635982
0.673532
0.847578
0.749826
0.848770
0.720620
0.815988
0.731945
0.873804
0.967979
0.820756
1.096725
1.014471
1.155734
1.048446
1.018643
1.173615
1.321435
1.415610
1.456738
1.748800
2.014637
2.369881
2.391934
2.647638
2.670884
2.772808
2.845526
2.807975
2.972484
3.403425
4.529953
27.504563
104.382634
352.967381
664.303899
1015.576720
1015.576720
1015.576720
1015.576720
1015.576720
1015.576720
1015.576720
1015.576720
1015.576720
794.978738
343.335867
157.175660
44.639707
##ZVALUE=400
0.280738
0.236630
0.222921
0.318885
0.210404
0.291467
0.150800
0.320673
0.222921
0.210404
0.278950
0.269413
0.317693
0.275970
0.418425
0.152588
0.454783
0.166893
0.219941
0.376701
0.262856
0.218749
0.398755
0.332594
0.437498
0.260472
0.279546
0.175834
0.378489
0.318885
0.332594
0.376701
0.365973
0.367761
0.381470
0.479817
0.526905
0.619888
0.571609
0.474453
0.426769
0.395775
0.451803
0.340939
0.524521
0.573993
0.647902
0.594854
0.687838
0.597835
0.666976
0.684857
0.783801
0.823736
0.687838
0.799894
0.842810
0.854731
0.848770
0.835657
0.902414
0.935793
0.972748
1.126528
1.073480
1.449585
1.507998
1.897812
1.989603
2.183914
2.333522
2.213717
2.201796
2.386570
2.359748
2.555847
2.399683
2.935529
3.038645
3.473759
4.025698
14.565587
57.349801
211.758614
459.904671
980.242491
1015.506983
1015.506983
1015.506983
1015.506983
1015.506983
1015.506983
1015.506983
1015.506983
951.910019
472.777486
##END
