##TITLE=FKDZ0102
##FORMAT=SPECTACLE-ASCII V-1.2
##DATA TYPE=ULTRAVIOLET SPECTRUM
##SECOND TYPE=ULTRAVIOLET SPECTRUM
##DATE=01/21/18
##TIME=14:04:36
##SPECTROMETER/DATA SYSTEM=SPECTACLE
##XUNITS=NM EM
##YUNITS=ENERGY
##YFACTOR=1
##FIRSTX=220
##LASTX=410
##NPOINTS=96
##3DDATA=Equidistant
##ZUNITS=NM EX
##FIRSTZ=210
##LASTZ=400
##ZPOINTS=39
##XYDATA=(Y..Y)
##ZVALUE=210
2.851486
2.619624
2.624989
2.772808
2.980828
2.554655
2.948642
3.034472
2.908707
3.020763
2.917647
3.668666
3.186464
3.445745
3.306866
3.691912
3.768802
3.741980
4.579425
3.791451
4.223585
4.771948
4.675984
5.763769
5.884767
5.634427
5.801916
6.701946
7.823706
8.197427
7.834435
8.390546
9.416938
9.650588
9.622574
9.129643
9.441972
9.671450
9.094477
10.051727
9.283423
9.664893
9.617805
10.052919
9.568930
9.537935
9.273887
9.518862
9.604692
10.039806
10.597706
9.340644
10.126829
10.781884
10.449886
10.438561
10.287762
10.038614
10.210872
10.057688
11.047721
9.760857
10.417700
9.742975
9.926558
10.520816
11.434555
12.787580
14.441609
18.091798
20.443797
23.868680
26.986599
31.318665
34.866929
37.035942
40.577650
42.688847
42.416453
40.941834
41.046739
38.034916
36.437511
30.735731
26.100874
19.952655
14.979839
12.497902
10.230541
10.415912
9.095669
9.709597
8.982420
9.940863
9.679794
9.224415
##ZVALUE=215
12.453794
11.097789
8.539557
8.632541
5.930662
6.126761
5.455613
4.297495
5.734563
5.622506
5.971789
5.745888
5.280972
4.077554
4.525781
4.208684
4.576445
4.473925
4.013777
4.174709
4.809499
4.777908
5.741715
5.885959
6.327629
7.812977
7.566810
9.049773
9.065866
10.686517
11.395812
12.310743
11.844635
13.670921
13.303757
12.507439
13.043880
13.463497
14.917850
14.823675
12.369752
12.680888
13.121963
12.496710
13.475418
11.926889
12.690425
12.263656
12.126565
11.245608
11.369586
11.928678
11.192560
11.326671
11.978745
11.764765
10.599494
10.299683
10.904670
12.399554
11.297464
10.429621
11.007786
11.071563
11.064410
11.894703
13.117790
11.671782
12.630820
15.889406
18.693805
22.202730
23.878813
28.831959
29.516816
30.921698
33.391714
36.405921
34.567714
35.071969
31.587481
29.968619
27.152896
23.863912
18.902421
14.820695
13.805628
10.945797
8.982420
10.018945
8.013844
8.091927
8.267760
7.979870
8.022785
8.303523
##ZVALUE=220
36.016703
37.992597
41.523576
39.429665
37.035942
28.467774
21.752715
17.108917
13.965964
11.741519
11.816621
13.510585
13.111830
11.782646
9.663701
8.539557
6.678700
5.340576
4.622936
5.257726
5.041957
4.852414
5.558729
5.848408
7.070899
7.931590
8.595586
9.787679
10.350943
13.520718
13.640523
15.923977
17.531514
17.813444
17.707944
18.306971
19.903779
17.305613
17.771721
20.079613
17.512441
17.449856
15.667677
15.916824
13.655424
13.550520
12.665987
13.840795
11.992455
11.131763
11.980534
11.072755
10.824800
9.748936
11.105537
9.661913
10.541677
10.844469
9.706616
10.490417
9.877682
8.801818
8.489490
9.209514
8.872747
10.143518
10.360479
9.754896
10.801554
13.191700
14.598966
16.778708
17.582774
20.658970
21.647811
23.723841
21.620989
20.909905
20.366907
20.072460
20.293593
18.182993
13.411641
13.384819
9.953976
9.996891
8.338690
8.045435
8.093715
7.669926
7.425547
7.708669
7.376671
6.788969
6.719828
6.853938
##ZVALUE=225
69.619417
84.381700
99.150538
117.686987
127.328634
122.134686
90.448856
77.645779
55.119991
40.810704
25.383830
24.506450
25.235415
27.345419
25.098920
26.029944
24.038553
17.040968
13.936758
9.096861
6.118417
5.887747
5.101562
6.017685
6.337762
7.547736
9.609461
10.214448
12.945533
14.733672
16.595721
16.951561
20.830631
20.773411
20.987988
21.901727
21.777749
21.046996
20.908713
22.310615
20.187497
20.191669
18.301606
17.931461
18.295646
16.187429
14.855862
15.022755
13.799667
15.178919
13.004541
12.449622
12.697577
12.102723
11.829734
11.616945
10.992885
11.482835
11.077523
8.962750
11.098981
9.841919
11.083484
10.240674
9.831786
9.939671
9.830594
11.544824
10.656714
12.583733
14.168620
14.002919
14.956594
17.449856
19.226670
17.329454
18.997788
18.020868
16.999841
16.735792
16.184449
14.476776
13.235807
11.963844
10.711551
10.041595
8.665919
8.507967
8.493662
8.486509
7.832646
7.719994
8.141994
8.129478
8.197427
7.008910
##ZVALUE=230
60.649514
64.543486
114.790797
171.355605
229.122639
285.819769
309.443474
285.187960
243.296623
174.355507
121.882558
76.715946
56.276917
46.009421
48.187971
50.398707
51.301718
53.532720
46.149492
37.788749
28.253794
19.532442
13.701916
9.090900
8.092523
7.690787
7.836819
9.596944
9.941459
13.296604
13.054609
14.840961
15.693903
17.273426
20.205975
18.959641
19.868612
20.472407
18.276572
18.856525
18.531680
17.998815
16.295910
16.672611
14.959574
14.849901
14.511943
14.760494
13.316870
13.762712
13.970733
12.702942
12.672544
13.077855
12.769699
11.209846
11.818409
11.530519
10.657907
11.381507
10.458827
10.860562
10.885000
11.374950
10.592937
11.265874
11.562705
10.963678
11.886954
13.081431
13.725758
16.165972
15.860796
17.625690
17.824769
18.533468
17.795563
19.609928
20.013452
18.011928
15.577674
16.138554
13.887882
13.429523
12.995601
12.053847
11.701584
10.001659
11.402965
9.531975
9.388924
10.131598
9.577870
9.978414
9.168983
9.316802
##ZVALUE=235
19.303560
20.565987
59.876442
110.799670
204.295516
293.405652
400.200486
484.060645
516.825914
496.002436
409.901738
312.172771
227.056742
142.363906
95.917583
75.374842
73.072910
77.764988
85.975528
82.333684
78.256726
70.635676
51.566958
40.960908
26.705861
19.501448
13.063550
11.504889
11.071563
12.061596
12.129545
11.862516
13.572574
15.078783
13.839602
15.217662
15.949607
16.502738
14.867783
16.402602
15.983582
15.740991
15.716553
16.009808
14.553666
14.391541
14.564991
14.700890
13.548732
13.885498
13.734698
13.725758
13.514757
13.639927
13.553500
12.504458
13.307929
12.158751
13.194680
12.701750
12.660623
11.864901
12.826920
12.676716
12.662411
14.094710
13.964772
14.248490
15.308857
17.312765
17.218590
19.667745
20.944476
23.147464
22.297502
22.946596
23.595691
24.047494
23.612976
23.504496
21.295547
19.528866
19.073486
16.686916
15.723705
15.707612
14.827847
14.232993
14.708638
14.887452
13.592839
12.639761
13.995767
13.363957
13.868809
14.675856
##ZVALUE=240
2.405643
2.601743
6.417632
19.709468
62.085986
128.399730
278.493762
438.431501
657.768846
779.745579
855.947733
818.797946
716.720819
535.214543
392.826796
230.858922
157.048702
110.902786
97.772479
106.892586
115.438700
121.442676
118.178725
108.901858
84.623694
72.586536
50.833821
35.564899
23.212433
17.273426
14.498830
12.805462
13.253689
13.055801
14.136434
13.892651
13.937950
15.453696
14.934540
13.890862
14.992952
15.298724
13.722777
14.635921
14.183521
13.254881
13.899803
13.493896
13.344884
13.792515
14.306903
13.539791
13.494492
12.855530
13.690591
14.008880
14.675856
13.164878
13.755560
13.825893
14.086962
13.892651
13.274550
13.628602
14.628768
14.597774
15.260577
15.923977
17.118454
19.915700
19.876957
23.375750
23.278594
25.660992
26.788712
26.414990
27.620792
26.766658
26.203990
25.393963
24.845600
24.548769
21.596551
22.429824
18.378496
17.700791
17.494559
17.445683
17.686486
17.267466
15.168786
15.580654
17.064810
15.807748
15.585423
16.114712
##ZVALUE=245
1.898408
2.198815
2.019405
2.180934
4.342794
19.638538
48.805475
140.253901
274.471641
439.867973
702.872872
875.424743
996.962786
1000.265479
883.756876
731.025934
506.706834
360.635519
246.917605
150.186419
112.041831
106.205940
117.866993
133.983493
139.338970
133.306980
118.536949
97.040534
80.254674
59.479475
44.018626
27.727485
22.167563
16.847849
15.686750
15.791655
15.871525
14.401674
14.613867
14.981627
15.254617
15.535951
15.264750
15.745759
14.989972
14.805794
14.022589
14.082789
13.928413
12.875795
13.198853
14.184713
12.389421
13.265610
12.624860
12.165904
13.647676
11.271834
13.224483
12.732744
11.099577
11.671782
12.140870
12.695789
12.672544
12.879968
13.122559
14.207959
13.798475
16.032457
17.808676
19.924641
19.885898
20.183921
21.762848
23.459792
22.650957
21.440983
21.231771
21.335483
21.676421
20.532608
19.958615
18.069744
17.402768
18.151999
17.973781
15.336871
15.645623
15.155673
14.618635
17.111897
15.806556
15.264750
15.638471
14.879704
##ZVALUE=250
1.809597
1.772642
1.708865
1.882911
1.831651
2.077818
3.818870
11.237860
48.525929
113.940835
264.787674
440.708995
628.206730
853.759646
974.697471
1015.629768
1005.481482
874.005556
734.396577
504.489541
341.515541
228.426456
135.184526
107.225776
108.967423
126.000643
142.645836
147.588849
145.120621
129.780769
117.513537
87.328553
69.094896
46.193600
34.027696
25.354624
20.187497
20.154715
19.198656
17.690659
18.744469
17.634630
17.909408
16.939640
16.546845
15.860796
15.458465
15.087724
15.310645
14.770627
13.815761
14.399886
12.732744
14.350414
12.529492
11.113882
11.473894
12.216568
11.874437
10.390878
10.640621
10.554790
10.275841
10.984540
11.016726
10.374784
11.147857
11.499524
11.616945
12.546778
13.852715
15.127659
16.407967
16.190410
17.285943
18.014908
16.540885
17.611980
16.616583
16.364455
15.842915
14.458895
15.430450
14.647841
13.945699
13.929605
14.453530
14.099479
14.031529
14.151931
13.809800
13.724566
14.764667
12.880564
13.480783
13.213754
##ZVALUE=255
1.748800
1.300573
1.764894
1.863837
1.727939
2.158880
1.910925
2.245903
2.425909
4.306436
18.577576
55.165887
176.346898
330.379605
603.829622
896.805525
1015.638709
1015.638709
1015.638709
1015.638709
1015.638709
1012.582779
742.411613
396.810770
231.261849
128.193498
103.766918
118.479729
136.981606
154.742599
160.498619
157.300830
144.387484
121.221542
101.870894
72.955489
53.123832
38.083792
30.058622
24.570823
23.231506
22.879839
22.537708
22.276640
20.102859
19.931793
19.326806
18.848777
18.124580
16.765594
15.726686
14.865994
14.444590
14.420748
14.041662
13.753772
12.961626
12.913942
12.250543
12.435913
12.106895
10.879636
10.768771
11.392832
10.567904
11.363626
11.441708
12.157559
11.535883
12.196898
14.034510
14.944673
14.577508
14.644861
15.738606
16.363859
15.435815
16.810894
14.708638
15.687943
13.977885
15.072823
13.959408
13.772845
13.149977
13.619661
13.402700
12.731552
12.228489
12.967587
14.366508
13.250709
12.578964
12.202859
12.864470
14.040470
##ZVALUE=260
1.634955
1.589656
1.347661
1.843572
1.772642
1.668930
1.678467
1.913905
2.063513
2.106428
2.156496
3.155470
7.829666
29.325485
64.080954
175.898671
337.935686
664.842725
967.004895
1015.638709
1015.638709
1015.638709
1015.638709
1006.559730
655.038953
420.213938
219.530463
133.287907
91.496706
96.201897
120.745897
144.523978
161.153674
175.584555
168.963671
154.562593
136.223435
105.853677
81.163645
58.725476
47.749877
35.593510
29.439926
27.162433
26.003718
23.498535
22.875667
20.727515
20.832419
19.929409
18.722415
17.960668
17.523766
16.301870
15.567541
14.408827
12.943745
12.924671
12.608767
12.032986
11.856556
10.507703
11.545420
10.606647
10.439754
10.907650
9.723902
10.663867
10.059476
11.128783
11.103749
12.076497
12.993813
13.745427
12.746453
12.777448
12.499690
12.308955
12.390614
12.424588
12.027621
11.853576
11.615753
11.911988
12.716651
11.589527
12.109876
11.258721
11.724830
12.383461
11.010766
11.290908
11.392832
12.208819
11.117458
11.760592
##ZVALUE=265
1.315475
1.369715
1.477599
1.421571
1.436472
1.481771
1.542568
1.313686
1.640916
1.467466
1.534820
1.717806
1.761913
2.081990
3.607869
18.725991
52.459836
139.884949
253.954530
471.243858
665.452480
841.845870
1005.653739
1015.638709
928.015709
788.573623
570.892692
404.552817
227.187872
144.516826
99.137425
89.069605
102.291703
135.630965
157.284737
179.658532
186.564922
176.047683
165.061951
130.903721
110.632777
80.888867
63.321590
44.190884
35.294890
29.043555
26.526451
24.320483
22.454858
21.677613
19.894838
18.718839
17.355680
16.524792
16.347766
15.427470
13.640523
12.931824
12.399554
12.552738
11.011958
10.804534
10.280609
10.112524
9.833574
9.459853
9.160638
9.951591
9.051561
9.703636
10.191798
10.236502
10.295510
10.296702
10.864735
10.568500
10.824800
10.491610
10.621548
9.603500
10.026693
10.998845
11.024475
10.288954
9.887815
10.042787
10.513663
10.379553
10.388494
10.512471
10.228753
10.218620
9.783506
9.901524
10.072589
10.458827
##ZVALUE=270
1.211762
1.094937
1.141429
1.196861
1.220703
0.994802
1.168847
1.285672
1.231432
1.200438
1.280904
1.651645
1.628995
1.659989
1.498461
1.948476
2.371669
7.720590
21.753907
76.347589
156.203508
281.947851
507.107973
676.079988
843.906999
911.044478
890.051723
799.641609
628.461838
477.338433
342.385769
192.558765
123.183727
85.193515
87.061524
112.940669
135.798454
163.382888
179.428458
183.652639
180.298686
158.086419
137.321949
104.757547
82.216859
55.658817
43.971539
33.367872
27.209520
22.106767
21.315813
19.595623
18.977523
17.152429
16.074777
15.178919
14.172792
13.551712
12.813807
12.925863
12.285709
11.303425
11.062622
10.013580
10.171533
10.007620
9.776950
9.922981
10.213852
10.557771
10.627508
10.743737
10.245442
10.674000
10.482669
10.751486
10.788441
10.300875
10.803938
10.696650
9.677410
10.285974
9.923577
9.932518
9.565949
9.934902
9.388924
9.974837
9.776950
9.922981
9.955764
10.332465
10.082722
9.686947
10.052919
10.108948
##ZVALUE=275
1.049638
0.860691
0.963807
1.039505
0.878572
1.103878
1.026988
1.159906
1.172423
1.318455
1.162887
1.259446
1.387596
1.260638
1.123548
1.414418
1.626611
1.618862
1.803637
4.637837
15.320778
41.185617
114.376545
211.806893
395.465493
543.826818
721.826553
839.211941
897.612572
862.045884
726.870894
577.743649
418.051481
234.049559
144.537687
84.134936
68.796873
81.121922
100.398660
130.435824
152.654648
169.882774
176.343918
169.132948
152.329803
124.673843
103.790760
74.192882
56.915879
36.473870
28.139949
21.442771
17.993450
16.751885
15.359521
14.470816
13.463497
13.046861
12.091994
12.242794
11.420846
11.068583
10.620952
10.717511
10.134578
9.850860
9.689927
9.784698
10.102987
10.054708
9.585619
10.511875
9.967685
10.234714
10.050535
10.168552
10.221601
10.396838
11.083484
10.209680
10.153651
10.171533
9.918809
9.832978
10.158420
9.884834
9.951591
9.801984
9.570718
9.563565
9.880662
9.474754
9.440780
9.514689
10.027885
9.587407
##ZVALUE=280
0.782609
0.967979
0.819564
0.942945
0.952482
1.032948
0.968575
1.135468
1.118779
1.193881
0.985861
1.247525
1.166463
1.085997
1.325607
1.398921
1.532435
1.448989
1.382828
1.777411
1.649857
2.147555
10.793805
32.814741
98.260641
177.120566
319.844484
468.134880
668.189526
797.294974
879.392028
889.020562
811.702013
628.294945
460.986495
269.562602
165.390968
83.993673
56.015849
53.353906
67.830682
93.193650
117.338896
141.647458
155.233741
162.124634
156.558752
140.094757
119.831562
88.459849
68.075657
45.282841
31.778812
20.767450
16.380548
13.239980
11.917949
11.290908
11.142492
10.660887
10.056496
9.966493
10.443926
9.863973
9.882450
9.887815
9.572506
9.279847
9.319782
9.546876
10.177493
9.821653
10.035634
10.406971
9.934902
10.280609
10.041595
10.485649
10.071993
10.164976
10.069609
10.017753
9.483695
9.777546
10.008812
9.812713
10.050535
9.832978
9.706616
9.247661
9.468794
9.618998
9.142756
9.379983
8.948445
8.817911
##ZVALUE=285
0.921488
0.868440
0.896454
0.814795
0.847578
1.035929
1.115799
1.065731
0.914931
1.022816
1.170635
1.075864
1.050830
1.004934
1.031756
1.132488
1.069903
1.320839
1.303554
1.270771
1.298785
1.322627
1.586676
1.730919
4.758835
16.134977
52.912831
110.023618
229.454637
363.368392
514.145494
712.834597
832.139850
890.572667
848.951936
697.144866
552.416444
348.821878
221.123695
106.282830
60.562491
36.887527
38.728714
58.348775
77.203512
108.566880
128.271580
145.497918
150.291920
147.124529
134.925842
110.143423
91.265440
61.640739
44.257641
27.224422
18.990636
12.991428
10.599494
9.371638
9.444952
8.555651
8.903742
9.237528
9.125471
8.867979
9.095669
9.359717
9.330511
9.709597
9.403825
9.759665
9.592772
9.534955
9.913445
9.855628
10.058880
9.817481
9.960532
10.291934
9.997487
9.441972
9.591579
9.601712
9.683967
10.115504
9.229779
10.025501
9.513497
9.549856
9.111762
9.405613
9.272695
9.156466
9.287000
9.372830
##ZVALUE=290
0.829697
0.845790
0.935793
0.900626
1.039505
0.985861
0.804663
0.804663
0.846982
0.985861
0.890493
0.982881
1.029968
1.021624
1.070499
1.141429
0.963807
1.210570
1.224875
1.306534
1.164675
1.299977
1.435876
1.318455
1.639724
1.838803
2.391934
5.697608
26.386976
61.918497
122.769475
260.332823
409.746766
629.478693
768.530965
879.538655
873.893499
765.734911
634.926558
427.469611
284.446478
144.770741
78.141689
35.036802
26.188493
36.289692
49.799681
73.428750
94.183683
120.363832
135.863423
141.522884
138.990879
127.946734
107.826591
80.468655
60.323477
39.379001
27.431846
16.587973
12.390614
9.632707
8.710623
8.104444
8.000731
8.220673
8.336902
8.717775
8.889437
8.792877
9.037852
9.312630
9.491444
10.425448
10.240674
9.585619
9.797812
9.468794
9.653568
10.018945
9.768605
9.694695
9.538531
9.641647
9.812713
9.727478
9.770989
9.375811
9.328723
9.420514
9.412766
9.508729
9.494424
8.772612
8.790493
9.317994
##ZVALUE=295
0.953674
0.920892
0.966787
0.809431
0.803471
0.909567
0.912547
0.989437
0.878572
0.745654
0.901818
1.040697
0.962615
0.977516
1.008511
1.086593
0.991821
1.092553
1.076460
1.003742
0.921488
0.957847
1.130700
1.257658
1.384616
1.361966
1.300573
1.657605
1.610518
3.175735
10.126829
40.245652
89.505911
205.018520
333.915949
542.928576
689.059496
838.282704
872.346759
813.643932
694.674850
500.085950
350.481868
184.933543
103.946924
40.488839
23.999810
21.453500
28.309822
47.450662
64.194798
89.724660
109.440684
128.200650
135.892630
130.885839
122.147799
100.082755
82.873702
56.922436
40.172935
24.562478
17.509460
11.482835
8.792877
8.007884
8.232594
7.778406
7.850528
8.099675
8.185506
8.723736
8.726716
8.906722
9.194613
9.311438
9.305477
9.465814
9.426475
9.575486
9.343624
9.563565
9.669662
9.650588
9.152889
9.161830
9.346604
9.014606
9.399652
9.402633
9.312630
9.145737
9.162426
8.957982
9.117723
8.558631
##ZVALUE=300
0.840425
0.734925
0.833869
0.872612
0.837445
0.951886
0.710487
0.771880
0.779629
1.014471
0.834465
0.941753
0.894666
0.913739
1.036525
1.070499
0.926852
1.002550
1.021624
0.925660
1.010895
0.897646
1.102686
1.322627
1.278520
1.394749
1.337528
1.512766
1.644492
1.671910
1.697540
1.978874
4.620552
21.970868
55.426955
144.005418
250.440836
467.177629
663.811564
908.069611
1015.145779
1015.638709
939.124823
699.414611
501.853824
273.509622
157.756805
68.498850
33.993721
16.850829
18.004775
28.199553
39.539933
61.891675
80.590844
104.812980
118.426681
127.420425
127.974749
114.654899
100.133419
75.375438
57.640672
38.585663
26.970506
16.067624
12.007952
8.820891
8.291602
8.154511
8.106828
8.284450
8.680820
9.076595
9.402633
9.236932
8.646846
9.438992
9.025931
9.415746
9.609461
9.554625
9.325743
9.900928
9.534955
9.668469
9.811521
9.685755
9.507537
9.001493
9.644628
9.261966
8.974671
8.844733
9.358525
9.216666
##ZVALUE=305
0.956655
0.833869
0.849962
0.710487
0.958443
0.884533
0.860691
0.876784
0.824928
0.855923
0.970960
0.914931
0.900626
0.842810
0.922680
0.895858
0.932813
0.987649
0.993609
1.012683
0.951886
1.257658
1.091957
1.077652
1.157522
1.495481
1.314878
1.340508
1.340508
1.440644
1.750588
1.747608
1.792908
2.207756
3.032684
13.539791
36.244988
104.905963
194.631815
395.861864
606.603622
917.099714
1015.638709
1015.638709
1015.638709
957.879424
732.209682
437.749624
255.270004
106.410980
50.307512
18.651485
12.776852
16.828775
25.346875
40.253997
56.335926
79.375505
96.748471
115.046501
121.509433
119.914412
111.050606
94.012618
77.213645
54.600835
39.274693
24.098754
17.040968
11.272430
9.899735
8.917451
8.944869
8.585453
9.023547
8.804798
9.123683
9.389520
9.259582
9.443760
9.631515
9.336472
9.606481
9.460449
9.464622
9.639859
9.856820
9.981990
9.253621
9.759665
9.415746
9.207726
9.095669
9.182692
9.057522
8.926988
##ZVALUE=310
0.741482
0.764728
0.674725
0.710487
0.812411
0.783801
0.767708
0.769496
0.598431
0.698566
0.662804
0.818968
0.833869
0.915527
0.766516
0.933409
0.862479
0.912547
0.773668
0.838637
0.969768
1.027584
0.948906
0.951886
1.090765
1.077652
0.917912
1.111627
1.219511
1.246929
1.154542
1.148582
1.273751
1.553893
1.554489
1.743436
1.739860
5.808473
18.770695
63.068867
124.527812
263.656974
411.487818
620.555878
758.914948
875.328779
886.230469
789.572001
664.240718
455.279946
304.346681
149.920583
80.554485
29.026866
14.364719
11.199713
14.284849
23.084879
33.410788
51.106811
67.631602
90.338588
103.765726
114.294887
115.038753
105.292797
92.854500
73.123574
56.535602
36.681890
26.412606
17.071962
12.865663
9.176731
9.259582
8.822680
8.781552
8.666515
8.562803
9.116530
8.934736
9.056926
9.212494
9.422898
9.472966
9.222627
9.973645
9.416938
9.898543
9.200573
9.704828
9.596944
9.166598
8.844733
8.931756
8.919835
##ZVALUE=315
0.876784
0.724792
0.801682
0.847578
0.893474
0.870824
0.969768
0.987649
0.816584
0.819564
0.679493
0.758767
0.864863
0.853539
0.876784
1.122952
0.846982
0.984669
1.068711
0.929832
0.966787
0.940561
0.988841
0.888705
0.989437
0.956655
0.981688
1.114607
1.173615
1.139641
1.126528
1.254678
1.428723
1.397729
1.442432
1.512766
1.442432
1.556873
1.878738
3.241897
10.031462
39.881468
87.117553
199.656487
329.239964
537.112951
666.638613
785.949826
822.932720
759.021640
656.109452
473.568439
335.025787
179.424882
99.161863
38.445592
17.540455
9.810925
9.534955
13.745427
19.418597
32.135844
45.154691
65.488815
80.585480
99.490881
107.112527
107.182860
100.904703
85.171461
70.806742
52.418709
38.839579
24.499893
17.469525
12.617707
10.153651
8.838773
9.090900
8.961558
8.918643
9.024739
9.477735
9.568930
9.714961
9.512901
10.062456
9.520650
9.955764
9.601712
9.512901
9.441972
9.498596
9.432435
8.999705
9.097457
##ZVALUE=320
0.737906
0.732541
0.783801
0.576973
0.749826
0.745654
0.698566
0.665784
0.710487
0.638962
0.727773
0.778437
0.775456
0.717640
0.743866
0.829697
0.755787
0.716448
0.666976
0.725985
0.791550
0.808835
0.723600
0.951886
0.949502
1.021624
0.797510
1.012683
1.039505
0.982881
0.965595
1.012683
1.114607
1.162887
1.106858
0.999570
1.239777
1.405478
1.451969
1.398921
1.503825
1.898408
4.762411
23.040771
57.729483
148.717761
249.507427
417.701006
565.431714
727.664828
799.193978
794.898868
717.749596
552.748442
405.793786
229.515433
132.811666
59.123635
27.377605
10.940433
8.703470
9.091496
11.591911
18.617511
27.356744
43.776631
58.604479
76.874495
90.381503
101.687908
103.198886
95.418692
84.951520
66.488981
51.762462
34.761429
25.290847
16.992688
13.068914
10.074973
9.425879
9.404421
9.161830
9.055734
9.381771
9.025931
9.188652
9.332895
9.372830
9.177923
9.034872
9.010434
9.329915
8.966923
9.262562
8.959770
##ZVALUE=325
0.788569
0.756979
0.847578
0.726581
0.804663
0.664592
0.739694
0.860691
1.065731
0.820756
0.873804
0.811815
0.747442
0.851750
0.949502
0.757575
0.825524
0.716448
0.914931
1.028776
0.897646
0.802875
1.102686
0.988841
0.998974
1.086593
1.154542
0.984669
1.092553
1.023412
1.148582
1.124740
0.988841
1.059771
0.907779
1.139641
1.113415
1.085997
1.394749
1.346469
1.391768
1.366735
1.698732
1.813769
2.687573
14.499426
38.026571
98.294616
176.017880
336.703658
474.421978
654.397011
743.457675
786.028504
739.353895
587.145686
449.453592
277.373791
172.125697
77.415705
38.541555
14.219880
8.667707
7.572770
8.667707
12.131929
17.244816
27.563572
39.636493
58.678985
72.858930
87.899566
95.263720
96.195936
90.691447
75.916648
63.514709
46.723485
34.782887
22.826791
16.606450
12.273788
10.775924
10.025501
9.533763
9.391904
9.173751
9.091496
9.162426
9.344816
9.336472
9.265542
9.123683
9.061694
9.033680
9.275675
##ZVALUE=330
0.687838
0.653863
0.663996
0.690818
0.669956
0.723600
0.830889
0.720620
0.518560
0.684857
0.647902
0.734925
0.734925
0.658631
0.775456
0.702739
0.756979
0.849962
0.850558
0.662804
0.678897
0.608563
0.768900
0.743866
0.825524
0.718832
0.753999
0.797510
0.667572
0.912547
0.690818
0.786781
0.930429
1.020432
0.991821
0.907779
1.065731
0.947714
1.074672
0.996590
0.912547
1.138449
1.314878
1.249909
1.424551
1.517534
1.854897
6.472468
20.162463
66.498518
129.307508
260.332823
388.423800
568.256974
687.291026
765.057802
749.650598
640.230775
518.452525
333.338976
217.460990
103.579760
54.287910
20.512938
10.261536
7.216930
7.192492
8.330941
10.993481
17.320514
25.018454
39.785504
52.409768
70.863962
81.777573
90.745687
91.110468
84.216595
75.050592
58.117509
46.831965
32.177567
23.683906
16.568899
13.188720
10.281801
10.168552
9.205937
9.007454
8.927584
8.581877
8.755922
8.807778
8.531809
8.622408
8.935928
##ZVALUE=335
0.597835
0.661612
0.695586
0.684857
0.580549
0.475645
0.740886
0.713468
0.733733
0.575781
0.618696
0.565648
0.670552
0.581741
0.623465
0.736713
0.618696
0.612736
0.556707
0.688434
0.703931
0.812411
0.889897
0.769496
0.858903
0.781417
0.904799
0.870824
0.891685
0.842810
0.731945
0.759959
0.765920
0.984669
0.990629
0.705719
1.027584
0.760555
1.038909
1.061559
1.105666
1.003742
0.915527
1.232624
1.077652
1.111627
1.180768
1.330972
1.562834
3.231764
10.830760
41.287541
86.665750
193.619728
314.383507
501.723886
627.638698
730.064511
751.408935
676.828027
573.967695
396.771431
270.362496
142.228603
76.472759
27.895570
13.418794
7.550716
7.167459
7.116795
8.377433
11.224747
15.746951
25.771856
36.108494
52.344799
65.319538
78.567863
83.773732
85.086823
79.980493
66.897869
57.205558
43.983459
34.223795
23.247600
17.753839
12.757778
10.896921
9.256601
8.743405
8.691549
8.675456
8.313656
8.611679
8.387566
##ZVALUE=340
0.694990
0.602603
0.552535
0.774860
0.651479
0.683665
0.666976
0.561476
0.681877
0.532866
0.642538
0.622869
0.688434
0.675917
0.742674
0.860691
0.735521
0.730753
0.758767
0.664592
0.717640
0.772476
0.810623
0.619888
0.723600
0.732541
0.607967
0.759959
0.798702
0.927448
0.959635
0.873804
0.817776
0.878572
0.799894
1.014471
0.888705
1.034737
0.932813
0.862479
1.052618
0.937581
0.919700
1.031756
0.976920
1.063943
1.106858
1.174808
1.263618
1.183748
1.513958
1.793504
6.884933
21.108985
68.116784
133.245587
274.782777
399.655700
567.660928
666.291714
731.635690
708.667636
595.532656
473.004580
299.348831
190.812945
90.114474
44.389963
14.982820
8.535981
6.954670
7.132888
7.557869
8.168817
11.274815
15.233755
23.923516
34.437776
49.712658
61.101913
73.898435
78.955889
80.301762
75.793862
65.785646
56.928992
42.714477
32.941699
22.806525
17.456412
12.582541
10.469556
8.864999
8.444786
8.310676
8.154511
##ZVALUE=345
0.484586
0.594854
0.621676
0.849962
0.714660
0.610948
0.644922
0.708699
0.562668
0.740886
0.584722
0.589490
0.607967
0.682473
0.759959
0.663996
0.713468
0.512600
0.626445
0.686646
0.728965
0.782609
0.586510
0.641942
0.659823
0.706911
0.645518
0.663996
0.667572
0.735521
0.798702
0.682473
0.832677
0.749826
0.693798
0.851750
0.810623
0.820756
0.868440
0.834465
0.875592
0.805855
1.000762
0.932813
0.877976
0.999570
0.907779
0.959635
1.020432
1.122952
1.086593
1.366735
1.232624
1.324415
2.387762
13.435483
37.135482
99.462867
180.264711
330.747962
460.539460
617.093444
693.186522
708.006024
648.708940
499.416590
373.770595
221.362710
128.105879
51.895976
24.676919
10.240674
7.347465
7.028580
6.739497
6.956458
7.926822
10.543466
14.580488
22.791624
32.308698
46.152472
56.164861
66.380501
72.058439
74.780583
71.462989
62.803626
54.692626
42.016506
32.535791
22.339821
16.605854
11.996627
9.760857
8.519888
##ZVALUE=350
0.593662
0.566840
0.597835
0.546575
0.649691
0.479817
0.629425
0.676513
0.576973
0.696778
0.680685
0.633597
0.604987
0.553727
0.678897
0.490546
0.730753
0.694990
0.638962
0.584722
0.562668
0.673532
0.684857
0.664592
0.629425
0.670552
0.614524
0.663996
0.641942
0.649691
0.847578
0.760555
0.763535
0.834465
0.708699
0.789762
0.804663
0.779629
0.754595
0.826716
0.898838
0.878572
0.665784
0.884533
0.879765
0.902414
1.051426
0.910759
1.043677
0.896454
1.019835
0.991821
1.121759
1.173615
1.190901
1.315475
1.784563
6.949902
20.874739
65.788627
126.548409
255.247951
377.388597
537.410975
634.793639
693.681836
664.501786
553.326607
427.291989
259.650946
160.440803
74.490905
35.956502
12.477636
7.399917
6.548762
6.534457
6.193519
6.465912
7.645488
9.287000
14.333725
19.682646
28.985739
37.997961
49.791932
57.989955
65.905452
67.084432
65.465569
60.009956
49.869418
40.172935
29.497743
22.101998
15.620589
##ZVALUE=355
0.610948
0.595450
0.818968
0.656843
0.664592
0.565648
0.688434
0.558496
0.662804
0.688434
0.649691
0.489950
0.532866
0.753999
0.726581
0.554919
0.631809
0.640750
0.740886
0.738502
0.759959
0.519753
0.699759
0.622869
0.566840
0.848770
0.742674
0.697970
0.599623
0.751615
0.685453
0.608563
0.627637
0.731945
0.832677
0.698566
0.748634
0.718832
0.777841
0.827909
0.735521
0.768900
0.676513
0.730753
0.908971
0.873804
0.956655
0.822544
1.044869
0.879765
0.874996
0.957847
0.903606
1.020432
0.955462
1.157522
1.205802
1.135468
1.485944
3.399849
11.530519
42.580962
87.851882
188.268423
294.806957
462.898016
576.592684
669.635534
671.202540
580.685735
472.469926
311.755538
202.091932
90.056658
44.666529
15.478730
8.279681
6.714463
6.395578
6.027818
5.932450
6.617904
7.005930
9.120703
11.784434
17.864704
24.154782
34.229755
42.664409
51.799417
58.350563
61.793923
60.283542
54.891706
48.617721
37.993789
##ZVALUE=360
0.586510
0.627637
0.603795
0.690818
0.561476
0.646710
0.565648
0.570416
0.619888
0.587702
0.535846
0.653863
0.681877
0.592470
0.814795
0.636578
0.651479
0.694990
0.539422
0.704527
0.714660
0.634789
0.699759
0.774860
0.793934
0.633597
0.764728
0.702739
0.626445
0.867844
0.885725
0.758767
0.748634
0.676513
0.664592
0.665784
0.702739
0.776649
0.840425
0.693798
0.853539
0.852942
0.830889
0.911951
0.829697
0.991821
0.917912
0.875592
0.799894
0.881553
0.780821
0.929832
1.077652
0.958443
0.889897
1.022816
1.131892
1.176000
1.446605
1.259446
1.476407
1.961589
5.114675
22.671819
53.869486
133.236647
223.077536
371.702909
496.235490
617.159605
648.374557
606.850982
516.867638
356.947780
239.898562
119.568706
63.826442
25.169849
11.250973
6.489754
6.165504
5.862713
5.686879
5.802512
5.695820
6.303787
7.194877
9.933710
13.449788
19.959807
27.121902
37.092566
44.776797
52.629709
54.763556
55.063963
##ZVALUE=365
0.607967
0.721812
0.590682
0.583529
0.579953
0.619888
0.594854
0.604987
0.661612
0.586510
0.764728
0.618696
0.488758
0.662804
0.782609
0.624657
0.697970
0.698566
0.656843
0.783801
0.628829
0.605583
0.662804
0.547767
0.687838
0.680685
0.678897
0.656843
0.595450
0.596642
0.659823
0.711679
0.831485
0.700951
0.791550
0.709891
0.698566
0.886917
0.663996
0.639558
0.691414
0.734925
0.938773
0.739694
0.866652
0.679493
0.817776
0.828505
0.751615
0.993609
0.958443
0.779629
0.836849
0.895858
1.111627
1.057982
1.007915
1.074672
1.015663
1.125932
1.198649
1.161695
1.354814
1.554489
2.583861
12.048483
32.262802
91.383457
164.543986
299.993753
418.811440
551.504493
614.851713
611.816645
542.279482
400.068760
288.618803
162.417889
90.726614
35.855770
15.779734
6.944537
5.784631
5.512834
5.539656
5.113482
5.111694
5.155802
5.440712
6.455779
7.932782
12.114644
16.072989
23.664832
30.271411
39.061904
##ZVALUE=370
0.598431
0.653863
0.426769
0.621676
0.680685
0.577569
0.504851
0.661612
0.758767
0.701547
0.629425
0.638962
0.691414
0.672936
0.592470
0.573993
0.412464
0.582933
0.592470
0.592470
0.627637
0.622869
0.715852
0.653863
0.616908
0.685453
0.552535
0.603795
0.589490
0.733733
0.661612
0.721812
0.645518
0.794530
0.841618
0.776649
0.634789
0.640750
0.717640
0.808835
0.869632
0.730753
0.691414
0.710487
0.686646
0.705719
0.806451
0.763535
0.799894
0.759959
0.851750
0.710487
0.750422
0.889897
0.895858
0.875592
0.814795
0.910759
1.056790
0.901818
0.952482
1.036525
1.091957
1.229644
1.171827
1.389980
1.506805
6.505847
20.800829
65.523982
122.961402
236.111879
347.830653
500.765443
582.810640
613.101721
572.697520
454.785824
342.156887
194.005966
110.782981
44.623613
21.580458
8.924603
5.633831
5.078912
5.030632
4.780889
4.678965
4.757643
4.832745
5.090833
5.737543
8.531809
10.071993
18.974543
##ZVALUE=375
0.652671
0.650883
0.641942
0.507832
0.586510
0.668764
0.596642
0.623465
0.561476
0.539422
0.494719
0.616908
0.644922
0.541806
0.632405
0.630617
0.509620
0.663996
0.674725
0.581741
0.613928
0.633597
0.741482
0.573993
0.619888
0.713468
0.602603
0.650883
0.482798
0.565648
0.646710
0.672936
0.711679
0.690818
0.675917
0.687838
0.717640
0.611544
0.705719
0.729561
0.675917
0.647902
0.728965
0.717640
0.680685
0.730753
0.772476
0.855923
0.851750
0.887513
0.838637
0.699759
0.817776
0.735521
0.857711
0.742674
0.780821
0.995994
1.058578
0.903606
0.882745
0.988841
0.870824
0.983477
1.068711
1.028776
1.090765
1.239777
1.460910
3.386736
10.994673
40.127635
83.628893
186.944008
291.432738
443.774462
537.927747
598.949790
590.651631
496.633649
390.822887
245.152712
153.701901
72.357655
36.585927
13.326406
6.726980
4.667640
4.537702
4.445910
4.350543
4.381537
4.169941
4.308820
4.437566
4.787445
##ZVALUE=380
0.404716
0.427961
0.405908
0.325441
0.427961
0.466704
0.570416
0.271797
0.451803
0.349879
0.365973
0.362992
0.279546
0.414848
0.405908
0.386834
0.309944
0.337958
0.374913
0.535846
0.470877
0.509620
0.288486
0.414848
0.390410
0.335574
0.331998
0.412464
0.450611
0.422597
0.448823
0.459552
0.528693
0.533462
0.424981
0.519753
0.485778
0.512600
0.523925
0.480413
0.469685
0.432730
0.547767
0.348687
0.312924
0.477433
0.458956
0.651479
0.536442
0.530481
0.533462
0.572801
0.517964
0.553727
0.553727
0.759959
0.684857
0.554919
0.678897
0.624657
0.554919
0.634789
0.640750
0.579953
0.833869
0.734925
0.832677
0.747442
0.780821
1.016855
1.285672
1.720786
6.030798
27.555823
62.914491
145.829916
237.223506
379.606485
488.222837
584.506989
592.068434
522.081852
434.135795
304.377675
207.472444
104.315877
54.532886
20.334721
9.036660
4.612803
4.194975
4.093647
3.885627
3.864765
3.712773
3.807545
##ZVALUE=385
0.528693
0.561476
0.543594
0.567436
0.591874
0.519753
0.670552
0.620484
0.713468
0.473857
0.483990
0.559688
0.447631
0.602603
0.646710
0.626445
0.622869
0.607967
0.504851
0.540614
0.706911
0.729561
0.662804
0.520945
0.713468
0.598431
0.526905
0.594854
0.715852
0.613928
0.746846
0.762939
0.586510
0.685453
0.837445
0.522733
0.623465
0.639558
0.648499
0.670552
0.666976
0.557899
0.755787
0.625849
0.693798
0.688434
0.649691
0.682473
0.804663
0.642538
0.826716
0.723600
0.578761
0.870824
0.691414
0.626445
0.874996
0.817776
0.700951
0.779629
0.882745
0.795722
0.817776
0.771880
0.842810
0.884533
0.799894
0.944734
1.025796
1.066923
1.074672
1.201630
1.199841
1.558661
3.098845
15.058517
39.195418
98.398924
174.949765
315.552950
429.754853
544.240475
580.844879
562.321544
498.717427
367.107987
263.561606
145.781636
83.402991
35.522580
15.143752
5.643964
4.208684
3.852844
3.906488
3.705621
##ZVALUE=390
0.637770
0.574589
0.673532
0.482798
0.661612
0.714660
0.557899
0.610948
0.602603
0.759959
0.650883
0.624657
0.734925
0.538826
0.459552
0.676513
0.517964
0.583529
0.603795
0.627637
0.707507
0.619888
0.573993
0.589490
0.619888
0.530481
0.737906
0.468493
0.625849
0.646710
0.614524
0.631809
0.760555
0.730753
0.672936
0.624657
0.689626
0.726581
0.603795
0.730753
0.728965
0.747442
0.752807
0.631809
0.808835
0.538826
0.691414
0.550747
0.647902
0.553727
0.648499
0.793934
0.720620
0.547767
0.751615
0.768900
0.774860
0.678897
0.670552
0.623465
0.734925
0.815988
0.785589
0.793934
0.731945
0.852942
0.896454
0.932813
0.990629
0.963807
0.925660
0.964999
1.184940
1.199841
1.221895
1.117587
1.760721
8.307695
24.231672
72.602630
136.140585
260.189772
367.508531
496.580601
560.202003
580.515862
542.584658
429.039598
329.035521
202.748775
119.578838
49.651861
23.973584
8.354783
4.521608
3.870726
##ZVALUE=395
0.588894
0.501871
0.453591
0.558496
0.566840
0.568628
0.696778
0.460744
0.466704
0.532866
0.510812
0.474453
0.661612
0.632405
0.597835
0.576973
0.580549
0.499487
0.524521
0.603795
0.478625
0.563860
0.627637
0.663996
0.658631
0.642538
0.674725
0.548959
0.674725
0.575781
0.708699
0.523925
0.786781
0.676513
0.721812
0.717640
0.665784
0.743866
0.736713
0.721812
0.752807
0.708699
0.831485
0.652671
0.624657
0.699759
0.622869
0.580549
0.645518
0.621676
0.605583
0.576973
0.751615
0.746846
0.597835
0.781417
0.775456
0.667572
0.799894
0.710487
0.663996
0.694990
0.732541
0.815988
0.911951
0.705719
0.841618
0.819564
0.962615
1.036525
1.123548
1.046658
1.054406
1.108646
1.030564
1.082420
1.000762
1.249909
1.307726
4.587770
16.035438
54.064989
101.623535
195.176005
293.599963
432.971716
523.616672
584.051013
573.496819
488.661528
386.482477
244.391561
153.574944
68.716407
33.478737
11.882782
##ZVALUE=400
0.777841
0.857711
0.813603
0.857711
0.682473
0.774860
0.796914
0.853539
0.794530
0.861883
0.878572
0.951886
0.794530
0.808835
0.822544
0.893474
0.732541
0.860691
0.900626
0.901818
0.889897
0.867844
0.980496
0.875592
0.909567
0.730753
0.742674
0.802875
0.956655
0.820756
0.650883
0.827909
0.848770
0.734925
0.911951
1.073480
0.893474
1.088977
0.999570
0.990629
0.937581
1.064539
0.974536
0.862479
1.040697
0.996590
1.095533
0.886917
1.031756
0.773668
0.868440
0.967979
0.976920
0.897646
0.922680
0.911951
0.773668
1.015663
0.970960
0.966787
0.994802
0.892878
1.009703
0.972748
1.071692
1.140833
1.128912
1.010895
1.186728
1.170635
1.265407
1.271963
1.105666
1.280904
1.104474
1.248717
1.170635
1.194477
1.383424
1.390576
1.720786
3.040433
8.884668
30.904412
65.964460
148.205757
238.816738
376.264453
472.432971
554.418564
567.508936
505.109429
416.196585
278.492570
183.205009
94.544888
##END
