##TITLE=FKDZ0152
##FORMAT=SPECTACLE-ASCII V-1.2
##DATA TYPE=ULTRAVIOLET SPECTRUM
##SECOND TYPE=ULTRAVIOLET SPECTRUM
##DATE=01/21/18
##TIME=13:48:45
##SPECTROMETER/DATA SYSTEM=SPECTACLE
##XUNITS=NM EM
##YUNITS=ENERGY
##YFACTOR=1
##FIRSTX=220
##LASTX=410
##NPOINTS=96
##3DDATA=Equidistant
##ZUNITS=NM EX
##FIRSTZ=210
##LASTZ=400
##ZPOINTS=39
##XYDATA=(Y..Y)
##ZVALUE=210
2.240539
2.758503
2.711415
2.564788
2.715588
2.685785
3.030896
2.518892
2.422929
3.099442
2.520680
2.950430
2.227426
2.088547
2.582669
2.648830
2.710819
2.503991
2.861619
3.295541
3.439784
3.323555
2.869964
4.036427
4.347563
5.215406
5.404949
5.880594
6.500483
6.972551
7.226467
8.551478
9.229779
9.596944
10.394454
9.894967
9.762645
9.512901
9.716749
9.152889
9.787679
9.705424
8.026958
8.457899
7.787943
7.021427
7.634759
8.609891
7.449985
7.848740
6.924868
6.843805
7.064939
6.588697
7.041693
5.870461
5.921721
6.020665
6.220937
5.887747
5.801916
5.558729
6.658435
5.862713
6.665587
5.823970
6.101727
6.611943
7.962584
7.729530
9.220839
11.641979
12.337565
14.645457
16.046762
17.373562
17.724633
18.346906
18.047690
16.350746
15.380979
13.398528
11.877418
10.624528
8.215904
6.823540
6.133914
5.403757
6.411672
5.927682
5.948544
5.522966
6.223917
5.936623
6.158948
7.430911
##ZVALUE=215
6.968975
7.691979
7.177591
5.171895
5.471706
4.896522
5.179644
4.995465
5.021691
5.278587
4.838705
4.783869
4.356503
3.974438
3.577471
3.178716
3.466606
3.059506
3.500581
3.635883
3.275871
4.085898
4.167557
4.779696
5.167723
6.465912
6.945729
8.361936
10.920763
11.662841
12.627840
13.919473
15.423894
16.733408
17.701983
16.765594
16.983747
17.412901
16.802549
17.115474
15.825629
14.047623
14.706850
14.192462
13.733506
11.642575
10.885000
11.799932
10.807514
9.417534
10.327697
9.974837
8.568764
8.140802
9.309649
9.375811
7.951856
7.826686
7.504821
8.386970
8.295774
6.686449
7.138848
7.733703
6.940961
7.146597
7.460713
8.166432
8.690953
9.259582
10.755658
12.499690
14.705658
16.340613
17.351508
16.578436
17.874837
18.222928
19.074678
17.681718
17.044544
14.847517
12.705922
11.040568
9.145737
8.397698
7.321835
6.327629
5.708933
5.012751
5.610585
5.929470
5.384684
6.161928
5.638599
6.544590
##ZVALUE=220
27.826428
28.690696
30.451417
32.253861
28.545856
24.303794
18.825531
14.120936
12.303591
12.089610
12.890697
12.521744
12.456775
13.093948
9.684563
7.931590
6.937981
5.765557
4.142523
4.330873
4.281998
4.532933
5.768538
5.722642
5.911589
7.716417
9.938478
14.137626
16.222000
20.040870
21.952987
25.454760
28.572679
29.837489
31.501651
31.150579
30.733943
30.644536
30.642748
27.859807
25.499463
24.580956
23.888946
21.760464
22.518635
20.819902
19.151568
17.231703
16.776919
14.613867
14.624000
13.763905
13.101697
12.990832
11.280775
11.718869
11.751652
10.234714
11.237860
10.341406
9.443760
9.644628
8.023977
8.682609
8.170605
8.482933
9.411573
9.830594
9.631515
11.521578
11.796951
14.121532
15.595555
17.302632
17.917752
21.299720
19.040704
19.891858
18.934608
17.607808
18.241405
16.005635
13.854504
11.958480
11.102557
9.744763
7.724762
7.341504
7.934570
6.664991
6.414652
5.841851
6.080866
7.261634
5.787611
6.114841
##ZVALUE=225
43.463707
44.670701
58.916807
84.041953
90.493560
92.624426
82.979798
67.097545
50.359964
38.175583
27.062893
24.378896
25.378466
25.979877
26.809573
26.904941
22.038817
16.708970
14.195442
9.495616
6.961823
5.813837
5.545616
5.851984
6.842613
9.107590
9.982586
15.177727
17.837882
21.912456
23.438931
29.369593
32.398701
35.424829
36.142468
36.626458
36.480427
37.223697
34.559965
33.048987
33.613443
31.177998
29.640794
27.564764
25.933981
25.759935
21.528602
21.374822
17.973781
19.166470
15.460849
17.292500
14.136434
14.935732
14.827847
12.382865
13.342500
11.534691
12.750626
10.993481
11.423826
11.662841
10.062456
11.102557
9.908676
11.166930
10.329485
10.586977
11.079907
11.555552
12.203455
14.661551
13.794899
16.747713
18.031597
16.872883
17.705560
18.588901
18.150806
17.365813
16.553998
14.574528
12.788773
12.341738
11.723638
10.121465
8.283854
7.834435
8.069873
6.900430
6.992817
6.868839
6.853938
7.500648
6.663799
7.239580
##ZVALUE=230
40.902495
45.627952
72.076917
116.579533
150.745511
181.147456
196.319818
194.523931
171.361566
144.367814
100.774765
74.150562
53.467751
47.016740
47.084689
50.292611
51.006675
49.097538
44.595599
37.302971
28.168559
19.091964
13.212562
9.017587
8.527637
9.500980
11.143684
13.113618
14.871955
18.911958
21.396875
22.629499
25.166869
27.776957
29.500723
29.667616
30.544996
29.078722
29.872656
27.890801
29.154420
26.583672
25.238991
23.374557
21.202564
21.376610
19.156933
16.745925
17.230511
15.838742
15.918612
15.135407
14.149547
14.253855
13.494492
12.820959
12.698770
12.844801
11.456609
13.031960
11.136532
12.401938
10.892749
10.617971
11.381507
10.763407
11.073947
10.808706
11.681914
12.266636
12.981892
14.232993
15.502572
16.581416
17.059445
16.978979
16.191602
17.443895
16.151667
14.757514
13.814569
12.467504
12.325644
11.194944
10.482669
9.349585
8.662939
8.430481
8.751750
8.136630
7.998943
7.279515
7.981658
7.925630
7.415414
8.082986
##ZVALUE=235
16.549826
18.561482
44.550896
80.870986
155.177712
215.549469
297.497511
362.612605
405.199528
395.712852
333.948731
269.203782
209.407806
136.175752
96.414685
76.179504
71.880817
77.997446
84.659457
86.389780
80.596805
71.741939
50.907731
39.611459
24.979711
16.275644
13.745427
11.840463
11.416674
13.657808
13.793707
14.323592
15.647411
17.536879
17.997622
18.782616
19.225478
20.055771
19.761920
18.794537
18.082857
18.455982
18.303990
18.212795
17.707944
15.930533
15.521646
15.369654
14.352798
12.809634
12.586713
13.655424
14.543533
12.985468
12.303591
11.888742
12.667775
12.358427
12.653470
12.344718
11.273623
12.785792
11.780858
11.521578
11.621714
10.725856
11.908412
11.418462
10.855794
14.084578
12.848973
15.573502
15.323758
16.615987
17.193556
17.568469
16.258955
17.161965
15.833974
14.848709
14.659762
13.344884
12.742877
11.016726
10.322928
10.866523
10.168552
10.136962
9.652972
8.438826
8.742809
9.873509
9.222627
9.612441
9.110570
9.190440
##ZVALUE=240
2.057552
2.228618
7.390976
18.796921
54.623485
99.218488
189.834833
290.231705
432.083011
506.240726
563.428998
567.002892
510.174632
400.370955
307.230949
217.890739
138.018727
106.906891
97.388625
99.712610
115.928650
118.088722
113.343000
101.238489
89.107752
65.360665
50.573945
32.658577
23.914576
18.517971
15.325546
13.608932
13.850927
15.833974
16.272664
16.388893
16.220808
17.339587
17.762780
17.349720
16.671419
16.443729
16.481876
16.190410
15.346408
16.354918
15.699863
14.388561
14.591813
14.552474
14.208555
14.227629
13.099909
12.215972
12.906790
11.771917
12.995601
10.974407
11.681914
12.022853
11.472702
11.480451
10.792613
9.992719
11.378527
11.769533
11.773705
12.020469
11.538863
12.545586
12.165904
14.034510
14.795661
16.327500
15.934706
17.013550
15.146732
15.505552
15.195608
14.984608
13.691783
13.163686
13.535619
11.642575
12.158751
11.881590
11.484623
10.076761
10.771751
10.105968
10.331869
9.799600
10.004640
9.866953
10.575652
10.028481
##ZVALUE=245
1.873970
1.912713
1.699924
2.009869
4.698634
12.636781
42.388439
83.234906
176.879764
269.901752
406.250954
499.497652
573.406816
596.054792
570.095778
471.180677
394.681692
268.873572
184.800625
123.730898
100.115538
99.861622
115.554929
126.020908
135.401487
130.620599
116.669536
97.313523
76.906681
59.852600
45.539737
30.585527
24.420619
20.605922
17.436743
19.745827
19.604564
21.178722
18.605590
19.591451
19.037724
19.217730
19.396544
18.859506
20.158887
17.415881
17.909408
15.486479
16.783476
15.366673
14.698505
13.905764
14.739633
13.769865
13.173819
12.827516
11.140704
11.420846
11.405945
10.633469
10.745525
10.516644
10.159612
9.623766
9.979606
8.824468
9.882450
10.374784
11.494756
12.293458
11.431575
12.689829
12.117624
13.453960
14.145970
13.782978
14.297962
12.992620
14.313459
13.720989
12.447834
12.925863
12.441874
11.539459
11.472702
10.429621
11.172891
11.419654
10.545850
9.935498
10.313988
10.156631
9.810925
10.895729
9.091496
8.983612
##ZVALUE=250
1.480579
1.568794
1.475811
1.672506
1.898408
2.103448
2.169609
11.213422
27.564764
72.682500
137.786865
264.175534
374.578834
522.587895
618.119836
686.773658
685.212612
628.466010
535.886884
372.058749
260.092616
180.388689
112.975836
95.607638
108.722448
124.217868
138.669610
145.991445
143.750906
133.919716
116.059780
91.298819
75.783730
54.514408
44.300556
35.329461
31.632781
28.211474
29.112697
26.709437
26.847720
24.755597
25.579929
25.784969
23.100972
22.690892
21.682978
20.672679
20.328760
18.886924
18.517971
17.043948
15.307665
15.959740
13.992786
13.989806
12.212992
12.255907
11.203885
11.022687
10.987520
10.066628
10.434985
10.235906
10.756850
10.473728
9.111762
10.473728
10.091662
10.326505
11.097789
11.651516
12.131929
11.755824
11.887550
12.207627
12.437701
13.331771
13.152957
11.715889
12.342930
11.710525
11.016726
11.161566
9.924769
9.749532
9.245872
10.031462
10.760427
9.832978
10.018945
9.307861
9.160638
9.827614
9.239912
9.362698
##ZVALUE=255
0.895858
1.167655
1.350641
1.374483
1.302958
1.361966
1.379848
1.710653
1.814961
4.950762
25.501847
54.332614
105.776787
209.281445
327.970982
509.457588
642.165542
780.387521
816.019773
782.115459
684.715509
542.593598
346.307755
221.064687
124.429464
94.763637
96.937418
112.169981
140.763521
156.101584
167.431831
167.355537
158.873796
132.956505
112.498999
87.521672
70.168972
54.738522
46.651959
38.903952
37.968755
34.643412
33.674836
32.396913
30.959845
29.827952
28.224587
25.705695
24.479628
22.510886
20.284653
19.369721
18.269420
18.200874
16.562939
14.894605
14.228821
13.042688
12.864470
12.050867
11.678934
10.740757
9.726882
9.662509
9.838939
9.574890
8.692741
9.214878
9.954572
9.407997
9.498596
9.539723
11.112690
10.390878
11.226535
11.074543
11.144876
10.495782
10.365844
10.739565
10.083914
9.784698
9.588599
9.103417
9.604692
9.174943
8.747578
7.913709
9.462833
8.486509
8.561611
8.307695
7.265806
8.959770
8.598566
7.792711
##ZVALUE=260
1.273751
1.403689
1.380444
1.360774
1.473427
1.629591
1.650453
1.552701
1.633763
1.755953
1.903772
2.792478
8.122921
32.232404
69.471598
165.376663
277.982950
469.542742
631.283522
825.505853
918.474793
920.143723
811.193585
653.561950
441.044569
304.118991
182.244778
124.635696
97.580552
106.200576
127.802491
160.440803
180.094838
195.325613
192.989707
181.261897
161.225796
127.058625
105.241537
80.442429
67.738891
52.602887
47.878623
41.079521
41.168928
37.073493
33.895969
32.085776
31.530857
28.578639
25.579929
23.152828
21.361709
19.328594
18.522739
16.640425
16.066432
14.500618
13.591647
13.464689
12.697577
11.823773
11.402965
10.320544
10.222793
10.001659
9.401441
8.996725
9.430647
9.595752
9.835958
9.809732
9.987950
9.739995
10.177493
9.645820
9.857416
9.885430
9.604692
10.020733
9.292960
9.285808
8.701682
9.204745
8.428693
8.403659
7.980466
8.592606
8.130670
8.330941
7.890463
7.604957
7.482767
7.844567
7.480979
7.892847
##ZVALUE=265
1.064539
1.285672
1.250505
1.167655
1.313686
1.280904
1.470447
1.446605
1.416802
1.807809
1.644492
1.766682
1.872778
2.209544
3.564954
15.339851
40.244460
111.525655
203.545690
411.044955
587.274432
741.114020
935.931802
986.687541
901.618004
780.421495
581.419468
414.958000
239.134431
162.885785
115.689635
111.950636
133.065581
156.959891
188.016891
205.943584
211.042762
203.555822
183.764696
162.554979
131.235719
107.422471
81.401467
67.459941
52.321553
44.137836
39.598942
36.372542
33.398867
30.209422
27.979612
25.016665
24.283528
22.071600
18.301606
18.614531
17.374754
15.921593
15.056729
14.019608
12.656450
11.604428
11.796951
10.631680
9.644628
9.473562
9.468794
9.174943
8.733869
8.757710
8.948445
9.284616
9.697676
9.782910
9.211898
9.716749
9.715557
9.186864
9.531975
8.721948
9.330511
8.113980
7.778406
7.997751
7.358789
7.816553
7.701516
7.578731
6.933808
7.096529
6.598830
7.021427
6.337762
6.682873
7.294416
7.031560
##ZVALUE=270
1.226664
1.083612
1.024604
1.097918
1.355410
1.369715
1.263618
1.303554
1.518726
1.366735
1.319647
1.471639
1.328588
1.445413
1.735687
1.848936
2.227426
7.205606
20.727515
67.842007
143.791437
268.458724
512.346625
714.422464
945.990682
1015.626788
1013.701558
929.026008
720.898509
547.636747
391.958952
228.163004
152.655840
112.069845
116.442442
140.612721
162.842870
188.213587
205.528736
209.732652
198.670626
180.380940
158.541799
124.714971
98.828673
70.031881
55.617690
43.290854
36.317706
30.591488
28.127432
25.011897
23.347735
21.709800
20.550489
18.069744
16.381741
15.977621
14.987588
13.629794
12.317896
11.688471
11.166930
10.417700
10.166764
9.597540
9.534955
8.890629
8.881688
8.694530
8.549690
9.436607
9.291768
9.134412
9.280443
9.263754
8.391738
8.329749
8.285642
7.621646
7.714629
7.452965
7.417798
7.184744
7.132888
7.179976
7.540584
6.829500
6.404519
6.667972
6.599426
6.576777
6.370544
6.437898
6.487966
6.556511
##ZVALUE=275
1.220703
0.933409
1.075864
1.220703
1.051426
1.033545
0.944734
1.145601
1.069903
1.259446
1.270771
1.288652
1.358986
1.587868
1.316667
1.392961
1.617670
1.805425
1.941919
3.476739
12.236834
36.191940
105.146766
207.074881
412.991643
584.214926
801.087022
941.388607
1011.189818
971.560478
866.729617
646.005869
467.157960
268.101692
170.293450
105.226636
90.174675
98.383427
116.961002
146.857500
165.345669
181.461573
184.973478
176.969767
158.560872
128.809810
107.057691
78.046918
59.941411
40.584803
31.144619
23.007989
19.931793
17.495751
16.771555
15.129447
13.843775
12.435913
12.831688
11.684895
11.042953
10.767579
10.506511
9.957552
9.633899
9.110570
8.827448
8.211732
8.687973
8.544922
8.268952
8.582473
8.455515
7.918477
8.380413
8.600950
8.131862
7.690787
7.604957
7.177591
7.507801
7.109642
6.703734
7.052422
6.535649
7.022619
6.609559
6.429553
6.467700
6.282926
6.119609
6.317496
6.058812
5.617738
6.183982
5.903840
##ZVALUE=280
0.891685
1.025796
0.920892
1.001954
1.004934
0.858903
0.971556
0.968575
0.845790
1.004934
1.082420
1.010895
1.154542
1.150966
1.099706
1.147985
1.403689
1.633763
1.453757
1.728535
1.655817
2.170801
7.980466
25.196671
80.733895
154.523849
304.230452
474.005938
720.843673
877.667665
939.012766
1007.849574
907.151699
689.478517
509.741902
291.607976
180.644989
91.650486
61.994791
55.912733
68.533421
93.599558
117.046833
142.945647
157.625675
160.330534
154.034495
136.216879
117.165446
88.299513
67.455769
43.445826
30.629635
18.901825
14.388561
11.338592
10.476708
9.462833
8.924603
8.685589
8.912683
8.565784
8.661747
7.731915
8.160472
7.918477
8.017421
7.980466
7.768869
7.151961
7.288456
7.521510
8.037686
8.121729
8.092523
7.734895
7.393956
7.688999
6.818771
7.100701
6.782413
6.745458
6.715655
6.458759
6.124973
6.016493
5.980730
6.004572
5.720854
5.795956
5.399585
6.035566
5.501509
5.525947
5.637407
5.125999
##ZVALUE=285
0.889897
0.848770
0.714660
1.005530
0.836849
0.841618
0.948906
0.907779
0.888705
0.768900
0.957847
0.931621
1.074672
1.127720
0.966787
1.097918
1.229644
1.079440
1.492500
1.313686
1.278520
1.434684
1.615882
1.851916
3.720522
16.795993
41.041970
107.865930
195.121765
372.369885
541.499853
776.872635
914.747715
985.997915
937.629938
762.789845
592.466593
359.146595
223.595500
107.486844
59.443712
34.427643
37.130713
56.378841
75.677633
102.662444
122.755766
141.257644
145.809650
143.648982
131.106973
108.008981
87.566972
59.554577
41.725636
25.166869
17.222762
10.631680
8.829832
7.470846
6.785989
7.040501
7.237792
7.256866
6.964803
6.759763
6.857514
7.302761
7.545948
7.386804
7.360578
7.091761
7.060766
7.424951
7.629991
7.504821
7.432699
7.285476
6.613731
6.904602
6.754994
6.555915
6.219745
6.590486
6.325841
5.905628
5.705953
5.826950
5.987883
5.649924
5.598664
5.347729
5.350709
5.162954
5.831718
5.142689
##ZVALUE=290
0.954866
0.958443
0.913739
0.932813
1.034737
0.880957
0.751615
0.923872
1.027584
0.904799
1.014471
0.989437
0.876784
1.109838
0.928640
1.116991
1.015663
1.091957
1.220703
1.235604
1.207590
1.462698
1.460910
1.624823
1.746416
1.631975
2.401471
5.640984
25.127530
61.703920
119.968653
263.673663
424.419641
671.843886
836.340785
969.249010
972.093940
831.888914
675.560832
448.491573
296.047926
148.151517
80.957413
35.218000
26.411414
34.323931
48.721433
70.883632
91.851950
117.575526
132.939816
140.853524
137.300491
123.464465
105.515718
77.478886
58.654547
37.114620
26.441813
15.869737
11.243820
8.208752
6.915927
6.739497
6.482601
7.056594
6.861687
7.023811
6.713867
6.859899
7.278919
7.384419
7.383823
7.431507
7.629991
7.446408
7.177591
6.871819
7.110834
6.669760
6.524920
6.400943
6.541610
6.212592
6.179810
5.968809
5.952716
5.702972
5.967617
5.897880
5.872846
5.539656
5.692840
5.261898
5.137920
5.006790
##ZVALUE=295
0.896454
0.972748
0.743866
0.962615
0.845790
0.869632
0.994802
0.904799
0.861883
0.864863
0.907779
0.854731
0.750422
0.998974
0.872612
0.921488
0.948906
1.077652
1.028776
1.238585
1.085997
1.019835
1.181960
1.297593
1.267791
1.428723
1.602769
1.628995
1.851916
3.060699
10.281801
42.688847
97.661614
223.747492
371.829867
612.604618
770.943761
935.409665
969.379544
891.783834
755.329728
536.275506
370.507836
196.329951
108.549595
43.630600
24.307966
21.381974
28.436780
47.176480
63.758492
90.161562
107.439756
127.362609
136.012435
130.851865
119.672418
97.677708
80.041885
54.705739
39.798617
24.426579
16.582608
10.781884
8.350611
7.016659
6.631613
6.608963
6.676912
6.943941
7.074475
6.809831
6.937981
7.284880
7.131696
7.242560
7.089972
6.935596
6.737709
6.599426
6.414652
6.439686
6.216764
5.837679
5.880594
5.993843
5.932450
5.789995
5.670786
5.623698
5.603433
5.264878
5.280972
5.276799
5.429983
4.889965
##ZVALUE=300
0.843406
0.789762
0.938773
0.713468
0.780821
0.799894
0.868440
0.963807
0.887513
0.968575
0.791550
0.917912
0.904799
0.843406
1.095533
0.839829
0.977516
1.117587
1.100898
1.108646
1.097918
1.170635
1.023412
1.060963
1.382828
1.181960
1.402497
1.237988
1.541972
1.471639
1.574755
1.971722
6.844997
22.559762
76.019764
148.227811
311.038494
475.245714
701.441765
840.157866
933.452845
919.809937
790.213943
642.778873
424.621701
278.676748
142.366886
76.567531
29.988885
16.982555
18.602610
25.693774
40.975809
57.658553
81.449747
98.585486
120.305419
127.343535
125.815868
115.764737
97.475648
80.771446
56.727529
41.097999
24.609566
17.037988
10.514855
8.272529
6.821752
6.737709
6.349683
6.507635
6.764531
6.398559
6.958842
6.581545
6.486773
6.468892
6.894469
6.486773
5.891919
6.308556
5.881786
5.818605
5.705953
5.997419
5.608797
5.516410
5.564690
5.815625
5.162954
5.105734
5.216599
5.039573
4.796982
4.963875
##ZVALUE=305
0.754595
0.772476
0.680685
0.764728
0.848770
0.840425
0.647902
0.832677
0.842810
0.789762
0.982881
0.944734
0.865459
0.898838
0.918508
0.873804
1.021624
0.899434
0.982881
0.866652
1.027584
1.036525
1.071692
1.136661
1.176596
1.144409
0.941753
1.350641
1.333952
1.431704
1.432896
1.416802
1.754761
1.694560
3.576875
12.006760
48.952699
106.893778
239.489675
374.777913
583.073497
733.488798
867.372751
894.029737
814.477801
689.919591
496.321917
350.821614
190.714598
105.731487
42.185783
20.889640
12.911558
16.105771
25.496483
36.840439
58.517456
74.950457
96.907616
110.362768
121.025443
121.397972
108.326674
94.723701
72.508454
54.612756
35.735965
24.316907
14.684796
10.253787
7.529855
6.722808
6.341934
6.283522
6.429553
5.917549
6.113648
5.929470
5.988479
5.709529
5.883574
5.979538
5.642772
5.798936
5.815625
5.787611
5.567670
5.618930
5.531907
5.021691
5.258918
4.956722
5.147457
4.938841
4.892945
4.718900
##ZVALUE=310
0.685453
0.747442
0.833869
0.726581
0.694990
0.707507
0.814795
0.700951
0.841618
0.917912
0.840425
0.682473
0.704527
0.762939
0.875592
0.897646
0.964999
0.840425
0.773668
0.808835
0.826716
0.982881
0.952482
0.879765
1.039505
0.984669
1.055598
1.020432
1.083612
1.182556
1.250505
1.226664
1.365542
1.281500
1.385808
1.659989
1.737475
5.967617
20.378828
68.060756
134.369731
276.760459
416.239500
611.425638
740.875602
836.253762
831.623673
736.652613
612.963438
413.171649
277.312398
140.685439
77.349544
28.778911
14.286637
10.577440
14.143586
22.122860
32.832623
50.800443
67.792535
88.081956
101.983547
112.075806
112.850666
104.274750
91.473460
71.726441
54.207444
34.557581
24.445653
14.985800
10.680556
7.350445
6.506443
5.815625
5.842447
5.495548
5.364418
5.245805
5.294681
5.527735
5.270839
5.028844
5.043745
5.002618
5.057454
4.995465
5.203485
4.992485
5.110502
4.941821
4.804730
4.782677
4.690886
4.600883
##ZVALUE=315
0.598431
0.665784
0.789762
0.761747
0.741482
0.774860
0.772476
0.809431
0.764728
0.834465
0.788569
0.722408
0.715852
0.786781
0.824928
0.757575
0.912547
0.890493
0.859499
0.881553
0.940561
0.958443
0.861883
0.923872
0.913739
0.873804
0.935793
0.968575
0.899434
0.947714
1.115799
1.028776
1.052618
1.262426
1.400709
1.407862
1.518726
1.669526
1.853704
2.973676
9.891987
40.950775
88.324547
200.691819
325.243473
525.793433
658.290982
782.629848
822.103620
770.701766
666.948557
487.205982
348.724723
187.074542
103.775859
39.706826
18.385649
9.963512
9.306669
13.601780
18.463731
31.887889
43.738484
63.478947
79.689622
98.069906
105.375648
106.475949
99.692941
83.152652
70.138574
50.170422
35.934448
21.670461
14.677644
9.150505
7.089972
5.775690
5.596876
5.241632
5.258918
4.992485
4.976988
4.764795
4.908442
5.019903
4.880428
5.268455
4.879832
5.238652
4.680753
4.829764
4.743934
4.425645
4.418492
4.651546
##ZVALUE=320
0.734925
0.749826
0.592470
0.736713
0.808835
0.558496
0.653863
0.632405
0.652671
0.641942
0.818968
0.740886
0.918508
0.839829
0.788569
0.881553
0.700951
0.985861
0.844598
0.718832
0.726581
0.831485
0.631809
0.759959
0.790954
0.902414
0.817776
0.900626
0.891685
0.983477
1.183748
1.072884
0.895858
0.977516
1.101494
1.149774
1.304746
1.328588
1.269579
1.377463
1.489520
1.710653
4.293919
20.160675
51.828623
135.797858
229.840875
393.415689
536.524653
707.502961
785.685778
795.367956
726.850629
568.156838
420.430899
240.547657
141.037703
61.380863
29.415488
10.927916
8.050799
8.770823
10.963678
17.978549
25.691986
42.032599
56.592822
75.975657
88.571906
99.343657
100.452900
94.240904
82.706809
63.496828
50.098896
31.991601
22.027493
13.817549
9.439588
6.571412
5.583763
5.101562
4.860759
4.798770
4.911423
4.819632
4.786849
4.498959
4.517436
4.569888
4.594922
4.661679
4.567504
4.304647
4.324913
4.565716
##ZVALUE=325
0.733733
0.674725
0.613928
0.672936
0.736713
0.656843
0.600815
0.712872
0.657439
0.784993
0.860691
0.809431
0.829697
0.665784
0.621676
0.795722
0.806451
0.766516
0.708699
0.807643
0.659823
0.677705
0.838637
0.937581
0.688434
0.712872
0.774860
0.865459
0.820756
0.747442
0.975728
0.899434
1.038909
1.131892
0.986457
0.924468
0.981688
1.124740
1.274943
1.266599
1.257658
1.378655
1.363754
1.596808
2.827644
10.064840
37.661791
82.389712
188.667774
303.091407
483.453870
619.741678
755.701661
793.859959
743.224621
637.036562
446.934700
314.030647
172.105432
96.459985
36.783814
17.132759
7.997751
7.099509
8.048415
10.371804
16.285777
23.896694
40.880442
54.480433
73.680878
84.314942
93.023777
93.746781
86.180568
76.356530
59.407949
46.335459
29.585958
20.509958
11.957884
8.930564
6.389618
5.386472
4.953742
4.717708
4.487634
4.547834
4.646778
4.506707
4.341602
4.629493
4.148483
4.284978
4.149675
4.288554
##ZVALUE=330
0.523925
0.463724
0.764728
0.682473
0.657439
0.623465
0.796914
0.688434
0.642538
0.704527
0.647902
0.785589
0.597835
0.707507
0.697970
0.807643
0.638962
0.561476
0.691414
0.708699
0.629425
0.700951
0.685453
0.781417
0.832677
0.831485
0.818968
0.720620
0.810623
0.728965
0.776649
0.711679
0.777841
1.010895
1.030564
0.878572
0.949502
0.956655
1.019835
1.124740
1.184940
1.077652
1.268983
1.301765
1.379848
1.375675
1.529455
5.866885
17.861724
60.530901
118.187666
244.708657
371.164680
556.480885
678.123832
773.262978
764.586926
661.381483
539.598465
352.421999
231.908560
111.045837
57.229996
21.426678
10.341406
6.473660
6.352663
7.382631
9.674430
15.910864
23.266673
37.062764
49.670935
67.603588
78.989863
87.147951
87.685585
81.041455
70.784688
54.946542
42.447448
27.773976
19.873977
12.335777
9.103417
6.416440
5.684495
4.940629
4.620552
4.567504
4.391670
4.155636
4.053712
4.213452
3.998876
3.962517
##ZVALUE=335
0.715852
0.670552
0.554919
0.711679
0.399947
0.561476
0.537634
0.483990
0.629425
0.699759
0.718832
0.532866
0.656843
0.669956
0.759959
0.755787
0.850558
0.712872
0.712872
0.662804
0.594854
0.624657
0.664592
0.692606
0.813603
0.703931
0.817776
0.932813
0.869632
0.808835
0.831485
0.864863
0.860691
0.876784
0.768900
1.016855
1.003742
1.051426
1.036525
0.948906
0.943542
0.905991
0.906587
0.946522
1.270771
1.037717
1.206994
1.406670
1.278520
2.993941
9.347796
37.186742
79.540610
179.554820
296.623707
483.576655
614.487529
730.654597
756.442547
693.444014
589.981675
412.406921
285.723805
150.697827
80.778599
29.308796
12.917519
7.052422
5.890727
6.189942
6.953478
9.628534
14.050603
23.684502
33.365488
49.424767
62.005520
74.953437
79.963803
80.354810
75.750947
63.644648
52.799582
40.425658
29.966831
19.691586
13.548732
8.546710
6.632805
5.172491
4.558563
4.204512
3.976822
4.099607
3.961921
4.058480
##ZVALUE=340
0.595450
0.594854
0.587702
0.588894
0.637770
0.739694
0.714660
0.661612
0.611544
0.607967
0.666976
0.470877
0.698566
0.660419
0.656843
0.678897
0.795722
0.565648
0.682473
0.702739
0.573993
0.723600
0.700951
0.693798
0.810623
0.808835
0.699759
0.658631
0.755787
0.891685
0.692606
0.836849
0.807643
0.790954
0.818968
0.761747
0.940561
0.840425
0.884533
0.977516
0.891685
1.002550
0.947714
0.976920
0.835657
0.989437
1.103878
1.145601
1.363754
1.191497
1.333952
1.870990
4.601479
22.318959
55.283904
139.579773
240.506530
401.911736
532.330871
680.968761
735.339522
709.259510
629.336834
472.228527
338.002443
179.309845
100.855827
41.611791
18.160939
7.496476
6.182790
5.840659
5.871654
6.871819
9.216666
14.788508
21.407604
33.318996
44.587851
60.426593
69.341660
76.891780
75.939894
71.256757
63.712597
50.122738
39.740801
26.857853
20.295978
13.097525
9.330511
6.171465
5.157590
4.573464
4.254580
4.132986
##ZVALUE=345
0.779629
0.805855
0.693798
0.773668
0.750422
0.704527
0.812411
0.758767
0.878572
0.919700
0.802875
0.852942
0.841618
0.864863
0.775456
0.742674
0.729561
0.713468
0.636578
0.770688
0.666976
0.815988
0.785589
0.892878
0.890493
0.743866
0.725985
0.804663
0.840425
0.887513
0.779629
0.853539
0.782609
0.970960
0.874996
0.969768
0.892878
0.956655
0.961423
1.032948
0.844598
0.919700
1.000762
0.943542
1.077652
0.973940
0.965595
1.230836
1.167655
1.138449
1.315475
1.301765
1.412630
1.511574
2.476573
12.657642
34.829974
92.281699
167.107582
315.111876
441.368818
605.725050
690.371990
715.963840
666.761994
523.064733
394.990444
238.909721
137.487650
55.554509
26.250482
9.849668
6.611943
5.856752
5.607605
5.657673
6.254911
8.533597
12.223721
20.378828
29.414892
42.694807
53.007603
62.862635
68.496466
70.428848
68.085790
59.655905
50.589442
38.580894
29.032826
18.544793
13.380647
8.350611
6.185770
4.971623
##ZVALUE=350
0.743866
0.482798
0.700951
0.822544
0.727773
0.661612
0.676513
0.662804
0.691414
0.599623
0.568628
0.525713
0.532866
0.638962
0.527501
0.525713
0.733733
0.592470
0.551939
0.685453
0.824928
0.512600
0.677705
0.752807
0.740886
0.765920
0.626445
0.627637
0.657439
0.702739
0.818968
0.765920
0.692606
0.724792
0.799894
0.679493
0.850558
0.775456
0.871420
0.674725
0.716448
0.827909
0.796914
0.826716
0.759959
0.932813
0.969768
0.814795
0.911951
1.047850
0.972748
1.180768
1.166463
1.264811
1.252890
1.300573
1.719594
6.521940
19.842982
61.201453
118.269920
243.304968
361.608863
518.209934
627.637506
697.996020
676.648021
569.546819
445.421934
272.563696
169.845819
80.235600
37.826896
12.272000
6.773472
5.222559
5.251765
4.928708
5.136728
5.815625
7.543564
12.157559
17.259717
25.841594
34.467578
46.834946
55.106878
62.341690
64.015985
62.176585
57.027936
45.866966
37.136674
25.908947
19.245744
12.551546
##ZVALUE=355
0.805855
0.909567
0.701547
0.795722
0.759959
0.821948
0.822544
0.858903
0.868440
0.873804
0.772476
0.829697
0.803471
0.901818
0.942945
0.788569
0.753999
0.857711
0.798702
0.802875
0.803471
0.815988
0.915527
0.765920
0.875592
0.902414
0.738502
0.901818
0.817776
0.829697
0.913739
0.995994
0.900626
0.879765
0.880957
0.896454
0.894666
0.904799
0.950694
0.846982
0.979900
0.994802
1.027584
0.932813
1.008511
1.019835
1.061559
1.053810
0.945926
1.064539
1.075864
1.137853
1.186728
1.289845
1.250505
1.242757
1.322627
1.380444
1.677871
2.620816
12.299418
33.278465
89.573860
162.156820
305.947661
429.292917
580.121875
653.013587
666.480660
600.771904
456.113815
337.738991
195.677876
110.560656
44.143796
19.681454
7.536411
5.771518
5.136728
4.977584
4.756451
4.851818
5.521774
6.634593
10.104775
14.405847
22.369623
29.942989
41.073561
48.724413
55.991411
59.019923
56.907535
51.866770
42.806864
35.510659
##ZVALUE=360
0.574589
0.502467
0.675917
0.604987
0.562668
0.677705
0.560880
0.611544
0.482798
0.519753
0.663996
0.616908
0.558496
0.638962
0.517964
0.662804
0.613928
0.698566
0.793934
0.682473
0.653863
0.607967
0.519753
0.672936
0.697970
0.567436
0.655651
0.803471
0.893474
0.835657
0.787973
0.856519
0.543594
0.803471
0.847578
0.734925
0.758767
0.689626
0.886917
0.863671
0.814795
0.842810
0.734925
0.905991
0.840425
0.788569
0.837445
0.886917
0.844598
0.933409
0.893474
1.012683
0.874996
0.985861
1.001954
1.044869
1.027584
1.233816
1.214743
1.120567
1.256466
1.865625
5.018711
21.302700
50.358772
120.512843
207.708478
355.168581
480.508804
609.782934
649.199486
614.023805
527.310967
367.291570
252.478719
135.456920
71.776509
24.467707
10.846853
5.647540
5.015731
4.616976
4.524589
4.311800
4.415512
4.664660
5.500913
7.948875
11.462569
17.731786
24.358630
34.333467
42.103529
49.816966
52.821636
52.076578
##ZVALUE=365
0.468493
0.604987
0.443459
0.594854
0.654459
0.490546
0.618696
0.656843
0.545979
0.656843
0.551939
0.523925
0.569820
0.723600
0.614524
0.659823
0.792742
0.731945
0.701547
0.601411
0.569820
0.573993
0.660419
0.667572
0.703931
0.614524
0.610948
0.780821
0.893474
0.656843
0.938773
0.762939
0.837445
0.812411
0.696778
0.885725
0.664592
0.702739
0.657439
0.749826
0.575781
0.618696
0.925660
0.798702
0.776649
0.806451
0.776649
0.797510
0.918508
0.825524
0.894666
0.787973
0.937581
0.828505
0.934601
0.987649
1.021624
1.016855
1.120567
1.110435
1.214743
1.354814
1.339912
1.602769
2.489686
11.599660
31.518936
84.171891
155.859590
298.093557
411.105752
543.613434
613.635778
617.710948
557.727814
417.597890
302.194953
170.138478
95.662475
36.830902
16.038418
6.085634
4.857779
4.576445
4.593730
4.153848
4.040599
3.861785
4.029870
4.840493
6.310940
10.056496
14.361739
21.365881
28.091669
36.876798
##ZVALUE=370
0.695586
0.589490
0.618696
0.593662
0.616908
0.571609
0.581741
0.708699
0.563860
0.624657
0.763535
0.557899
0.633597
0.607967
0.627637
0.657439
0.525713
0.618696
0.546575
0.691414
0.617504
0.584722
0.593662
0.666976
0.605583
0.660419
0.843406
0.715852
0.728965
0.748634
0.655651
0.623465
0.712872
0.536442
0.735521
0.694990
0.626445
0.845790
0.829697
0.677705
0.816584
0.767708
0.699759
0.821948
0.874996
0.775456
0.907779
0.781417
0.936985
0.783801
0.880957
0.809431
0.922680
0.876784
0.787973
0.821948
0.927448
0.883937
0.812411
1.032948
0.955462
1.031756
1.002550
1.149774
1.302958
1.269579
1.838803
5.027652
24.002790
58.089495
138.460994
222.868919
366.839767
480.307937
592.746735
623.674989
574.854016
483.270884
329.333544
218.303800
104.241967
54.984689
21.649599
9.551644
4.852414
4.333854
4.010797
3.998876
3.653765
3.376603
3.453493
3.391504
4.351735
5.552769
8.642673
12.238622
##ZVALUE=375
0.594854
0.645518
0.760555
0.801682
0.597835
0.809431
0.673532
0.706911
0.566840
0.574589
0.520945
0.554919
0.778437
0.685453
0.704527
0.699759
0.687838
0.564456
0.585914
0.588894
0.737906
0.564456
0.768900
0.760555
0.662804
0.655651
0.587702
0.723600
0.756979
0.687838
0.629425
0.694990
0.736713
0.727773
0.810623
0.641942
0.879765
0.738502
0.823736
0.883937
0.749826
0.655651
0.808835
0.618696
0.605583
0.862479
0.861883
0.846982
0.887513
0.670552
0.669956
0.880957
0.714660
0.720620
0.852942
0.832677
0.830889
0.779629
0.935793
1.045465
0.807643
0.977516
0.998974
0.932813
0.953674
1.146793
1.020432
1.190901
1.496673
2.831817
13.687611
34.887791
89.372993
162.119865
297.399759
410.115719
545.237660
605.649948
597.806573
528.675914
386.687517
277.990699
158.474445
91.838837
36.664605
16.565919
5.855560
4.328489
3.735423
3.619790
3.470778
3.277659
3.303885
3.292561
3.261566
3.448725
##ZVALUE=380
0.595450
0.603795
0.648499
0.702739
0.543594
0.559688
0.756979
0.592470
0.596642
0.583529
0.593662
0.536442
0.585914
0.717640
0.598431
0.829697
0.646710
0.667572
0.641942
0.616908
0.587702
0.746846
0.599623
0.745654
0.580549
0.648499
0.683665
0.707507
0.742674
0.578761
1.008511
0.825524
0.810623
0.845790
0.635982
0.875592
0.697970
0.734925
0.950694
0.787973
0.658631
0.729561
0.843406
0.742674
0.831485
0.788569
0.832677
0.826716
0.768900
0.607967
0.762939
0.816584
0.753999
0.689626
0.666976
0.766516
0.957847
0.703931
0.817776
0.774860
0.823736
0.838637
0.816584
0.923872
0.876784
0.956655
1.048446
1.112819
0.932813
1.209974
1.248717
2.180934
5.789995
26.374459
60.389638
143.277645
233.709812
375.117660
488.289595
592.762828
609.232783
542.816520
454.789996
323.287845
220.410824
111.418962
58.639646
21.255612
9.176731
4.309416
3.756881
3.428459
3.292561
3.148913
2.997518
3.037453
##ZVALUE=385
0.595450
0.627637
0.682473
0.652671
0.625849
0.589490
0.538826
0.668764
0.532866
0.727773
0.629425
0.544786
0.680685
0.603795
0.678897
0.553727
0.572801
0.602603
0.682473
0.561476
0.467896
0.561476
0.538826
0.754595
0.686646
0.578761
0.562668
0.681877
0.562668
0.626445
0.658631
0.680685
0.657439
0.643730
0.646710
0.596642
0.640750
0.646710
0.772476
0.551939
0.746846
0.686646
0.748634
0.677705
0.747442
0.616908
0.531673
0.723600
0.682473
0.628829
0.699759
0.661612
0.644922
0.755787
0.686646
0.748634
0.762939
0.783801
0.888705
0.726581
0.921488
0.721812
0.700951
0.803471
0.747442
0.892878
0.837445
0.993609
0.947714
1.219511
1.038909
1.262426
1.422763
1.425743
2.957582
14.930964
38.055778
96.996427
174.039602
315.580964
428.506732
549.635887
592.906475
577.882528
515.216589
386.216640
279.044509
154.548883
88.593960
37.073493
15.888810
5.200505
3.658533
3.445745
3.241897
3.060699
##ZVALUE=390
0.787973
0.676513
0.647902
0.632405
0.757575
0.714660
0.846982
0.822544
0.602603
0.820756
0.754595
0.729561
0.794530
0.779629
0.799894
0.691414
0.767708
0.623465
0.835657
0.829697
0.874996
0.817776
0.828505
0.700951
0.849962
0.831485
0.710487
0.837445
0.869632
0.817776
0.904799
0.956655
0.863671
0.885725
0.913739
1.014471
0.960827
1.086593
0.913739
0.954866
0.801682
0.799894
0.852942
0.856519
0.871420
0.965595
0.831485
0.850558
1.034737
0.810623
0.850558
0.850558
0.715852
0.773668
0.853539
0.763535
0.851750
0.949502
0.942945
0.920892
0.750422
1.051426
0.898838
1.051426
0.973940
0.985861
1.084805
1.018643
1.144409
1.090765
1.166463
1.273751
1.236796
1.416802
1.423955
1.475811
1.933575
7.797480
23.686886
72.610974
138.107538
264.662504
367.363691
491.756797
563.799739
594.870448
558.481812
447.433591
345.581770
213.473439
126.416683
53.038597
24.633408
7.597804
4.084706
3.436804
##ZVALUE=395
0.554919
0.588894
0.609756
0.480413
0.528693
0.670552
0.629425
0.695586
0.528693
0.518560
0.652671
0.634789
0.644922
0.666976
0.613928
0.569820
0.639558
0.461936
0.545979
0.654459
0.581741
0.481606
0.584722
0.556707
0.589490
0.525713
0.551939
0.646710
0.635982
0.742674
0.710487
0.842810
0.882745
0.812411
0.741482
0.734925
0.689626
0.622869
0.581741
0.818968
0.767708
0.773668
0.659823
0.775456
0.910759
0.816584
0.814795
0.765920
0.893474
0.817776
0.707507
0.640750
0.766516
0.608563
0.661612
0.542998
0.706911
0.647902
0.860691
0.617504
0.633597
0.689626
0.676513
0.850558
0.722408
0.770688
0.754595
0.923872
0.905991
0.896454
0.894666
0.892878
0.927448
0.959635
0.978708
1.124740
1.042485
1.264811
1.362562
4.462600
15.300512
52.321553
99.440813
192.226768
289.796591
436.179638
531.704426
598.539710
595.851541
515.046716
410.575867
258.445740
162.517428
71.888566
35.195947
12.081861
##ZVALUE=400
0.420809
0.564456
0.472665
0.382662
0.594854
0.614524
0.564456
0.595450
0.536442
0.580549
0.487566
0.543594
0.523925
0.490546
0.482798
0.677705
0.552535
0.555515
0.650883
0.658631
0.616908
0.616908
0.641942
0.614524
0.628829
0.750422
0.549555
0.436902
0.665784
0.723600
0.755787
0.810623
0.795722
0.819564
0.866652
0.821948
0.860691
0.695586
0.806451
0.654459
0.894666
0.775456
0.842810
0.897646
0.809431
0.741482
0.748634
0.820756
0.763535
0.688434
0.566840
0.627637
0.702739
0.736713
0.697970
0.702739
0.809431
0.576973
0.664592
0.733733
0.637770
0.673532
0.772476
0.806451
0.793934
0.927448
0.864863
0.705719
0.910759
0.910759
0.952482
0.906587
0.886917
1.060963
0.996590
0.959635
1.024604
0.965595
1.017451
1.119971
1.180768
2.624989
8.396506
29.654503
64.752698
146.406889
238.218904
378.179550
477.761626
569.681525
591.098666
531.199574
446.213484
310.893655
208.156705
107.795596
##END
