##TITLE=FKDZ0151
##FORMAT=SPECTACLE-ASCII V-1.2
##DATA TYPE=ULTRAVIOLET SPECTRUM
##SECOND TYPE=ULTRAVIOLET SPECTRUM
##DATE=01/21/18
##TIME=13:45:27
##SPECTROMETER/DATA SYSTEM=SPECTACLE
##XUNITS=NM EM
##YUNITS=ENERGY
##YFACTOR=1
##FIRSTX=220
##LASTX=410
##NPOINTS=96
##3DDATA=Equidistant
##ZUNITS=NM EX
##FIRSTZ=210
##LASTZ=400
##ZPOINTS=39
##XYDATA=(Y..Y)
##ZVALUE=210
2.385974
2.522469
2.764463
2.779961
2.080798
2.237558
2.938509
2.886653
2.831817
2.817512
2.272725
2.248883
2.377629
2.413988
2.180934
2.247691
2.522469
2.423525
2.437830
2.989769
2.946854
3.132820
3.540516
3.093481
3.114939
3.578663
3.684759
4.448891
5.028844
4.466772
4.851818
5.497932
5.629659
5.540848
5.859733
5.488992
5.637407
5.587935
7.383823
5.413890
5.584955
4.850626
5.517602
4.547834
4.809499
4.786849
4.527569
4.182458
4.971623
4.646778
5.300641
4.581809
4.781485
4.020929
4.292727
4.663467
4.749894
4.350543
4.177690
4.558563
3.996491
4.491806
4.106760
4.069805
4.252791
4.620552
4.564524
4.397631
5.234480
6.485581
6.644726
8.034706
8.113980
10.122657
11.629462
11.880994
11.584759
12.126565
12.041926
10.510683
9.756684
8.284450
7.559657
6.057620
5.587935
4.797578
4.662871
4.557967
3.605485
3.918409
3.643632
3.684759
3.706813
3.917813
5.092621
4.761815
##ZVALUE=215
6.062984
7.072687
6.520748
5.269647
4.728436
4.759431
4.600883
4.714727
5.374551
5.524755
5.111694
3.385544
3.891587
3.491640
3.089905
2.808571
3.014803
3.352761
2.577901
2.630949
3.081560
3.310442
3.809929
3.591776
4.086494
5.116463
5.134940
4.859567
5.708933
6.460547
6.219745
7.620454
8.081794
9.853840
9.043813
8.633733
8.351803
8.558631
8.216500
8.089542
7.920861
7.022619
7.424951
7.099509
6.566644
7.371902
7.168651
5.869865
7.590652
6.308556
6.201863
5.332828
6.221533
6.027818
5.722642
5.710721
6.001592
5.891919
5.114675
5.842447
5.571842
5.459785
5.590916
4.928708
5.019903
5.705953
5.162954
6.389618
6.280541
7.889867
8.157492
8.784533
10.088682
11.505485
11.604428
13.690591
14.236569
13.752580
13.900995
14.120936
11.868477
11.191964
10.960698
8.798838
8.852482
6.370544
6.197691
4.963875
5.294681
4.921556
4.270673
4.429817
4.182458
5.180836
4.828572
4.546642
##ZVALUE=220
19.218922
20.629764
21.565557
24.685860
22.206903
18.305779
13.845563
12.144446
10.813475
11.058450
12.174845
12.225509
10.277629
11.970997
9.570718
7.420778
6.017685
4.743934
4.343987
4.069805
3.493428
3.531575
4.162788
4.324913
4.981756
4.909635
6.114841
7.392764
8.157492
9.401441
10.130405
11.000633
11.180639
13.192892
12.599826
13.568997
13.301969
13.311505
12.358427
12.769699
13.255477
11.895895
10.607839
10.295510
9.402633
9.011626
10.386705
8.396506
8.490682
10.057688
8.913875
7.551908
8.010864
7.022619
8.200407
7.176995
7.869601
6.637573
6.955862
6.839633
6.436706
6.271601
5.933642
6.800890
6.430745
6.446838
6.186962
7.877946
6.933808
10.694861
9.868741
11.862516
12.813807
14.828444
15.592575
17.611980
17.900467
18.266439
19.519925
17.081499
18.277764
14.832616
15.201569
11.586547
10.453463
8.657575
6.936789
6.599426
6.108880
6.619692
6.016493
6.368756
4.604459
5.536675
5.634427
5.906820
##ZVALUE=225
37.606955
39.745569
53.367615
64.407587
74.413419
74.913502
66.828728
58.985949
41.368604
28.390884
24.315715
24.256706
24.987459
26.649833
28.427839
22.467971
21.482706
16.515851
11.865497
8.154511
6.632805
5.502701
5.240440
5.153418
5.104542
6.793737
8.336902
9.057522
10.634661
12.056828
11.976957
12.998581
15.668869
15.759468
16.328692
18.100739
16.101599
14.771819
17.884970
16.337633
14.403462
14.899969
14.394522
12.921691
11.780858
11.187792
11.784434
10.805726
10.637641
10.135770
9.709597
9.584427
9.705424
8.782744
9.576678
7.924438
8.430481
8.041859
8.739829
7.931590
8.812547
7.777810
8.266568
7.613897
8.148551
7.484555
7.317662
7.841587
7.609725
8.481741
9.197593
9.893775
11.000633
11.493564
12.263656
11.801720
11.663437
12.763739
12.046695
11.127591
9.984970
9.970665
9.084940
7.598996
6.786585
5.843639
6.248951
6.347895
6.255507
5.711913
5.745888
6.516576
5.452633
5.520582
5.353689
5.519986
##ZVALUE=230
32.221675
37.597418
61.048865
103.169680
135.626793
174.548626
185.043812
187.561512
169.792771
142.052770
97.705722
68.788528
50.068498
45.385957
46.542883
48.679709
51.317811
48.937798
46.703815
36.778450
26.795864
16.045570
12.598634
8.599758
6.310940
5.771518
7.499456
7.454753
8.868575
10.554790
12.568831
13.082623
14.041662
14.998913
16.096830
14.453530
14.889836
14.583468
15.125871
13.940930
12.786984
13.303757
11.725426
11.338592
12.264848
10.882616
11.550784
10.993481
9.447932
9.935498
10.496974
9.002686
8.089542
8.965731
10.135770
8.478761
8.481741
9.675622
9.009838
9.091496
8.848906
8.065701
8.254647
8.931756
8.086562
8.809566
8.730888
8.293986
8.399487
8.902550
10.437965
11.350513
12.669563
13.137460
12.802482
13.716817
14.194846
14.737844
13.190508
12.351871
12.641549
10.146499
10.584593
9.604692
8.947849
7.628798
7.751584
7.106662
7.859468
7.526875
7.394552
7.941723
6.554723
6.724596
6.913543
7.116795
##ZVALUE=235
11.088848
13.452768
32.182932
65.100789
108.871460
183.662772
249.500871
318.260789
353.405476
344.598889
314.013958
240.923762
186.174512
122.105479
93.845725
72.569847
73.424578
80.408454
86.078644
86.182952
82.919598
70.803761
51.314831
39.918423
24.074912
19.353628
10.611415
9.026527
8.452535
8.952618
10.189414
10.306835
10.274649
11.682510
11.891723
12.437701
11.848807
11.552572
11.574626
11.311769
11.135936
11.326671
11.462569
11.178851
10.299683
10.594726
10.566711
9.974837
9.308457
8.958578
10.266900
8.917451
10.235906
9.300709
8.570552
8.888841
8.938909
9.242892
7.886887
10.106564
9.315610
10.114908
9.952784
10.531545
10.419488
9.350777
9.258986
9.726882
10.166764
11.776686
11.683702
11.962652
14.546514
14.962554
15.199780
16.995668
15.410781
16.683936
15.521646
15.429854
13.234615
11.740923
12.145638
10.953546
9.406805
10.399818
8.976460
8.610487
8.610487
8.976460
8.727908
8.911490
8.806586
8.323789
8.807778
9.020567
##ZVALUE=240
2.189875
2.273917
4.105568
16.513467
37.825704
92.512965
155.721903
264.061689
365.896821
474.474430
530.860424
529.278517
497.136712
394.791961
312.076807
228.667855
147.396922
115.609765
97.280741
103.812814
111.551881
120.016932
114.013553
106.279850
84.903836
63.184500
49.851537
31.153560
22.876859
14.917850
11.587739
9.906888
10.382533
10.693669
10.385513
11.286736
11.168718
11.965632
11.682510
10.368824
11.023879
10.224581
10.826588
10.761619
10.846853
11.001825
10.816455
9.476542
9.713769
9.907484
9.839535
9.902716
9.287000
9.336472
10.138750
9.904504
10.262728
9.335876
9.500980
9.753704
8.632541
10.054708
9.103417
10.312796
10.137558
10.428429
10.776520
10.390878
10.426641
11.013746
11.063814
13.582706
13.315678
13.945699
13.910532
15.793443
14.641881
14.637709
13.534427
15.216470
13.665557
12.945533
11.653900
11.473894
10.204911
10.080934
10.178685
10.539889
11.271834
9.984970
11.784434
10.205507
9.310842
8.664727
9.650588
9.545684
##ZVALUE=245
1.715422
1.629591
1.902580
1.681447
4.535913
10.612607
39.503574
77.793598
177.552700
269.154906
420.237780
517.315865
611.585975
673.937798
671.511889
584.362745
486.122966
346.191525
242.761970
160.316825
115.277767
104.817748
113.864541
131.056905
138.452649
129.966736
115.352869
94.946623
72.664618
55.766702
41.786432
25.132895
19.401908
14.249682
12.274981
12.805462
11.046529
12.579560
11.145473
11.105537
11.932850
11.533499
11.079907
11.405945
10.715723
11.375546
11.026859
10.214448
10.971427
10.265708
9.565949
9.699464
9.573698
8.907914
10.011792
9.021759
9.214878
8.879900
8.984804
8.407831
8.698702
9.025931
9.047985
9.013414
8.664727
8.630753
8.890629
10.591745
10.669827
9.999871
11.576414
13.464689
13.319850
13.331771
14.023781
13.136864
13.069510
13.518929
12.557507
12.650490
11.615753
11.446476
12.491941
10.353923
11.121631
11.481643
10.483861
9.264946
10.622740
9.258986
9.519458
8.815527
10.430813
9.560585
9.295940
8.425713
##ZVALUE=250
1.681447
1.416802
1.697540
1.634955
1.878738
2.062917
2.699494
6.372929
22.741556
50.937533
124.823451
216.692686
341.966748
519.590974
658.643842
804.146528
832.684636
794.170499
706.854463
500.948429
351.531506
221.911669
129.385591
101.199746
108.313560
124.574900
139.199495
139.918923
137.452483
130.096674
110.014677
83.725452
63.496828
41.883588
29.616952
21.479726
16.841888
14.806986
15.112758
14.326572
14.238954
13.703704
14.251471
13.280511
13.427734
12.218952
12.280941
11.596680
10.951757
11.280775
9.940863
9.249449
9.638667
9.455681
9.760857
9.019971
8.756518
8.744597
8.644462
8.244514
8.350611
7.903576
8.446574
7.409453
8.049607
8.318424
8.151531
8.907914
8.719563
8.910894
9.568930
10.436773
10.463595
11.648536
11.915565
12.044907
12.718439
11.595488
11.483431
11.064410
10.335445
10.428429
9.613633
10.544658
10.077953
8.839965
9.306669
9.461641
9.799600
8.778572
8.426905
8.655787
8.872747
8.434653
8.656979
9.513497
##ZVALUE=255
1.444817
1.371503
1.546741
1.546741
1.727939
1.597404
1.521707
1.906753
1.774430
3.435612
11.872649
33.730865
91.763735
167.142749
316.959620
495.710969
752.656460
901.888013
998.498797
1001.834869
903.439522
672.217011
479.303598
269.432664
158.179998
97.824931
93.056560
110.147595
128.603578
151.674747
153.864622
154.682994
140.120983
111.876726
93.986988
64.814687
49.505830
32.325983
24.453998
18.912554
16.217828
17.761588
15.456676
15.883446
15.185475
15.151501
14.372468
12.904406
12.896657
11.935830
11.375546
10.426641
10.747910
10.157824
9.531975
8.868575
8.826852
7.918477
8.018613
8.097887
7.995963
7.543564
7.336736
7.671714
7.791519
7.960796
7.938743
7.796884
7.290840
8.478761
8.589625
9.363890
10.108948
10.729432
9.969473
9.548664
9.815693
10.282993
8.927584
8.942485
9.190440
8.676648
8.122921
8.556843
8.766651
8.119941
7.592440
7.647872
8.084774
8.435845
7.513762
8.188486
8.562803
7.950664
8.148551
8.416772
##ZVALUE=260
1.454949
1.359582
1.479983
1.503825
1.436472
1.479983
1.551509
1.824498
1.504421
1.576543
1.938939
3.039837
6.554723
25.726557
55.298805
136.299729
241.277814
437.896848
622.378588
872.297883
999.541879
1015.681028
952.147841
782.489777
513.908863
350.862741
190.700889
119.706988
85.704923
90.903640
116.549730
137.539506
156.554580
169.319510
165.863633
147.204995
128.015876
96.500516
75.434446
50.880909
36.613941
25.394559
21.600723
18.618703
17.181635
15.723705
15.292764
15.278459
14.901757
12.959838
13.245940
11.196733
11.368990
10.451674
10.076761
9.331703
8.420944
8.801818
8.226633
8.305907
7.522702
7.446408
7.189512
7.177591
7.229447
6.219745
6.690621
7.019639
7.318854
7.253885
7.266998
7.955432
8.621812
9.120703
9.427667
8.441806
8.917451
8.932948
8.881688
8.297563
7.804632
8.242726
7.887483
7.876754
7.682443
7.497668
7.378459
7.237792
7.672906
7.754564
6.616712
6.884933
7.077456
7.460713
7.228851
7.344484
##ZVALUE=265
1.042485
1.163483
1.251698
1.378655
1.180768
1.443624
1.409650
1.293421
1.274943
1.246929
1.535416
1.638532
1.685619
1.943707
3.258586
15.195608
37.551522
100.187659
183.831453
350.790620
508.501530
662.127733
818.488002
854.488015
794.166923
681.243539
512.713790
363.750458
213.069916
135.352612
93.842745
80.272555
95.970631
124.878883
148.894787
168.863535
171.453953
166.662931
150.424838
122.272968
99.751949
70.435405
51.674843
35.262704
26.008487
19.347668
16.896725
15.736818
15.063882
13.685822
13.050437
11.360645
10.671616
9.951591
9.617805
9.742975
8.571744
8.380413
8.043647
7.227659
7.105470
6.864667
6.527901
6.781816
6.287694
6.509423
6.283522
6.447434
6.121993
6.536841
6.709695
7.265806
6.910563
7.053614
7.730722
7.521510
7.510781
7.525682
7.016659
6.506443
6.727576
6.714463
6.534457
6.487966
7.152557
6.427765
6.316900
6.208420
6.341934
6.459951
6.211996
5.715489
6.221533
6.539822
6.184578
5.852580
##ZVALUE=270
1.062751
0.911951
1.092553
1.048446
1.104474
0.985861
1.219511
1.130700
1.083612
1.143813
1.345873
1.255870
1.407862
1.724958
1.415610
1.756549
2.110600
7.128716
20.725727
68.011880
140.304565
248.516798
456.377864
630.064011
814.087987
883.569717
876.416564
792.149901
614.238977
468.298793
330.729485
183.075666
113.766789
73.799491
77.058673
102.414489
123.856664
149.427652
165.696740
169.931650
167.048573
148.351789
125.463605
93.037486
68.999529
44.730902
32.214522
21.892786
17.366409
13.834834
12.699962
11.788607
10.566711
10.368824
9.987950
8.934736
8.991957
8.170605
8.121729
7.639527
7.432699
6.742477
6.412864
6.354451
5.985498
5.790591
5.884767
5.945563
6.171465
6.412864
6.344914
6.365776
6.369948
7.106662
6.835461
7.134676
6.758571
6.769896
6.590486
6.670952
6.030798
6.659627
5.947948
5.567670
5.687475
5.810857
5.449653
6.049871
5.957484
5.739927
6.083846
5.741715
5.814433
5.562901
5.567670
6.243587
##ZVALUE=275
0.984669
1.095533
1.003742
0.958443
1.195669
1.206994
1.243949
1.201630
1.068711
1.382828
1.249909
1.313686
1.481771
1.407862
1.533628
1.607537
1.324415
1.766682
1.802444
3.963709
13.943911
38.382411
112.033486
210.021734
405.565500
560.544729
744.037628
857.635736
910.975933
867.635608
770.623684
572.295785
408.285856
223.476887
134.501457
73.113441
59.056878
70.001483
89.271665
119.642615
137.585402
154.348612
160.137415
156.069994
139.339566
111.541748
89.871883
63.811541
45.135617
27.671456
20.209551
13.360977
10.565519
9.068847
8.291602
8.219481
7.448792
7.597804
6.992817
7.439852
6.882548
6.498694
6.026626
6.129742
5.867481
5.873442
5.809665
5.868673
5.885959
6.231666
6.555915
6.351471
6.338954
6.721616
6.950498
6.955862
7.313490
6.267428
6.573796
6.296635
6.264448
6.046891
5.941987
5.629659
5.645752
5.769730
5.697608
5.533695
5.481839
5.521774
5.233884
5.121827
5.580783
5.547404
5.369782
5.140901
##ZVALUE=280
0.855923
1.042485
0.906587
1.084805
0.975728
1.041889
1.116991
1.260638
1.013875
1.062751
1.256466
1.176000
1.262426
1.202822
1.185536
1.307726
1.463890
1.489520
1.394749
1.676679
1.733899
2.177954
10.091662
38.003922
121.558905
220.023990
390.812755
553.440452
757.602453
874.387026
943.164825
928.345919
832.188725
637.629032
467.810631
270.921588
161.400437
77.607632
48.818588
45.089722
58.845878
84.263682
106.622577
130.730867
144.737959
153.874755
147.771835
130.559802
110.468864
80.980659
60.714483
37.779808
25.934577
15.191436
10.800958
7.545948
7.102489
6.559491
6.217957
6.340742
5.982518
6.061792
5.895495
6.156564
5.738735
5.939603
5.872846
5.839467
5.849600
5.646944
6.164908
6.286502
6.156564
6.618500
6.671548
6.566644
6.368756
5.937815
5.924702
5.762577
5.616546
5.834699
5.920529
6.076694
5.431771
5.276799
5.461574
5.061626
5.295873
5.132556
4.811883
4.792809
5.340576
5.367994
4.964471
5.444884
##ZVALUE=285
0.931621
0.901818
0.947714
0.917912
0.947714
0.816584
1.167655
0.827909
1.044869
0.878572
1.027584
0.988841
1.087785
1.155734
1.172423
1.088977
1.115799
1.193881
1.398921
1.285672
1.456738
1.509786
1.743436
2.041459
4.719496
19.045472
79.332590
167.561769
342.719555
505.754948
720.110536
860.838890
951.047540
977.020860
902.121663
722.945929
570.802689
355.128646
220.142007
105.057955
57.213902
32.494664
34.532547
54.693818
73.364973
104.176998
121.767521
139.657855
145.296454
141.657591
128.596425
104.823709
84.912777
57.831407
40.433407
23.210645
14.721751
9.189844
6.741881
6.142855
5.670786
5.680919
5.437732
5.794764
5.728602
5.591512
5.513430
5.629659
5.573630
5.825758
6.372929
6.259680
6.337762
6.485581
6.393790
6.146431
6.160736
6.408691
6.357431
5.829930
5.766749
5.747676
5.573630
5.403757
5.224943
5.615950
5.191565
4.951954
5.031824
5.081892
5.108714
5.376935
4.982948
4.984736
4.929900
4.623532
##ZVALUE=290
0.898838
0.741482
0.819564
0.912547
0.737906
0.884533
0.901818
0.879765
0.888705
1.085997
0.877976
0.883937
0.997782
1.143813
1.205802
1.088977
1.098514
1.087785
1.227856
1.340508
1.282692
1.372695
1.460910
1.633763
1.619458
2.057552
2.403855
9.770989
33.053756
110.918880
208.340883
406.923890
582.079887
797.683597
916.099548
977.054834
940.318704
793.944597
643.625855
428.846478
284.154415
142.164826
76.290965
33.846498
24.815798
33.797622
47.079921
72.361827
91.932416
118.594766
130.920410
141.837001
138.933659
124.233961
109.027624
77.853799
57.941675
36.901832
25.138855
14.080405
9.440780
6.704926
5.764961
5.722642
5.444884
5.562901
5.122423
5.683899
5.444884
5.884767
5.798936
6.083846
6.358624
6.315708
6.497502
5.959868
6.150603
5.878806
5.600452
6.002784
5.154610
5.334616
5.334616
5.408525
5.260706
5.235672
5.083680
5.158782
5.226731
4.854798
5.076528
5.478859
4.837513
5.091429
4.844666
4.880428
##ZVALUE=295
0.859499
0.792742
0.958443
0.931621
0.913739
0.756979
0.827909
0.906587
0.889897
0.877976
0.915527
1.021624
1.075864
0.761747
0.983477
1.103878
0.875592
0.909567
0.717640
1.108646
1.115799
1.172423
1.109838
1.274943
1.413822
1.530647
1.656413
1.752973
1.983643
3.075600
10.084510
43.532848
95.915794
222.256780
356.478691
568.447709
719.788671
864.852667
896.774530
833.270550
713.604093
512.363911
358.532667
190.805793
104.371905
40.809512
23.031831
21.308661
28.388500
46.324730
62.920451
89.311004
108.307004
126.547813
134.294629
129.790902
119.272470
99.002719
80.379844
53.655505
39.150715
23.216605
15.060902
9.242892
7.042885
5.592704
5.499721
5.405545
5.359650
5.582571
5.749464
5.672574
5.938411
6.011724
5.860925
6.039739
5.931854
5.722642
5.556941
5.132556
5.392432
5.245805
5.364418
5.268455
5.121827
5.134940
5.218983
4.916787
4.838705
4.984736
4.782677
4.344583
4.655719
4.651546
4.691482
4.296899
##ZVALUE=300
0.829697
0.871420
0.928640
0.889897
0.899434
0.860691
0.655651
0.930429
0.865459
0.709891
0.768900
0.794530
0.874996
0.936985
0.942945
0.878572
1.070499
0.894666
1.071692
0.981688
0.972748
1.149774
1.090765
1.114607
1.052618
1.239777
1.482964
1.322627
1.478791
1.647472
1.651645
1.978874
4.164577
22.079945
55.638552
148.006678
256.190896
454.929471
612.437725
791.727901
867.210031
863.917470
779.081583
587.058663
436.268449
243.984461
147.453547
65.168738
32.487512
16.434789
17.239451
26.886463
38.110614
58.958530
78.692436
103.970766
117.867589
127.644539
125.298500
112.556815
99.946856
74.086785
57.533979
37.492514
25.339723
14.638901
9.855628
7.006526
5.964637
5.767941
5.472898
5.300641
5.668998
5.377531
5.724430
5.409718
5.715489
5.386472
5.412698
5.272627
5.366802
5.060434
5.087852
5.104542
5.299449
4.887581
4.975796
4.688501
4.837513
4.736781
4.495978
4.231930
4.644990
4.559755
4.319549
4.518628
##ZVALUE=305
0.754595
0.799894
0.720620
0.827909
0.762939
0.868440
0.716448
0.792742
0.868440
0.793934
0.674725
0.686646
0.808835
0.753999
0.879765
0.790954
0.999570
0.875592
0.980496
0.911951
0.827909
0.855923
0.991821
1.260638
1.169443
1.161695
1.020432
1.093745
1.299977
1.241565
1.178980
1.458526
1.594424
1.995564
2.538562
12.622476
36.104918
107.053518
197.610855
371.003747
527.531505
725.163817
829.556584
870.094895
811.215639
648.405552
504.113436
320.989490
199.275613
91.394782
45.286417
17.544627
12.398958
15.881658
23.852587
39.652586
54.961443
78.479648
95.030665
112.506747
119.535923
117.836595
108.568668
90.754628
73.456764
51.202774
37.017465
21.957755
14.948845
8.784533
6.951690
5.597472
5.633831
5.314946
5.208850
4.885793
5.291700
5.015731
5.048513
4.801750
4.876852
5.018711
5.202889
4.917979
4.988909
4.729629
4.787445
4.911423
4.574656
4.618764
4.551411
4.531741
4.383922
4.544854
4.296899
4.261732
##ZVALUE=310
0.886917
0.773668
0.629425
0.695586
0.913739
0.855923
0.721812
0.760555
0.708699
0.720620
0.765920
0.801682
0.883937
0.987649
0.763535
0.682473
0.903606
0.936985
0.768900
0.987649
0.992417
1.020432
1.021624
0.989437
1.142621
1.000762
1.005530
1.100898
1.293421
1.206994
1.039505
1.285672
1.386404
1.390576
1.507998
1.647472
1.754761
5.673766
18.510818
64.656734
129.180551
271.374583
415.240526
621.199608
757.554770
858.003497
851.962566
744.031668
611.105561
409.338474
274.029970
138.436556
73.008537
27.612448
13.589859
10.651946
13.620853
21.555424
31.417608
50.062537
66.473484
87.859631
101.467967
112.242699
113.631487
104.236603
91.997981
71.235895
53.592920
34.102798
23.676753
14.150739
9.777546
6.696582
6.005764
5.105734
5.024672
5.085468
4.644990
4.754663
4.788637
4.977584
4.808903
4.777908
4.550815
4.707575
4.721880
4.594922
4.528761
4.344583
4.210472
4.319549
4.139543
4.387498
4.247427
4.167557
##ZVALUE=315
0.595450
0.786781
0.631809
0.823736
0.726581
0.696778
0.776649
0.631809
0.784993
0.778437
0.900626
0.817776
0.725985
0.772476
0.707507
0.760555
0.656843
0.886917
0.713468
0.899434
0.674725
0.808835
0.990629
0.904799
1.023412
0.949502
0.897646
1.008511
1.029968
1.038909
0.865459
1.000762
1.104474
1.139641
1.310706
1.392961
1.355410
1.491904
1.577735
3.006458
9.566545
40.675998
90.878010
205.580592
339.655876
554.239750
691.562891
816.653967
853.700638
784.054995
675.478578
485.211015
343.265533
184.045434
100.597739
39.006472
17.095804
9.534955
9.229779
13.112426
19.024611
30.998588
43.956637
63.158870
79.651475
96.472502
104.323626
106.011629
98.895431
82.619786
67.736506
49.669743
35.425425
21.199584
14.405847
8.419752
6.694794
5.374551
4.925728
4.580617
4.568696
4.360676
4.394650
4.317760
4.308820
4.418492
4.354715
4.526973
4.148483
4.513860
4.446507
4.230738
4.208684
3.897548
4.222989
3.965497
##ZVALUE=320
0.729561
0.651479
0.570416
0.756979
0.585914
0.794530
0.681877
0.680685
0.837445
0.687838
0.687838
0.610948
0.810623
0.547767
0.621676
0.677705
0.781417
0.788569
0.789762
0.786781
0.832677
0.786781
0.924468
0.850558
0.740886
0.890493
0.899434
0.858903
0.941753
0.992417
1.108646
0.958443
0.985861
1.060963
1.078844
1.235604
1.219511
1.208782
1.347661
1.517534
1.532435
1.827478
4.602671
22.591949
57.486892
152.602792
255.990624
429.256558
578.029752
758.000016
828.114748
821.828842
742.211938
569.141507
419.109464
236.465931
136.889815
60.132742
28.339624
10.552406
7.731915
8.500814
11.118650
16.995668
26.806593
42.349696
56.846738
75.297952
88.407993
99.061728
100.374818
92.758536
83.012581
63.399673
48.374534
31.309724
21.369457
13.077855
9.018779
6.205440
4.950762
4.783869
4.544854
4.430413
4.587770
4.294515
4.329681
3.989935
4.153848
3.839731
4.130602
4.140735
4.262924
4.238486
4.361868
4.100800
##ZVALUE=325
0.707507
0.740886
0.617504
0.758767
0.601411
0.599623
0.625849
0.761747
0.652671
0.661612
0.749826
0.601411
0.710487
0.624657
0.600815
0.735521
0.783801
0.797510
0.721812
0.854731
0.856519
0.825524
0.886917
0.908971
0.760555
0.758767
0.907779
0.975728
0.925660
1.016855
0.877976
0.985861
1.078844
1.039505
1.082420
1.034737
1.005530
0.994802
1.192689
1.288652
1.291633
1.391768
1.378655
1.571774
2.558827
13.890862
37.770867
104.111433
189.182758
352.867842
504.235625
688.450933
785.476565
823.787451
770.761967
611.308813
463.617444
279.188752
172.939897
80.198646
39.473772
13.732910
8.271933
7.034540
7.715821
10.601878
16.105771
25.917888
37.652850
56.943893
70.148706
85.150003
91.424584
93.404651
86.782575
73.044896
60.430765
43.441653
30.580759
18.665791
12.407899
8.020997
6.107688
5.038977
4.561543
4.122853
4.194975
4.161596
4.078746
4.061460
3.933907
3.796816
4.019737
3.997684
3.990531
3.990531
##ZVALUE=330
0.879765
0.917912
0.696778
0.712872
0.721812
0.787973
0.763535
0.674725
0.841618
0.782609
0.795722
0.915527
0.699759
0.919700
0.918508
0.723600
0.892878
0.932813
0.898838
0.805855
0.964999
0.982881
0.959635
1.035929
0.866652
0.939965
0.850558
1.115799
1.162887
0.988841
0.967979
1.012683
0.925660
0.989437
1.012683
1.105666
1.192689
1.101494
1.109838
1.167655
1.344681
1.310706
1.417994
1.413822
1.466870
1.630783
2.122521
6.709695
20.629764
69.579482
134.603977
276.041627
408.722758
602.819920
724.692941
806.019902
784.816742
668.766499
536.275506
349.548459
227.536559
109.541416
56.555867
20.699501
10.064840
6.755590
6.754994
7.482767
9.848475
15.803576
23.625493
36.809444
49.243569
68.141818
79.822540
86.505413
87.684989
80.878735
70.979595
54.810643
41.877627
27.467608
19.990802
11.972785
8.415580
5.917549
5.274415
4.752874
4.211664
4.234910
4.167557
4.044771
3.910661
3.930926
3.811717
3.957748
##ZVALUE=335
0.685453
0.713468
0.723600
0.739694
0.661612
0.588894
0.715852
0.678897
0.697970
0.696778
0.537634
0.700951
0.636578
0.710487
0.715852
0.704527
0.719428
0.693798
0.820756
0.777841
0.776649
0.793934
0.753999
0.715852
0.756979
0.947714
0.685453
0.792742
0.795722
0.779629
0.626445
0.747442
0.876784
0.946522
0.957847
0.861883
0.998974
0.852942
0.901818
0.984669
0.931621
1.023412
0.968575
1.095533
1.052618
1.238585
1.268983
1.275539
1.569986
3.175735
10.320544
42.432547
89.783669
202.800632
329.935551
529.245734
663.988590
774.676800
793.097019
714.762807
604.552627
415.717959
283.381939
148.311853
78.878999
28.271675
12.360811
6.690621
6.085634
6.406903
6.896853
9.426475
14.022589
23.347735
33.706427
49.224496
61.545968
73.362589
80.950856
81.120729
77.029467
63.470602
53.045750
39.421916
29.278994
18.973947
12.951493
8.164644
6.062984
4.860759
4.285574
3.901720
3.768802
3.804564
3.784895
3.705621
##ZVALUE=340
0.624657
0.480413
0.718832
0.749826
0.678897
0.592470
0.626445
0.716448
0.678897
0.535846
0.651479
0.646710
0.584722
0.661612
0.644922
0.594854
0.726581
0.821948
0.686646
0.666976
0.740886
0.641942
0.678897
0.729561
0.695586
0.665784
0.593662
0.680685
0.678897
0.768900
0.699759
0.716448
0.688434
0.892878
1.035929
0.892878
0.881553
0.919700
0.899434
0.875592
0.830889
0.862479
1.019835
1.047850
1.007915
1.097918
1.055598
1.148582
1.349449
1.300573
1.398921
1.892447
5.286932
25.583506
62.464476
158.133507
263.213515
434.785485
572.011471
715.947747
765.126944
729.671717
637.242794
473.306775
333.300829
175.913572
98.248720
40.041804
17.061830
7.106662
6.042719
5.790591
5.926490
6.949902
8.989573
14.936924
21.247864
32.759905
43.985844
59.476495
68.555474
76.334476
75.905919
70.163608
63.575506
49.939752
39.001703
27.154684
19.840598
12.490749
8.803606
5.639791
4.680753
3.976822
3.803968
3.698468
##ZVALUE=345
0.682473
0.503659
0.560880
0.659823
0.618696
0.536442
0.620484
0.566840
0.669956
0.714660
0.544786
0.673532
0.604987
0.707507
0.663996
0.729561
0.829697
0.765920
0.747442
0.583529
0.726581
0.708699
0.758767
0.700951
0.777841
0.715852
0.743866
0.646710
0.741482
0.670552
0.765920
0.936985
0.898838
0.875592
0.865459
0.912547
0.765920
0.835657
0.918508
0.774860
0.888705
0.824928
0.837445
0.978708
1.191497
0.961423
1.047850
0.899434
0.960827
1.091957
1.378655
1.345873
1.411438
1.437664
2.667904
13.919473
39.138794
105.416775
188.891888
347.137451
482.506752
647.909641
726.429820
745.954514
677.886009
525.019765
391.584635
234.746933
134.112835
53.712726
25.454760
9.806752
6.440878
5.565882
5.476475
5.641580
6.008744
8.506775
12.045503
20.276904
28.753877
42.477846
51.554441
62.526464
67.704916
70.213675
67.209601
58.637857
49.739480
38.240552
28.784871
18.512607
12.910962
8.089542
5.991459
4.562736
##ZVALUE=350
0.572801
0.637770
0.609756
0.557899
0.658631
0.576973
0.661612
0.670552
0.614524
0.564456
0.539422
0.764728
0.787973
0.748634
0.664592
0.740886
0.673532
0.640750
0.683665
0.770688
0.695586
0.727773
0.566840
0.679493
0.675917
0.502467
0.685453
0.730753
0.710487
0.724792
0.719428
0.752807
0.727773
0.723600
0.748634
0.755787
0.664592
0.928640
0.668764
0.898838
0.826716
0.804663
0.823736
0.887513
0.813603
0.860691
0.888705
0.942945
0.867844
1.022816
1.054406
0.963807
1.129508
1.070499
1.256466
1.382828
1.712441
6.830692
21.497607
69.300532
133.009553
267.172456
393.468738
559.252501
661.103725
724.228024
693.768859
576.932430
446.108580
266.920924
165.810585
77.227950
36.384463
11.592507
6.660819
5.465746
5.103946
4.918575
5.047917
5.592704
7.481575
11.705756
17.130971
26.539564
35.389662
46.799779
55.521727
62.804818
64.097643
61.453581
56.085587
46.072602
36.976933
26.238561
19.428730
12.746453
##ZVALUE=355
0.799894
0.728965
0.695586
0.609756
0.622869
0.630617
0.722408
0.676513
0.531673
0.891685
0.766516
0.792742
0.748634
0.840425
0.827909
0.754595
0.741482
0.802875
0.667572
0.586510
0.752807
0.562668
0.705719
0.716448
0.865459
0.798702
0.860691
0.865459
0.751615
0.841618
0.562668
0.926852
0.853539
0.870824
0.905991
0.876784
0.671744
0.922680
0.917912
0.904799
1.042485
0.860691
0.871420
0.960827
0.908971
0.975728
0.854731
1.001954
0.945926
1.046658
1.032948
1.172423
1.173615
1.098514
1.252890
1.381636
1.294613
1.581907
1.654625
3.572702
11.656880
45.726895
94.261765
200.370550
318.423510
494.706631
608.568788
696.280003
698.207617
598.415732
488.261580
324.734449
208.889842
95.454454
46.791434
15.490651
7.632971
5.489588
5.053878
4.778504
4.660487
4.867911
5.140901
6.761551
9.249449
15.020967
21.333694
30.898452
39.531589
49.984455
54.797530
58.514476
56.955814
50.470829
43.744445
34.106970
##ZVALUE=360
0.636578
0.607967
0.623465
0.566840
0.590682
0.582933
0.588894
0.541806
0.682473
0.499487
0.584722
0.675917
0.554919
0.644922
0.726581
0.717640
0.535846
0.682473
0.761747
0.717640
0.721812
0.664592
0.771880
0.750422
0.739694
0.765920
0.694990
0.747442
0.511408
0.533462
0.845790
0.798702
0.748634
0.759959
0.710487
0.644922
0.826716
0.704527
0.747442
0.760555
0.839829
0.669956
0.825524
0.828505
0.868440
0.842810
0.783801
0.838637
0.912547
0.868440
0.914931
1.029968
1.003742
0.944734
1.046658
1.102686
1.105666
1.188517
1.372695
1.186728
1.478791
1.987815
5.133748
23.714900
57.869554
145.922899
241.954923
401.995778
536.337495
671.702027
708.971620
663.519502
564.223528
387.688875
260.081887
126.876831
66.658854
26.002526
11.212826
5.456805
5.117655
4.524589
4.536510
4.353523
4.401803
4.576445
5.466938
7.932782
11.450648
17.719865
24.034977
34.518838
41.270852
48.892498
52.388906
51.919818
##ZVALUE=365
0.784993
0.800490
0.664592
0.746846
0.813603
0.756979
0.732541
0.582933
0.800490
0.834465
0.861883
0.796914
0.823736
0.782609
0.928640
0.806451
0.705719
0.828505
0.622869
0.732541
0.817776
0.793934
0.822544
0.714660
0.787973
0.814795
0.717640
0.918508
0.923872
0.808835
0.911951
0.880957
0.913739
0.873804
0.943542
1.023412
0.829697
0.866652
0.811815
0.874996
0.990629
0.932813
1.064539
0.857711
0.965595
1.071692
1.080632
1.034737
1.221895
1.048446
1.013875
0.909567
1.198649
0.984669
1.194477
1.006722
0.999570
1.119971
1.149774
1.307726
1.337528
1.526475
1.745820
1.731515
3.382564
10.596514
39.946437
88.334680
201.063752
320.630670
488.397479
592.153668
670.141578
669.829845
574.707985
466.961861
300.858617
186.549425
84.144473
40.648580
13.336539
6.607771
5.158782
4.795790
4.527569
4.335642
4.091859
3.892779
4.204512
4.834533
6.530881
9.430647
15.038848
20.958781
30.256510
36.283731
##ZVALUE=370
0.494719
0.640750
0.726581
0.540614
0.647902
0.642538
0.524521
0.635982
0.724792
0.748634
0.546575
0.521541
0.597835
0.706911
0.533462
0.692606
0.486970
0.725985
0.535846
0.689626
0.593662
0.694990
0.774860
0.781417
0.654459
0.579953
0.756979
0.679493
0.768900
0.761747
0.747442
0.715852
0.594854
0.636578
0.706911
0.813603
0.610948
0.769496
0.801682
0.729561
0.691414
0.741482
0.688434
0.715852
0.893474
0.781417
0.832677
0.940561
0.840425
0.827909
0.813603
1.006722
0.854731
1.024604
0.971556
0.954866
0.967979
1.056790
1.034737
0.812411
1.191497
1.150966
1.226664
1.131892
1.397729
1.446605
1.788735
7.222891
22.958517
70.192814
135.205984
263.614655
387.300849
551.400781
635.569692
663.200617
611.550808
484.879613
363.677740
207.374692
119.397640
48.589706
22.148490
7.594824
4.835725
4.268885
3.971457
3.765821
3.621578
3.521442
3.482699
3.477931
4.095435
5.565882
8.194447
12.904406
##ZVALUE=375
0.450611
0.473857
0.474453
0.576973
0.464916
0.585914
0.479817
0.385642
0.582933
0.513792
0.485778
0.574589
0.529885
0.500679
0.429749
0.543594
0.397563
0.594854
0.608563
0.558496
0.510812
0.740886
0.473857
0.423789
0.713468
0.723600
0.618696
0.589490
0.520945
0.502467
0.675917
0.560880
0.577569
0.574589
0.615716
0.509620
0.577569
0.594854
0.677705
0.562668
0.678897
0.557899
0.695586
0.598431
0.591874
0.491738
0.685453
0.576973
0.648499
0.592470
0.617504
0.814795
0.668764
0.710487
0.581741
0.718832
0.653863
0.668764
0.761747
0.929832
0.792742
0.927448
0.877976
1.021624
0.960827
1.093745
1.121759
1.072884
1.477599
3.017783
15.393496
39.714575
102.790594
187.379718
340.260863
465.355515
612.187982
673.179626
657.187700
574.012995
409.251451
289.896727
162.736773
92.260838
36.008954
16.204715
5.535483
4.108548
3.724694
3.444552
3.419518
3.234744
3.064871
2.978444
3.224611
3.380775
##ZVALUE=380
0.699759
0.671744
0.721812
0.639558
0.623465
0.563860
0.655651
0.615716
0.612736
0.602603
0.712872
0.648499
0.726581
0.390410
0.638962
0.709891
0.549555
0.597835
0.548959
0.649691
0.617504
0.691414
0.549555
0.678897
0.675917
0.594854
0.639558
0.669956
0.705719
0.869632
0.618696
0.667572
0.764728
0.860691
0.835657
0.762939
0.722408
0.754595
0.750422
0.755787
0.530481
0.735521
0.664592
0.711679
0.750422
0.576973
0.833869
0.723600
0.685453
0.804663
0.802875
0.863671
0.790954
0.790954
0.805855
0.837445
0.804663
0.846982
0.912547
0.754595
0.829697
0.863671
0.887513
0.933409
0.911951
0.930429
1.124740
0.934601
1.203418
1.388788
1.359582
2.065897
6.576777
30.551553
71.159601
167.829990
273.932815
437.193513
563.630462
673.790574
687.239766
604.293942
496.068001
335.494876
224.556923
112.449527
58.448911
21.104813
9.263754
4.545450
3.787875
3.482699
3.237724
3.265738
3.023744
2.954602
##ZVALUE=385
0.617504
0.702739
0.557899
0.548959
0.626445
0.415444
0.632405
0.680685
0.568628
0.631809
0.535846
0.672936
0.475645
0.669956
0.557899
0.593662
0.584722
0.494719
0.465512
0.597835
0.682473
0.467896
0.606775
0.527501
0.563860
0.670552
0.660419
0.577569
0.605583
0.537634
0.805855
0.671744
0.719428
0.543594
0.612736
0.641942
0.711679
0.655651
0.557899
0.723600
0.478625
0.547767
0.751615
0.740886
0.781417
0.655651
0.685453
0.704527
0.786781
0.678897
0.723600
0.698566
0.752807
0.775456
0.732541
0.806451
0.677705
0.628829
0.715852
0.753999
0.665784
0.870824
0.723600
0.695586
0.755787
0.783801
0.915527
0.995994
1.259446
1.245737
1.105666
1.227856
1.246929
1.648664
3.171563
16.707778
43.644905
110.571980
196.298957
353.966951
481.390953
614.945889
654.949546
638.801455
568.825006
424.023867
308.571458
177.230835
102.954507
40.979981
16.583800
5.213618
3.670454
3.229976
3.047585
2.876520
##ZVALUE=390
0.553727
0.515580
0.427961
0.576973
0.444651
0.418425
0.421405
0.557899
0.385642
0.503659
0.399947
0.520945
0.468493
0.610948
0.572801
0.630617
0.590682
0.531673
0.439882
0.524521
0.504851
0.514984
0.554919
0.504851
0.503659
0.596642
0.610948
0.620484
0.445843
0.770688
0.573993
0.620484
0.677705
0.527501
0.552535
0.566840
0.714660
0.606775
0.533462
0.451803
0.576973
0.598431
0.584722
0.462532
0.587702
0.578761
0.629425
0.591874
0.585914
0.824928
0.650883
0.585914
0.670552
0.496507
0.450611
0.655651
0.538826
0.595450
0.700951
0.598431
0.508428
0.619888
0.747442
0.722408
0.716448
0.643730
0.736713
0.617504
1.016855
0.915527
0.840425
1.037717
1.150966
1.054406
1.141429
1.219511
1.845956
8.573532
27.093887
83.939433
156.203508
296.180844
410.785675
540.182590
612.281561
638.750792
592.586994
472.320914
359.748602
221.700668
129.228830
53.680539
24.482608
7.307529
3.954768
3.201962
##ZVALUE=395
0.579953
0.589490
0.504851
0.474453
0.557899
0.418425
0.560880
0.678897
0.583529
0.629425
0.547767
0.698566
0.545979
0.617504
0.640750
0.485778
0.606775
0.600815
0.477433
0.651479
0.445843
0.665784
0.542998
0.543594
0.634789
0.603795
0.675917
0.729561
0.573993
0.638962
0.550747
0.680685
0.670552
0.710487
0.833869
0.704527
0.773668
0.705719
0.724792
0.768900
0.719428
0.806451
0.719428
0.638962
0.777841
0.690818
0.812411
0.691414
0.742674
0.681877
0.764728
0.616908
0.652671
0.698566
0.615716
0.594854
0.823736
0.763535
0.810623
0.783801
0.832677
0.665784
0.905991
0.793934
0.701547
0.868440
0.891685
0.819564
0.896454
0.905991
1.001954
1.115799
1.119971
1.100898
1.059771
1.143813
1.167655
1.398921
1.497865
5.089641
17.728806
61.439872
116.775632
222.609639
332.976580
494.835973
596.649647
663.285851
649.145842
551.643968
432.781577
269.619823
172.028542
80.932975
39.106607
12.858510
##ZVALUE=400
0.290871
0.331998
0.315905
0.372529
0.434518
0.267625
0.386834
0.367761
0.421405
0.495911
0.462532
0.400543
0.353456
0.460744
0.361800
0.445843
0.450611
0.550747
0.412464
0.648499
0.381470
0.496507
0.543594
0.404716
0.333786
0.347495
0.551939
0.394583
0.482798
0.512600
0.312924
0.629425
0.517964
0.699759
0.498891
0.530481
0.492930
0.437498
0.486970
0.609756
0.660419
0.590682
0.352859
0.512600
0.489950
0.620484
0.456572
0.439882
0.452995
0.428557
0.368953
0.476837
0.436902
0.519753
0.463724
0.547767
0.482798
0.650883
0.590682
0.551939
0.493526
0.600815
0.398755
0.545979
0.640750
0.666976
0.526905
0.805855
0.821948
0.804663
0.814795
0.792742
0.962615
0.785589
0.835657
0.888705
0.792742
0.961423
1.089573
1.122952
1.305938
2.846718
9.276867
35.356879
76.591969
173.243880
280.898809
438.201427
548.659563
646.568537
663.840771
590.893626
485.515594
318.939686
209.666491
105.408430
##END
