##TITLE=FKDZ0101
##FORMAT=SPECTACLE-ASCII V-1.2
##DATA TYPE=ULTRAVIOLET SPECTRUM
##SECOND TYPE=ULTRAVIOLET SPECTRUM
##DATE=01/21/18
##TIME=14:01:33
##SPECTROMETER/DATA SYSTEM=SPECTACLE
##XUNITS=NM EM
##YUNITS=ENERGY
##YFACTOR=1
##FIRSTX=220
##LASTX=410
##NPOINTS=96
##3DDATA=Equidistant
##ZUNITS=NM EX
##FIRSTZ=210
##LASTZ=400
##ZPOINTS=39
##XYDATA=(Y..Y)
##ZVALUE=210
2.798438
2.734661
2.740622
3.018975
2.796650
2.713799
3.328919
2.784729
3.474951
3.080964
2.964735
3.238916
3.149509
3.063679
3.303885
2.996922
3.232956
3.150702
4.184842
3.730655
4.126430
4.536510
4.075766
4.819632
4.518628
5.049706
5.783439
5.358458
6.087422
5.676746
6.067753
5.797744
5.761981
6.190538
5.812645
6.211996
6.658435
6.980896
6.511807
7.047653
7.662773
6.719828
5.929470
6.981492
6.501675
6.879568
6.871819
6.841421
7.958412
7.883906
8.032918
7.357597
8.419752
7.504821
7.800460
7.101893
7.052422
7.184744
8.313656
7.304549
8.416772
8.152723
8.372664
8.717775
8.857846
8.316636
9.539723
9.665489
12.045503
14.067888
16.506910
19.737482
22.293925
23.478866
28.476715
31.247735
36.500692
36.648512
39.760470
37.202835
35.338998
35.076737
29.510856
26.724935
20.544529
16.240478
12.631416
10.182858
9.003878
8.120537
9.069443
8.079410
8.401871
7.698536
8.466840
9.200573
##ZVALUE=215
8.774996
8.538961
8.137822
6.526709
6.280541
5.411506
4.941821
5.390644
5.475879
5.827546
6.430745
5.299449
5.008578
3.792644
3.987551
3.617406
3.766418
3.606677
3.699660
4.325509
4.014969
4.993677
4.550815
4.442930
4.717708
5.549788
6.060600
6.090999
5.991459
5.054474
6.635785
7.219911
6.808639
7.224679
6.876588
7.506609
6.938577
6.995797
7.299781
7.628798
7.574558
7.291436
8.424520
8.385777
7.591844
7.703900
8.860826
7.241964
7.877946
7.920861
8.779764
7.970929
7.157922
8.259416
8.293986
8.184910
8.972883
7.605553
8.916855
8.135438
8.921623
8.822680
7.915497
8.461475
7.981658
8.042455
9.210706
10.618567
11.980534
13.593435
14.814734
16.019940
18.758774
21.395683
27.251840
27.409792
29.733777
32.239556
31.480789
33.489466
30.484796
28.653741
25.185943
20.402670
17.512441
12.816787
11.655688
10.230541
8.218884
8.102655
8.629560
7.987618
7.262826
7.066727
7.972717
8.188486
##ZVALUE=220
30.011535
30.686855
35.272837
34.167767
29.535890
24.438500
19.429922
14.924407
11.502504
10.845661
12.236834
12.430549
12.985468
12.839437
11.093616
8.490682
7.032752
6.383657
4.864931
5.313754
5.247593
4.374981
5.252957
5.361438
5.028844
6.283522
6.113648
6.201863
7.718801
6.856918
7.923841
8.041859
8.414984
8.760691
7.566810
7.916689
7.715821
8.530617
8.346438
8.696914
9.066463
9.604692
9.461641
9.117723
8.613467
8.962750
8.461475
9.531975
9.282827
8.717775
8.903742
10.230541
9.181499
9.710789
9.073615
8.621812
9.477735
9.811521
10.115504
9.526610
9.720922
8.629560
9.079576
10.721684
10.548830
10.191798
10.843873
12.393594
13.750792
15.725493
17.201900
20.854473
22.605658
26.997924
29.793978
30.598640
33.358932
34.366846
35.158992
34.302473
31.135678
30.352473
26.531816
25.023818
21.758676
15.484691
14.574528
10.724664
10.128617
9.832978
9.969473
9.105802
9.327531
8.505583
9.092689
8.755922
##ZVALUE=225
62.673688
66.070557
86.721778
114.429593
126.872659
128.781796
119.237900
87.041855
66.502690
40.409565
28.420687
25.948882
26.639700
26.171803
28.135777
26.952624
23.076534
19.738674
14.816523
10.894537
7.858872
7.396936
6.224513
7.390976
7.244945
6.524920
7.303953
8.072853
7.965565
8.208752
9.619594
9.245872
9.216666
9.069443
9.732842
10.420680
10.129809
10.786653
10.448694
12.212992
9.362698
11.000633
10.716915
10.831952
11.383891
11.031628
11.086464
10.539889
10.373592
10.697842
9.472966
11.252761
9.554625
10.106564
11.130571
11.336803
11.430979
11.417866
10.200739
11.641979
11.486411
10.826588
11.871457
10.919571
11.595488
12.325644
11.724830
15.146732
14.143586
16.698837
19.471645
21.852851
24.612546
27.940869
28.592944
31.338930
28.779507
31.462908
31.670928
29.277802
28.199553
25.580525
24.974942
21.773577
19.569993
15.588999
13.126731
13.198853
11.985898
11.306405
11.063814
11.121631
10.876656
11.349916
10.249615
11.274815
##ZVALUE=230
59.708953
66.050887
109.971762
183.765888
240.470767
311.551690
338.626504
349.078774
306.758881
250.015855
161.949992
105.402470
60.217977
48.236847
48.754811
49.693584
54.451823
50.067902
45.642853
38.924813
31.331778
22.259951
15.550852
10.156631
9.230971
8.701682
8.778572
7.965565
8.600950
9.938478
8.909702
9.931922
11.178851
10.586977
11.054873
10.743737
11.869669
12.419820
11.794567
11.260509
11.703968
12.401938
11.386871
12.075901
11.299849
10.847449
12.862682
11.966825
11.568666
11.197925
11.553764
11.666417
11.892915
11.108518
10.941625
12.480617
12.389421
12.445450
11.544824
12.476444
12.958646
12.085438
13.154745
13.155937
13.759732
13.300776
13.474822
14.483929
16.403794
18.135905
20.262599
23.201704
25.071502
27.321577
31.600595
31.875968
31.553507
30.917525
31.369925
28.646588
27.200580
24.870634
23.258924
19.546747
17.612576
16.534925
14.561415
14.114976
13.209581
13.915896
12.189746
13.040900
12.592673
11.846423
12.156963
10.999441
##ZVALUE=235
17.119646
20.550489
48.078895
120.800734
207.759738
346.311927
449.882746
590.474010
633.424520
631.634593
553.383827
430.794954
273.942947
186.335444
114.850998
83.935857
78.062415
80.606937
88.081956
91.781616
87.978840
70.985556
57.979822
40.134788
30.496716
17.704964
15.708804
11.724830
11.030436
11.638999
11.668801
11.368990
12.125969
11.831522
12.431741
13.607740
12.992620
12.675524
12.131929
12.845993
13.920665
14.022589
14.169812
13.141632
12.570620
13.120770
13.159513
12.899637
12.317896
11.517406
13.051629
12.545586
13.648868
13.176799
12.115836
12.617707
14.254451
14.354587
14.174581
14.228821
13.502836
14.939904
13.621449
15.630722
15.077591
13.858676
16.135573
16.158819
17.744899
21.005869
22.815466
23.568869
24.733543
28.202534
29.806495
30.864477
31.442642
32.837987
30.523539
26.872754
25.456548
22.009611
21.850467
18.930435
18.277764
17.653704
16.487837
15.864968
16.331673
15.078783
15.641451
16.073585
13.491511
14.988780
15.004873
14.438629
##ZVALUE=240
2.567768
2.881885
11.570454
31.405687
97.024441
177.384615
356.671810
537.695885
777.421594
906.554461
999.738574
955.322981
848.519802
642.201900
483.442545
291.474462
191.783905
126.395822
103.349686
104.626417
111.791492
121.719837
117.900968
106.738806
87.530613
72.010756
52.500963
37.672520
23.208857
16.065836
13.989806
12.576580
10.782480
11.612773
11.118650
11.106730
11.344552
11.099577
11.626482
11.177659
11.639595
11.055470
11.505485
11.076927
10.777712
11.177659
10.864735
11.051893
11.518598
9.967685
11.149645
10.796785
10.370612
10.679960
11.809468
10.570884
10.459423
10.576844
10.025501
10.189414
10.422468
11.567473
11.546612
10.964870
11.975765
11.572838
13.105869
12.674928
15.126467
16.536713
18.163919
20.174980
19.949675
23.313761
22.965670
21.990538
23.769736
24.805665
23.064613
22.788644
21.153688
21.066666
19.136667
17.477870
16.460419
15.943646
15.290976
14.797449
14.762878
14.328957
14.044642
13.527870
14.988780
15.992522
14.233589
15.360713
##ZVALUE=245
2.116561
1.746416
1.726747
2.252460
3.396869
13.042688
30.840635
94.942451
186.779499
324.909687
549.392700
703.111887
822.067857
818.874836
741.399527
613.572001
438.475609
310.514569
217.505693
132.515430
103.907585
106.512904
115.487576
130.228996
133.089423
127.988458
116.083622
97.155571
76.820850
51.886439
36.287904
23.171902
15.252829
10.970831
9.543896
8.165836
9.062886
8.461475
9.071827
8.759499
8.995533
8.269548
8.602738
8.102655
7.994771
7.995963
7.995963
7.967949
7.926822
7.499456
7.445812
7.745624
8.373857
6.883740
7.876754
7.696748
7.188916
8.145571
7.852912
7.798672
8.106828
9.216666
9.122491
8.442998
9.206533
9.519458
9.583831
10.138750
9.919405
11.512637
12.352467
13.454556
14.585853
15.721917
15.917420
15.458465
15.286803
16.297698
15.040636
15.826821
14.624000
14.705658
13.351440
13.635755
13.881922
13.255477
12.751818
12.666583
14.203787
12.914538
14.428496
13.405681
13.664961
14.635921
12.693405
13.526678
##ZVALUE=250
1.580715
1.526475
1.620650
1.755953
2.184510
2.126694
2.939701
7.837415
38.383603
82.458854
201.391578
326.149464
474.555492
661.147833
770.270824
831.675529
807.403922
688.979030
559.681654
377.694964
256.498456
166.657567
108.114481
96.385479
110.709667
120.542645
138.932467
143.259764
140.355825
122.612715
109.175444
79.450607
59.796572
36.697984
25.618672
14.410615
10.505915
8.664727
8.326769
7.575750
8.303523
7.461905
7.381439
7.476807
7.029772
7.269979
6.926656
7.353425
7.168651
6.498694
6.474853
6.708503
6.962419
6.509423
6.684661
6.574988
6.367564
6.985664
6.234646
6.740689
6.954670
7.043481
6.663799
7.503629
6.678700
7.494688
8.162856
8.264780
9.371638
9.942651
10.435581
12.059808
11.662841
12.877584
12.540817
13.870597
12.538433
13.050437
13.774633
13.993979
12.591481
11.810660
12.613535
12.429953
11.752844
11.949539
12.042522
12.075901
12.451410
12.163520
11.193752
11.800528
11.643767
12.337565
11.875629
12.664795
##ZVALUE=255
1.669526
1.462698
1.339912
1.538992
1.575947
1.451969
1.829863
1.626611
2.050996
3.565550
16.899705
45.157671
103.906989
233.250856
373.598933
576.747656
710.111856
827.780962
851.117969
790.062547
675.164461
530.532598
327.902436
209.077001
118.565559
92.278719
91.219544
104.089975
128.078461
143.215656
146.492720
146.681666
130.817890
105.749965
86.015463
56.218505
40.300488
23.355484
15.730858
9.971857
7.910728
7.503629
7.551908
7.352829
7.357597
8.130670
7.080436
7.621646
7.624626
6.608963
7.006526
6.627440
6.603599
6.193519
5.902648
6.020665
5.957484
5.651712
6.495714
6.511807
6.031990
5.590916
5.979538
6.509423
6.934404
7.317662
7.171631
7.473826
7.342696
8.918643
9.302497
10.038614
10.778904
11.205673
11.214614
11.847615
11.770725
12.239814
10.935664
11.769533
11.775494
10.515451
11.190772
11.167526
10.168552
10.938644
10.356903
11.058450
11.298656
10.988712
11.469722
11.257529
11.128783
10.950565
11.172891
11.668801
##ZVALUE=260
1.267791
1.521707
1.154542
1.350641
1.497865
1.361966
1.354814
1.578927
1.602769
1.670718
2.042651
2.126694
5.879402
24.057627
58.632493
149.560571
254.650712
442.230701
595.946908
787.811875
869.788527
879.119635
764.806867
621.556640
411.215425
282.285810
160.994530
105.361938
77.144504
83.958507
102.845430
128.506422
145.791769
153.894424
152.782798
133.302808
113.895535
83.238482
61.481595
39.648414
25.111437
14.180541
10.468960
8.555651
7.750988
7.542968
7.218719
6.794930
7.230639
6.785989
6.751418
6.619692
6.733537
6.655455
6.728768
6.310940
6.218553
5.627871
5.811453
6.045699
5.981922
5.754828
6.131530
6.457567
6.163716
6.665587
7.076859
6.840825
7.548928
7.562637
8.525848
8.631945
9.355545
9.231567
10.062456
10.071993
10.030866
10.654926
10.387897
10.479689
10.674596
10.122657
10.957718
10.702610
10.199547
9.668469
9.777546
10.055900
10.564923
9.953976
10.208488
9.923577
10.925531
10.540485
10.797977
10.339618
##ZVALUE=265
1.286864
1.340508
1.246929
1.357794
1.131892
1.202822
1.299977
1.273751
1.670718
1.496673
1.404881
1.626611
1.781583
2.263784
3.686547
17.342567
42.233467
107.682943
193.158984
366.807580
536.814928
682.611465
855.899453
892.586708
831.137896
716.059804
526.256561
365.074873
202.642679
126.814842
78.825951
69.866776
82.436800
110.971928
135.043859
154.296756
158.556700
150.790811
135.242939
109.334588
85.620880
57.937503
39.133430
22.990704
15.726686
10.282993
8.255839
7.350445
7.096529
7.231832
6.932616
7.047653
7.189512
6.877780
6.760955
6.900430
6.463528
6.405711
6.296635
6.463528
6.471872
6.407499
6.202459
6.205440
6.435513
6.421804
7.034540
6.874800
7.041693
7.543564
8.021593
7.978678
8.708835
9.194613
9.096861
9.323955
9.388924
9.678602
9.672642
9.116530
9.218454
9.545684
9.604692
9.768605
9.756684
10.002851
9.797812
10.038614
9.704828
9.898543
9.571910
8.979440
9.819865
9.253621
9.461641
9.326935
##ZVALUE=270
1.289845
1.181960
1.265407
1.326799
1.222491
1.135468
1.297593
1.212955
1.237988
1.163483
1.493692
1.422763
1.379848
1.519918
1.638532
1.824498
2.218485
8.984804
26.360750
82.132816
154.855847
262.897611
483.019948
653.955936
850.221515
926.550627
915.157795
830.667615
640.883446
481.835008
289.811492
181.976557
91.490746
63.377619
64.621568
81.839561
111.242533
134.014487
151.082873
159.004927
151.411891
140.473843
112.566948
88.638663
58.302879
40.456653
24.676919
16.877651
11.042953
8.249879
7.660985
7.000566
7.490516
7.265806
7.672906
7.127523
6.928444
6.403923
6.475449
6.580949
6.737709
6.918907
6.495714
6.738901
6.321669
6.606579
6.895661
6.927848
6.627440
7.348657
7.548928
7.545948
8.683801
8.861423
8.636713
9.278655
9.282827
8.966923
9.072423
9.206533
8.814931
9.240508
8.317828
9.439588
9.027719
8.695722
9.206533
8.951426
8.957982
9.141564
8.935928
8.893609
8.884668
9.276867
9.454489
8.374453
##ZVALUE=275
0.995994
1.010895
0.953674
0.906587
1.000762
1.032948
1.197457
1.123548
0.980496
1.039505
1.275539
1.103878
1.340508
1.259446
1.447797
1.350641
1.493692
1.404881
1.968741
4.129410
14.527440
41.981936
122.514963
227.679014
424.691439
583.534837
765.720010
875.401497
923.882723
877.414942
729.993582
576.944947
406.045914
217.190981
126.317739
63.657761
49.085617
62.487721
81.056952
111.897588
131.066442
151.645541
157.148838
149.939656
135.619640
107.437968
85.774660
59.107542
41.167736
24.868846
16.960502
10.894537
8.597970
7.324815
7.477999
7.888675
7.509589
6.811619
7.369518
7.036924
7.211566
6.799698
6.794930
7.087588
6.705523
7.114410
7.033944
7.380843
7.523894
7.843971
8.182526
8.635521
8.829832
9.152889
8.540750
9.179711
9.040833
8.647442
8.799434
9.242892
9.182692
8.785725
9.110570
8.592606
8.957982
8.818507
8.513927
8.725524
8.897781
8.676648
9.042621
8.441806
8.813739
9.041429
8.548498
9.078979
##ZVALUE=280
1.092553
0.926852
1.072884
1.054406
1.119971
1.109838
0.899434
1.026988
1.038909
1.063943
1.049638
1.163483
1.097918
1.247525
1.310706
1.421571
1.309514
1.620650
1.652837
1.687407
2.005696
2.206564
8.675456
27.062893
88.106990
165.977478
327.665806
499.254465
765.733719
947.538614
1015.638709
1015.638709
986.226797
723.359585
523.356795
286.626816
166.483521
77.319741
46.364665
43.557882
56.252480
82.618594
105.797648
131.145716
146.765709
150.782466
148.515701
128.986835
111.851692
80.857873
60.516596
38.382411
25.585890
15.722513
11.175871
8.047819
7.576942
7.590652
7.530451
7.241964
6.980896
6.934404
7.216930
7.608533
7.990599
7.100701
7.686615
7.777810
8.206964
8.164644
8.334517
8.865595
9.005666
8.791685
9.158850
9.345412
8.930564
9.248853
9.179711
8.919835
9.500980
9.124875
8.891821
9.004474
9.181499
8.986592
8.926988
9.124875
8.813739
8.367896
9.032488
8.457899
8.528829
8.850694
8.256435
8.835793
##ZVALUE=285
0.907779
0.910759
0.886917
0.912547
1.112819
1.107454
1.055598
1.139641
0.991821
1.049638
1.266599
1.038909
1.233816
1.246929
1.173615
1.263618
1.275539
1.331568
1.256466
1.445413
1.607537
1.746416
1.970530
2.179742
4.550815
14.147758
49.672723
100.624561
236.371756
419.838428
654.861927
987.066031
1015.638709
1015.638709
1015.638709
993.739963
759.055018
431.936979
252.586603
113.388896
59.119463
34.171939
35.788417
55.129528
74.312687
103.223920
125.201941
140.402913
146.457553
142.750740
132.003427
107.568502
85.509419
58.596730
40.992498
24.403930
15.888810
10.202527
8.317828
7.503629
6.907582
7.026792
7.207990
6.863475
7.140636
7.806420
7.733703
7.374883
7.719994
8.554459
8.157492
8.742809
8.786917
9.537935
9.061694
9.316802
8.787513
9.113550
9.091496
9.062886
8.791685
8.698702
8.481741
8.719563
8.506775
8.494854
8.650422
8.496642
8.844733
8.500814
8.598566
8.255839
7.799864
8.575916
8.440614
8.257627
##ZVALUE=290
0.844598
0.905991
0.877976
0.906587
0.862479
0.817776
0.994802
0.853539
0.995994
0.982881
0.948906
1.020432
0.947714
1.200438
1.170635
1.074672
1.146793
0.984669
1.160502
1.291633
1.329780
1.251698
1.349449
1.836419
1.643896
2.007484
2.419949
6.116629
26.941895
104.096532
144.128799
433.886647
473.751426
805.680752
855.921507
968.090892
972.205997
714.581609
681.426525
352.623463
287.568569
175.142884
75.687766
27.993917
25.734901
39.827824
49.771667
66.705942
96.435547
125.124454
131.999850
140.578747
138.080716
123.731494
106.240511
78.646541
41.262507
39.301515
24.079680
17.007589
10.099411
8.125901
6.650686
6.581545
6.156564
6.449819
6.851554
7.213950
7.161498
7.533431
7.806420
8.253455
8.368492
8.580685
8.898973
8.212924
8.287430
8.136630
8.578897
8.781552
7.896423
8.406639
8.890629
8.699894
8.433461
8.477569
8.462667
8.631945
8.594990
8.397698
8.024573
8.133650
8.282661
8.521676
8.161664
8.202791
##ZVALUE=295
0.936985
0.887513
0.914931
0.895858
0.770688
0.834465
0.815988
0.808835
0.877976
0.952482
0.799894
0.950694
0.830889
0.958443
1.002550
0.982881
1.198649
1.109838
1.007915
0.998974
1.188517
1.306534
1.376867
1.265407
1.470447
1.548529
1.724958
1.592636
1.868606
3.108978
9.301901
39.205551
90.193748
215.956569
353.958607
578.601956
732.503533
884.341002
916.875005
844.592452
726.533532
516.403913
361.664891
191.639662
105.363727
41.286945
23.123622
20.127892
28.822422
47.140718
63.838959
89.475513
108.379722
126.309991
133.508444
129.911900
120.876431
98.169446
79.693794
55.351853
39.172769
23.381710
15.841722
10.384917
8.105636
6.620884
6.427765
7.060766
6.921887
7.024407
7.228851
7.940531
7.978678
8.138418
7.802844
8.433461
8.526444
8.151531
8.311868
8.326769
8.423924
8.497834
8.576512
8.541942
8.082986
8.480549
8.697510
8.477569
8.373857
8.358955
8.499622
7.858872
8.083582
8.315444
8.065701
8.038878
##ZVALUE=300
0.968575
0.782609
0.698566
0.887513
0.801682
0.778437
0.804663
0.889897
0.839829
0.822544
0.829697
0.854731
0.950694
0.910759
1.014471
0.960827
1.028776
1.120567
0.914931
0.957847
0.969768
0.942945
1.205802
1.277924
1.214743
1.280904
1.354814
1.366735
1.376867
1.508594
1.672506
2.004504
4.304647
24.098754
59.971809
153.281689
265.980959
469.134450
631.120801
810.589790
892.152786
879.460573
793.809891
608.133674
447.683930
246.555805
148.318410
66.853762
32.255650
15.914440
16.816854
26.926994
38.801432
60.190558
80.054998
104.110837
118.356943
127.846003
125.332475
113.768578
99.080801
75.536966
57.657957
37.463903
25.418997
14.694929
10.779500
7.827878
7.123947
6.989837
6.740689
7.693768
7.620454
7.493496
7.535815
8.033514
8.092523
8.346438
8.407831
8.296967
8.219481
8.413792
8.487701
8.653998
8.321404
8.604527
8.212924
8.453727
8.512735
8.271933
7.861853
8.299947
8.222461
7.902980
7.907748
7.943511
##ZVALUE=305
0.606775
0.684857
0.654459
0.795722
0.820756
0.732541
0.834465
0.938773
0.882745
0.725985
1.001954
0.917912
0.914931
0.829697
1.015663
0.921488
1.011491
0.907779
0.909567
0.947714
0.993609
1.052618
1.033545
1.342893
1.195669
1.289845
1.241565
1.247525
1.373887
1.371503
1.382828
1.609921
1.401901
1.683831
2.598763
13.892651
39.019585
109.240413
202.986598
382.622480
547.526479
750.578642
873.416662
924.071670
870.110989
700.886846
544.826984
338.275433
209.170580
94.336867
46.029687
18.250942
12.197495
16.251802
23.826957
40.355921
55.793524
80.070496
96.079707
112.753510
119.847655
118.889809
109.736919
91.421604
74.747801
51.513910
37.147999
23.347735
15.753508
10.279417
8.629560
7.711649
7.754564
7.762909
7.836819
7.733703
8.051991
7.984638
8.006692
8.301735
8.595586
8.380413
8.408427
8.774996
8.475780
8.704662
8.352995
8.483529
8.274913
8.610487
8.408427
8.264780
8.201599
8.446574
7.966757
8.050799
##ZVALUE=310
0.662804
0.807643
0.735521
0.749826
0.659823
0.795722
0.923872
0.720620
0.819564
0.683665
0.785589
0.966787
0.861883
0.840425
0.844598
0.745654
0.841618
0.773668
1.045465
0.939965
0.808835
0.876784
0.894666
1.091957
1.101494
0.924468
1.030564
1.043677
1.090765
1.188517
1.188517
1.303554
1.283884
1.556873
1.448989
1.682639
1.759529
6.166697
19.938946
67.133904
133.445859
279.559493
426.811576
639.397502
781.213641
892.166495
892.890692
781.701803
647.370815
430.991650
284.980536
139.840841
72.906613
27.412772
13.833642
10.859966
14.026761
22.510886
32.257438
50.694942
67.222714
89.764595
102.984905
112.490654
113.103986
104.101896
92.259645
71.322918
54.314733
35.542846
25.146604
16.741753
12.162924
8.812547
8.179545
8.007884
7.626414
7.852912
7.753968
8.155704
8.201599
8.393526
8.071661
8.360744
8.648634
8.366704
8.473992
8.481741
8.575916
8.357763
8.377433
8.242726
8.130670
8.166432
8.293986
8.243918
##ZVALUE=315
0.766516
0.750422
0.702739
0.785589
0.588894
0.633597
0.799894
0.612736
0.656843
0.712872
0.751615
0.801682
0.762939
0.763535
0.760555
0.851750
0.981688
0.780821
1.001954
0.705719
0.787973
0.941753
0.933409
0.881553
0.933409
0.900626
1.074672
0.898838
0.970960
1.038909
1.042485
1.091957
1.192689
1.308918
1.377463
1.359582
1.451969
1.490712
1.908541
2.998710
10.574460
42.551756
93.599558
211.821795
347.899795
565.066934
709.166527
842.821598
890.779495
838.412642
728.985667
529.854894
374.244452
198.661685
107.483864
39.628744
17.775893
9.277463
9.520650
13.784766
19.507408
31.565428
44.509768
65.123439
80.838799
100.060701
106.259584
106.452703
100.390911
85.256696
69.800615
51.941872
38.491488
23.449659
16.112924
11.112690
9.228587
8.337498
7.832646
8.061528
8.307695
8.239746
8.033514
8.344650
8.438826
8.736849
8.648634
8.606911
8.377433
8.495450
8.677840
8.482933
8.313656
8.284450
8.112788
8.189678
##ZVALUE=320
0.727773
0.796914
0.565648
0.681877
0.699759
0.809431
0.662804
0.741482
0.599623
0.652671
0.771880
0.672936
0.929832
0.847578
0.810623
0.864863
0.887513
0.727773
0.682473
0.963807
0.882745
0.919700
0.916719
1.004934
0.950694
0.962615
0.782609
0.975728
0.924468
1.016855
1.057982
1.139641
0.862479
1.161695
1.080632
1.322627
1.152754
1.436472
1.364946
1.521707
1.529455
1.895428
4.997849
23.815632
60.621500
158.004761
261.819959
442.922711
598.549843
782.457590
869.663954
873.886943
801.423788
627.569556
463.187695
261.007547
148.602724
62.561631
28.749704
10.880828
8.177757
9.174943
11.471510
18.341541
26.930571
44.252872
58.508515
76.897740
90.235472
101.089478
102.163553
95.525980
85.233450
65.338612
51.113963
33.961535
24.404526
16.232729
11.876822
9.461641
8.572936
8.158684
8.343458
8.361936
8.278489
8.566976
8.465648
8.297563
8.481741
8.359551
8.226633
8.452535
8.313656
8.082986
8.051991
7.849932
##ZVALUE=325
0.675917
0.699759
0.649691
0.650883
0.689626
0.770688
0.798702
0.570416
0.748634
0.772476
0.560880
0.711679
0.845790
0.908971
0.688434
0.725985
0.629425
0.709891
0.816584
0.739694
0.768900
0.796914
0.562668
0.875592
0.782609
0.870824
1.053810
0.770688
0.989437
0.972748
0.877976
0.864863
0.888705
1.050830
0.880957
1.181960
0.943542
1.172423
1.022816
1.164675
1.216531
1.426935
1.382828
1.442432
3.307462
11.412501
43.906569
93.025565
206.809640
337.857604
544.739962
684.560537
820.814967
858.165622
794.547796
682.898760
483.900905
343.413949
184.671879
101.969838
37.418604
16.496778
8.111596
7.580519
8.572936
11.313558
17.673969
25.888681
42.512417
56.791902
76.421499
86.692572
95.021725
95.720887
87.873936
78.217983
61.260462
47.411919
32.613873
23.424625
15.077591
12.156963
9.513497
8.559823
8.169413
8.333921
8.505583
8.131862
8.170605
8.006692
8.050799
8.240938
7.716417
8.102655
7.960796
8.015633
##ZVALUE=330
0.701547
0.741482
0.780821
0.723600
0.657439
0.638962
0.755787
0.713468
0.781417
0.716448
0.815988
0.690818
0.750422
0.733733
0.690818
0.765920
0.707507
0.717640
0.844598
0.758767
0.731945
0.682473
0.611544
0.755787
0.743866
0.862479
0.803471
0.829697
0.870824
0.878572
0.683665
0.914931
0.882745
0.902414
0.986457
1.014471
0.931621
1.053810
1.103878
1.060963
1.261830
1.268983
1.316667
1.317859
1.464486
1.730919
1.834631
6.761551
20.732880
68.866611
134.364963
277.305841
419.837832
628.793836
763.659477
862.990022
841.589570
701.991916
558.991432
364.160538
233.135819
108.136535
55.419803
21.104813
10.432601
7.314682
7.092953
8.319616
10.584593
17.492771
25.238991
38.824677
51.605701
69.978833
80.745816
89.756846
90.072751
83.182454
73.387623
56.941509
43.846965
30.405521
22.618771
16.069412
12.528896
9.955764
8.685589
8.279681
8.104444
8.089542
7.797480
7.967949
7.722974
7.879734
7.717609
7.739663
##ZVALUE=335
0.752807
0.758767
0.895858
0.833869
0.945926
0.858903
0.850558
0.850558
0.765920
0.937581
0.859499
0.898838
0.781417
0.874996
0.868440
0.933409
0.871420
1.021624
0.949502
0.807643
0.792742
0.989437
0.917912
0.894666
0.868440
1.121759
0.974536
1.027584
0.941753
1.034737
0.953674
1.021624
1.027584
1.097918
1.070499
1.007915
1.155734
1.229644
1.101494
1.251698
1.230836
1.330972
1.566410
1.357794
1.249909
1.407862
1.510978
1.596808
1.614690
3.469586
11.291504
43.139458
91.294646
206.272006
336.241722
543.418527
686.368942
804.777741
827.482939
741.046667
624.450445
423.916578
286.397934
148.176551
78.850985
28.332472
13.435483
7.704496
7.157922
7.411838
8.439422
11.132956
15.403628
25.874972
35.923719
52.005649
65.092444
76.870918
83.046556
84.097981
78.133941
66.814423
56.744814
43.161511
33.582449
22.857785
16.752481
11.806488
9.925961
8.541942
7.834435
7.828474
7.643700
8.044839
7.433891
7.693768
##ZVALUE=340
0.620484
0.721812
0.793934
0.713468
0.633597
0.687838
0.643730
0.540614
0.592470
0.757575
0.605583
0.613928
0.797510
0.775456
0.645518
0.790954
0.840425
0.715852
0.746846
0.663996
0.729561
0.784993
0.729561
0.689626
0.829697
0.809431
0.750422
0.721812
0.794530
0.808835
0.640750
0.729561
0.909567
0.810623
0.778437
0.852942
0.735521
0.916719
0.884533
0.942945
0.923872
1.060963
1.036525
1.094937
0.891685
0.985861
1.139641
1.267791
1.215935
1.276731
1.640916
1.907945
5.509853
26.151538
63.564777
156.583786
264.977813
447.878838
601.777434
769.704580
832.936764
800.845623
703.572631
515.016913
360.683799
188.138485
101.502538
39.443970
17.372966
8.342862
7.075667
6.902814
7.136464
7.953644
10.487437
16.327500
23.143888
35.046935
46.325922
62.011480
71.789622
77.775717
79.195499
73.796511
65.368414
53.288937
42.623878
30.479431
23.082495
16.131997
11.805892
9.403825
8.194447
7.581711
7.166862
6.971955
##ZVALUE=345
0.651479
0.612736
0.563860
0.605583
0.558496
0.619888
0.604987
0.624657
0.629425
0.651479
0.611544
0.603795
0.840425
0.687838
0.717640
0.692606
0.619888
0.584722
0.684857
0.706911
0.645518
0.570416
0.747442
0.785589
0.892878
0.805855
0.836849
0.694990
0.964999
0.780821
0.782609
0.750422
0.734925
0.882745
0.717640
0.916719
0.903606
0.876784
0.799894
1.095533
0.744462
0.935793
1.071692
1.115799
0.825524
0.955462
1.013875
1.110435
1.001954
1.166463
1.184940
1.300573
1.414418
1.578927
2.727509
14.426708
39.210916
101.867914
186.480880
354.341865
508.434772
717.819929
832.436681
874.407887
816.645622
624.859929
452.640653
257.072449
140.159726
54.690838
25.674701
10.328889
7.265806
6.651878
6.642938
6.975532
8.010864
9.986758
13.699532
22.138953
31.145811
45.421720
55.259466
65.446496
71.574450
72.949529
70.692897
61.796904
53.803921
41.203499
31.462908
21.207929
15.716553
11.420846
9.058714
7.819533
##ZVALUE=350
0.630617
0.630617
0.606775
0.593662
0.444651
0.680685
0.635982
0.685453
0.651479
0.670552
0.754595
0.472665
0.525713
0.729561
0.617504
0.707507
0.686646
0.609756
0.603795
0.763535
0.602603
0.585914
0.710487
0.710487
0.761747
0.795722
0.682473
0.756979
0.559688
0.598431
0.749826
0.615716
0.617504
0.753999
0.542998
0.520945
0.728965
0.661612
0.620484
0.827909
0.651479
0.678897
0.738502
0.856519
0.852942
0.938773
0.870824
0.940561
0.918508
1.047850
0.876784
0.939965
1.066923
1.222491
1.201630
1.243949
1.720786
7.626414
22.487640
68.108439
130.203962
264.977813
391.652584
557.080507
667.802691
735.992789
705.415606
590.371490
457.303524
275.565982
166.985989
73.777437
34.172535
11.882782
7.222891
6.350875
6.307960
5.989671
6.184578
7.368922
8.941889
13.864636
18.907785
28.173923
36.559701
48.757792
57.761669
64.671636
66.853762
65.241456
59.427619
48.635602
39.552450
28.107762
21.747947
14.999509
##ZVALUE=355
0.753999
0.645518
0.744462
0.756979
0.755787
0.662804
0.824928
0.570416
0.638962
0.657439
0.752807
0.945926
0.714660
0.855923
0.621676
0.786781
0.824928
0.830889
0.708699
0.740886
0.746846
0.825524
0.722408
0.770688
0.833869
0.776649
0.789762
0.781417
0.895858
0.877976
0.840425
0.817776
0.765920
0.807643
0.792742
0.718832
0.875592
0.892878
0.973940
1.000762
0.894666
0.968575
0.933409
0.934601
0.912547
0.815988
0.934601
0.887513
1.106858
0.986457
1.044869
0.963807
1.045465
1.125932
1.249909
1.340508
1.312494
1.279712
1.648664
3.836751
12.275577
45.548677
93.118548
195.114613
309.892893
490.991473
604.846478
699.349642
705.453753
609.175563
494.971871
327.512622
209.375620
94.857812
46.812892
16.367435
8.228421
6.230474
6.104708
5.833507
6.149411
6.019473
6.623864
8.522868
11.133552
16.605854
23.386478
33.994913
41.713715
51.692724
57.398677
60.779452
59.285760
52.580833
46.697855
36.633611
##ZVALUE=360
0.900626
0.634789
0.795722
0.882745
0.686646
0.692606
0.811815
0.790954
0.809431
0.833869
0.727773
0.831485
0.783801
0.855923
0.826716
0.706911
0.980496
0.838637
0.933409
0.885725
0.729561
0.538826
0.819564
0.729561
0.732541
0.817776
0.861883
0.856519
0.809431
1.051426
0.987649
0.737906
0.898838
0.811815
0.759959
0.850558
0.948906
0.897646
0.843406
0.909567
0.874996
1.009703
1.070499
1.051426
0.840425
0.934601
0.789762
1.067519
1.088977
1.136661
0.998974
0.997782
1.062751
1.145601
1.064539
1.222491
1.127720
1.268983
1.203418
1.616478
1.468658
2.027750
5.633831
24.175644
57.598948
140.667558
234.709978
388.363004
519.868731
649.738908
691.402555
650.572777
557.037592
385.299921
258.698463
127.438903
67.327619
26.353598
11.766553
6.505847
5.780458
5.754828
5.370975
5.490780
5.340576
6.007552
7.163882
9.945631
12.874603
19.713640
26.873946
36.915541
44.111609
51.779747
54.714680
55.031776
##ZVALUE=365
0.658631
0.564456
0.473857
0.453591
0.615716
0.486970
0.528693
0.718832
0.628829
0.686646
0.605583
0.698566
0.615716
0.643730
0.768900
0.635982
0.610948
0.625849
0.701547
0.740886
0.682473
0.601411
0.518560
0.648499
0.666976
0.643730
0.739694
0.643730
0.581741
0.677705
0.634789
0.762939
0.776649
0.778437
0.759959
0.837445
0.713468
0.687838
0.910759
0.952482
0.906587
0.794530
0.766516
0.837445
0.899434
0.939965
0.761747
0.892878
0.826716
0.925660
0.990629
0.899434
0.946522
0.903606
1.045465
1.062751
1.099706
1.240969
1.136661
1.147985
1.232624
1.281500
1.343489
1.597404
2.709627
13.178587
36.468506
99.672675
179.128647
320.274830
443.225503
585.387945
647.754669
643.657446
572.242737
427.132845
309.407711
169.386864
93.992949
36.699772
16.104579
6.530881
5.635619
5.477667
5.254745
4.980564
4.883409
5.094409
5.110502
6.120801
8.100867
11.660457
16.090870
22.980571
29.298663
38.224459
##ZVALUE=370
0.488758
0.592470
0.606775
0.663996
0.616908
0.611544
0.620484
0.532866
0.565648
0.739694
0.591874
0.548959
0.636578
0.570416
0.786781
0.681877
0.569820
0.710487
0.643730
0.659823
0.587702
0.627637
0.694990
0.715852
0.719428
0.637770
0.678897
0.624657
0.703931
0.659823
0.728965
0.731945
0.746846
0.719428
0.780821
0.711679
0.887513
0.736713
0.712872
0.758767
0.712872
0.749826
0.804663
0.822544
0.819564
0.849962
0.753999
0.885725
0.726581
0.818968
0.931621
0.799894
0.811815
0.793934
0.741482
0.722408
0.863671
0.866652
1.046658
0.998974
1.107454
1.152754
1.186728
1.284480
1.416802
1.507998
1.842976
7.146597
22.598505
70.928931
130.815506
250.333548
369.513631
526.010990
610.106587
636.611581
588.958859
469.607711
350.778699
200.867653
115.431547
46.901703
22.660494
8.993745
5.738735
5.207658
4.688501
4.652739
4.496574
4.301667
4.346967
4.554987
5.372763
7.120967
9.590983
14.556646
##ZVALUE=375
0.643730
0.548959
0.630617
0.546575
0.596642
0.614524
0.674725
0.722408
0.488758
0.639558
0.557899
0.597835
0.628829
0.583529
0.701547
0.786781
0.545979
0.561476
0.487566
0.707507
0.648499
0.617504
0.627637
0.716448
0.586510
0.641942
0.729561
0.697970
0.783801
0.793934
0.754595
0.686646
0.685453
0.748634
0.748634
0.743866
0.623465
0.747442
0.739694
0.689626
0.832677
0.695586
0.864863
0.843406
0.647902
0.735521
0.661612
0.688434
0.897646
0.763535
0.841618
0.772476
0.690818
0.866652
0.682473
0.952482
0.914931
0.917912
0.830889
0.909567
0.961423
0.847578
0.889897
0.952482
1.176596
1.049638
1.154542
1.285672
1.558661
3.646612
12.306571
43.092966
89.515448
198.365450
309.035778
468.552709
565.740466
633.362532
618.489981
515.741706
406.278968
251.934528
158.165693
73.955655
37.675500
13.196468
6.627440
4.723668
4.429817
4.450679
4.194975
4.123449
4.010797
4.088879
4.050732
4.751682
##ZVALUE=380
0.592470
0.617504
0.663996
0.663996
0.554919
0.656843
0.542998
0.703931
0.622869
0.596642
0.652671
0.706911
0.663996
0.733733
0.674725
0.651479
0.640750
0.771880
0.700951
0.699759
0.747442
0.443459
0.744462
0.555515
0.716448
0.899434
0.647902
0.553727
0.584722
0.710487
0.662804
0.686646
0.738502
0.653863
0.844598
0.688434
0.793934
0.695586
0.787973
0.701547
0.668764
0.634789
0.763535
0.632405
0.566840
0.634789
0.704527
0.807643
0.763535
0.831485
0.747442
0.784993
0.839829
0.766516
0.775456
0.757575
0.746846
0.749826
0.765920
0.881553
0.882745
0.879765
0.899434
0.880957
0.951886
0.934601
0.904799
1.183748
1.233816
1.431704
1.395941
2.119541
6.748438
29.744506
67.972541
157.710910
257.432461
406.590700
521.592498
619.558692
626.734495
543.635488
449.901819
316.007733
213.699937
106.288791
55.432916
19.924641
9.364486
4.809499
4.325509
4.104972
3.857613
3.873706
3.705621
3.872514
##ZVALUE=385
0.685453
0.571609
0.628829
0.722408
0.650883
0.639558
0.552535
0.628829
0.795722
0.630617
0.669956
0.544786
0.583529
0.692606
0.564456
0.554919
0.626445
0.648499
0.575781
0.484586
0.566840
0.626445
0.563860
0.645518
0.719428
0.780821
0.677705
0.655651
0.711679
0.681877
0.430942
0.684857
0.599623
0.588894
0.541806
0.722408
0.589490
0.616908
0.565648
0.745654
0.733733
0.733733
0.766516
0.615716
0.566840
0.771880
0.611544
0.683665
0.659823
0.743866
0.693798
0.721812
0.808835
0.586510
0.681877
0.729561
0.936985
0.805855
0.818968
0.815988
0.786781
0.704527
0.840425
0.744462
0.762939
0.778437
0.832677
1.028776
1.042485
1.053810
1.226664
1.238585
1.306534
1.505613
3.458858
17.359853
43.688416
108.338594
192.262530
343.414545
462.414622
583.232641
618.196726
592.522621
520.216823
383.774638
271.717906
148.266554
84.418654
36.039948
14.953613
5.693436
3.939867
3.718734
3.672838
3.502965
##ZVALUE=390
0.566840
0.496507
0.639558
0.565648
0.563860
0.509620
0.672936
0.649691
0.565648
0.690818
0.721812
0.775456
0.665784
0.614524
0.358820
0.561476
0.687838
0.648499
0.535846
0.668764
0.537634
0.791550
0.679493
0.705719
0.582933
0.597835
0.479817
0.677705
0.705719
0.564456
0.720620
0.620484
0.760555
0.639558
0.642538
0.547767
0.614524
0.602603
0.510812
0.478625
0.698566
0.641942
0.731945
0.774860
0.729561
0.696778
0.780821
0.738502
0.676513
0.696778
0.825524
0.679493
0.658631
0.727773
0.555515
0.536442
0.631809
0.691414
0.799894
0.661612
0.769496
0.618696
0.823736
0.725985
0.704527
0.811815
0.798702
0.910759
0.873804
1.142621
1.081824
1.136661
1.341701
1.210570
1.237988
1.385808
2.073646
9.257793
27.688742
82.880855
154.014826
293.059945
400.206447
525.766611
594.312549
614.941716
566.585660
445.713997
340.158939
205.963850
120.272636
49.418807
22.898912
7.291436
4.381537
3.805757
##ZVALUE=395
0.508428
0.666976
0.566840
0.575781
0.618696
0.514984
0.588894
0.672936
0.705719
0.655651
0.700951
0.618696
0.451803
0.623465
0.630617
0.527501
0.576973
0.732541
0.591874
0.519753
0.603795
0.600815
0.674725
0.597835
0.546575
0.667572
0.774860
0.621676
0.636578
0.621676
0.669956
0.711679
0.590682
0.679493
0.648499
0.524521
0.671744
0.578761
0.603795
0.547767
0.628829
0.516772
0.689626
0.617504
0.752807
0.710487
0.673532
0.627637
0.578761
0.833869
0.610948
0.722408
0.620484
0.799894
0.674725
0.767708
0.729561
0.786781
0.723600
0.788569
0.791550
0.716448
0.834465
0.723600
0.800490
0.935793
0.833869
0.942945
0.867844
0.845790
1.078844
1.177788
0.992417
1.074672
1.091957
1.129508
1.119971
1.282692
1.468658
5.608797
18.878579
63.306689
117.912889
222.839713
331.414938
482.781529
581.437945
641.817451
625.419021
528.318882
414.263606
255.605578
159.916878
69.235563
33.533573
11.859536
##ZVALUE=400
0.560880
0.587702
0.589490
0.657439
0.540614
0.638962
0.581741
0.594854
0.509620
0.527501
0.498891
0.567436
0.577569
0.457764
0.522733
0.552535
0.522733
0.661612
0.559688
0.455976
0.697970
0.516772
0.742674
0.494719
0.640750
0.618696
0.701547
0.498891
0.675917
0.685453
0.496507
0.644922
0.728965
0.734925
0.778437
0.676513
0.715852
0.617504
0.529885
0.618696
0.516772
0.678897
0.631809
0.675917
0.672936
0.667572
0.630617
0.690818
0.565648
0.583529
0.679493
0.632405
0.751615
0.749826
0.811815
0.752807
0.866652
0.752807
0.604987
0.710487
0.599623
0.822544
0.860691
0.780821
0.806451
0.889897
0.805855
0.893474
1.018643
1.039505
0.950694
0.916719
1.030564
1.053810
1.258850
1.070499
1.059771
0.979900
1.154542
1.283884
1.367927
2.911687
10.419488
39.756894
84.409714
184.496641
291.787982
457.109809
563.839674
657.406449
666.866899
582.356453
480.592847
328.016877
215.215683
107.066631
##END
