##TITLE=FQP00301
##FORMAT=SPECTACLE-ASCII V-1.2
##DATA TYPE=ULTRAVIOLET SPECTRUM
##SECOND TYPE=ULTRAVIOLET SPECTRUM
##DATE=01/21/18
##TIME=12:42:48
##SPECTROMETER/DATA SYSTEM=SPECTACLE
##XUNITS=NM EM
##YUNITS=ENERGY
##YFACTOR=1
##FIRSTX=220
##LASTX=410
##NPOINTS=96
##3DDATA=Equidistant
##ZUNITS=NM EX
##FIRSTZ=210
##LASTZ=400
##ZPOINTS=39
##XYDATA=(Y..Y)
##ZVALUE=210
2.631545
2.410412
2.012849
2.368689
2.253652
2.880692
3.070831
3.477931
4.234910
4.104972
4.226565
5.804896
6.346703
5.857944
5.841851
7.059574
7.047653
6.868839
8.851886
8.637905
9.847879
9.648800
10.596514
10.955930
12.301803
12.103915
13.150573
13.953447
15.744567
15.946627
17.152429
16.382933
15.507936
16.787648
18.813610
17.479658
17.761588
18.997788
18.079877
18.244982
19.436479
20.347834
21.649599
19.936562
20.444989
21.645427
22.190809
21.485686
23.605824
23.427606
22.126436
24.693608
22.536516
25.739670
24.508834
25.631785
26.235580
26.305914
26.759505
26.905537
27.152896
28.694868
29.068589
30.259490
30.202866
31.132698
32.970905
35.191774
40.422678
48.647523
60.874820
69.886446
82.428455
91.597438
104.479790
112.496614
122.227669
124.234557
128.724575
121.819973
115.339756
102.694631
91.271996
79.588890
67.748427
56.452751
42.499900
37.635565
30.658841
28.950572
26.571751
25.698543
27.271509
27.444959
27.353764
27.308464
##ZVALUE=215
16.961694
16.172528
15.263557
14.603734
11.150837
9.935498
7.072687
6.710887
6.813407
8.069873
8.031726
8.003712
7.774830
9.974837
8.280873
9.313822
9.905696
11.022687
10.101795
12.548566
14.033914
15.020967
13.923645
14.269948
16.479492
17.296672
18.055439
19.589663
19.700527
21.236539
21.694899
22.310615
22.533536
22.722483
23.624897
23.708940
24.265647
25.006533
24.831891
24.845600
27.281642
24.904609
25.112629
25.404692
25.995970
30.346513
27.867556
26.381612
27.988553
27.920604
28.965473
27.025938
29.035807
28.865933
31.749606
29.717684
29.363632
30.681491
31.498671
32.680631
30.692816
32.300949
31.352639
32.103658
33.187866
35.569668
37.550926
41.437745
49.076676
55.351853
66.852570
80.707669
93.390942
109.698772
122.950673
132.528543
132.700801
141.362548
136.743784
132.613778
123.986602
109.716654
97.728968
80.745816
68.280697
54.431558
46.453476
37.765503
36.169887
32.732487
31.572580
31.327605
27.127862
29.175878
31.345487
29.664636
##ZVALUE=220
77.139735
84.041953
94.427466
100.334883
94.555616
82.650781
65.424442
37.855506
25.208592
17.593503
16.490817
17.351508
17.656684
17.634630
16.843677
14.782548
14.216900
14.821887
14.255643
14.814734
16.276836
16.813874
18.286705
19.752979
20.376444
21.948814
21.785498
24.069548
24.763942
27.341843
27.424693
27.956963
26.342869
27.613640
28.125644
29.315948
30.663610
28.350949
30.548573
28.864741
30.304790
30.331612
31.634569
31.499863
30.916929
31.757951
33.247471
32.554865
33.021569
34.890771
34.538507
33.574700
34.633875
34.652948
34.067631
35.283566
36.031604
35.028458
36.593676
35.104752
36.478639
35.688877
34.359694
36.573410
36.016703
39.932728
42.898655
48.310757
54.645538
60.692430
73.632002
89.321733
106.056929
119.755864
132.490993
147.269964
150.405765
161.873698
161.634684
156.033635
147.349834
130.936503
121.705532
97.602606
80.811977
59.984922
53.860545
41.280985
38.272738
33.941865
32.478571
34.639835
33.457875
32.715797
32.565594
32.012463
##ZVALUE=225
163.784623
176.900625
248.999000
337.787867
379.828811
376.025438
343.267918
245.023966
171.551704
110.496879
53.332448
35.365820
31.587481
34.723878
33.659935
33.948421
30.406713
26.754737
24.729967
22.783875
20.351410
18.359423
18.058419
19.687414
18.363595
20.504594
23.220778
23.416877
24.489760
25.265813
27.526617
28.137565
27.727485
30.187964
30.467510
31.421781
31.745434
31.618476
30.700564
31.461716
32.039881
28.301477
30.273795
29.559731
30.920506
30.792952
31.899810
30.835867
31.162500
31.492710
30.291677
31.234622
31.062961
32.533407
33.409595
30.468702
32.436848
30.169487
32.315850
29.524565
31.041503
32.746792
31.683445
30.989647
31.502843
31.683445
33.806562
36.639571
39.229989
48.391819
56.727529
64.114928
71.058869
79.100728
85.765719
90.037584
95.104575
91.346502
92.605948
88.423491
82.729459
73.497891
64.765811
56.502819
48.420429
41.050911
35.716891
30.978918
29.498935
30.186772
27.465820
26.814938
27.247667
27.088523
26.640892
26.498437
##ZVALUE=230
131.123662
148.658752
246.067643
409.860015
523.284674
636.773705
673.201680
637.584925
537.851453
423.529744
258.921981
153.237581
80.853701
55.275559
51.287413
54.391623
55.203438
55.534840
51.274896
42.036772
36.494732
26.027560
20.574927
15.948415
13.186932
12.842417
13.908744
15.595555
16.111732
17.780662
17.748475
18.587708
19.325614
20.921826
21.822453
20.484924
22.430420
20.287633
19.293427
18.464923
21.241903
20.986795
18.537641
20.063519
20.376444
18.977523
20.618439
20.895600
19.264817
19.659996
20.188689
21.167994
19.606948
19.476414
19.379854
19.686818
21.388531
21.479726
21.785498
21.529794
20.572543
22.536516
20.927787
21.511912
22.766590
24.434924
24.669766
27.223825
30.545592
33.970475
40.671825
42.253733
52.637458
55.049658
58.563948
64.717531
64.663887
61.761737
64.532757
58.347583
56.772828
50.511956
44.466853
38.515925
34.460425
31.686425
28.890967
29.011965
28.911829
27.743578
25.866628
26.378632
24.312735
26.816726
25.910735
26.712418
##ZVALUE=235
38.618445
43.694973
137.048960
278.399587
494.740009
898.437500
1015.638709
1015.638709
1015.638709
1015.638709
1015.638709
966.439843
649.508834
344.622731
211.139917
119.156837
95.773935
89.467764
96.306801
97.737908
91.716647
75.967908
62.683821
52.224994
35.336614
26.758909
24.352670
19.724965
19.489527
18.504858
19.782782
19.636750
20.770431
20.489693
20.030737
19.933581
22.406578
21.695495
21.298528
22.211671
21.082759
22.014976
22.591949
21.826625
22.828579
22.436976
21.868944
21.925569
23.002625
22.505522
20.839572
22.296906
21.071434
23.755431
22.704601
22.950768
24.434924
25.400519
22.854805
25.415421
24.552941
25.791526
25.509000
26.515722
25.771856
29.328465
31.052828
32.927990
36.546588
41.707754
45.035481
53.304434
60.043931
71.741939
69.537759
70.983768
73.009729
71.471930
65.670609
63.962936
64.543486
55.085421
52.462816
47.260523
44.845939
39.964914
37.615895
35.845637
34.389496
34.263730
35.996437
34.986734
34.930706
33.938885
33.401847
34.555793
##ZVALUE=240
3.672838
4.601479
19.102693
78.838468
183.796883
432.956815
729.215741
1015.638709
1015.638709
1015.638709
1015.638709
1015.638709
1015.638709
1015.638709
883.013606
550.502539
268.308520
166.782737
118.764639
106.224418
113.858581
122.916698
119.752884
105.574727
92.646480
69.733858
55.354834
37.350655
31.024814
22.924542
20.304918
17.243624
16.858578
16.515851
17.808676
16.723871
17.448664
18.274784
16.571879
16.640425
15.886426
16.878843
18.084645
18.034577
17.656684
16.586781
15.836954
16.601682
16.675591
18.103719
16.794801
16.944408
16.556978
18.300414
17.413497
17.010570
16.094446
15.713573
17.174482
17.007589
19.953847
19.455552
18.959641
19.748807
20.927787
22.759438
23.523569
25.186539
27.125478
31.483769
32.154918
39.054751
41.748881
45.472980
47.922730
48.281550
50.994754
51.233768
49.887896
48.868656
45.787692
40.925741
41.577816
36.894679
35.879612
34.998655
34.714937
35.001636
35.508871
33.382773
34.869909
34.053922
33.061504
30.846000
33.294559
31.170845
##ZVALUE=245
2.208948
2.030730
1.717806
2.336502
7.064939
23.704767
97.133517
203.644633
455.504656
686.201453
1000.448465
1015.789509
1015.789509
1015.789509
1015.789509
792.451501
592.863560
348.711610
223.124623
128.457546
102.491975
97.477436
112.017989
123.089552
131.133795
126.685500
113.053918
95.505714
71.574450
54.916739
41.405559
24.935603
19.116998
14.149547
12.350678
11.909604
11.531711
12.240410
12.773871
12.795925
11.630654
11.767745
11.736751
11.245608
11.591911
11.030436
12.095571
11.102557
10.860562
11.543632
10.702610
11.355877
10.484457
11.506677
12.415648
12.134910
11.424422
10.906458
12.986660
11.591911
12.206435
12.500882
13.618469
13.623834
14.851689
15.336871
15.448928
17.095804
18.668771
19.841790
22.336841
24.985671
25.599599
30.669570
29.174685
31.609535
32.721758
32.938719
33.328533
32.260418
33.812523
31.188726
31.487942
29.706955
30.083656
29.277802
29.285550
28.985739
30.159950
28.034449
28.020740
27.539730
28.685927
29.405951
29.292703
29.439926
##ZVALUE=250
1.424551
1.270771
1.527667
1.643896
1.923442
1.959801
4.497766
17.689466
72.740912
148.159862
367.099643
614.169836
888.426900
1015.638709
1015.638709
1015.638709
1015.638709
1015.638709
912.292004
553.502440
339.849591
206.293464
111.865997
95.265508
103.442669
119.837523
133.679509
137.413740
135.306716
120.278001
105.073452
80.768466
62.079430
39.831996
27.615428
17.352700
14.424920
12.511611
12.608767
12.431741
11.480451
11.255741
11.206865
10.825992
11.090636
11.061430
11.666417
10.564923
10.525584
10.913610
10.648966
9.912848
10.459423
10.326505
9.997487
9.934902
10.332465
10.535717
10.347962
11.366606
11.612773
12.796521
12.169480
13.047457
13.105869
12.460947
14.407635
16.072989
16.802549
18.638968
19.739866
22.233725
23.465753
26.395917
26.603937
27.458668
28.736591
30.566454
29.171705
29.172897
28.578639
28.142929
27.064681
26.774406
28.176904
27.138591
27.019978
27.107596
28.324723
28.769970
26.786923
27.319789
28.061867
27.063489
27.909875
28.301477
##ZVALUE=255
1.328588
1.428723
1.507998
1.748800
1.598597
1.871586
2.039671
2.183914
2.640486
8.728504
40.106773
91.804862
195.128918
450.570583
693.283677
1013.501883
1015.638709
1015.638709
1015.638709
1015.638709
930.700898
665.254593
367.304683
219.587684
116.568804
89.599490
88.681579
98.613501
126.064420
138.135552
145.246983
138.071775
127.110481
103.902817
84.388852
57.491660
44.007897
26.597977
20.057559
14.110804
12.751818
12.688637
11.597872
11.064410
11.680722
12.045503
11.617541
11.705756
11.617541
10.580420
10.395646
10.605454
9.728670
10.440946
10.023713
9.614825
9.066463
10.107756
9.128451
9.264946
10.025501
10.365844
11.150837
10.953546
11.261702
12.190938
12.308955
13.339520
14.979839
15.980601
17.669797
19.206405
21.154881
23.695827
23.012757
24.184585
23.472905
24.994612
24.771690
26.407838
24.752617
24.991632
23.610592
23.976564
26.183724
25.237799
25.440454
25.704503
25.257468
25.620461
25.472641
26.025772
26.581883
25.680661
26.015639
27.144551
##ZVALUE=260
1.438856
1.298785
1.161695
1.420975
1.560450
1.569986
1.439452
1.462698
1.707673
1.721978
1.997948
4.134774
19.954443
85.446835
185.340643
403.784513
610.436797
878.645778
1015.638709
1015.638709
1015.638709
1015.638709
1015.638709
911.821723
645.014644
457.723737
274.717808
176.079869
98.237991
84.546804
99.547505
126.055479
141.510963
148.675442
145.829916
128.915906
109.448433
85.141659
63.149929
41.397810
30.267835
20.144582
15.280843
12.458563
11.811852
11.027455
11.769533
11.104941
11.012554
10.722876
10.180473
10.336637
9.715557
10.110736
8.917451
9.172559
9.189844
8.686781
9.096861
9.184480
9.243488
9.317994
9.612441
10.229945
9.268522
10.604858
10.613799
11.288524
12.003779
13.303757
14.166832
15.676618
16.446710
17.299652
18.469691
19.487739
20.722747
21.029711
20.488501
20.301938
21.750927
21.534562
20.929575
21.249652
21.255612
22.392869
22.031665
22.827983
23.999810
23.269653
23.357868
23.638606
24.057627
23.279786
23.214817
24.633408
##ZVALUE=265
1.071692
0.839829
1.155734
1.146793
1.135468
1.170635
0.977516
1.081824
1.394749
1.219511
1.274943
1.367927
1.689792
2.057552
5.116463
28.602481
67.308545
154.633522
254.266858
438.751578
598.843694
759.076476
959.741473
1015.646458
1013.445854
923.206806
710.975528
515.033603
299.674869
176.819563
104.163885
72.108507
81.716776
108.426809
128.530860
145.492554
150.451660
145.283937
134.589672
107.932687
86.534619
59.155822
43.002963
27.020574
19.575953
14.273524
12.648702
11.545420
10.806918
10.292530
10.223985
9.560585
9.109974
9.069443
9.000897
8.502603
8.350611
8.778572
8.257627
8.411407
8.178949
8.588433
8.775592
8.629560
9.364486
9.923577
10.982752
10.605454
11.418462
11.629462
12.175441
13.840795
14.348626
14.664531
15.699863
16.460419
16.910434
17.430782
17.415881
17.088652
18.215775
19.368529
19.077659
19.726753
19.906759
20.024776
20.653605
21.385550
20.920634
21.374822
21.216869
22.297502
22.080541
21.110773
21.618605
22.163987
##ZVALUE=270
0.909567
0.969768
0.886917
1.112819
0.918508
0.730753
0.913739
1.042485
1.060963
0.996590
1.193881
1.330972
1.088977
1.133680
1.427531
1.436472
1.787543
7.347465
22.952557
74.557662
146.940947
252.111554
435.175896
569.296479
718.799829
767.186880
744.488835
669.162869
522.486567
394.961834
272.886753
147.040486
90.237856
58.817863
60.734749
82.495809
105.114579
131.356716
143.551826
152.954459
147.794485
130.378604
112.589002
83.799958
62.561631
40.086508
28.173923
18.061996
13.713837
10.589957
10.101795
9.339452
8.663535
9.273887
8.296967
8.452535
8.865595
9.087920
8.804798
9.089708
8.442998
8.488894
8.863807
8.924603
9.217858
9.489655
9.708405
9.834766
10.521412
11.111498
11.842847
12.697577
13.489723
14.039874
14.518499
14.817715
15.311837
15.470982
15.810728
16.601682
17.401576
16.669631
18.116832
17.871857
18.048882
18.332601
19.364953
18.394589
19.246936
19.561648
19.889474
19.857883
19.743443
20.225644
20.117760
21.935701
##ZVALUE=275
0.759959
0.711679
0.639558
0.883937
0.695586
0.809431
0.947714
0.882745
0.852942
0.783801
0.999570
0.893474
0.868440
1.054406
1.058578
1.259446
1.104474
1.440644
1.333952
3.654957
13.048649
38.644671
106.936693
198.161602
365.458727
487.440825
641.690493
733.857751
771.582723
733.165741
644.488931
475.602746
337.603688
186.399817
113.026500
59.476495
47.367811
59.153438
75.472593
103.177428
123.673677
142.297745
147.296786
141.856670
128.919482
101.336837
84.159970
58.938861
41.887760
25.979877
17.416477
12.159944
9.772778
8.842945
8.633733
8.750558
8.706450
8.658767
8.612871
8.748770
8.751750
8.783937
9.141564
9.052753
9.887815
9.593964
10.059476
10.008812
11.082888
11.521578
12.818575
13.007522
13.628602
13.657808
14.327765
15.235543
15.571713
16.081929
16.546845
16.260743
17.638803
17.633438
17.820597
17.566681
17.529726
18.698573
18.299818
19.123554
19.159913
18.756986
18.385649
18.601418
18.418431
19.223690
18.886924
19.892454
##ZVALUE=280
0.841618
0.866652
0.806451
0.755787
0.828505
0.805855
0.755787
0.832677
0.930429
0.829697
0.817776
0.866652
1.009703
0.953674
0.962615
1.016855
1.044869
1.036525
1.028776
1.430511
1.328588
1.798868
7.268786
25.212765
81.657767
154.451728
287.883878
417.162776
586.355925
686.169863
747.529864
744.043589
669.746995
515.325665
386.430621
225.586891
135.963559
66.217780
42.413473
40.033460
52.347779
77.318549
98.276734
121.524930
136.205554
141.160488
136.634707
121.791959
104.288459
76.856613
57.618618
36.580563
25.958419
15.359521
11.667609
8.549690
8.501410
8.038878
8.504987
8.551478
8.701682
9.078979
9.276867
9.004474
9.393692
10.062456
10.451674
11.138916
10.781884
11.891723
11.694431
12.610555
13.406873
14.297962
14.697909
15.216470
15.124679
15.534759
16.628504
16.009808
16.479492
16.925931
17.561913
17.023683
17.219782
17.548800
18.092990
18.389821
18.231869
18.266439
18.305779
18.390417
18.039942
17.843843
18.819571
18.738508
##ZVALUE=285
0.708699
0.636578
0.663996
0.674725
0.764728
0.596642
0.822544
0.876784
0.802875
0.799894
0.832677
0.797510
0.794530
1.004934
1.024604
0.697970
0.837445
1.075864
1.052618
1.111627
1.255870
1.001954
1.422763
1.408458
3.485680
11.300445
39.745569
84.306598
186.468959
301.174521
428.357720
599.606633
696.897507
745.044947
708.917975
586.259961
464.456677
293.286443
187.097788
91.449618
50.137639
29.724836
32.319427
49.747825
66.938996
94.861984
113.328695
129.366517
135.428905
133.394599
123.315454
99.456906
81.368685
55.211782
39.983988
23.734570
16.423464
11.239648
9.118915
8.616447
8.531809
8.586645
8.722544
9.959936
9.712577
10.214448
10.327697
11.399984
11.232495
11.761785
12.630820
13.744831
13.764501
14.013648
14.354587
15.581846
15.760660
15.934706
15.921593
16.446710
17.514825
16.925931
17.241836
17.622709
17.763972
17.653704
18.013716
17.821789
17.899871
18.306971
18.789768
17.830729
17.755628
17.882586
17.365813
17.798543
##ZVALUE=290
0.649691
0.539422
0.523925
0.656843
0.635982
0.760555
0.668764
0.605583
0.704527
0.655651
0.612736
0.578761
0.697970
0.866652
0.696778
0.620484
0.797510
0.780821
0.812411
1.037717
1.020432
0.961423
1.038909
1.143813
1.232624
1.353621
1.643896
4.476905
19.760728
49.037933
100.681782
216.552615
338.116884
520.146489
633.160472
727.068782
728.252530
635.371804
531.153679
363.175869
246.577859
125.593543
68.670511
30.397773
22.678971
31.465888
42.589903
64.880848
84.745884
108.288527
122.577548
130.576491
128.680468
116.465688
99.957585
75.006485
56.839585
37.262440
25.584698
16.284585
12.196898
9.331703
8.828640
9.026527
9.378791
9.700656
10.072589
10.861754
11.082888
11.526942
13.132691
13.313890
13.611913
14.286637
14.516711
15.670657
15.960932
16.564727
16.000867
16.823411
16.253591
17.000437
16.852617
17.584562
17.265677
18.173456
18.200874
17.876625
18.046498
17.920732
17.870665
17.296672
17.779469
17.827749
17.844439
18.214583
##ZVALUE=295
0.795722
0.755787
0.609756
0.729561
0.602603
0.674725
0.715852
0.754595
0.656843
0.791550
0.596642
0.729561
0.844598
0.862479
0.852942
0.907779
0.857711
1.045465
0.758767
0.955462
1.078844
0.897646
1.003742
0.993609
1.246929
1.098514
1.223683
1.211762
1.627803
2.307892
7.043481
30.886531
71.658492
172.640681
282.276869
458.455682
580.136776
701.199770
732.182860
685.914755
597.383976
439.287424
313.002467
171.532631
95.825791
37.930608
21.290779
19.035935
25.865436
41.798949
58.469772
82.023740
98.580718
116.977692
124.555826
120.771527
111.874938
93.644857
77.539682
53.645968
39.457679
24.718642
18.086433
12.885928
11.211634
10.749698
10.824800
11.082888
11.571646
12.110472
12.813807
13.348460
14.096498
14.703870
15.704632
15.473962
15.870929
16.478896
16.904473
16.480684
17.276406
17.222762
17.821789
18.210411
18.093586
18.235445
18.047690
18.804669
18.362999
18.681884
18.611550
17.910600
17.904639
17.478466
17.724633
17.863512
##ZVALUE=300
0.672936
0.695586
0.600815
0.508428
0.642538
0.631809
0.650883
0.582933
0.491738
0.607967
0.630617
0.571609
0.721812
0.752807
0.792742
0.744462
0.832677
0.751615
0.692606
0.939965
0.789762
0.824928
1.054406
0.979900
1.066923
1.113415
1.059771
1.147985
1.080632
1.215935
1.393557
1.693964
4.429817
15.923977
55.447817
111.568570
232.045650
357.887745
529.253483
633.146763
721.791983
729.570985
648.778677
548.672676
381.948948
258.215666
136.314631
73.956847
29.647946
16.597509
16.968846
23.065805
37.864447
51.959753
74.616671
92.744827
111.823678
118.439794
118.422508
110.100508
93.169808
75.967908
54.887533
41.370988
27.822852
19.863844
14.601946
12.356639
12.177825
12.606978
13.311505
13.923645
14.041662
14.697909
15.318990
16.053915
16.586781
16.907454
17.183423
17.182827
17.759800
18.012524
18.117428
18.490553
18.391609
18.318892
18.963814
19.049644
19.059777
18.722415
18.076897
18.468499
18.314719
17.945766
18.190742
17.982721
##ZVALUE=305
0.713468
0.683665
0.660419
0.668764
0.703931
0.635982
0.571609
0.630617
0.758767
0.847578
0.648499
0.691414
0.667572
0.670552
0.693798
0.848770
0.695586
0.764728
0.822544
0.869632
0.910759
0.924468
0.817776
0.885725
1.019835
0.981688
1.030564
0.998974
1.110435
1.167655
1.074672
1.296997
1.356602
1.617670
2.203584
11.274815
32.057762
94.241500
172.326565
325.090885
480.029583
748.205781
968.994498
1015.638709
1015.638709
1015.638709
910.286903
567.485690
336.572528
130.913854
55.820942
18.640757
12.426972
15.810728
22.413731
36.714673
52.049756
73.688626
89.131594
108.114481
114.263892
113.564730
106.167793
89.784861
73.893666
52.424669
40.679574
28.024912
21.081567
16.565919
14.947653
14.542937
15.144944
15.069842
16.440749
16.305447
17.423630
17.765760
17.984509
18.098950
18.670559
19.068718
19.136667
19.039512
19.509792
19.589663
19.747615
19.817948
19.226670
19.467473
19.143820
18.876791
18.886924
18.818974
18.828511
18.503666
##ZVALUE=310
0.628829
0.689626
0.667572
0.733733
0.705719
0.592470
0.605583
0.578761
0.573993
0.591874
0.881553
0.606775
0.545979
0.637770
0.814795
0.820756
0.758767
0.748634
0.861883
0.784993
0.950694
0.794530
0.846982
0.776649
0.741482
1.028776
0.963807
1.048446
1.103878
1.206994
1.169443
1.187921
1.129508
1.171827
1.398921
1.493692
1.741648
5.436540
16.952753
56.873560
113.616586
240.040421
372.102857
611.227751
837.347507
1015.638709
1015.638709
1015.638709
1015.638709
750.474930
500.713587
234.816670
113.945007
35.329461
15.404820
11.081696
13.674498
21.550655
31.224489
48.383474
63.722730
84.254742
97.339749
107.025504
109.168887
101.162791
91.160536
72.754622
57.005882
41.421652
31.196475
23.104548
19.496679
17.145872
16.851425
16.767979
17.656684
17.828941
17.756820
18.615723
18.990636
19.026995
19.211769
19.547939
19.829869
19.929409
19.854903
20.453930
19.950867
20.444989
19.689798
19.603968
19.374490
19.400716
18.835664
18.987656
##ZVALUE=315
0.542998
0.474453
0.576973
0.505447
0.687838
0.594854
0.655651
0.536442
0.549555
0.554919
0.568628
0.577569
0.637770
0.572801
0.720620
0.732541
0.567436
0.744462
0.645518
0.662804
0.808835
0.632405
0.808835
0.657439
0.934601
0.790954
0.686646
0.709891
0.754595
0.874996
0.825524
0.856519
1.039505
1.141429
1.070499
1.295805
1.296997
1.332760
1.426935
2.332926
9.234548
42.733550
91.401935
198.210478
310.930610
479.971766
583.370924
689.308643
732.678771
714.205503
642.811656
497.054458
371.393561
210.688710
118.383765
44.928789
18.905997
9.700656
10.034442
14.052987
19.125938
31.432509
42.952895
62.509775
77.817440
95.380545
103.509426
104.662776
99.863410
85.818768
73.449612
56.084991
43.392777
30.555725
24.502873
20.195842
18.871427
17.662644
18.266439
18.572807
18.767715
19.301772
19.377470
19.979477
19.965768
20.417571
20.257831
20.473599
20.370483
20.249486
20.204782
19.473433
19.664764
19.542575
19.362569
19.331574
##ZVALUE=320
0.560880
0.599623
0.447631
0.521541
0.562668
0.532866
0.465512
0.564456
0.516772
0.660419
0.494719
0.557899
0.739694
0.606775
0.601411
0.663996
0.612736
0.622869
0.637770
0.652671
0.691414
0.653863
0.689626
0.754595
0.701547
0.719428
0.774860
0.821948
0.961423
0.926852
1.136661
0.766516
0.894666
0.971556
0.939965
0.923872
0.900626
1.110435
1.201630
1.109838
1.203418
1.581907
3.776550
20.022392
52.974820
136.070848
222.203732
370.014906
492.426753
636.963844
706.136823
723.859668
673.051476
540.419817
410.519838
235.787630
138.382912
59.383512
27.496815
11.457801
8.902550
10.062456
12.588501
18.609762
26.928782
42.153001
55.953860
75.179935
87.327957
97.980499
99.902749
96.395612
85.987449
69.186687
55.720806
41.442513
32.442808
24.960637
21.779537
19.758940
19.501448
19.238591
19.437671
20.092726
19.934773
20.328760
20.163655
20.010471
20.244718
20.167828
20.311475
19.850731
20.105839
20.011663
19.867420
19.892454
##ZVALUE=325
0.524521
0.597835
0.604987
0.608563
0.757575
0.625849
0.629425
0.574589
0.551939
0.594854
0.547767
0.572801
0.593662
0.583529
0.624657
0.564456
0.650883
0.629425
0.675917
0.599623
0.706911
0.693798
0.679493
0.634789
0.632405
0.694990
0.667572
0.675917
0.725985
0.742674
0.744462
0.822544
0.731945
0.941753
0.805855
0.796914
0.872612
0.892878
1.170635
1.132488
1.159906
1.180768
1.263618
1.451969
2.597570
14.530420
39.085746
101.031661
174.506903
316.048861
434.151888
583.342910
664.987564
711.915493
685.438514
572.356582
452.652574
283.218622
179.273486
84.233880
40.995479
14.898777
9.321570
8.944869
10.018945
13.830662
18.720627
28.460622
39.575696
58.736801
72.101951
86.214542
94.448924
96.565485
92.329979
79.596639
68.229437
52.702427
42.542815
31.291842
25.565624
22.049546
20.694733
19.864440
19.996762
19.670725
20.388961
20.294785
20.062923
20.106435
20.152926
20.064712
19.878745
19.548535
19.396544
19.404888
##ZVALUE=330
0.451803
0.432730
0.544786
0.527501
0.477433
0.638962
0.364780
0.629425
0.610948
0.522733
0.522733
0.654459
0.600815
0.611544
0.572801
0.737906
0.680685
0.672936
0.674725
0.778437
0.641942
0.779629
0.786781
0.692606
0.648499
0.719428
0.797510
0.841618
0.708699
0.679493
0.937581
0.694990
0.753999
0.725985
0.888705
0.882745
0.886917
0.870824
0.922680
0.817776
0.964999
0.948906
1.106858
1.085997
1.044869
1.346469
1.764894
7.403493
23.880601
75.549483
141.901970
268.633962
385.230780
539.045930
631.346703
688.301921
671.027899
573.600531
466.773510
306.910872
201.032758
98.502636
51.833987
20.949841
11.554956
9.068847
9.227991
10.725856
13.721585
20.130873
27.424693
40.716529
53.348541
71.239471
81.969500
91.268420
91.394782
87.086558
78.281760
63.831806
53.087473
39.450526
32.831430
26.776791
23.215413
21.622777
20.508766
20.080805
19.871593
19.306540
19.460917
19.713640
19.424558
19.497871
19.595623
19.088984
##ZVALUE=335
0.468493
0.516772
0.537634
0.500679
0.486970
0.492930
0.563860
0.707507
0.520945
0.589490
0.552535
0.516772
0.447631
0.515580
0.550747
0.606775
0.592470
0.683665
0.534654
0.586510
0.582933
0.644922
0.702739
0.583529
0.696778
0.638962
0.625849
0.654459
0.705719
0.505447
0.539422
0.611544
0.706911
0.570416
0.662804
0.668764
0.859499
0.797510
0.863671
0.939965
0.920892
0.844598
1.013875
1.065731
0.962615
0.987649
1.016855
1.369715
1.359582
3.392696
12.764931
45.965910
96.458793
204.463005
317.194462
483.725667
587.859750
673.762560
696.491599
660.267472
593.631864
467.216969
352.981687
209.169984
119.759440
41.677952
16.914606
10.056496
9.376407
10.391474
11.372566
14.334917
18.773675
29.102564
39.189458
54.188967
66.098571
78.841448
85.244775
87.451935
83.555579
72.645545
63.585639
51.084757
42.146444
32.671690
27.548671
23.293495
21.237731
19.588470
19.222498
18.992424
19.209981
19.047856
18.553734
18.646717
##ZVALUE=340
0.455976
0.495911
0.483990
0.480413
0.562668
0.442863
0.516772
0.522733
0.568628
0.452995
0.636578
0.660419
0.665784
0.582933
0.617504
0.577569
0.493526
0.583529
0.349879
0.672936
0.603795
0.553727
0.622869
0.754595
0.621676
0.559688
0.567436
0.664592
0.661612
0.541806
0.656843
0.550747
0.535846
0.681877
0.764728
0.678897
0.708699
0.486970
0.593662
0.664592
0.729561
0.786781
0.793934
0.851750
1.005530
0.722408
0.911951
1.001954
1.092553
1.245737
1.180768
1.585484
4.787445
23.972988
58.818460
143.765807
238.215923
387.224555
498.688817
608.773828
640.899539
606.064796
535.789728
409.968495
301.074982
170.641541
99.981427
43.887496
20.639896
10.451674
9.507537
9.917617
10.708570
12.286901
15.055537
20.748973
27.244687
38.745999
49.702525
65.208673
74.138641
81.162453
82.912445
79.138875
72.696805
60.154796
51.175952
39.213896
32.525659
26.043653
22.750497
19.940734
18.915534
18.576980
17.951727
17.909408
##ZVALUE=345
0.352859
0.396967
0.297427
0.453591
0.316501
0.411868
0.383854
0.442863
0.380874
0.418425
0.528693
0.431538
0.516772
0.419617
0.314713
0.586510
0.432730
0.448823
0.419617
0.470877
0.320673
0.346899
0.459552
0.541806
0.384450
0.421405
0.520945
0.410676
0.558496
0.550747
0.493526
0.594854
0.516772
0.429749
0.591874
0.485778
0.510812
0.498891
0.434518
0.662804
0.625849
0.593662
0.505447
0.740886
0.603795
0.702739
0.744462
0.658631
0.619888
0.734925
0.680685
0.908971
0.832677
1.171827
2.098680
13.057590
36.269426
96.032619
171.677470
311.434865
424.951911
559.672713
618.890524
623.334646
570.267439
441.150665
331.542492
200.456977
118.118525
50.872564
26.024580
12.315512
9.609461
9.670854
10.090470
10.740757
11.979938
14.556646
18.218756
25.974512
34.683943
47.950745
58.230758
68.688989
74.602962
77.190995
75.132847
67.063570
59.886575
48.445463
39.548874
30.212998
25.199652
21.184683
19.315481
17.425418
##ZVALUE=350
0.433922
0.573993
0.519753
0.463724
0.468493
0.633597
0.427961
0.324845
0.661612
0.553727
0.476837
0.514984
0.464916
0.499487
0.529885
0.615716
0.487566
0.505447
0.679493
0.603795
0.645518
0.435710
0.523925
0.702739
0.530481
0.598431
0.532866
0.520945
0.535846
0.597835
0.545979
0.825524
0.676513
0.783801
0.683665
0.685453
0.792742
0.654459
0.727773
0.706911
0.696778
0.815988
0.664592
0.747442
0.732541
0.717640
0.771880
0.741482
0.696778
0.908971
0.941753
0.916719
0.940561
1.012683
0.983477
1.054406
1.496673
6.026626
18.867850
60.644746
114.606619
228.138566
336.128473
471.813679
552.715659
598.241687
571.260452
471.558571
365.159512
230.183005
142.835975
67.829490
35.485625
14.167428
9.926558
9.403825
9.649992
10.252595
10.361671
11.959672
13.894439
18.483996
23.788810
32.872558
40.746927
52.809715
60.849786
68.396926
70.020556
69.069862
64.074993
55.144429
47.213435
37.141442
30.281544
24.270415
##ZVALUE=355
0.512600
0.398755
0.563860
0.512600
0.625849
0.417829
0.357628
0.588894
0.593662
0.505447
0.610948
0.564456
0.385642
0.633597
0.502467
0.571609
0.434518
0.653863
0.490546
0.482798
0.353456
0.567436
0.568628
0.527501
0.567436
0.568628
0.599623
0.694990
0.571609
0.685453
0.553727
0.626445
0.646710
0.583529
0.469685
0.624657
0.531673
0.518560
0.620484
0.747442
0.625849
0.572801
0.718832
0.632405
0.837445
0.762939
0.763535
0.798702
0.816584
0.744462
0.781417
0.897646
0.954866
0.916719
0.770688
0.960827
0.990629
1.293421
1.413822
3.120899
10.292530
39.893985
81.470013
170.912743
269.512534
417.441726
505.802631
575.213432
573.181510
492.869616
401.113629
270.558000
174.897909
81.361532
41.541457
16.643405
10.115504
8.913875
8.850694
9.331703
9.664893
10.554790
11.524558
13.234615
15.936494
21.761656
28.035641
37.557483
45.225620
54.814816
60.992837
64.912438
63.404441
58.091879
51.866770
43.061972
##ZVALUE=360
0.468493
0.377893
0.573993
0.583529
0.556707
0.578761
0.442863
0.396967
0.421405
0.508428
0.599623
0.449419
0.380874
0.491738
0.554919
0.426769
0.675917
0.722408
0.592470
0.507832
0.456572
0.672936
0.563860
0.594854
0.539422
0.620484
0.459552
0.708699
0.590682
0.751615
0.696778
0.516772
0.618696
0.679493
0.617504
0.693798
0.604987
0.683665
0.565648
0.645518
0.628829
0.678897
0.695586
0.734925
0.769496
0.648499
0.659823
0.792742
0.538826
0.762939
0.775456
0.929832
0.863671
0.932813
0.995994
0.852942
0.984669
0.996590
0.897646
1.114607
1.196861
1.723766
4.495978
21.015406
53.080916
133.590698
221.037865
359.598994
466.246009
558.657646
576.205850
529.840589
447.312593
308.458805
210.734606
107.179880
58.991909
25.124550
12.755990
8.704662
8.469820
8.553863
8.910894
9.228587
9.851456
10.483861
11.597872
14.306903
17.873645
23.849607
30.451417
40.196776
46.830773
54.370761
57.088733
58.255792
##ZVALUE=365
0.546575
0.623465
0.518560
0.608563
0.521541
0.377893
0.479817
0.472665
0.405908
0.539422
0.447631
0.531673
0.490546
0.477433
0.540614
0.513792
0.561476
0.526905
0.604987
0.555515
0.565648
0.565648
0.566840
0.598431
0.536442
0.577569
0.609756
0.537634
0.563860
0.603795
0.527501
0.659823
0.586510
0.568628
0.769496
0.694990
0.697970
0.623465
0.619888
0.700951
0.595450
0.713468
0.755787
0.627637
0.678897
0.756979
0.584722
0.796914
0.742674
0.750422
0.605583
0.734925
0.800490
0.665784
0.891685
0.735521
0.758767
0.881553
0.858903
1.095533
1.076460
1.084805
1.062751
1.260638
2.195835
10.691881
31.102896
87.096691
158.368945
282.216668
390.217900
500.929952
548.751950
534.578562
469.954610
345.222950
248.375535
139.441490
78.783631
32.518506
16.225576
8.647442
7.820725
7.830858
8.315444
8.568764
8.567572
8.966923
9.291768
10.290742
12.010932
16.018748
19.669533
26.796460
33.464432
41.621923
##ZVALUE=370
0.384450
0.451803
0.425577
0.615716
0.501871
0.563860
0.564456
0.649691
0.413656
0.474453
0.437498
0.538826
0.500679
0.426769
0.413656
0.443459
0.390410
0.435710
0.495911
0.473857
0.482798
0.557899
0.432730
0.453591
0.308752
0.427961
0.435710
0.501871
0.433922
0.360608
0.433922
0.501871
0.537634
0.529885
0.548959
0.570416
0.574589
0.509620
0.599623
0.526905
0.415444
0.439882
0.469685
0.400543
0.523925
0.566840
0.408888
0.629425
0.608563
0.653863
0.651479
0.667572
0.734925
0.623465
0.703931
0.696778
0.872612
0.734925
0.676513
0.795722
0.775456
0.756979
0.908971
0.910759
1.038909
1.023412
1.612902
5.679727
19.251704
66.241622
126.592517
237.877965
348.488688
481.107831
542.679429
551.168919
501.707792
393.666625
291.316509
167.780519
97.810626
41.884780
21.689534
10.130405
7.492900
7.077456
7.085800
7.203817
7.445812
7.848740
7.927418
8.525848
9.126663
10.973811
13.566613
17.613769
##ZVALUE=375
0.526905
0.432730
0.544786
0.611544
0.618696
0.522733
0.402927
0.460744
0.462532
0.600815
0.640750
0.588894
0.455976
0.576973
0.528693
0.688434
0.481606
0.390410
0.459552
0.420809
0.437498
0.428557
0.522733
0.564456
0.671744
0.690818
0.478625
0.531673
0.473857
0.575781
0.616908
0.666976
0.478625
0.561476
0.642538
0.602603
0.477433
0.540614
0.575781
0.658631
0.525713
0.624657
0.653863
0.614524
0.668764
0.549555
0.710487
0.686646
0.691414
0.739694
0.624657
0.599623
0.682473
0.685453
0.867844
0.811815
0.841618
0.843406
0.893474
0.845790
0.790954
0.844598
0.886917
0.931621
0.950694
1.165867
1.155734
1.254678
1.513958
3.348589
10.060668
35.909414
79.248548
194.182992
323.796868
520.254970
644.899011
726.810694
702.268481
562.426448
428.873897
253.289938
157.268643
76.208711
38.874745
14.716983
8.521676
6.904602
6.854534
6.897449
7.110834
7.453561
7.426739
7.517934
7.948875
8.743405
##ZVALUE=380
0.511408
0.698566
0.509620
0.501871
0.566840
0.597835
0.588894
0.637770
0.605583
0.490546
0.631809
0.623465
0.524521
0.660419
0.658631
0.630617
0.601411
0.578761
0.456572
0.556707
0.593662
0.541806
0.606775
0.544786
0.566840
0.593662
0.698566
0.606775
0.623465
0.587702
0.674725
0.615716
0.534654
0.602603
0.611544
0.548959
0.556707
0.641942
0.664592
0.727773
0.561476
0.774860
0.599623
0.645518
0.710487
0.677705
0.544786
0.729561
0.636578
0.737906
0.759959
0.786781
0.803471
0.720620
0.644922
0.797510
0.770688
0.883937
0.850558
0.822544
0.952482
0.843406
0.977516
0.831485
0.928640
0.988841
1.174808
1.234412
1.340508
1.686811
1.870990
2.431870
5.977750
26.680827
68.604946
212.502480
399.633050
701.571703
931.840539
1015.638709
1015.638709
865.934491
669.335723
427.245498
269.075632
120.988488
59.841871
21.939874
11.069775
7.019639
6.587505
6.622672
6.770492
6.795526
7.020831
7.302761
##ZVALUE=385
0.551939
0.419617
0.469685
0.467896
0.545979
0.341535
0.438690
0.499487
0.445843
0.496507
0.532866
0.476837
0.628829
0.555515
0.698566
0.618696
0.605583
0.395775
0.462532
0.583529
0.521541
0.588894
0.627637
0.444651
0.615716
0.598431
0.595450
0.594854
0.565648
0.638962
0.560880
0.572801
0.612736
0.662804
0.629425
0.611544
0.520945
0.668764
0.587702
0.558496
0.637770
0.618696
0.597835
0.507832
0.496507
0.645518
0.824928
0.605583
0.648499
0.529885
0.667572
0.629425
0.590682
0.617504
0.606775
0.731945
0.632405
0.728965
0.705719
0.786781
0.777841
0.716448
0.858903
0.696778
0.781417
0.814795
0.833869
0.836849
1.052618
0.809431
1.103878
1.160502
1.070499
1.392961
2.711415
13.842583
36.452413
93.150735
167.336464
305.645466
413.166881
518.833995
551.065803
526.021719
460.128784
339.157581
243.125558
134.945512
77.966452
33.962727
15.394688
6.841421
5.798936
5.693436
5.475879
5.677938
##ZVALUE=390
0.377893
0.532866
0.481606
0.522733
0.531673
0.478625
0.509620
0.547767
0.482798
0.449419
0.393987
0.518560
0.483990
0.463724
0.488758
0.364780
0.473857
0.548959
0.600815
0.449419
0.674725
0.403523
0.548959
0.396967
0.480413
0.403523
0.660419
0.601411
0.771880
0.501871
0.593662
0.746846
0.633597
0.578761
0.530481
0.627637
0.505447
0.439882
0.479817
0.367761
0.426769
0.541806
0.485778
0.590682
0.549555
0.655651
0.556707
0.519753
0.547767
0.638962
0.616908
0.704527
0.565648
0.454783
0.599623
0.657439
0.596642
0.653863
0.704527
0.678897
0.786781
0.697970
0.714660
0.640750
0.652671
0.796914
0.883937
0.732541
0.813603
1.033545
0.843406
0.908971
0.975728
1.034737
1.021624
1.143813
1.721978
7.611513
22.873878
70.235729
133.311749
257.241726
365.546942
487.866998
541.296601
552.435517
505.603552
394.828916
299.118757
183.774829
107.943416
45.614839
23.011565
9.316802
5.853772
5.303621
##ZVALUE=395
0.494719
0.407696
0.477433
0.614524
0.499487
0.606775
0.543594
0.416636
0.441670
0.568628
0.476837
0.553727
0.435710
0.425577
0.441670
0.514984
0.453591
0.572801
0.497699
0.496507
0.450611
0.604987
0.552535
0.562668
0.462532
0.500679
0.520945
0.558496
0.537634
0.479817
0.466704
0.531673
0.490546
0.560880
0.491738
0.460744
0.484586
0.438690
0.769496
0.797510
0.584722
0.505447
0.435710
0.529885
0.430942
0.540614
0.563860
0.704527
0.559688
0.510812
0.480413
0.478625
0.636578
0.624657
0.617504
0.580549
0.449419
0.335574
0.689626
0.599623
0.750422
0.657439
0.648499
0.658631
0.722408
0.769496
0.821948
0.786781
0.733733
0.863671
0.918508
0.794530
0.916719
1.005530
0.959635
1.093745
1.013875
1.229644
1.407862
4.584789
16.670823
56.740642
107.892752
206.083655
307.151675
452.837944
537.297726
585.174561
569.288731
479.792953
375.660658
233.604908
148.010850
65.826774
32.519698
12.336969
##ZVALUE=400
0.434518
0.424981
0.432730
0.368953
0.417829
0.364780
0.490546
0.445843
0.485778
0.344515
0.442863
0.429749
0.351667
0.376701
0.360608
0.636578
0.552535
0.428557
0.593662
0.354648
0.515580
0.750422
0.451803
0.453591
0.433922
0.335574
0.354648
0.452995
0.611544
0.452995
0.406504
0.512600
0.554919
0.639558
0.670552
0.569820
0.592470
0.456572
0.490546
0.544786
0.606775
0.545979
0.503659
0.480413
0.575781
0.562668
0.695586
0.486970
0.549555
0.532866
0.590682
0.587702
0.605583
0.511408
0.503659
0.601411
0.512600
0.461936
0.601411
0.543594
0.503659
0.489950
0.590682
0.451803
0.745654
0.636578
0.700951
0.766516
0.787973
0.707507
0.844598
0.890493
0.861883
0.875592
0.771880
0.907779
0.743866
0.715852
0.889897
1.081824
1.318455
2.216697
10.962486
29.905438
82.204938
147.551894
273.621678
380.485654
509.691834
570.266843
573.588014
522.234440
403.383970
299.628973
174.185634
105.979443
##END
