##TITLE=FQP00652
##FORMAT=SPECTACLE-ASCII V-1.2
##DATA TYPE=ULTRAVIOLET SPECTRUM
##SECOND TYPE=ULTRAVIOLET SPECTRUM
##DATE=01/21/18
##TIME=13:33:17
##SPECTROMETER/DATA SYSTEM=SPECTACLE
##XUNITS=NM EM
##YUNITS=ENERGY
##YFACTOR=1
##FIRSTX=220
##LASTX=410
##NPOINTS=96
##3DDATA=Equidistant
##ZUNITS=NM EX
##FIRSTZ=210
##LASTZ=400
##ZPOINTS=39
##XYDATA=(Y..Y)
##ZVALUE=210
2.104640
2.196431
1.987815
2.140999
1.970530
2.484918
2.684593
3.450513
3.451705
2.963543
3.235936
4.351735
3.479719
4.270673
4.866719
5.225539
4.993677
5.399585
5.576611
6.464720
5.648732
7.055998
6.823540
7.280707
7.363558
8.278489
8.861423
9.110570
8.899570
9.684563
10.556579
10.698438
11.393428
11.423826
11.926889
12.006760
12.527704
12.174845
12.530684
11.740923
11.893511
13.890862
14.110804
15.099645
13.519526
13.582706
14.014840
12.967587
14.272928
13.585687
13.315678
15.368462
15.388727
16.162992
14.607906
15.246868
16.074777
15.430450
16.500950
14.668703
15.370846
17.983913
15.910864
17.989874
17.308593
17.933846
18.606782
22.356510
24.522543
28.102994
32.146573
40.377975
46.823621
55.392981
58.443546
66.847801
72.090626
75.737834
73.526502
73.796511
71.461797
62.661767
59.204698
46.555996
42.630434
31.884909
27.915835
22.215843
18.310547
17.986894
15.985966
16.558766
15.337467
16.718507
16.758442
17.379522
##ZVALUE=215
10.652542
9.693503
7.609725
7.981658
6.164908
5.637407
5.254745
4.609823
6.169677
6.004572
5.748868
5.182624
4.932880
4.845858
5.639791
5.355477
4.990697
5.595684
5.886555
7.509589
7.598996
7.869601
7.735491
8.118749
9.032488
9.899735
10.444522
11.737943
12.351871
12.409687
13.488531
14.187694
15.703440
16.591549
14.700890
16.560555
15.877485
17.549992
18.640757
16.660690
17.478466
16.690493
17.584562
18.582940
16.656518
17.543435
16.094446
16.567707
16.988516
17.269850
16.888976
17.285943
18.274784
18.926859
18.154979
16.878843
17.500520
17.823577
18.120408
17.625690
17.896891
19.148588
19.120574
18.531680
20.050406
19.099712
20.386577
22.913814
24.913549
29.848814
33.843517
39.843917
47.979951
52.892566
56.970716
62.149763
63.389540
68.116784
69.371462
69.237947
69.496632
63.474774
54.926872
52.309632
41.169524
32.550693
27.057528
22.143722
21.063685
18.905997
17.206669
17.764568
16.670823
15.018582
15.358925
15.034676
##ZVALUE=220
39.477944
39.040446
43.283701
48.286915
42.137504
34.715533
26.801825
18.438697
13.961792
11.398792
11.837482
11.278987
12.593865
11.502504
10.353923
9.869933
8.333921
8.218884
7.716417
6.668568
8.380413
8.158684
8.135438
9.213686
11.399984
10.361671
12.071729
12.810826
15.061498
17.030835
18.309951
18.962622
20.858645
19.956827
22.287965
21.557808
22.940636
22.737980
22.066832
21.733642
21.236539
20.669699
19.677877
21.268725
21.261573
18.518567
19.863844
19.693971
19.433498
19.400716
17.897487
18.554926
18.830895
18.849969
19.457936
19.494891
18.864870
17.222762
19.087791
19.518733
18.193722
17.300844
19.357800
17.708540
17.799735
19.672513
21.390915
23.580790
24.786592
29.723644
36.030412
41.402578
48.771501
57.907701
61.205626
69.265962
70.961714
74.962974
76.533556
78.130960
76.751709
66.872835
63.679814
53.711534
42.984486
35.467744
26.172996
23.007989
18.633604
18.957853
18.779635
17.489791
16.182661
16.373992
15.439987
16.100407
##ZVALUE=225
76.849461
84.570646
114.611983
157.065988
175.257921
179.938674
163.450837
120.037794
89.446902
56.467652
31.589866
25.826693
26.248693
26.845932
26.822686
27.734637
22.617579
19.761920
16.400814
13.332963
11.499524
9.001493
9.862781
10.065436
10.561943
12.640953
14.232993
15.893579
17.128587
20.287633
20.929575
23.150444
24.259686
25.343895
28.752685
26.270747
27.972460
28.444529
26.688576
26.888847
27.203560
26.129484
25.185943
28.045774
26.265979
25.114417
24.737716
23.878813
22.312999
20.922422
22.378564
20.722747
19.327998
21.351576
21.272898
20.420551
18.439889
21.012425
20.130873
19.814968
19.821525
21.262765
20.274520
21.676421
20.502806
22.042990
23.404956
23.874640
26.004910
28.492808
34.924746
39.782524
43.273568
49.152970
51.918626
53.096414
56.746602
55.394769
52.727461
52.978992
52.354932
45.851469
41.148663
36.249757
31.025410
27.203560
24.406910
21.733642
20.472407
18.444657
19.006729
16.741753
16.617775
16.372800
17.055869
18.216968
##ZVALUE=230
68.477988
78.222752
126.227736
227.013826
300.443769
390.358567
430.215001
422.044992
383.682847
289.899707
200.577974
114.972591
72.022676
45.128465
47.037601
48.358440
53.339601
50.639510
46.716928
41.003823
29.901862
24.283528
15.892982
13.096929
11.941791
11.961460
11.995435
14.232993
15.351772
16.753674
17.759800
20.009875
19.596815
21.587610
22.845864
24.293661
24.744868
23.528934
24.202466
24.523735
24.156570
23.128986
21.676421
23.309588
22.091866
20.832419
19.936562
20.686984
21.387935
19.559860
18.675923
18.945932
18.798709
17.124414
19.483566
20.002723
20.277500
19.548535
19.125938
19.774437
19.289851
17.526746
17.821789
18.416643
18.996000
19.683838
22.223592
22.477508
24.362803
26.795864
31.348467
35.144687
37.191510
43.433905
46.790838
48.107505
49.462914
49.721599
48.667789
47.536492
43.155551
39.771795
35.940409
30.514598
28.061867
23.473501
21.215677
19.055605
18.795729
17.580986
18.393993
17.812848
17.019510
16.777515
15.956759
17.315745
##ZVALUE=235
21.967888
24.669766
61.144829
158.878565
269.369483
448.444486
591.355562
760.489702
818.991661
797.110796
679.732561
519.051552
329.619050
212.906599
125.290751
88.032484
75.789690
81.985593
83.807707
91.403723
80.882907
71.372986
59.158802
43.347478
30.578971
20.787716
16.343594
15.468597
15.127659
14.870763
17.028451
17.404556
19.066930
19.563437
19.795895
20.879507
22.298694
21.382570
20.595789
21.933913
21.861792
20.000935
22.102594
20.294785
19.991994
22.182465
21.570921
20.890832
20.988584
19.834638
20.917654
21.229982
21.906495
19.678473
20.506978
21.471977
21.770000
21.756887
21.922588
20.571947
20.889640
21.314621
20.402670
23.068786
20.608902
22.564530
23.075938
23.814440
24.152994
30.055642
31.083822
36.291480
38.735867
41.780472
41.588545
47.010779
46.361685
49.085617
44.438839
44.656992
42.154789
38.699508
34.605861
31.940937
28.497577
26.069880
23.546815
23.604631
23.985505
21.895766
23.534894
22.352934
20.950437
21.171570
20.872951
19.687414
##ZVALUE=240
2.994537
3.246665
11.628866
36.411881
102.760792
196.563601
400.698781
600.299835
895.942450
1015.696526
1015.696526
1015.696526
1015.696526
798.693895
593.992472
349.908471
223.723650
139.808655
112.331510
109.764934
115.230680
120.104551
119.004846
105.107427
86.075664
71.555972
51.203966
38.641691
27.143955
20.045638
18.173456
15.266538
14.991760
16.416907
17.088652
16.963482
16.714931
17.028451
16.880631
17.650723
17.832518
18.846989
17.717481
20.057559
19.190907
18.694997
19.266605
20.115972
17.950535
18.334985
18.363595
18.218756
17.695427
18.715858
16.954541
17.027855
16.683936
17.530918
17.046928
18.681884
15.888810
19.961596
17.826557
17.614961
19.335747
19.826889
19.225478
20.584464
21.068454
25.172830
27.363896
29.713511
31.602979
36.425591
37.449598
37.690997
38.911700
39.992929
37.413836
37.183762
35.663843
33.732653
32.330751
28.865933
26.817918
25.720596
24.693608
22.490621
23.392439
22.272468
21.320581
20.831823
21.481514
20.873547
20.381808
21.423697
##ZVALUE=245
1.842976
1.863837
1.795888
2.050996
6.107688
33.374429
76.942444
206.726789
353.209972
542.687774
809.469819
985.690951
1015.638709
1015.638709
1015.462875
863.596797
627.365708
447.677970
292.976499
157.344937
114.110708
106.428862
115.516782
133.780837
134.814978
128.522515
117.776990
94.843507
78.529716
56.811571
42.839646
30.277967
23.905635
19.569993
17.665625
16.322732
17.881989
17.961860
18.281937
19.218922
18.708706
16.940832
18.886924
18.684864
18.543601
16.892552
17.501712
16.809702
16.979575
16.814470
15.690923
16.742945
15.505552
14.598966
14.564991
15.663505
15.537739
13.946891
14.010668
13.582706
13.874769
14.566779
14.243722
13.729930
13.774633
15.043616
14.296770
16.435981
17.231703
18.705726
21.595955
23.313761
23.166537
25.722980
26.923418
30.369759
29.639602
29.641986
29.541850
29.696822
26.934743
26.048422
26.796460
24.736524
23.051500
21.672845
20.746589
19.287467
20.483732
20.080805
19.575953
19.650459
19.297600
19.348860
20.203590
18.464923
##ZVALUE=250
1.690984
1.530647
1.832843
1.964569
1.910925
2.250671
3.137589
11.485815
53.034425
117.617846
271.197557
431.439877
595.932007
795.848966
903.222561
975.634456
947.681665
824.688673
691.365004
467.622876
314.980745
208.627582
118.910670
102.016926
110.599995
126.223564
139.766932
146.671534
140.973926
132.130980
110.469460
89.641809
72.677732
45.674443
35.120845
26.574731
23.061633
21.291971
19.872785
20.148754
21.492839
20.019412
20.362735
19.849539
19.923449
18.936992
18.591881
17.646551
17.792583
16.248822
15.910864
15.423894
14.820695
14.105439
14.385581
13.397932
12.707710
12.462735
12.795925
11.752844
12.197495
12.291670
11.468530
11.386871
12.222528
12.194514
11.717677
11.841655
13.067722
13.987422
15.588999
16.304851
16.460419
18.263459
17.962456
18.529892
19.631982
18.550754
17.904639
18.414855
18.720627
18.178821
17.649531
16.885996
18.319488
17.605424
17.718673
16.891956
16.930699
17.990470
17.230511
17.930865
17.577410
16.676784
16.859770
17.418861
##ZVALUE=255
1.286864
1.335740
1.258850
1.445413
1.521707
1.497865
1.857877
1.705885
2.077818
4.351735
25.490522
67.374706
139.491558
285.536647
418.833494
605.604649
722.814798
817.940831
831.120610
756.639838
645.153522
512.849689
324.981809
207.947493
118.247867
91.554523
92.118979
108.977556
136.267543
149.208903
158.914924
152.853727
142.171979
120.486617
100.676417
72.999001
54.741502
40.584803
30.022860
25.995970
24.584532
22.727847
23.884773
22.679567
22.934675
19.434690
19.129515
19.330978
18.108487
17.890930
16.342998
15.458465
16.007423
14.078617
13.417602
13.076663
11.967421
11.906624
11.405945
11.367798
10.824800
10.662675
11.266470
10.773540
10.690689
10.741949
10.341406
11.472702
10.938644
12.872815
12.970567
13.254881
14.087558
15.518665
16.085505
15.462637
16.956925
16.106963
16.631484
16.212463
15.935898
15.269518
16.105771
15.929937
15.936494
15.475750
16.111732
15.564561
15.774965
15.984774
16.680956
14.963746
16.164780
17.115474
15.475750
16.633868
##ZVALUE=260
1.471639
1.193881
1.535416
1.167655
1.468658
1.304746
1.342893
1.368523
1.672506
1.852512
1.775622
2.672672
7.052422
35.975575
88.342428
218.812823
349.858999
559.203625
701.306462
852.881670
915.812850
883.515477
757.837892
607.483983
406.518579
277.314782
163.105726
110.415816
86.397529
95.434785
114.865899
144.241452
163.185596
173.664689
171.197653
155.116916
137.316585
105.659962
82.264543
59.420466
47.666430
36.951900
31.020641
27.885437
25.657415
24.255514
23.919940
23.023486
20.907521
18.508434
18.503666
17.446876
16.467571
15.778542
15.088916
13.734698
13.567805
12.727976
12.518764
11.268854
10.746717
10.930896
10.613799
10.281801
9.765625
10.251999
10.885596
10.312796
10.499954
12.204647
12.475848
12.324452
13.384819
13.865829
14.217496
13.793707
14.356971
14.952421
14.724731
14.624000
14.549494
14.479756
14.426708
15.164614
14.675856
14.666915
15.793443
15.040636
13.631582
16.114712
14.751554
14.372468
14.855862
15.205741
15.485883
15.869737
##ZVALUE=265
1.145601
1.262426
1.293421
1.421571
1.271963
1.210570
1.236796
1.387596
1.365542
1.592636
1.637936
1.941919
2.228618
2.370477
3.569722
21.917820
62.439442
161.708593
280.763507
501.901507
691.393614
850.306749
969.125628
980.028510
859.655738
735.282898
541.935563
384.686589
222.914815
143.790841
101.678967
92.558861
104.261637
137.124658
159.410834
181.350708
186.921954
177.644491
163.812637
135.867000
112.963915
82.181692
63.547492
46.643615
37.294626
28.893948
27.004480
24.655461
22.460818
21.770000
21.537542
19.477606
18.328428
18.214583
15.773773
15.257597
13.804436
13.045669
12.847781
12.624860
12.009740
11.568666
11.140704
11.091828
10.633469
10.579824
10.958910
10.439754
10.965466
11.182427
12.056828
12.940764
13.561845
13.487935
13.589859
13.709664
14.166832
13.635755
13.571978
13.003945
13.272762
14.302731
13.654828
13.499856
13.480783
13.331771
13.347864
13.649464
14.144778
13.303757
14.217496
13.892651
14.215708
13.924837
13.388991
14.459491
##ZVALUE=270
1.314878
1.159906
1.320839
1.231432
1.096725
1.339912
1.238585
1.419783
1.058578
1.394749
1.291633
1.271963
1.593828
1.686811
1.760721
1.848936
2.319813
9.223819
34.621954
128.031969
246.882439
406.875014
670.228004
844.341516
1002.411842
1015.638709
1002.506018
899.471641
701.684952
537.756681
380.756855
215.735435
133.142471
88.275671
89.929700
112.993717
136.157870
163.349509
178.776979
182.576776
180.211663
159.379840
138.274431
105.081797
81.451535
55.697560
43.048859
31.258464
26.346445
21.298528
20.630956
18.805861
17.438531
16.080737
15.494823
14.345646
14.091730
14.219880
13.135672
12.258887
12.061000
10.945797
10.920763
10.080934
10.466576
10.479689
10.237694
11.022687
10.948777
11.423826
11.462569
11.690855
12.287498
13.043880
13.293624
13.592839
13.112426
12.719631
13.308525
12.506843
12.365580
12.702942
12.641549
12.907982
13.496876
12.563467
12.838840
13.451576
12.982488
13.074875
12.879968
13.193488
13.079643
13.010502
13.105869
13.673902
##ZVALUE=275
0.924468
0.960827
0.949502
1.269579
1.176596
1.229644
1.140833
1.027584
1.167655
0.907779
1.262426
1.437664
1.354814
1.399517
1.439452
1.484752
1.492500
1.638532
1.968741
4.457831
14.714003
45.380592
151.794553
288.033485
527.151823
704.348683
889.343023
981.496572
985.433459
909.492970
747.390985
587.630868
417.825580
232.389569
145.582557
82.635880
68.614483
80.404878
97.710490
127.562881
146.767497
166.424513
171.698928
161.932707
147.409439
121.365786
98.396540
70.336461
52.436590
35.458803
26.221871
19.696951
15.668869
15.137792
14.066696
13.315678
12.907982
12.330413
11.805892
11.276603
11.415482
10.856986
10.946989
11.332631
11.038780
10.808706
10.396838
10.313988
10.738969
11.038780
10.495782
11.035800
11.921525
11.976957
12.299418
12.360811
12.234449
12.106895
12.124777
12.250543
12.165904
12.253523
11.585951
11.904836
12.371540
11.937618
12.078881
11.837482
12.763739
12.064576
11.651516
11.996627
12.165904
12.116432
12.154579
12.119412
##ZVALUE=280
0.954866
0.842810
1.007915
0.877976
0.965595
0.898838
0.881553
1.003742
0.798702
0.715852
0.900626
0.933409
1.159906
1.164675
1.249909
1.267791
1.296997
1.364946
1.483560
1.464486
1.601577
2.078414
6.708503
29.631853
72.623491
170.935988
277.752876
460.669994
603.570938
767.727494
846.265554
848.228931
765.208006
595.420599
449.331999
263.558626
162.825584
79.803467
53.542852
50.810575
63.348413
90.731978
111.332536
137.773752
151.523948
154.130459
150.365829
132.723451
112.739801
85.987449
65.571666
42.555928
30.271411
19.286871
14.624000
11.763573
10.685921
10.317564
10.721684
11.026859
10.584593
10.259748
10.410547
10.969639
10.511875
10.873675
10.907650
10.921955
11.489987
10.995865
10.820627
11.487603
11.403561
11.913776
11.701584
12.075901
11.687875
11.799932
11.721849
12.244582
12.336969
12.076497
12.086630
12.273788
12.344718
11.656880
11.762977
11.777878
12.295842
11.879802
12.159944
12.119412
11.598468
11.557937
11.556745
11.547804
##ZVALUE=285
0.986457
0.828505
0.770688
0.709891
0.958443
0.780821
0.851750
0.947714
1.009703
1.016855
1.020432
1.157522
1.097918
1.227856
1.115799
1.046658
1.249909
1.127720
1.087785
1.270771
1.369715
1.547933
1.434684
1.793504
4.596710
14.916658
38.837790
104.293823
185.684562
345.870852
491.462946
690.506697
798.328519
855.757594
815.365911
678.345561
532.462001
331.607461
209.710598
101.992488
56.193471
33.322573
36.150813
54.882765
75.142980
105.204582
122.997761
140.395761
147.274733
142.888427
131.557584
107.918978
87.148547
60.737729
42.584538
27.185678
18.848777
13.180971
11.385679
11.192560
10.565519
10.682940
10.108948
10.775924
10.904670
11.361837
11.312962
11.533499
12.065768
11.930466
12.140870
12.202859
12.869835
12.666583
12.572408
12.803674
13.012886
12.470484
12.935996
12.580752
12.530684
12.470484
12.294650
12.882948
12.335777
12.676716
12.406707
12.704730
12.471676
11.868477
11.553764
11.674762
12.212992
11.494756
11.382699
10.921955
##ZVALUE=290
0.778437
0.791550
0.852942
0.794530
1.001954
0.770688
0.826716
0.905991
1.003742
1.101494
0.911951
0.699759
1.034737
0.965595
1.054406
0.937581
1.020432
1.077652
0.920892
1.037717
1.252890
1.135468
1.161695
1.402497
1.346469
1.662970
1.923442
5.577803
23.828745
58.122873
116.601586
246.420503
386.370420
595.360994
731.583834
844.506025
841.804743
741.038918
611.233711
412.465930
274.681449
138.596892
75.546503
34.262538
25.465488
35.356879
47.780871
71.262717
92.735887
118.662715
132.244825
143.094659
139.854550
124.513507
108.602643
80.569983
62.214732
41.458607
29.013753
18.923879
15.130639
12.800694
12.516975
11.422634
11.963844
11.959672
12.004972
12.457967
12.929440
13.051629
13.217926
13.656616
13.675690
14.463663
13.968945
13.648868
13.784766
13.666749
13.271570
13.218522
13.187528
13.373494
13.703704
13.420582
13.216734
13.005733
12.729764
12.671947
12.910962
12.460947
12.138486
12.073517
12.399554
12.035966
12.432933
11.292696
##ZVALUE=295
0.913739
0.875592
0.884533
0.816584
0.843406
0.768900
0.812411
0.750422
0.690818
0.887513
0.837445
0.835657
0.862479
0.842810
0.757575
1.023412
1.079440
0.981688
1.116991
1.029968
1.138449
1.032948
1.060963
1.223683
1.302958
1.085997
1.493692
1.567602
1.639724
3.110766
10.165572
40.045977
87.668896
199.573636
321.773887
521.289706
663.445592
807.829499
844.237804
783.565640
676.953793
491.159558
345.206857
187.085867
102.628469
40.777922
23.771524
21.764636
28.805733
46.434999
64.574480
90.290904
108.502507
128.462911
136.507750
133.398771
123.078823
101.455450
84.391832
58.605671
44.537783
28.901696
21.262765
15.817881
14.156699
13.175607
12.906790
12.891889
13.222694
13.613701
13.877749
14.128685
14.711618
14.370680
14.631748
14.523864
14.865994
14.749765
14.426708
14.570951
14.291406
14.152527
13.738871
13.961792
13.898611
13.875961
13.083816
13.189912
13.033748
12.908578
12.698770
12.115836
12.088418
12.054443
11.508465
11.935830
##ZVALUE=300
0.689626
0.544786
0.812411
0.717640
0.901818
0.867844
0.864863
0.810623
0.863671
0.899434
0.758767
0.759959
0.893474
0.751615
0.646710
1.007915
0.811815
0.888705
0.923872
1.118779
0.968575
1.126528
0.908971
0.805855
1.044869
1.289845
1.226664
1.312494
1.339912
1.543760
1.491904
1.676679
4.191995
21.221638
54.652691
137.693882
238.055587
417.682528
570.077896
735.573769
808.748603
809.670687
731.315613
558.468699
414.589643
236.715674
142.854452
64.363480
33.253431
17.090440
17.817616
28.090477
40.045977
61.192513
80.255866
105.382800
120.652914
129.819512
127.261877
117.554665
103.675723
79.696774
63.816905
44.796467
33.052564
22.033453
18.052459
14.771819
14.047623
14.579892
14.531612
14.332533
14.271736
14.793873
14.998913
14.650822
15.086532
15.125871
14.317632
14.982820
14.509559
14.348626
14.412999
14.241934
14.371872
13.955832
13.852715
13.558865
13.369918
13.344884
12.817979
12.804866
12.452602
12.254715
12.187958
11.818409
##ZVALUE=305
0.741482
0.717640
0.715852
0.831485
0.866652
0.733733
0.884533
0.785589
0.849962
0.717640
0.805855
0.843406
0.861883
0.857711
0.894666
0.801682
0.920892
0.997782
0.842810
0.746846
0.802875
0.995994
0.920892
1.012683
1.086593
1.091957
1.039505
1.045465
1.328588
1.166463
1.317859
1.348853
1.595616
1.607537
2.295971
12.798905
35.325885
100.672841
183.373690
344.316959
487.394929
669.303536
767.979622
811.618567
769.712925
611.123443
480.046868
308.866501
195.539594
89.369416
45.609474
18.800497
13.744831
18.036962
25.643706
41.874647
57.268739
79.665780
98.652840
116.053820
122.932792
123.000741
114.328861
98.310709
79.467893
58.879852
44.436455
30.028820
22.477508
17.509460
14.957786
14.237761
14.271736
14.169812
13.859868
14.291406
14.539957
14.518499
14.448762
14.175773
14.746785
14.370680
14.757514
14.261603
13.983846
14.118552
13.661981
13.539791
13.387799
13.117790
12.583733
12.420416
12.446642
12.119412
11.912584
12.075901
##ZVALUE=310
0.800490
0.697970
0.638962
0.956655
0.571609
0.697970
0.837445
0.753999
0.803471
0.711679
0.701547
0.701547
0.956655
0.798702
1.003742
0.749826
0.906587
0.815988
0.820756
0.835657
0.934601
0.892878
0.981688
1.084805
0.961423
0.885725
1.054406
1.064539
1.045465
1.150966
1.169443
1.229644
1.151562
1.291633
1.418591
1.450777
1.746416
5.653501
17.527938
59.355497
118.950605
247.157812
378.690958
569.163561
699.371696
795.619488
795.227885
700.185895
581.820011
389.969945
263.891816
134.254694
73.322654
28.974414
15.281439
12.753606
16.131997
24.616718
34.793615
53.342581
70.256591
93.541741
106.460452
115.933418
116.971731
108.955503
96.500516
77.486634
61.008930
41.769743
31.077862
22.186637
18.131733
14.866590
14.093518
13.933778
13.420582
13.701916
13.701916
13.890862
13.731718
14.057755
13.910532
14.216900
14.060736
13.484955
13.830662
13.145804
13.200641
12.657642
12.878776
12.610555
12.435913
12.284517
12.119412
11.984706
##ZVALUE=315
0.766516
0.611544
0.715852
0.651479
0.805855
0.875592
0.746846
0.708699
0.745654
0.619888
0.693798
0.817776
0.694990
0.772476
0.754595
0.851750
0.868440
0.803471
0.781417
0.823736
0.822544
0.931621
0.783801
0.791550
0.930429
0.893474
0.864863
0.966787
0.945926
0.889897
1.002550
1.209974
1.118779
1.124740
1.102686
1.215935
1.378655
1.463890
1.607537
2.508759
8.198619
34.699440
79.424977
184.167624
302.296877
498.667955
629.251599
751.799941
791.011453
760.156512
629.673004
493.007898
308.152437
191.638470
88.880658
44.642687
18.037558
11.512637
11.791587
14.955997
22.504926
31.874776
49.271584
65.092444
86.335540
99.539757
109.811425
111.013651
102.119446
89.514852
72.040558
57.420731
39.825439
29.260516
21.250844
17.703772
14.731884
13.257861
13.230443
13.109446
13.206601
12.787580
13.327599
13.122559
13.142824
13.064742
13.293624
12.789965
12.992620
13.132691
12.646914
12.849569
12.082458
12.241602
11.659861
11.901855
##ZVALUE=320
0.760555
0.524521
0.524521
0.645518
0.653863
0.621676
0.861883
0.645518
0.706911
0.716448
0.826716
0.506639
0.581741
0.729561
0.676513
0.634789
0.839829
0.656843
0.779629
0.764728
0.783801
0.865459
0.739694
0.845790
0.888705
0.866652
0.839829
0.882745
0.865459
0.933409
1.082420
0.942945
0.912547
1.038909
1.079440
0.837445
1.002550
1.321435
1.401901
1.397729
1.433492
1.740456
4.303455
20.483732
52.729845
137.173533
230.531693
389.478803
527.141690
690.322518
764.620900
760.498643
693.899989
537.259579
396.533012
224.004984
130.540729
58.240891
28.287768
11.698604
9.533763
11.186600
13.548732
20.235777
28.529763
44.144988
59.050918
79.845786
92.752576
102.578998
104.631782
98.349452
86.952448
68.791509
54.722428
37.875772
28.532743
20.735860
16.817451
13.875961
12.678504
12.508631
12.693405
12.104511
12.851954
12.733936
12.642741
12.241602
12.376904
12.402534
12.508631
12.227893
11.927485
11.801720
11.900663
11.849999
##ZVALUE=325
0.599623
0.562668
0.675917
0.642538
0.563860
0.680685
0.782609
0.696778
0.630617
0.657439
0.576973
0.463724
0.600815
0.552535
0.603795
0.763535
0.702739
0.721812
0.758767
0.618696
0.702739
0.716448
0.736713
0.766516
0.774860
0.685453
0.957847
0.795722
0.862479
0.850558
0.878572
0.995994
1.011491
1.007915
0.880957
1.008511
1.038909
1.107454
1.119971
1.081824
1.254678
1.249909
1.358986
1.609921
2.565980
12.668967
34.277439
91.838837
165.279508
312.021971
446.629524
620.822906
714.904666
761.403441
717.289448
575.709939
438.293815
264.729857
166.477561
77.734590
39.252639
14.658570
9.164810
8.634925
9.550452
13.010502
17.902851
29.095411
40.824413
59.877634
74.756742
88.079572
95.924735
98.017454
91.485977
77.707767
65.825582
48.956871
37.614703
25.232434
19.728541
14.987588
12.990832
12.365580
11.693835
12.044907
11.708736
12.032986
11.622906
11.697412
11.761785
11.130571
11.279583
11.394620
11.231899
11.318922
##ZVALUE=330
0.532866
0.567436
0.575781
0.700951
0.644922
0.579953
0.719428
0.676513
0.435710
0.609756
0.693798
0.650883
0.587702
0.678897
0.538826
0.786781
0.704527
0.656843
0.689626
0.681877
0.615716
0.614524
0.696778
0.746846
0.883937
0.863671
0.728965
0.972748
0.827909
0.799894
0.747442
0.743866
0.909567
0.879765
0.867844
1.009703
0.959635
0.892878
0.967979
1.167655
1.207590
1.043677
1.119971
1.225471
1.267791
1.344681
1.668930
5.734563
18.085837
60.888529
117.383599
240.219831
360.307693
537.501574
653.591752
739.016533
726.832747
624.520779
507.899523
333.974957
219.018459
104.554892
55.109859
22.021532
10.950565
8.118749
8.119941
8.999705
11.851788
18.843412
26.370883
39.920807
52.558780
70.853829
82.064867
91.888905
93.054771
85.523725
75.729489
60.464740
47.500730
33.633709
26.249886
19.534826
15.850663
13.157725
12.032986
11.741519
11.778474
11.331439
11.141896
11.131763
11.391640
11.257529
11.074543
11.064410
##ZVALUE=335
0.631809
0.626445
0.645518
0.741482
0.655651
0.655651
0.593662
0.611544
0.599623
0.618696
0.654459
0.652671
0.666976
0.584722
0.627637
0.683665
0.636578
0.778437
0.613928
0.821948
0.778437
0.816584
0.700951
0.806451
0.826716
0.665784
0.676513
0.791550
0.942945
0.892878
0.710487
0.784993
0.908971
0.763535
0.812411
0.947714
0.904799
1.044869
0.900626
1.050830
0.853539
0.787973
0.881553
0.979900
1.208782
1.073480
1.253486
1.262426
1.533628
3.067851
9.935498
36.950707
79.540610
178.158879
291.778445
468.387008
594.537854
700.959563
723.485947
661.755800
560.783744
389.441848
267.685652
145.804882
78.799725
29.372573
14.079809
8.566976
8.113980
8.347631
8.993745
12.569427
17.283559
26.862621
37.055612
53.965449
65.725446
78.331828
85.148811
85.231662
81.594586
68.680644
59.234500
44.692755
35.052896
25.004745
20.089746
15.642643
13.042688
11.675954
11.085868
10.918975
10.682940
10.701418
10.578632
10.897517
##ZVALUE=340
0.741482
0.796914
0.687838
0.803471
0.670552
0.733733
0.662804
0.779629
0.693798
0.709891
0.626445
0.724792
0.730753
0.667572
0.833869
0.779629
0.818968
0.888705
0.792742
0.810623
0.743866
0.925660
0.922680
0.806451
0.802875
0.830889
0.853539
0.794530
0.753999
0.909567
0.992417
0.956655
0.828505
0.802875
0.896454
1.093745
0.981688
1.001954
0.919700
0.957847
1.066923
1.059771
0.914931
1.144409
1.146793
1.216531
1.224875
1.184940
1.267791
1.211762
1.359582
1.688600
6.490946
19.400716
61.619878
120.077729
252.572894
372.141600
530.681014
632.917881
705.105662
689.746737
586.196780
471.042991
298.286676
191.370845
90.558529
46.176910
16.278625
9.564757
7.858872
8.076429
8.635521
9.522438
12.288690
16.349554
25.858879
35.644770
51.055551
62.002540
75.108409
79.806447
80.968738
77.098608
66.985488
58.495998
44.818521
35.061836
25.118589
19.427538
14.778972
12.547970
11.168718
10.595918
10.583997
10.662675
##ZVALUE=345
0.532866
0.642538
0.574589
0.708699
0.600815
0.513792
0.619888
0.635982
0.633597
0.684857
0.869632
0.632405
0.608563
0.586510
0.722408
0.687838
0.643730
0.487566
0.755787
0.629425
0.708699
0.831485
0.513792
0.783801
0.725985
0.751615
0.659823
0.620484
0.697970
0.530481
0.728965
0.798702
0.758767
0.778437
0.737906
0.797510
0.863671
0.820756
0.897646
0.853539
0.832677
0.881553
0.850558
0.934601
0.896454
1.137853
0.960827
1.021624
1.016855
0.810623
1.018643
1.187921
1.284480
1.359582
2.631545
12.676716
34.814477
91.091990
161.365867
300.577879
427.242517
583.850741
658.805966
682.404637
636.344552
498.964787
374.791622
216.497779
126.712918
55.238605
26.221871
11.201501
8.068681
7.789731
7.878542
8.328557
9.060502
11.635423
15.379786
23.840666
32.514930
46.379566
56.758523
67.442656
73.331594
75.160861
72.648525
64.849854
55.607557
43.439865
34.073591
23.741722
19.019842
14.535785
12.178421
10.684729
##ZVALUE=350
0.664592
0.639558
0.609756
0.679493
0.556707
0.674725
0.598431
0.669956
0.516772
0.636578
0.668764
0.644922
0.618696
0.601411
0.623465
0.671744
0.523925
0.657439
0.728965
0.613928
0.467896
0.513792
0.618696
0.775456
0.528693
0.689626
0.796914
0.784993
0.735521
0.822544
0.748634
0.661612
0.913739
0.820756
0.666976
0.779629
0.920892
0.634789
0.761747
1.011491
0.822544
0.914931
0.781417
0.885725
0.932813
0.832677
0.957847
1.103878
1.004934
1.078844
1.040697
1.011491
1.059771
1.198649
1.282692
1.337528
1.674891
7.097721
19.933581
61.492920
116.910934
237.874985
351.897478
505.652428
604.840517
671.219826
650.440454
546.755791
427.042842
259.467959
163.592696
77.753663
37.807822
13.615489
8.550882
7.335544
7.288456
7.471442
7.633567
8.812547
10.639429
15.626550
20.827651
29.476881
37.994981
50.044656
58.979988
66.578984
69.007874
66.808462
61.636567
51.263571
42.535663
30.893683
24.503469
17.938614
##ZVALUE=355
0.683665
0.568628
0.619888
0.583529
0.622869
0.530481
0.506639
0.623465
0.555515
0.602603
0.659823
0.683665
0.649691
0.643730
0.619888
0.662804
0.679493
0.864863
0.719428
0.628829
0.694990
0.703931
0.722408
0.699759
0.730753
0.716448
0.702739
0.538826
0.584722
0.663996
0.768900
0.928640
0.537634
0.889897
0.756979
0.855923
0.756979
0.848770
0.706911
0.660419
0.736713
0.955462
0.788569
0.861883
0.677705
0.720620
0.953674
0.936985
0.961423
0.919700
1.027584
0.959635
1.078844
1.123548
0.959635
1.210570
1.271963
1.207590
1.365542
3.345609
11.168718
40.431619
85.760951
184.811950
293.536782
464.015603
572.843552
655.568838
659.976006
569.688678
464.534760
316.043496
204.023719
92.664957
47.100782
16.856790
9.119511
7.261634
7.126927
7.082820
7.237792
7.586479
8.079410
10.268688
12.844801
18.893480
25.132895
34.927726
43.421984
52.829981
59.277415
62.365532
61.454773
55.652857
48.424602
39.423704
##ZVALUE=360
0.445843
0.642538
0.502467
0.625849
0.540614
0.679493
0.715852
0.689626
0.520945
0.578761
0.631809
0.573993
0.723600
0.555515
0.586510
0.697970
0.692606
0.537634
0.650883
0.888705
0.744462
0.725985
0.742674
0.720620
0.673532
0.749826
0.842810
0.661612
0.630617
0.711679
0.800490
0.712872
0.620484
0.692606
0.657439
0.780821
0.850558
0.683665
0.773668
0.713468
0.597835
0.732541
0.892878
0.931621
0.781417
0.866652
0.863671
0.751615
0.969768
0.910759
0.820756
1.010895
0.974536
1.003742
0.811815
0.943542
0.984669
0.975728
1.091957
1.346469
1.512766
1.840591
5.035400
21.231771
51.504970
132.224560
224.153996
372.169614
496.770740
617.252588
648.902655
607.294440
518.148541
360.891819
244.895816
122.459531
66.030622
25.925636
12.303591
7.130504
6.676912
6.817579
6.704926
6.811619
6.915927
7.532835
8.340478
11.242628
14.644861
21.371841
28.074980
37.770867
44.932961
52.743554
56.342483
56.039691
##ZVALUE=365
0.616908
0.436902
0.505447
0.531673
0.620484
0.527501
0.473857
0.613928
0.495911
0.627637
0.707507
0.682473
0.655651
0.761747
0.653863
0.608563
0.552535
0.651479
0.628829
0.494719
0.613928
0.711679
0.657439
0.639558
0.717640
0.631809
0.546575
0.720620
0.667572
0.711679
0.705719
0.877976
0.571609
0.745654
0.621676
0.732541
0.807643
0.626445
0.800490
0.755787
0.886917
0.717640
0.787973
0.848770
0.837445
0.791550
0.652671
0.839829
0.870824
0.878572
0.933409
0.744462
0.920892
0.944734
1.114607
0.971556
1.131892
1.156926
1.172423
1.108646
0.980496
1.202822
1.380444
1.656413
2.947450
9.424686
34.583807
75.978637
178.467631
290.063620
448.263884
545.494556
621.859431
620.666742
534.603596
433.637500
286.111832
180.229545
81.735849
40.066838
13.837814
7.938743
6.554723
6.412864
6.195903
6.452799
6.148815
6.032586
6.561875
7.388592
9.420514
12.558699
17.924905
24.050474
32.993555
39.514899
##ZVALUE=370
0.624657
0.625849
0.649691
0.670552
0.688434
0.599623
0.647902
0.570416
0.635982
0.565648
0.657439
0.545979
0.616908
0.575781
0.557899
0.582933
0.539422
0.665784
0.606775
0.543594
0.769496
0.580549
0.514984
0.652671
0.740886
0.844598
0.818968
0.664592
0.646710
0.729561
0.790954
0.837445
0.681877
0.740886
0.618696
0.670552
0.610948
0.664592
0.652671
0.722408
0.793934
0.717640
0.773668
0.778437
0.735521
0.607967
0.644922
0.838637
0.679493
0.884533
0.925660
0.864863
0.826716
0.783801
0.878572
0.854731
0.765920
0.870824
1.020432
1.079440
1.102686
1.011491
0.956655
1.098514
1.186728
1.196861
1.623631
6.263852
20.198822
60.910583
116.155744
225.190520
331.371427
480.068922
560.813546
596.784949
559.398532
448.766947
340.203643
198.192596
115.338564
48.309565
23.280978
9.134412
6.483793
5.739927
5.745888
5.810857
5.731583
5.565882
5.714893
6.063581
6.683469
8.504987
10.619760
15.412569
##ZVALUE=375
0.565648
0.412464
0.554919
0.444651
0.489950
0.633597
0.544786
0.743866
0.635982
0.652671
0.623465
0.582933
0.511408
0.587702
0.577569
0.730753
0.615716
0.738502
0.673532
0.550747
0.739694
0.638962
0.703931
0.563860
0.570416
0.674725
0.647902
0.537634
0.576973
0.733733
0.711679
0.574589
0.604987
0.640750
0.633597
0.688434
0.646710
0.743866
0.798702
0.697970
0.762939
0.706911
0.723600
0.889897
0.747442
0.869632
0.726581
0.814795
0.684857
0.871420
0.753999
0.697970
0.788569
0.778437
0.791550
0.846982
0.711679
0.781417
0.820756
0.889897
1.028776
0.952482
1.017451
0.897646
1.019835
1.112819
1.156926
1.280904
1.419783
2.818704
13.883710
34.179688
86.815953
156.610608
288.579464
394.183993
519.649982
579.123497
571.326017
506.058931
369.553566
265.823603
152.424574
87.289810
36.197901
16.949773
7.058978
5.500913
5.334616
5.150437
4.904866
5.184412
5.386472
5.076528
5.392432
6.134510
##ZVALUE=380
0.543594
0.515580
0.567436
0.544786
0.475645
0.447631
0.640750
0.613928
0.595450
0.583529
0.648499
0.564456
0.561476
0.586510
0.636578
0.671744
0.579953
0.716448
0.664592
0.558496
0.674725
0.529885
0.655651
0.631809
0.541806
0.586510
0.552535
0.679493
0.556707
0.719428
0.640750
0.584722
0.746846
0.732541
0.594854
0.670552
0.578761
0.741482
0.700951
0.699759
0.736713
0.700951
0.787973
0.623465
0.744462
0.602603
0.829697
0.601411
0.654459
0.601411
0.640750
0.555515
0.752807
0.839829
0.799894
0.751615
0.831485
0.865459
0.783801
0.662804
0.822544
0.878572
0.806451
0.841618
0.790954
0.808835
0.994802
1.053810
1.064539
1.272559
1.370907
1.855493
5.750656
26.221871
59.355497
138.120651
225.480795
362.342596
468.654633
567.190647
585.300922
524.685979
434.727669
299.472809
204.044580
104.098916
55.426955
20.907521
9.873509
5.431771
4.830956
4.929900
4.742742
4.881620
4.723668
4.905462
##ZVALUE=385
0.524521
0.649691
0.423789
0.485778
0.685453
0.496507
0.683665
0.393987
0.444651
0.300407
0.472665
0.550747
0.547767
0.642538
0.554919
0.703931
0.533462
0.617504
0.556707
0.581741
0.625849
0.701547
0.552535
0.635982
0.643730
0.602603
0.747442
0.691414
0.586510
0.637770
0.675917
0.699759
0.708699
0.752807
0.748634
0.600815
0.700951
0.619888
0.695586
0.672936
0.517964
0.601411
0.628829
0.698566
0.652671
0.702739
0.705719
0.505447
0.629425
0.727773
0.691414
0.787973
0.785589
0.768900
0.847578
0.764728
0.617504
0.734925
0.776649
0.684857
0.792742
0.787973
0.741482
0.902414
0.772476
0.905991
0.894666
0.976920
1.032948
1.099706
1.071692
1.039505
1.368523
1.539588
3.149509
14.206767
36.126971
95.525980
170.350671
305.105448
416.691899
531.534553
572.821498
558.521748
496.199727
372.033715
267.700553
149.414539
85.950494
36.794543
16.124845
6.100535
4.635453
4.412532
4.344583
4.465580
##ZVALUE=390
0.637770
0.578761
0.544786
0.551939
0.484586
0.632405
0.601411
0.551939
0.601411
0.451803
0.579953
0.687838
0.622869
0.543594
0.649691
0.532866
0.492930
0.567436
0.569820
0.468493
0.565648
0.732541
0.568628
0.557899
0.519753
0.551939
0.593662
0.681877
0.591874
0.491738
0.656843
0.521541
0.544786
0.694990
0.597835
0.627637
0.724792
0.742674
0.774860
0.709891
0.706911
0.663996
0.633597
0.744462
0.668764
0.659823
0.431538
0.636578
0.664592
0.668764
0.810623
0.677705
0.638962
0.574589
0.652671
0.668764
0.548959
0.705719
0.717640
0.869632
0.677705
0.715852
0.719428
0.733733
0.818968
0.789762
0.729561
0.853539
0.949502
0.969768
1.078844
1.130700
1.076460
1.114607
1.243949
1.221895
1.839995
7.904768
24.123788
71.805716
133.649707
253.031850
352.808833
469.489694
541.027784
571.892858
535.202622
431.070924
332.740545
206.555724
122.456551
51.501989
25.480986
9.160638
5.352497
4.379749
##ZVALUE=395
0.507832
0.558496
0.508428
0.585914
0.535846
0.628829
0.488758
0.452995
0.474453
0.505447
0.567436
0.549555
0.561476
0.481606
0.570416
0.548959
0.596642
0.387430
0.576973
0.599623
0.562668
0.597835
0.645518
0.516772
0.559688
0.670552
0.496507
0.657439
0.513792
0.412464
0.613928
0.453591
0.628829
0.502467
0.658631
0.625849
0.559688
0.520945
0.507832
0.685453
0.635982
0.655651
0.587702
0.634789
0.559688
0.497699
0.794530
0.596642
0.606775
0.660419
0.615716
0.616908
0.566840
0.559688
0.576973
0.717640
0.670552
0.653863
0.719428
0.836849
0.712872
0.633597
0.617504
0.673532
0.674725
0.782609
0.722408
0.840425
0.757575
0.920892
0.872612
0.942945
1.056790
1.047850
1.104474
1.045465
1.165867
1.216531
1.329780
4.897714
15.786886
52.324533
97.264647
185.054541
279.535651
415.466428
507.213473
570.699573
568.716526
489.098430
388.664603
246.900916
155.208707
70.068836
34.908652
12.430549
##ZVALUE=400
0.561476
0.521541
0.444651
0.451803
0.485778
0.510812
0.449419
0.568628
0.590682
0.596642
0.585914
0.436902
0.528693
0.471473
0.541806
0.571609
0.455976
0.502467
0.614524
0.620484
0.735521
0.505447
0.640750
0.481606
0.508428
0.607967
0.834465
0.658631
0.724792
0.660419
0.666976
0.625849
0.590682
0.725985
0.700951
0.648499
0.774860
0.676513
0.545979
0.480413
0.481606
0.749826
0.768900
0.814795
0.601411
0.546575
0.736713
0.613928
0.555515
0.789762
0.699759
0.697970
0.620484
0.693798
0.684857
0.801682
0.652671
0.723600
0.763535
0.669956
0.720620
0.630617
0.530481
0.640750
0.795722
0.636578
0.738502
0.876784
0.898838
0.852942
0.820756
0.873804
0.755787
0.906587
0.948906
0.918508
1.059771
0.918508
0.986457
1.066923
1.347661
2.663732
8.395910
29.879808
63.895583
138.817430
224.804878
358.129740
453.100801
540.200472
561.706424
507.284999
422.636867
285.184979
191.298723
97.700953
##END
