##TITLE=FQP00351
##FORMAT=SPECTACLE-ASCII V-1.2
##DATA TYPE=ULTRAVIOLET SPECTRUM
##SECOND TYPE=ULTRAVIOLET SPECTRUM
##DATE=01/21/18
##TIME=12:58:03
##SPECTROMETER/DATA SYSTEM=SPECTACLE
##XUNITS=NM EM
##YUNITS=ENERGY
##YFACTOR=1
##FIRSTX=220
##LASTX=410
##NPOINTS=96
##3DDATA=Equidistant
##ZUNITS=NM EX
##FIRSTZ=210
##LASTZ=400
##ZPOINTS=39
##XYDATA=(Y..Y)
##ZVALUE=210
2.480745
2.073646
2.540946
2.090931
1.883507
2.302527
2.093911
2.527833
3.008842
2.767444
3.405809
3.216863
3.580451
3.532767
3.702641
4.136562
4.676580
4.744530
5.169511
5.730987
5.588531
6.874800
6.408691
7.132888
7.747412
8.244514
8.326769
9.141564
8.919835
10.083914
8.822680
9.328723
10.949969
10.522604
10.325909
10.877848
12.160540
11.353493
11.186600
11.800528
12.186766
12.177825
12.677908
12.802482
13.680458
13.100505
13.904572
13.568997
14.133453
13.791919
13.459921
16.140938
13.439655
14.051795
13.282895
14.933944
15.121698
13.957620
14.988780
15.671849
15.014410
14.950633
15.086532
15.072823
15.253425
15.997887
18.307567
18.981695
21.358728
26.230812
29.088855
36.910772
43.484569
50.220490
54.211617
60.798526
67.984462
72.040558
75.578690
69.694519
69.856644
62.653422
55.767894
43.589473
34.362674
28.147697
21.905899
17.969608
15.643835
12.893677
13.944507
13.312697
13.364553
12.274981
11.420846
12.452602
##ZVALUE=215
6.611943
6.742477
6.849766
5.673766
4.620552
4.187822
4.090667
4.534721
4.353523
4.324913
4.572868
4.521608
5.067587
4.251599
3.690720
3.948808
3.725886
4.323721
4.951954
5.119443
5.068779
5.569458
5.523562
6.502867
7.038713
6.569624
7.275939
7.059574
8.625984
8.760691
9.031892
8.848906
10.497570
10.764599
9.048581
10.564923
9.405613
9.698868
10.080934
10.296702
9.803772
9.809732
9.701848
11.439919
10.663867
10.191798
9.979606
11.079907
10.656714
12.304783
11.500716
11.330843
12.013912
10.553598
10.549426
10.898709
11.089444
11.063814
11.168718
11.047721
11.046529
11.193752
12.424588
11.466742
12.104511
11.565685
13.549924
13.576746
16.481876
18.669963
21.763444
23.839474
30.826926
34.290552
37.327409
43.175817
44.338703
45.450926
50.637722
48.962831
49.247742
47.214627
39.888620
34.255981
27.116537
22.815466
17.348528
14.125705
11.673570
11.075735
11.531711
10.302663
10.591745
10.194778
10.267496
10.789633
##ZVALUE=220
21.307468
21.542907
24.561882
24.436712
22.948980
20.652413
14.195442
11.615753
9.609461
9.235740
9.628534
10.584593
10.899901
10.372996
9.341836
7.578731
6.252527
4.950762
4.771948
4.608631
3.753901
4.116893
6.254911
5.078912
5.733967
5.924702
6.576777
6.641746
6.922483
7.485747
7.731915
8.918643
9.703636
9.364486
9.236932
10.258555
9.422898
9.898543
9.494424
9.251833
9.813905
9.494424
9.260774
8.555651
8.862615
9.566545
9.962916
9.321570
8.688569
8.873940
9.346604
7.933974
8.461475
8.571744
8.666515
8.854866
8.662939
8.428693
8.460879
9.487867
9.298921
8.680820
8.878708
8.293986
9.260774
9.056926
9.829998
11.207461
11.479855
13.310909
16.027689
16.341805
18.982887
21.800995
23.499727
23.595691
25.722980
25.934577
26.796460
25.908947
23.732781
22.371411
20.519495
19.524693
14.583468
12.636781
10.680556
8.399487
7.519722
7.757545
6.849766
6.959438
8.133650
6.939769
6.579757
6.830692
##ZVALUE=225
37.880540
41.663647
49.977899
70.767999
73.453784
74.250698
69.219470
53.922534
43.836832
33.384562
24.109483
21.390915
20.296574
24.264455
24.327636
23.154616
20.730495
15.903711
13.435483
8.307695
6.340742
4.539490
3.963709
4.604459
5.151629
5.422831
5.547404
6.779432
7.274747
8.147955
8.480549
9.156466
9.472966
9.743571
10.420680
10.345578
9.723902
10.392666
9.902716
9.931922
9.920597
9.472966
9.336472
8.989573
9.328723
8.493662
8.070469
7.802844
7.618666
7.970929
7.351637
7.020831
7.805824
7.979870
7.984638
7.539988
7.716417
8.420944
6.616712
7.164478
7.770658
6.944537
7.243752
7.611513
8.141994
8.311868
8.919835
8.319616
9.560585
10.476708
10.666847
12.916923
13.213754
15.400648
15.875697
16.768575
14.877915
15.796423
14.735460
16.018748
13.890862
12.700558
13.148785
9.657741
8.417964
7.993579
8.233786
7.460713
6.993413
6.692410
6.792545
6.881952
7.269979
7.052422
6.044507
6.561875
##ZVALUE=230
32.417774
35.857558
61.858892
105.921626
137.936473
164.994597
180.566907
179.256797
165.423751
133.195519
86.078644
69.001913
47.311783
40.965676
41.975975
47.621727
49.536824
49.122572
44.545531
37.114620
28.173923
17.961860
13.237596
7.566810
6.381869
5.690455
5.782843
5.822778
8.611679
8.089542
9.902716
9.051561
9.458661
9.487867
9.870529
10.221601
9.648800
10.211468
10.096431
8.235574
9.533763
9.116530
8.615851
9.082556
8.404851
8.189678
8.885860
7.725954
7.753968
8.113980
7.844567
8.027554
7.633567
7.636547
6.642938
6.920695
7.346869
7.446408
6.738901
7.052422
7.684827
7.848740
7.810593
7.978678
6.934404
7.652640
8.465648
9.121895
8.747578
9.623766
10.806918
11.532903
13.052821
12.170672
14.249682
12.942553
14.637709
14.621615
14.624000
14.494658
12.570620
12.104511
12.666583
11.079907
10.401607
9.384751
8.980632
8.666515
8.121729
7.534623
7.674694
9.006858
8.441806
7.782578
7.268786
7.640719
##ZVALUE=235
10.711551
12.099743
26.630759
63.623786
104.590654
175.751448
229.634643
297.935605
327.935815
308.752656
283.028483
215.567946
165.865421
107.994676
83.731413
68.002939
69.311857
75.421929
86.883903
85.453987
75.865984
68.246722
51.769614
35.879612
23.585558
15.859604
11.330843
8.714795
7.354617
7.322431
8.238554
7.338524
8.816719
10.064840
8.472800
9.753704
9.287000
9.065866
9.402633
8.881688
8.935928
9.771585
8.608699
9.117723
8.431673
8.118749
8.608699
7.171631
8.306503
7.369518
8.093715
7.452965
8.277893
8.337498
8.159876
8.788705
7.369518
8.273721
8.200407
8.611679
8.593798
8.637905
8.184910
8.783937
8.401871
9.690523
8.862615
10.657907
11.035800
11.367798
12.588501
14.082789
15.103817
15.229583
14.773607
15.443563
16.164780
14.381409
15.445948
14.845729
14.822483
14.669895
12.631416
12.887716
12.508631
12.379885
11.639595
12.682676
10.895729
11.673570
10.716915
11.466742
11.274815
10.769963
11.175871
11.011958
##ZVALUE=240
1.692772
2.211928
4.715919
20.229816
49.950480
125.723481
213.192701
377.543569
510.789752
616.195798
697.840452
694.935918
594.607592
489.671826
337.483883
235.599875
142.572522
105.663538
90.883970
100.551844
108.723640
116.639733
107.733607
100.915432
80.042481
62.277913
44.652820
29.532909
20.847917
12.968779
10.408759
8.983612
8.571744
8.256435
7.829666
8.752942
8.238554
9.205937
8.428693
8.951426
8.727908
8.842945
9.509921
9.205937
9.489655
8.493662
8.787513
8.280873
8.001924
8.727908
8.838773
7.871985
7.113814
8.974671
9.124875
8.738637
9.369850
8.931756
9.148717
8.545518
9.208918
9.218454
8.842945
9.878874
10.275841
11.503696
11.893511
11.494756
12.314916
13.681650
15.554428
14.855862
16.204715
18.039942
17.589927
17.355680
18.028617
17.799735
17.841458
15.831590
16.458631
15.806556
15.721917
14.577508
13.815761
14.086962
14.230609
13.468862
13.401508
12.377501
13.188720
13.387799
13.148785
13.040900
13.204813
13.939738
##ZVALUE=245
1.452565
1.234412
2.072453
1.937747
5.359650
13.945699
52.687526
118.768811
256.374478
381.557941
561.775565
671.810508
736.538768
731.288791
672.786832
531.243682
380.096436
236.903429
184.437633
98.554492
95.199943
94.050765
112.148523
124.413967
130.879879
118.174553
111.739635
72.768927
71.395636
42.459965
35.365820
21.964908
14.710426
10.476708
9.459853
8.605719
9.513497
9.569526
9.243488
9.593964
10.237694
10.022521
9.664893
9.339452
9.163618
9.470582
9.203553
9.336472
8.999705
8.824468
8.715987
7.675886
7.561445
7.698536
7.568598
7.887483
8.780956
8.090734
8.125901
7.903576
8.137822
7.768869
7.725954
7.588863
9.085536
9.045601
9.926558
9.783506
11.269450
10.550618
12.299418
12.826920
14.057755
14.879704
15.471578
16.659498
16.007423
14.913678
16.562939
15.347600
14.484525
15.609860
14.546514
14.534593
13.328791
14.151931
13.446808
13.825893
13.955832
12.979507
14.277697
13.214946
12.856722
13.898611
12.574792
12.909770
##ZVALUE=250
1.302958
1.079440
1.504421
1.409650
1.552701
1.457930
2.308488
7.033944
29.772520
66.247582
157.819986
261.858702
377.614498
528.579950
610.186458
665.467978
647.807717
557.048917
462.045670
313.475728
211.637616
147.697926
96.927881
89.323521
99.625587
115.224719
134.608746
137.728453
130.077004
122.913718
106.133819
78.788996
59.935451
37.429929
24.623871
14.830828
10.962486
9.843707
9.028912
9.553432
8.333921
8.964539
9.332895
9.182692
8.580685
9.353757
9.290576
7.859468
8.314848
7.712841
7.579923
6.389618
6.844997
6.914735
6.377697
5.862713
6.417632
7.008910
6.281734
6.591678
6.163716
6.875992
7.092953
7.296801
7.516742
7.158518
7.667542
7.991791
7.703900
9.793639
10.131598
10.584593
11.033416
10.350943
11.775494
11.792779
12.437701
12.409687
12.467504
12.153983
13.279915
13.193488
12.978911
12.411475
12.017488
12.085438
13.216734
12.576580
12.135506
12.700558
11.703968
12.576580
12.784600
13.099909
13.288856
12.114644
##ZVALUE=255
1.209974
1.094937
1.307726
1.158714
1.384616
1.046658
1.347661
1.872778
1.829863
3.614426
11.548996
43.326616
91.919899
193.772912
298.900604
458.662510
568.030477
662.806034
681.633949
622.136593
537.476540
433.627963
275.745988
178.134441
106.109977
86.650848
84.840655
102.140903
124.433637
136.983991
143.454671
143.474936
125.173926
106.120706
77.480674
58.775544
36.616921
24.977922
15.200973
11.724830
10.304451
10.084510
9.655952
9.282827
9.065866
9.043813
9.246469
8.638501
8.609891
7.751584
7.333755
7.092953
7.024407
6.609559
6.185770
6.363988
6.701946
6.962419
6.499887
5.487800
6.358624
5.912781
6.287694
6.345510
6.412864
6.417632
6.802678
6.805658
7.577538
7.534623
9.142756
8.756518
10.027885
10.076761
10.391474
10.643601
10.716915
11.057854
11.123419
11.565685
10.784864
12.165904
11.913776
11.800528
11.413693
11.675954
11.599660
12.235641
12.035966
11.811852
11.318922
11.793971
11.933446
11.294484
12.393594
11.893511
##ZVALUE=260
1.157522
1.122952
1.107454
1.337528
1.159906
1.183748
1.121759
1.038909
1.390576
1.400709
1.740456
2.251863
8.050799
20.539761
58.773756
122.192502
263.326764
384.248495
518.382788
685.617924
762.558579
754.683018
665.291548
507.450700
370.039940
219.741464
144.637823
90.572834
74.513555
83.452463
101.560950
127.587914
143.300891
149.378777
145.560503
131.413937
111.463666
83.393455
61.189532
40.903687
27.887821
17.172694
13.109446
10.387897
9.289980
9.190440
9.358525
8.963943
8.699894
7.904768
8.023977
6.971955
7.572770
7.060766
6.412864
5.978942
5.966425
6.049871
5.422831
6.164908
5.665421
6.018877
5.338788
5.478859
5.416870
6.196499
6.550550
6.429553
6.464720
6.052852
7.497668
7.900596
8.151531
8.889437
8.475780
9.665489
10.242462
9.547472
9.979606
9.607673
9.967685
9.928942
10.237694
10.447502
10.454655
10.651946
10.148883
10.664463
10.999441
10.830760
11.043549
10.970831
10.986924
10.401607
11.217594
11.277795
##ZVALUE=265
0.959635
1.162887
1.118779
1.055598
1.099706
1.152754
1.244545
1.044869
1.261830
1.293421
1.259446
1.484752
1.355410
1.674891
3.333688
15.449524
38.659573
100.630522
183.462501
356.349945
512.915850
662.348866
819.921494
851.906538
760.414004
637.582541
460.231900
318.243504
178.533792
115.596652
73.831677
67.909956
81.795454
111.370683
132.013559
151.284933
152.931809
149.642825
135.970712
107.388496
85.639954
58.260560
41.138530
25.179982
17.270446
11.291504
9.231567
8.889437
8.613467
8.166432
7.845759
7.657409
6.953478
6.844997
6.519556
6.510615
6.132722
5.924702
6.087422
5.441904
5.477667
5.352497
5.149841
5.655885
5.599856
5.338788
5.304813
6.280541
6.252527
7.003546
7.505417
7.088780
7.735491
8.166432
8.415580
8.444786
8.613467
8.786917
8.911490
8.831620
8.800626
9.570718
9.915829
9.233952
9.812713
9.498000
9.645820
10.345578
9.483695
9.765625
9.585619
9.614825
10.195971
9.762645
10.250807
10.927916
##ZVALUE=270
0.891685
0.976920
0.898838
0.883937
0.951886
0.845790
1.064539
1.029968
0.899434
1.066923
1.090765
1.147985
1.266599
1.349449
1.618862
1.425743
1.669526
6.285906
18.307567
61.168671
127.158761
231.450796
424.491763
580.554605
752.042532
809.908509
799.053907
716.651678
551.647544
413.391590
284.065604
152.748823
93.841553
60.164928
63.241720
83.908439
106.480718
133.162737
146.178603
154.466629
150.609612
135.781765
111.720562
82.146525
62.423944
36.974549
25.457740
15.693903
11.567473
8.318424
7.362962
6.929636
6.687641
6.588697
5.848408
5.930662
5.954504
6.197691
5.832911
5.639791
5.686879
5.129576
5.413890
5.001426
5.155802
5.244613
5.985498
5.599856
6.369948
6.430745
6.348491
6.944537
6.726980
7.136464
7.644892
8.151531
7.898808
8.107424
7.815957
8.228421
8.172989
8.501410
8.154511
9.046793
8.892417
8.879900
8.770823
8.576512
9.064674
9.550452
9.376407
9.584427
9.531975
9.015799
9.439588
9.176731
##ZVALUE=275
0.823736
0.805855
0.719428
1.008511
0.931621
0.802875
0.853539
0.892878
0.834465
0.914931
0.878572
0.997782
1.072884
0.877976
1.207590
1.223683
1.290441
1.374483
1.321435
3.074408
11.307001
31.287670
95.296502
178.781748
334.534645
458.228588
614.492893
702.769756
746.986866
719.634891
636.552572
478.454828
345.285535
187.049508
111.072659
59.114695
47.103763
58.395863
77.624917
104.595423
125.158429
143.624544
149.085522
141.433477
130.712986
103.219748
82.798004
57.335496
40.201545
23.478866
15.362501
9.121895
7.454753
6.353855
5.986691
5.534887
5.558729
5.539656
5.804896
5.329847
5.646944
5.334616
5.317926
5.669594
5.184412
5.544424
5.626678
5.962849
5.573630
6.085634
6.292462
6.908774
6.835461
7.509589
6.998777
7.256866
7.345676
7.422566
7.583499
7.809997
7.827878
7.974505
8.253455
7.839799
8.076429
7.895827
8.406639
8.885860
8.437634
8.604527
8.500814
8.273721
8.191466
8.744597
8.538961
8.259416
##ZVALUE=280
0.787973
0.684857
0.887513
0.787973
0.904799
0.957847
0.710487
0.946522
0.662804
0.844598
0.812411
1.067519
1.002550
1.032948
1.068711
0.966787
1.157522
1.178980
1.221895
1.408458
1.590848
1.732707
6.478429
21.320581
70.835948
133.480430
252.105594
371.408463
538.594723
645.212531
720.504522
731.256008
666.419864
517.848730
389.596820
227.659941
140.045881
64.831972
40.810704
39.570928
52.396655
77.633858
98.238587
123.952627
136.865973
142.996907
138.257742
119.584799
105.105639
77.284575
56.825876
35.562515
23.354888
13.533831
8.793473
6.108880
5.307794
5.181432
5.488992
4.926920
5.262494
5.240440
5.327463
5.728602
5.467534
5.559921
5.730987
6.027818
5.776882
6.207824
6.285906
6.286502
6.900430
7.071495
7.488728
7.648468
7.048845
7.467866
7.574558
7.524490
7.557869
7.764697
7.550716
7.642508
7.771850
7.871985
7.938743
8.074641
8.187890
8.153915
7.776618
8.021593
8.153915
7.856488
7.994771
8.118749
##ZVALUE=285
0.888705
0.843406
0.775456
0.812411
0.789762
0.682473
0.737906
0.786781
0.755787
0.802875
0.877976
0.880957
0.947714
0.876784
0.983477
1.019835
0.945926
1.021624
1.104474
1.148582
1.270771
1.432896
1.405478
1.412630
3.399849
10.797977
37.234426
81.319809
180.677772
288.015008
406.937003
580.215454
689.633489
752.820969
724.754930
605.665445
479.146838
302.547812
193.445683
93.925595
51.008463
29.631853
32.146573
49.033761
67.385435
96.621513
114.385486
132.145882
138.117671
134.046674
123.925805
101.942420
81.705451
54.977536
38.319826
22.120476
13.966560
8.679628
6.345510
5.522966
5.441904
5.208850
5.448461
5.022883
5.555749
5.630851
5.758405
6.316900
6.197691
6.616712
6.605983
6.862879
7.113814
7.245541
7.467866
7.877946
7.855892
7.839799
7.979870
7.746816
7.789731
7.664561
8.134842
7.933974
7.830858
7.666945
8.020997
7.850528
7.795691
7.791519
8.173585
7.679462
7.897615
7.999539
8.004904
7.847548
##ZVALUE=290
0.832677
0.754595
0.773668
0.811815
0.812411
0.911951
0.827909
0.736713
0.837445
0.749826
0.773668
0.716448
0.944734
0.824928
0.877976
0.925660
1.072884
1.128912
1.124740
1.071692
1.250505
1.108646
1.182556
1.305938
1.240969
1.335740
1.850724
4.817843
20.519495
51.032901
107.870698
239.725709
376.375914
576.159954
698.880553
798.457861
794.721842
710.697770
605.949759
439.530015
312.265754
176.445842
106.255412
45.822859
27.552843
30.645728
44.354796
66.674948
86.172819
111.960769
124.444962
135.187507
133.403540
117.815733
101.944804
75.241923
55.774450
35.783648
23.940802
13.896823
9.431839
6.951690
5.883574
5.986691
5.461574
5.742908
6.070733
6.046891
6.454587
6.851554
7.104874
7.493496
7.736683
7.645488
7.959604
7.955432
7.984638
8.235574
8.082986
8.169413
8.148551
8.267760
7.979870
7.736683
8.052588
7.683635
7.879734
8.584857
8.002520
7.819533
7.853508
7.821918
7.782578
7.867813
7.675886
7.653832
##ZVALUE=295
0.713468
0.640750
0.814795
0.760555
0.745654
0.759959
0.786781
0.738502
0.734925
0.720620
0.795722
0.610948
0.628829
0.899434
0.732541
0.952482
0.801682
0.883937
0.847578
1.000762
1.099706
0.842810
0.997782
0.955462
1.360774
1.245737
1.307726
1.597404
1.728535
2.656579
11.476874
30.852556
97.154975
195.490718
381.053686
535.019636
716.343522
808.179975
835.594535
788.081884
661.532879
536.878705
350.595713
223.204494
104.783773
52.607656
21.596551
18.042922
28.129816
41.332841
63.088536
80.788732
104.848742
118.263960
126.788616
125.219822
112.291574
95.690489
73.315501
56.054592
36.106706
24.953485
14.532804
9.763837
7.095933
6.569624
6.201863
6.582737
6.355643
6.591678
7.120967
7.368922
7.521510
7.674694
7.951856
7.921457
8.319616
7.805824
8.239746
8.120537
7.664561
8.341670
7.503629
7.820725
8.195639
8.009672
8.010864
7.739663
7.535815
7.653832
7.824898
7.351637
7.486939
7.365942
7.419586
7.586479
##ZVALUE=300
0.608563
0.695586
0.655651
0.542998
0.775456
0.670552
0.681877
0.783801
0.740886
0.786781
0.769496
0.706911
0.841618
0.825524
0.770688
0.733733
0.948906
0.751615
0.888705
0.779629
0.949502
0.874996
0.971556
0.862479
0.854731
1.081824
1.267791
1.261830
1.212955
1.308918
1.478791
1.714826
3.589988
18.882751
49.463511
134.604573
237.511992
411.697626
549.444556
699.346662
759.304762
740.271807
657.591820
498.986840
368.199944
207.211971
125.385523
56.904554
28.442740
15.071630
15.568733
24.587512
35.871863
54.973960
73.172450
96.464753
110.502839
119.535923
119.010806
109.303594
94.763637
71.629882
54.564476
36.884546
25.276542
15.076995
10.587573
7.603765
6.614923
6.547570
6.746650
7.184744
7.280707
7.066727
7.679462
7.743835
7.807612
7.871985
7.801652
7.924438
7.846951
7.819533
7.903576
7.786751
8.021593
7.877946
7.921457
7.851720
7.865429
8.015633
7.619858
7.553697
7.437468
7.589459
7.264614
7.475615
##ZVALUE=305
0.661612
0.684857
0.489950
0.648499
0.772476
0.665784
0.693798
0.675917
0.679493
0.767708
0.826716
0.723600
0.797510
0.772476
0.679493
0.791550
0.778437
0.844598
0.894666
0.769496
0.877976
0.808835
0.836849
0.876784
0.872612
0.958443
0.878572
0.874996
1.173615
1.242757
1.099706
1.249909
1.327991
1.672506
2.352595
11.051893
29.779673
86.374879
157.727599
301.150680
427.712798
592.166781
684.244037
723.955631
678.603649
546.963811
425.621867
271.332860
171.371698
80.932975
41.021705
15.813708
11.571646
14.832616
21.873713
36.815405
52.083731
73.335767
89.351535
107.878447
114.136934
113.880634
104.870796
88.346004
72.626472
51.000714
36.751628
22.999644
15.676618
9.843707
8.498430
7.260442
7.271767
7.314682
7.174611
7.266998
7.321835
7.459521
7.682443
7.974505
7.494688
7.729530
7.687807
8.137822
7.921457
7.986426
7.729530
7.615685
7.664561
7.739663
7.429719
7.392764
7.347465
7.385612
7.016659
7.087588
##ZVALUE=310
0.668764
0.726581
0.847578
0.854731
0.877976
0.907779
0.771880
0.930429
0.852942
0.718832
0.738502
0.867844
0.902414
0.958443
0.882745
0.777841
0.785589
0.893474
0.908971
0.822544
0.978708
0.965595
0.785589
1.000762
0.822544
1.074672
1.180768
1.036525
1.067519
1.152754
1.137853
1.154542
1.148582
1.414418
1.411438
1.505613
1.655817
4.776716
15.209913
51.209927
102.831721
217.843652
336.025953
510.072708
621.299744
715.493560
716.260672
623.558760
520.499945
349.454880
233.529806
119.592547
64.981580
24.851561
12.281537
9.855628
12.787580
20.212531
30.599833
47.388673
63.842535
85.375905
97.257495
107.915998
109.201670
100.116730
88.665485
69.931746
53.194761
34.807920
25.181770
16.077757
11.606812
8.770823
8.167624
7.646680
7.679462
7.318854
7.650852
7.768869
8.041859
7.775426
8.228421
7.995963
7.854700
8.062720
8.014441
8.071661
8.120537
8.081794
7.744431
7.789731
7.707477
7.451773
7.176995
7.603765
##ZVALUE=315
0.694990
0.690818
0.612736
0.566840
0.523925
0.618696
0.542998
0.714660
0.747442
0.518560
0.739694
0.801682
0.771880
0.577569
0.724792
0.708699
0.736713
0.738502
0.636578
0.704527
0.743866
0.822544
0.715852
0.839829
0.908971
0.820756
0.717640
0.923872
0.886917
0.861883
0.977516
0.964999
0.920892
0.945926
1.110435
1.130700
1.349449
1.239777
1.235604
2.133846
7.996559
33.006668
72.234869
167.405605
280.426741
460.097790
576.037765
685.739517
717.684031
665.289760
571.671724
415.281653
296.406746
158.875585
87.751746
34.138560
15.638471
8.566976
9.050965
12.336969
17.719865
29.837489
42.011738
60.562491
76.423883
94.002485
101.623535
101.570487
97.257495
81.171989
67.511797
50.092936
37.253499
23.143888
15.953779
11.034608
8.854866
8.232594
7.814765
7.388592
7.574558
7.776618
7.476807
7.675886
7.850528
7.764697
7.654428
7.674694
7.905960
7.911921
7.761717
7.944703
7.671714
7.514954
7.546544
7.433891
##ZVALUE=320
0.584722
0.662804
0.722408
0.480413
0.507832
0.747442
0.689626
0.506639
0.705719
0.505447
0.598431
0.596642
0.618696
0.776649
0.647902
0.668764
0.593662
0.682473
0.660419
0.645518
0.620484
0.640750
0.631809
0.614524
0.797510
0.751615
0.754595
0.785589
0.797510
0.921488
0.825524
0.969768
0.797510
1.027584
1.060963
0.969768
0.847578
1.012683
0.935793
1.064539
1.164675
1.640916
3.952980
19.625425
46.992898
122.606754
208.752751
360.798836
484.495759
633.862615
709.176660
711.723566
646.332502
499.747992
364.681482
205.296874
118.876696
52.227974
24.974942
9.978414
7.554889
8.336902
10.815859
16.515851
24.755001
40.737987
53.743720
72.551966
85.660815
96.811652
98.115802
92.741847
82.360506
63.164830
49.498677
32.965541
23.466945
15.660524
11.763573
9.084940
8.022785
7.978678
7.885695
7.999539
7.799864
7.837415
7.903576
7.313490
7.648468
7.593632
7.314682
7.444620
7.536411
6.999969
7.615685
7.602572
##ZVALUE=325
0.612736
0.634789
0.687838
0.570416
0.468493
0.566840
0.644922
0.565648
0.687838
0.671744
0.592470
0.587702
0.708699
0.682473
0.649691
0.782609
0.709891
0.617504
0.630617
0.535846
0.623465
0.558496
0.619888
0.547767
0.776649
0.720620
0.748634
0.719428
0.761747
0.894666
0.791550
0.781417
0.954866
0.733733
0.952482
0.849962
0.818968
1.043677
1.012683
1.098514
1.057982
1.068711
1.189709
1.485944
2.219677
11.834502
31.389594
81.243515
147.962570
287.203789
408.818722
562.838912
649.295449
692.624450
652.934909
524.357557
404.122472
250.827670
156.226754
70.150495
35.161972
12.376904
7.780790
7.209778
7.878542
10.823607
15.335679
26.005507
37.474632
54.032803
68.417788
83.100796
89.384913
91.725588
85.728765
72.822571
60.450435
43.891668
32.998919
21.439791
15.689731
11.421442
9.576678
8.231997
7.831454
7.384419
7.497668
7.415414
7.540584
7.678866
7.638931
7.570982
7.531643
7.163882
7.259846
7.041693
##ZVALUE=330
0.566840
0.546575
0.573993
0.609756
0.583529
0.524521
0.636578
0.565648
0.583529
0.769496
0.671744
0.622869
0.644922
0.683665
0.601411
0.622869
0.757575
0.647902
0.730753
0.695586
0.771880
0.789762
0.793934
0.675917
0.762939
0.773668
0.724792
0.670552
0.804663
0.773668
0.792742
0.905991
0.824928
0.814795
0.770688
0.991821
0.934601
1.083612
0.966787
0.953674
0.839829
1.198649
1.162887
1.084805
1.224875
1.302958
1.531839
5.217791
16.515851
55.137873
106.969476
219.664574
331.565738
493.812561
596.579909
675.567985
667.033792
563.875437
459.746718
303.913951
199.444890
95.341802
50.224662
19.274950
9.588599
7.063746
6.966591
8.085966
10.154843
16.557574
24.299622
36.303997
48.382878
66.129565
76.772571
85.921884
85.712671
80.055594
71.463585
55.492520
43.032765
29.827952
22.387505
15.792847
11.899471
9.316802
8.591413
7.777810
7.703900
7.590652
7.651448
7.488728
7.357597
7.222891
7.104874
7.132888
##ZVALUE=335
0.504851
0.536442
0.523925
0.575781
0.505447
0.575781
0.653863
0.599623
0.529885
0.586510
0.517964
0.636578
0.687838
0.450611
0.631809
0.586510
0.615716
0.493526
0.620484
0.627637
0.716448
0.691414
0.634789
0.606775
0.645518
0.597835
0.800490
0.716448
0.739694
0.771880
0.593662
0.669956
0.727773
0.709891
0.780821
0.857711
0.825524
0.825524
1.018643
0.858903
0.876784
0.836849
0.876784
1.007915
1.079440
1.011491
1.135468
1.176000
1.236796
2.573729
8.134842
32.320619
69.559813
157.049894
260.320902
420.508981
533.640981
634.594560
659.192801
603.613853
513.615012
360.153913
249.281526
131.498575
72.006583
27.594566
12.733936
7.242560
6.739497
7.129908
7.831454
10.476708
14.780760
23.861527
33.849478
49.863458
60.930848
72.951913
79.263449
80.943704
76.215863
64.417720
54.811835
40.977597
31.808615
21.873713
16.421676
11.268854
9.448528
8.272529
7.678866
7.485747
7.296801
7.118583
7.208586
7.149577
##ZVALUE=340
0.622869
0.468493
0.581741
0.517964
0.689626
0.593662
0.597835
0.605583
0.451803
0.447631
0.698566
0.652671
0.517964
0.578761
0.557899
0.509620
0.518560
0.565648
0.466704
0.618696
0.739694
0.648499
0.602603
0.644922
0.590682
0.633597
0.727773
0.561476
0.771880
0.747442
0.687838
0.627637
0.693798
0.678897
0.760555
0.773668
0.656843
0.725985
0.783801
0.691414
0.721812
0.813603
0.861883
0.843406
0.938773
0.889897
0.933409
1.101494
1.080632
1.238585
1.271963
1.517534
4.277825
19.085407
48.606992
120.707750
210.094452
358.676910
471.221805
590.081811
645.367503
641.223788
587.219000
464.382768
349.435806
194.417834
110.269785
43.579936
18.012524
7.993579
7.063746
6.879568
7.208586
8.366704
10.154843
15.791655
21.756887
33.689737
43.964982
58.700442
67.934990
74.475408
75.764656
71.761608
64.456463
51.694512
41.712523
29.615760
22.285581
15.749931
11.856556
9.110570
7.854700
7.153749
7.190704
6.880760
##ZVALUE=345
0.575781
0.709891
0.643730
0.503659
0.502467
0.409484
0.643730
0.612736
0.514984
0.543594
0.542998
0.556707
0.539422
0.493526
0.660419
0.533462
0.600815
0.588894
0.602603
0.632405
0.446439
0.663996
0.648499
0.592470
0.709891
0.634789
0.611544
0.718832
0.713468
0.642538
0.588894
0.745654
0.603795
0.784993
0.701547
0.716448
0.626445
0.781417
0.793934
0.745654
0.720620
0.850558
0.751615
0.921488
0.846982
0.946522
0.928640
0.945926
0.883937
0.919700
1.044869
1.050830
1.216531
1.354814
2.610683
8.909702
36.167502
74.529648
161.177516
252.940655
403.609872
513.356924
616.032481
666.095018
647.464991
584.516525
449.062586
321.733952
165.071487
83.573461
25.693774
10.955930
7.245541
6.762743
6.375909
6.571412
7.383823
9.235740
13.906956
19.973516
30.975938
40.551424
52.844882
60.371757
69.138408
69.834590
66.803694
61.229467
49.231648
40.096641
29.544830
21.779537
15.000701
11.415482
8.624792
7.593632
##ZVALUE=350
0.467896
0.517964
0.508428
0.648499
0.590682
0.468493
0.575781
0.473857
0.598431
0.654459
0.533462
0.426769
0.589490
0.472665
0.750422
0.404716
0.646710
0.632405
0.553727
0.680685
0.717640
0.710487
0.580549
0.721812
0.588894
0.538826
0.563860
0.613928
0.617504
0.643730
0.440478
0.578761
0.647902
0.800490
0.664592
0.760555
0.710487
0.785589
0.701547
0.611544
0.761747
0.651479
0.793934
0.948906
0.740886
0.828505
0.814795
0.672936
0.806451
1.011491
0.814795
0.970960
0.893474
1.152754
1.132488
1.287460
1.498461
5.607605
17.333627
54.935813
106.206536
211.203694
310.470462
447.459817
534.821749
600.684881
598.935485
526.855588
438.576937
304.339528
205.262899
105.927587
53.898692
15.186667
7.453561
6.500483
6.303787
6.083846
6.239414
6.987453
8.806586
13.334751
18.361807
27.426481
35.690665
47.358871
54.404736
61.713457
63.647628
62.000751
56.611896
46.787858
38.749576
28.868914
22.027493
15.192628
##ZVALUE=355
0.646710
0.455976
0.559688
0.606775
0.549555
0.622869
0.514984
0.486970
0.425577
0.477433
0.505447
0.415444
0.523925
0.562668
0.451803
0.496507
0.524521
0.713468
0.607967
0.618696
0.681877
0.620484
0.570416
0.609756
0.612736
0.695586
0.498891
0.678897
0.570416
0.523925
0.717640
0.652671
0.571609
0.663996
0.665784
0.786781
0.678897
0.719428
0.681877
0.561476
0.722408
0.766516
0.806451
0.747442
0.729561
0.692606
0.626445
0.698566
0.697970
0.916719
0.726581
0.858903
0.830889
0.796914
0.907779
1.010895
0.992417
1.195669
1.192689
2.169609
10.821819
30.024648
81.603527
145.826936
268.078446
367.440581
486.208797
543.486476
553.296804
502.577424
386.512876
294.090509
178.069472
104.618669
45.391917
21.595955
8.338690
6.259680
6.019473
5.730987
5.896688
6.036758
6.518960
7.956624
11.250973
15.456676
23.732781
30.698776
41.106939
49.027801
55.534840
58.472753
56.678653
52.574873
43.370724
36.828518
##ZVALUE=360
0.489950
0.520945
0.463724
0.537634
0.571609
0.634789
0.547767
0.580549
0.523925
0.561476
0.612736
0.460744
0.526905
0.608563
0.451803
0.498891
0.443459
0.633597
0.589490
0.520945
0.469685
0.441670
0.619888
0.542998
0.597835
0.612736
0.589490
0.647902
0.570416
0.764728
0.606775
0.603795
0.637770
0.676513
0.664592
0.637770
0.646710
0.727773
0.701547
0.679493
0.686646
0.722408
0.611544
0.745654
0.705719
0.588894
0.766516
0.675917
0.841618
0.694990
0.706911
0.746846
0.820756
0.764728
0.832677
0.824928
0.836849
0.970960
0.975728
1.202822
1.217723
1.592636
4.148483
18.460751
43.787956
107.639432
187.756419
317.166448
414.151549
504.030585
533.877015
501.823425
430.175662
302.424431
207.165480
104.677677
56.126714
22.408962
10.688901
6.093979
5.683899
5.507469
5.429983
5.342960
5.634427
5.870461
6.588697
9.207726
12.563467
18.435717
25.244951
34.874678
41.605830
48.547983
51.913857
52.454472
##ZVALUE=365
0.577569
0.594854
0.575781
0.531673
0.469685
0.638962
0.574589
0.529885
0.503659
0.501871
0.684857
0.654459
0.617504
0.559688
0.753999
0.664592
0.608563
0.575781
0.518560
0.661612
0.513792
0.497699
0.575781
0.657439
0.686646
0.738502
0.815988
0.689626
0.532866
0.586510
0.687838
0.762939
0.738502
0.663996
0.701547
0.604987
0.780821
0.703931
0.669956
0.660419
0.591874
0.715852
0.621676
0.678897
0.687838
0.710487
0.698566
0.613928
0.590682
0.591874
0.660419
0.688434
0.766516
0.692606
0.672936
0.833869
0.827909
0.866652
0.659823
0.840425
1.006722
1.066923
1.084805
1.356602
2.162457
9.839535
26.710629
73.173642
136.088729
254.313946
348.956585
456.836820
508.450866
504.660010
451.985598
344.982743
251.487494
136.688948
76.986551
30.305982
13.527870
6.146431
5.412698
5.268455
5.182624
4.949570
5.101562
5.027652
5.136728
6.205440
7.409453
11.307597
15.480518
22.682548
29.426813
37.549734
##ZVALUE=370
0.445843
0.483990
0.523925
0.479817
0.502467
0.536442
0.546575
0.465512
0.474453
0.456572
0.439882
0.656843
0.556707
0.548959
0.457764
0.402927
0.554919
0.597835
0.586510
0.598431
0.542998
0.657439
0.472665
0.625849
0.516772
0.654459
0.397563
0.454783
0.666976
0.657439
0.587702
0.563860
0.592470
0.543594
0.676513
0.563860
0.642538
0.579953
0.655651
0.508428
0.595450
0.640750
0.698566
0.624657
0.617504
0.704527
0.699759
0.726581
0.652671
0.515580
0.647902
0.782609
0.698566
0.679493
0.682473
0.684857
0.799894
0.771880
0.693798
0.747442
0.834465
0.972748
0.970960
1.091957
1.134872
1.209974
1.530647
5.516410
17.245412
57.089925
105.268955
202.548504
300.406814
426.281691
490.278602
511.893630
474.202633
378.012657
284.239650
164.200664
94.669461
39.361715
19.526482
8.194447
5.551577
4.982948
4.862547
4.631877
4.525781
4.371405
4.370809
4.789829
5.250573
6.764531
8.829832
13.704896
##ZVALUE=375
0.557899
0.559688
0.607967
0.602603
0.464916
0.550747
0.533462
0.544786
0.569820
0.596642
0.595450
0.672936
0.527501
0.491738
0.573993
0.479817
0.567436
0.583529
0.624657
0.657439
0.624657
0.568628
0.651479
0.583529
0.644922
0.735521
0.624657
0.680685
0.692606
0.579953
0.648499
0.717640
0.723600
0.563860
0.697970
0.729561
0.625849
0.701547
0.725985
0.751615
0.631809
0.583529
0.719428
0.718832
0.668764
0.587702
0.688434
0.711679
0.570416
0.679493
0.652671
0.718832
0.772476
0.586510
0.814795
0.875592
0.768900
0.862479
0.780821
0.862479
0.940561
0.768900
0.817776
0.854731
0.874996
1.085997
1.093745
1.137853
1.212955
2.862811
8.914471
32.693744
71.717501
164.608955
261.123776
410.838723
508.787632
582.153797
576.771498
481.843948
370.406508
220.058560
137.677789
69.766641
36.412477
12.966990
6.524920
4.738569
4.623532
4.686713
4.379749
4.243851
4.301667
4.141927
4.246831
4.739761
##ZVALUE=380
0.363588
0.501871
0.479817
0.543594
0.415444
0.484586
0.537634
0.507832
0.531673
0.530481
0.375509
0.395775
0.247955
0.429749
0.354648
0.454783
0.436902
0.493526
0.467896
0.447631
0.518560
0.256896
0.492930
0.401735
0.527501
0.549555
0.357628
0.645518
0.468493
0.576973
0.582933
0.478625
0.418425
0.566840
0.647902
0.610948
0.573993
0.645518
0.597835
0.604987
0.561476
0.639558
0.567436
0.567436
0.663996
0.553727
0.551939
0.532866
0.582933
0.528693
0.575781
0.461936
0.552535
0.615716
0.548959
0.454783
0.614524
0.655651
0.765920
0.723600
0.513792
0.764728
0.682473
0.894666
0.847578
0.708699
0.903606
0.961423
1.077652
1.100898
1.238585
1.842976
4.783869
22.026896
52.289963
127.395988
212.912560
351.829529
464.751720
595.136881
619.586706
537.653565
442.902446
301.497579
196.493864
95.788836
50.306916
18.840432
8.872747
4.895926
4.241467
3.839731
3.916621
3.978610
3.789663
4.003644
##ZVALUE=385
0.320673
0.347495
0.340939
0.339746
0.303984
0.384450
0.428557
0.331998
0.383854
0.399947
0.420809
0.393987
0.361800
0.391603
0.327826
0.363588
0.224710
0.317693
0.298619
0.421405
0.411868
0.450611
0.364780
0.392795
0.335574
0.445843
0.469685
0.291467
0.462532
0.393987
0.507832
0.466704
0.401735
0.567436
0.478625
0.625849
0.548959
0.431538
0.434518
0.428557
0.445843
0.489950
0.340939
0.465512
0.366569
0.448823
0.366569
0.327826
0.340939
0.459552
0.430942
0.295639
0.433922
0.364780
0.504851
0.577569
0.536442
0.568628
0.464916
0.269413
0.455976
0.341535
0.432730
0.473857
0.495911
0.717640
0.772476
0.878572
0.715852
0.839829
0.743866
0.891685
0.826716
1.100898
2.409816
11.868477
31.569600
81.227422
148.493648
270.203948
364.516973
462.948680
494.418740
481.552482
428.412557
323.380828
232.327580
129.220486
75.295568
32.259822
14.196634
5.137920
3.857613
3.483891
3.514886
3.414750
##ZVALUE=390
0.250936
0.306964
0.288486
0.260472
0.445843
0.303984
0.218749
0.538826
0.221729
0.321865
0.358820
0.322461
0.249743
0.444651
0.211596
0.313520
0.292659
0.302792
0.283718
0.400543
0.306964
0.170469
0.336766
0.236630
0.386834
0.333786
0.282526
0.344515
0.101924
0.314713
0.331998
0.498891
0.193715
0.395775
0.431538
0.289679
0.300407
0.516772
0.399947
0.422597
0.397563
0.392795
0.412464
0.301600
0.389814
0.548959
0.388622
0.387430
0.488758
0.422597
0.490546
0.433922
0.414848
0.501871
0.334978
0.481606
0.508428
0.364780
0.510812
0.557899
0.472665
0.447631
0.409484
0.355840
0.528693
0.432730
0.304580
0.590682
0.806451
0.679493
0.662804
0.849962
0.743866
0.853539
0.798702
0.965595
1.450777
6.980896
21.867752
66.807866
127.031803
242.438912
330.272913
433.470607
489.627719
509.365797
469.560623
374.304652
288.316607
178.902745
106.544495
44.933558
21.456480
6.938577
4.102588
3.382564
##ZVALUE=395
0.436902
0.534654
0.484586
0.591874
0.580549
0.588894
0.418425
0.546575
0.640750
0.496507
0.390410
0.633597
0.440478
0.538826
0.669956
0.609756
0.505447
0.638962
0.468493
0.489950
0.503659
0.445843
0.410676
0.430942
0.481606
0.615716
0.603795
0.619888
0.615716
0.624657
0.574589
0.530481
0.664592
0.536442
0.497699
0.429749
0.568628
0.604987
0.507832
0.378489
0.540614
0.711679
0.490546
0.539422
0.635982
0.708699
0.452995
0.654459
0.535846
0.592470
0.572801
0.535846
0.559688
0.573993
0.762939
0.662804
0.566840
0.539422
0.678897
0.642538
0.637770
0.563860
0.546575
0.739694
0.686646
0.786781
0.682473
0.628829
0.902414
0.805855
0.928640
0.972748
0.891685
0.945926
0.918508
0.878572
0.944734
0.893474
1.263618
3.849864
14.019608
50.216913
96.722841
186.414719
277.228951
401.842594
480.096936
529.091954
516.153574
437.163711
343.668461
218.539834
139.090419
63.342452
31.774640
11.332631
##ZVALUE=400
0.491738
0.582933
0.599623
0.672936
0.574589
0.605583
0.542998
0.617504
0.608563
0.776649
0.615716
0.611544
0.517964
0.616908
0.610948
0.587702
0.562668
0.432730
0.459552
0.658631
0.623465
0.499487
0.666976
0.539422
0.525713
0.731945
0.577569
0.660419
0.612736
0.707507
0.669956
0.658631
0.628829
0.598431
0.539422
0.686646
0.679493
0.547767
0.786781
0.759959
0.725985
0.662804
0.845790
0.680685
0.734925
0.794530
0.637770
0.668764
0.631809
0.607967
0.741482
0.842810
0.688434
0.825524
0.675917
0.591874
0.644922
0.704527
0.752807
0.718832
0.753999
0.866652
0.797510
0.789762
0.877976
0.798702
0.744462
0.870824
0.850558
0.965595
0.828505
0.971556
1.009703
1.005530
0.995994
0.981688
0.894666
0.945926
1.065731
1.234412
1.328588
2.538562
7.622838
27.857423
61.162710
138.860941
222.021937
346.056819
430.277586
501.857996
514.925718
456.184745
376.233459
253.515840
170.635581
88.883638
##END
