##TITLE=FQP00602
##FORMAT=SPECTACLE-ASCII V-1.2
##DATA TYPE=ULTRAVIOLET SPECTRUM
##SECOND TYPE=ULTRAVIOLET SPECTRUM
##DATE=01/21/18
##TIME=13:16:22
##SPECTROMETER/DATA SYSTEM=SPECTACLE
##XUNITS=NM EM
##YUNITS=ENERGY
##YFACTOR=1
##FIRSTX=220
##LASTX=410
##NPOINTS=96
##3DDATA=Equidistant
##ZUNITS=NM EX
##FIRSTZ=210
##LASTZ=400
##ZPOINTS=39
##XYDATA=(Y..Y)
##ZVALUE=210
2.128482
1.966953
1.739860
2.021790
1.958609
2.206564
2.408624
2.627969
2.389550
2.978444
2.204776
2.655983
2.503991
3.202558
3.003478
3.344417
3.178716
2.842546
2.957582
3.555417
4.319549
4.219413
3.623962
3.911853
4.565716
4.912615
5.651712
6.365776
5.781651
6.074905
6.419420
5.925894
6.923676
6.989837
7.414818
7.687807
7.194877
6.857514
7.876754
7.901788
7.445812
7.571578
7.797480
7.878542
7.382631
7.675886
8.038878
6.790757
7.322431
8.391738
7.646680
7.590652
8.271933
8.407831
7.088780
7.107854
8.455515
8.246899
7.143617
7.898808
7.412434
7.543564
8.243918
8.465648
8.819699
8.676648
8.433461
11.029840
10.910630
11.896491
14.123917
16.071796
19.198656
22.975802
23.417473
25.667548
25.333762
27.844906
24.530888
24.425983
23.291707
19.475818
19.189715
16.724467
14.808774
12.342930
10.036826
9.014606
8.818507
8.400679
7.632971
7.308722
7.561445
8.213520
8.734465
8.485913
##ZVALUE=215
6.689429
6.458759
5.356669
5.215406
4.715919
4.399419
4.385710
4.005432
3.992915
4.092455
4.373789
4.748702
4.180670
3.511906
3.608465
3.272891
3.629923
3.076792
4.001856
4.366636
4.011989
4.524589
4.647970
5.670786
4.852414
5.867481
6.265640
7.219911
8.839965
8.373857
8.657575
10.385513
9.916425
10.008812
10.492802
10.838509
10.687709
11.129975
10.306835
11.121631
10.580420
10.593534
11.236668
10.368824
10.427833
11.009574
10.052919
9.971857
9.953976
9.525418
9.827614
9.542704
8.965731
9.506941
9.041429
10.394454
9.826422
9.938478
10.207891
9.508729
8.964539
9.876490
8.872747
9.775758
9.722710
8.892417
10.072589
11.342764
12.669563
15.642643
16.767979
18.647909
21.528602
25.101900
26.117563
30.074716
30.173659
30.364990
31.686425
30.356646
26.798844
24.692416
22.212863
20.009875
16.726851
13.715625
11.997819
10.539889
9.078979
9.671450
7.802844
8.616447
7.764697
7.411838
7.951856
8.177757
##ZVALUE=220
22.692680
24.600625
26.145577
27.212501
25.721788
20.940900
15.950799
11.819601
9.660721
9.335876
9.660721
9.936690
10.381937
11.162758
8.750558
7.457733
6.987453
6.169677
4.486442
5.141497
4.219413
5.438924
4.759431
4.334450
6.715655
7.339716
8.079410
9.410977
10.832548
12.343526
12.894869
14.574528
14.953613
16.168952
15.290976
17.085671
14.201999
15.830994
15.357733
14.829636
16.530752
13.455749
14.797449
13.446808
13.730526
13.855696
12.291670
11.863708
13.177991
11.416674
10.772943
11.830926
10.817647
11.241436
10.148883
10.558963
10.469556
10.221601
10.590553
10.238886
11.055470
9.480715
9.600520
9.779930
9.861588
10.170937
11.352897
12.376904
12.011528
14.221668
15.177727
20.857453
21.822453
23.084879
27.351975
29.175878
30.732751
29.917955
29.730797
28.236508
27.160645
24.841428
21.786690
19.179583
15.715957
13.224483
11.538863
11.238456
9.630919
10.239482
10.152459
9.129643
8.454919
8.414984
8.661747
8.338690
##ZVALUE=225
43.528676
45.578480
58.767796
76.917410
84.185600
83.820820
74.546933
60.090423
45.341849
35.153627
23.446679
20.581484
21.829605
24.617910
23.753643
24.722815
19.538999
17.101765
13.595819
9.140968
8.334517
5.968809
4.808903
5.862713
5.723834
7.204413
8.584857
9.341836
11.296868
13.417602
14.439821
15.575886
17.215610
17.975569
19.416809
17.362833
19.610524
19.116998
18.428564
18.088818
17.958879
18.206835
15.595555
16.063452
14.434457
15.844703
15.594959
13.774633
14.601946
12.981892
13.291836
13.464689
13.274550
13.195872
11.924505
12.873411
10.771751
11.135936
10.531545
11.123419
10.997653
11.104941
11.677742
10.849833
11.345744
11.488795
10.475516
11.102557
12.748837
14.178753
15.633702
15.985966
17.832518
20.299554
19.857883
20.326972
20.668507
21.362901
19.536614
18.924475
17.947555
18.058419
15.698671
14.933944
14.279485
12.383461
11.133552
12.670755
12.592673
11.566877
11.412501
10.435581
11.670589
10.761619
11.567473
11.178851
##ZVALUE=230
40.926933
44.720769
80.913901
117.449760
168.168545
201.403499
226.741433
229.343772
204.243660
163.570642
108.678937
75.557828
54.917932
45.265555
45.260787
49.378872
51.993728
48.675537
44.446588
34.743547
27.654767
21.392703
14.713407
10.387897
8.010864
8.078814
9.163618
9.701848
11.392832
10.925531
12.112856
14.819503
15.019774
16.179681
17.615557
18.531680
17.040968
17.916560
18.107891
17.959476
18.158555
15.778542
17.166734
17.576814
15.680790
16.152859
16.094446
16.748905
15.382767
14.643669
15.425682
14.118552
12.962818
14.545918
13.596416
12.593865
14.233589
13.737679
12.862682
13.346672
12.438893
13.972521
14.169812
14.622808
14.358759
14.931560
15.504956
15.573502
17.813444
18.904805
19.506812
24.269819
23.190975
25.568604
26.137829
28.169751
26.593804
25.760531
26.148558
24.632812
25.328994
24.149418
23.320913
19.782782
19.635558
19.834638
18.394589
19.165874
19.077659
17.806888
18.322468
18.233657
17.977953
16.847849
18.083453
17.731786
##ZVALUE=235
24.862885
30.602813
60.764551
145.900846
232.355595
363.513827
471.249819
593.211651
628.196597
622.760653
547.876954
446.636677
299.017429
210.547447
129.807591
90.758801
77.094436
76.960921
83.457828
83.047748
82.556605
68.414807
55.881739
38.355589
26.964545
18.111467
14.723539
13.087988
11.533499
11.940598
12.728572
13.344884
14.676452
13.949871
14.070868
16.350746
17.377734
17.326474
16.637444
16.266704
15.855432
16.159415
16.619563
16.641617
16.732812
15.862584
15.270710
15.294552
15.224814
14.367700
17.302632
15.076995
14.386773
14.893413
14.538765
14.830828
14.237761
15.306473
15.444756
15.993714
15.438795
15.909672
16.638637
16.933680
18.226504
18.973947
20.045638
20.712614
21.362901
24.217963
25.384426
28.693676
30.098557
34.383535
34.139752
35.044551
36.070943
35.891533
34.136772
33.116937
31.395555
31.437874
27.089715
27.597547
27.863979
25.499463
26.088953
25.150776
25.411844
24.661422
25.187731
26.459694
23.630857
26.074648
25.130510
24.587512
##ZVALUE=240
2.410412
2.645850
10.753870
34.257770
107.355714
200.376511
386.448503
572.029948
792.750716
911.878943
958.851576
904.953480
785.456896
586.632490
429.763794
257.315636
173.830986
118.353963
96.336603
105.737448
112.281442
119.185448
116.201639
106.053948
87.396502
68.517923
49.293637
35.996437
24.206638
17.830729
15.024543
13.212562
13.207793
13.560653
13.801455
13.642907
14.904737
14.326572
14.786720
14.251471
15.263557
12.722611
15.105605
14.793873
15.107989
14.960766
14.267564
13.805628
13.906956
14.207959
14.277697
13.471842
14.993548
14.257431
14.740825
14.234781
15.243888
14.648438
14.180541
16.514659
16.507506
16.628504
17.252564
16.210675
17.496943
18.621683
20.464659
20.679832
21.075606
23.978949
25.032759
26.592612
27.358532
31.114817
32.098889
33.968687
34.482479
34.398437
34.616590
34.664869
36.037564
32.464862
32.440424
31.760931
30.622482
30.823946
30.484796
31.874776
31.026602
31.837821
29.551983
29.905438
29.924512
30.207634
29.558539
29.561520
##ZVALUE=245
1.815557
1.497865
2.032518
2.026558
6.497502
20.511746
72.061419
145.014524
304.507017
433.492661
640.747547
748.593807
812.871456
825.988650
755.777955
603.810549
487.997532
320.387483
218.876004
138.944983
106.007457
99.733472
116.859674
129.857659
133.630633
124.146938
115.753412
99.858642
76.606870
56.767464
46.023726
28.888583
21.386743
16.896725
15.984774
14.201999
15.103817
14.315844
15.322566
14.701486
14.603734
16.099811
15.390515
16.108751
14.402866
13.387799
14.338493
13.483763
14.963746
13.709664
13.409853
13.852715
12.793541
13.379455
13.909936
14.159679
12.809634
13.324618
13.416409
14.025569
14.106631
15.087724
13.993979
15.482903
15.967488
15.558600
17.785430
19.504428
19.579530
22.608638
21.807551
25.554895
26.810765
28.295517
29.411912
29.696822
30.841827
32.033920
31.447411
33.215880
30.915737
30.159950
29.824972
30.027628
31.074882
30.311942
31.348467
33.055544
30.920506
31.785965
29.891729
31.449795
29.439926
29.722452
30.833483
30.188560
##ZVALUE=250
1.751781
1.613498
1.879930
1.758933
1.928806
2.282858
2.906919
15.981793
44.195652
101.943612
264.381766
454.326868
728.421807
898.720622
1015.638709
1015.638709
1015.638709
921.718478
751.609802
484.696627
311.865807
171.843767
118.797421
98.414421
106.235743
128.458738
140.518546
146.156549
144.832730
129.460692
113.587976
87.447762
66.369772
45.633912
33.439994
24.696589
21.899939
18.798709
18.737912
19.508600
18.604994
18.730760
19.721985
19.196868
17.899871
18.144846
17.038584
16.967654
16.120672
16.643405
15.512705
16.019940
15.094876
14.122725
15.290976
14.334917
15.595555
14.331937
14.960766
14.263988
14.008880
15.516877
14.642477
15.064478
16.522408
16.214848
17.242432
18.469691
20.314455
20.401478
22.694468
22.184849
25.442839
25.831461
27.055740
28.279424
29.606819
30.876994
29.751658
28.484464
30.114651
29.392838
29.836893
28.662682
29.558539
29.089451
29.907823
29.144883
29.493570
28.662682
29.092431
30.081868
29.454827
29.202700
28.471947
31.342506
##ZVALUE=255
1.424551
1.402497
1.397729
1.130700
1.381636
1.621842
1.915693
1.990795
2.118945
6.988645
26.666522
105.815530
228.806734
473.300815
687.677860
963.513851
1015.510559
1015.510559
1015.510559
1008.720994
851.959586
649.399757
378.756523
234.506726
127.597451
96.518993
94.827414
110.686421
135.696530
149.823427
155.801773
155.323744
143.666863
118.295550
98.651648
73.987842
53.725839
39.064884
30.884743
26.191473
24.602413
24.836659
23.889542
22.395849
21.513700
21.134615
20.947456
20.858645
19.363761
19.307733
18.862486
17.648935
17.570853
16.530752
15.216470
15.742779
14.864802
14.946461
14.661551
13.990998
14.803410
14.350414
14.261603
14.744997
14.678836
15.913844
15.373826
17.159581
18.007755
17.431974
20.127892
21.820664
21.342635
23.546815
23.561716
24.813414
25.626421
25.965571
26.244521
25.633574
26.982427
26.490688
26.897788
26.934743
26.569963
27.318001
25.981665
26.350617
26.132464
26.947856
27.258992
26.897788
27.464628
28.036833
27.145743
28.563738
##ZVALUE=260
1.254678
1.464486
1.515746
1.562834
1.531839
1.796484
1.760721
1.806617
1.603961
2.204776
2.166629
3.356934
13.486743
74.114799
160.341859
334.226489
498.973727
715.142488
858.733654
1001.822948
1015.638709
1015.638709
889.918804
727.338791
493.791699
339.382887
196.912885
128.249526
92.435479
95.681548
113.629699
144.950747
163.350701
171.173811
170.831680
152.505636
133.316517
103.624463
83.062649
61.134696
48.171878
37.704706
31.557679
27.541518
26.293993
26.814938
24.419427
23.132563
23.547411
21.288991
20.998716
21.021962
20.472407
19.531846
18.333793
17.665625
16.706586
17.893910
16.174912
15.363693
15.662909
15.447736
14.998913
15.790462
15.508533
15.271902
16.516447
15.623569
17.097592
16.819835
17.855763
19.047856
18.940568
19.822717
21.550655
22.205710
23.011565
22.860765
22.420883
23.707747
24.473667
24.102926
23.427606
23.364425
25.064945
24.537444
25.407672
24.280548
25.370717
24.684668
25.004745
26.442409
25.957823
25.323629
25.574565
26.245713
##ZVALUE=265
1.311898
1.066923
1.293421
1.413822
1.280904
1.336932
1.509786
1.569986
1.601577
1.654625
1.837611
1.926422
2.127886
2.512932
7.942915
29.330850
93.751550
171.378851
341.406465
500.144958
756.176710
970.375538
1015.638709
1015.638709
1015.638709
968.599916
754.928589
472.022891
303.642750
159.007907
105.415583
89.352727
104.282498
134.947896
156.499743
173.973441
182.011724
175.181627
160.858631
135.685802
111.701488
80.564618
63.206553
47.437549
39.136410
31.888485
29.680729
27.527809
26.252866
25.364757
25.308728
23.507476
21.882653
20.785928
19.400716
19.317865
17.445683
16.503930
16.903877
16.788840
15.489459
15.082955
15.787482
14.985800
15.433431
14.994740
15.815496
15.704632
15.792847
16.582608
17.150640
17.382503
17.972589
18.825531
19.730926
20.467639
21.462440
21.182895
21.349788
21.650791
21.539927
21.663904
22.692680
22.746921
21.794438
23.376942
23.978949
23.591518
23.812652
24.012923
24.139881
24.172664
23.670793
24.404526
24.689436
25.435686
##ZVALUE=270
1.109838
1.096725
1.317859
1.200438
1.345873
1.153946
1.172423
1.272559
1.431704
1.315475
1.437664
1.455545
1.538992
1.580715
1.956820
2.059937
2.093911
10.339618
30.390620
101.028681
207.320452
371.959805
667.801499
905.772448
1015.639901
1015.639901
1015.639901
1014.948487
789.289474
580.328703
396.767855
213.183761
130.976439
87.352991
87.298751
110.010505
134.951472
162.037611
178.902745
183.012486
180.069804
159.436464
139.450431
108.358860
86.236596
60.125589
47.838688
36.285520
31.064749
26.742816
25.134683
23.606420
22.054911
21.188855
20.511746
19.007921
18.288493
17.167926
16.618967
16.253591
16.348958
15.962720
16.268492
15.589595
14.945865
15.514493
15.151501
15.124679
15.621781
16.825795
16.122460
17.621517
17.790794
18.158555
18.609762
19.418597
19.672513
20.524859
20.331740
20.393729
21.151900
21.340847
21.269917
20.896792
21.629930
21.745563
21.982789
21.993518
22.221804
22.605658
22.113919
22.982955
22.943616
22.981763
23.205876
23.364425
##ZVALUE=275
1.234412
1.252890
1.261830
1.266599
1.303554
1.337528
1.097918
1.315475
1.301765
1.235604
1.477599
1.436472
1.512766
1.576543
1.571774
1.494884
1.605749
1.701713
1.896620
4.078746
13.827682
46.083927
159.360766
307.152867
568.134785
768.113732
960.912704
1015.771627
1015.771627
974.809527
847.501755
616.382957
441.859961
245.403647
150.801539
85.223913
69.166422
81.872940
100.678802
129.501820
148.391724
168.347955
174.143910
169.297457
152.551532
124.440789
101.414919
76.129436
58.387518
40.975809
30.054450
24.542809
20.678639
19.429922
17.948747
17.047524
16.571879
16.207695
15.768409
15.640855
15.096664
15.346408
14.863610
14.902949
14.545918
14.626980
14.607906
15.321970
15.715957
16.031861
16.954541
16.335845
17.498732
18.264651
18.824935
19.248724
19.300580
19.569993
19.704700
19.929409
20.515919
20.912886
20.981431
21.602511
21.426678
21.403432
21.213889
21.731853
21.361709
21.407604
21.538734
21.727681
21.692514
21.405816
22.265911
21.975636
##ZVALUE=280
0.938773
1.010895
0.873804
0.889897
0.878572
0.811815
1.000762
1.062751
0.972748
1.086593
1.069903
1.162887
1.141429
1.239777
1.449585
1.097918
1.314878
1.403689
1.438856
1.528859
1.659989
2.251863
8.572936
31.289458
109.667778
205.278993
392.433405
575.655699
811.056495
941.652656
1006.252766
988.570452
883.092880
670.768619
501.738787
293.443799
179.967880
91.367960
59.300661
53.856969
66.769719
94.020963
115.318894
141.472816
156.100988
159.778595
154.590607
138.639808
117.780566
89.563727
68.400502
46.829581
34.729838
23.868680
19.235611
15.528798
14.640689
13.644695
13.888478
13.974905
13.964772
13.596416
14.330745
13.877749
14.177561
14.185905
14.144778
15.082955
15.051961
16.038418
15.772581
16.651750
16.495585
18.393993
17.867684
18.375516
18.345714
19.429922
18.853545
19.144416
19.123554
19.577742
19.681454
20.602942
19.935966
20.430684
20.498633
20.838976
20.761490
20.968914
20.416975
21.071434
20.068884
20.572543
20.945668
20.817518
##ZVALUE=285
0.730753
0.888705
0.954866
0.887513
0.957847
0.988841
0.938773
0.954866
1.058578
0.974536
1.002550
1.060963
1.108646
1.211762
1.097918
1.280904
1.203418
1.356602
1.185536
1.292825
1.415610
1.483560
1.499653
1.772642
4.335642
13.629794
48.184991
99.677444
220.459700
357.297659
519.558787
737.231970
870.641470
945.187807
900.358558
744.060874
588.383675
372.960567
235.491991
117.868781
65.856576
38.991570
40.649772
58.177710
76.872706
107.190609
123.625994
142.284632
147.443414
145.283937
133.474469
110.280514
89.105964
62.728524
45.180917
28.930902
20.589828
15.284419
13.510585
12.438893
12.143850
13.005733
12.902617
13.010502
13.261437
13.716817
14.139414
14.552474
14.266968
15.299916
15.454888
16.384721
17.067790
17.097592
17.822981
18.195510
18.621683
18.528700
19.534826
18.986464
19.638538
20.071864
20.070672
20.174980
19.751787
20.842552
20.564795
20.386577
19.991994
20.322800
20.147562
20.430684
20.223856
19.873977
20.674467
19.832850
##ZVALUE=290
0.831485
0.929832
0.742674
0.747442
0.982881
1.007915
0.947714
0.956655
0.725985
0.776649
0.967979
0.984669
0.887513
1.089573
0.893474
0.839829
1.035929
1.061559
1.123548
1.090765
1.178980
1.249909
1.270771
1.341701
1.700521
1.569986
2.416968
6.047487
26.142597
63.221455
125.250816
272.188783
424.557924
656.403899
804.518461
926.456451
924.034715
806.738734
669.952631
455.598831
305.935740
155.633688
85.409880
37.525892
27.204752
35.592914
48.711896
70.920587
90.763569
115.554929
132.310987
141.730905
138.939619
123.751760
107.366443
80.421567
61.411858
41.529536
29.538870
19.640923
15.261769
12.470484
11.842847
11.762977
12.116432
12.427568
13.258457
13.939738
14.282465
15.025735
15.239716
15.912652
17.174482
16.906857
18.202662
17.645955
18.392801
18.891692
19.105673
18.879771
19.575953
19.358993
19.610524
19.440651
20.642877
20.433664
19.987822
20.387769
20.899773
19.920468
20.203590
19.781590
20.520687
19.748807
19.935966
19.929409
##ZVALUE=295
0.814795
0.824928
0.798702
0.899434
0.893474
0.943542
0.845790
0.821948
0.944734
0.732541
0.709891
0.913739
1.011491
0.919700
1.048446
0.910759
1.033545
0.964999
1.111627
0.926852
1.113415
1.105666
1.247525
1.068711
1.367927
1.318455
1.573563
1.695752
1.761913
2.827644
9.161830
38.205981
88.598728
211.103559
349.530578
569.765568
730.415583
883.750916
927.960873
865.224004
744.358897
542.896986
378.333926
204.731822
113.005638
45.068860
25.334954
21.793842
28.795600
47.383904
64.664483
90.714693
108.688474
126.411915
131.376982
130.849481
121.144652
99.871755
82.005858
57.330728
42.944551
26.775599
20.195842
15.263557
12.883544
12.447834
12.622476
13.493896
13.919473
14.214516
15.097857
15.817881
16.348958
17.378926
18.047690
17.924905
18.687844
18.758774
18.914938
19.167662
20.219684
19.714832
20.135641
20.688772
20.061731
20.535588
20.655990
20.940900
20.359755
20.254850
20.630956
20.204782
20.232797
19.924641
20.249486
19.523501
##ZVALUE=300
0.782609
0.805855
0.694990
0.784993
0.800490
0.722408
0.736713
0.755787
0.848770
0.846982
0.792742
0.742674
0.952482
0.837445
0.945926
1.013875
0.807643
1.004934
0.993609
1.016855
1.089573
0.974536
1.049638
1.094937
1.295805
1.243949
1.375675
1.357794
1.464486
1.749992
1.807809
1.957417
5.792975
19.909739
66.749454
131.740570
279.376507
431.270599
651.924014
786.280036
895.970464
902.811885
789.752603
654.016733
439.452529
289.070606
146.519542
80.106854
32.302737
18.260479
19.124746
26.077628
41.414499
57.312846
82.242489
99.503994
119.733810
126.022696
125.072598
116.599798
97.826719
81.745982
59.757829
45.326948
29.441714
21.420717
16.435981
14.628768
14.127493
14.148951
14.661551
15.513897
16.171932
16.767979
17.059445
18.025637
18.390417
18.973947
18.659830
19.332767
20.084977
20.239949
20.837784
21.148920
20.795465
21.037459
20.748973
21.130443
20.794868
20.590425
20.587444
20.581484
20.228624
20.435452
19.860864
19.687414
##ZVALUE=305
0.659823
0.732541
0.595450
0.740886
0.780821
0.636578
0.879765
0.964999
0.945926
0.924468
0.686646
0.951886
0.739694
0.867844
0.713468
0.702739
0.781417
0.731945
0.877976
0.799894
1.068711
0.979900
0.959635
1.050830
1.049638
1.010895
1.071692
1.093745
1.312494
1.094937
1.280904
1.592636
1.677871
1.789927
2.988577
13.182759
36.973953
104.546547
192.435980
367.995501
524.967909
730.325580
843.349695
893.391967
840.445757
681.352615
533.939004
339.062810
213.689804
99.044442
50.791502
20.401478
14.233589
17.002821
23.975968
40.221810
55.930614
80.042481
96.056461
112.039447
120.995641
119.124651
111.387968
94.842911
78.539848
56.023002
42.580962
29.736757
22.922754
17.731786
16.738772
16.198754
16.529560
17.133951
17.840862
18.384457
18.693805
19.208789
19.741654
19.987822
20.845532
20.955801
22.044778
21.264553
21.955967
22.272468
21.596551
21.674633
21.819472
21.435618
20.922422
20.916462
20.981431
20.582676
20.789504
20.877719
##ZVALUE=310
0.725985
0.512600
0.538826
0.748634
0.646710
0.743866
0.650883
0.683665
0.695586
0.591874
0.707507
0.848770
0.732541
0.761747
0.771880
1.017451
0.969768
0.792742
0.813603
0.757575
0.885725
0.998974
0.817776
0.878572
1.028776
0.955462
1.165867
1.090765
1.093745
1.099706
1.001954
1.091957
1.252890
1.391768
1.342893
1.498461
1.788735
6.075501
19.262433
64.408779
127.164721
266.142488
410.940647
620.125532
759.667754
873.938799
872.581601
765.766501
633.841753
429.659486
290.032625
146.279931
79.122782
30.633807
14.602542
11.351705
14.471412
23.079515
32.199621
51.973462
68.066716
90.954900
103.807449
114.540458
115.900636
108.483434
95.610619
75.608492
61.270595
42.735934
32.173991
24.533868
20.639896
18.625855
18.213987
18.427968
18.732548
18.593669
20.041466
20.124912
20.784736
21.307468
21.533966
22.010803
22.174716
22.418499
22.672415
22.397637
21.951795
21.857619
21.727681
21.441579
21.214485
21.053553
20.896792
21.256804
##ZVALUE=315
0.631809
0.755787
0.611544
0.699759
0.636578
0.729561
0.600815
0.737906
0.816584
0.762939
0.598431
0.813603
0.582933
0.885725
0.704527
0.756979
0.728965
0.830889
0.570416
0.803471
0.798702
0.895858
0.952482
0.999570
0.829697
0.878572
1.001954
0.929832
1.098514
1.041889
1.077652
1.123548
1.133680
1.119971
1.140833
1.110435
1.311898
1.525879
1.596808
3.133416
10.323524
40.672421
87.977648
201.202631
328.558683
541.739464
689.262748
833.564997
869.752765
811.616778
704.731941
517.621636
368.677974
198.257565
108.850002
43.036938
19.852519
10.889769
11.161566
14.810562
20.793676
33.593774
46.335459
65.970421
82.114935
100.193620
108.166933
111.665726
104.712844
91.074705
76.524615
58.521628
45.718551
32.717586
26.900768
22.269487
20.430684
20.192862
20.485520
20.489693
21.370649
21.478534
21.992922
21.852851
22.548437
22.300482
22.107959
22.469759
22.726655
23.065805
22.051930
21.524429
21.708608
21.831989
21.541715
21.172762
##ZVALUE=320
0.677705
0.551939
0.745654
0.721812
0.628829
0.805855
0.639558
0.695586
0.735521
0.645518
0.731945
0.699759
0.761747
0.807643
0.662804
0.690818
0.950694
0.989437
0.842810
0.627637
0.882745
1.008511
0.816584
0.918508
0.854731
0.891685
0.836849
1.045465
1.100898
0.849962
1.030564
1.013875
0.974536
1.121759
1.027584
1.156926
1.268983
1.484752
1.283884
1.539588
1.649857
2.153516
5.109906
24.149418
57.910681
147.159696
248.107910
426.750779
584.157705
776.899457
887.145996
931.924582
881.784558
716.714859
546.769500
318.266749
184.160471
78.257918
35.489798
12.982488
10.029674
11.216998
14.156699
20.630956
29.643774
46.570897
60.204864
80.210567
94.384551
105.445981
107.748508
101.755857
91.745853
73.552728
59.879422
43.698549
34.800768
27.312636
23.842454
21.842718
21.688938
21.784902
21.623969
22.113919
22.152662
22.713542
22.814870
23.042560
22.765994
23.122430
22.500753
22.595525
22.083521
21.983981
21.721721
21.686554
##ZVALUE=325
0.761747
0.753999
0.659823
0.783801
0.627637
0.647902
0.669956
0.709891
0.722408
0.763535
0.691414
0.652671
0.722408
0.702739
0.694990
0.864863
0.667572
0.758767
0.668764
0.794530
0.708699
0.738502
0.952482
0.930429
0.987649
0.995994
0.838637
0.916719
0.756979
0.868440
0.999570
0.836849
0.875592
0.910759
0.926852
1.201630
1.089573
1.145601
1.129508
1.231432
1.234412
1.530647
1.389980
1.719594
3.011823
14.898777
38.434863
98.431706
179.018974
346.146822
497.812629
700.041652
821.715593
899.668932
868.944526
717.864037
566.431880
357.921720
219.664574
98.327994
48.800707
17.665625
10.945797
9.859800
11.286736
14.833808
20.052791
31.516552
43.055415
61.757565
76.256990
92.312694
99.480748
101.927519
96.857548
83.805919
72.025657
55.261850
45.065880
34.394860
28.789639
24.439692
23.034811
22.121668
22.053719
22.258759
22.551417
22.354722
22.212863
22.865534
22.652745
22.093654
21.535754
21.663904
21.627545
21.774769
##ZVALUE=330
0.691414
0.730753
0.620484
0.805855
0.709891
0.735521
0.602603
0.623465
0.556707
0.679493
0.800490
0.572801
0.652671
0.824928
0.795722
0.697970
0.701547
0.678897
0.612736
0.709891
0.631809
0.683665
0.748634
0.879765
0.854731
0.753999
0.810623
0.832677
0.746846
0.917912
0.744462
0.870824
0.748634
1.038909
0.996590
1.060963
1.042485
1.135468
1.136661
1.034737
1.098514
0.981688
1.151562
1.385808
1.501441
1.623631
1.833439
6.778836
20.391941
65.416694
127.317905
260.432959
394.108891
590.366721
721.663833
818.457007
804.248452
688.171983
564.585924
377.405882
247.948766
118.197799
63.324571
25.064945
13.343692
9.744763
10.236502
12.098551
15.060902
21.665692
29.998422
44.311881
56.762695
75.992942
86.965561
96.517801
96.819997
91.793537
83.345771
67.689419
55.076480
41.626692
34.710765
28.989911
25.902987
22.893548
22.695661
22.539496
22.121668
21.693707
21.632910
22.118688
21.931529
21.319985
21.481514
21.240711
##ZVALUE=335
0.550747
0.612736
0.601411
0.646710
0.509620
0.633597
0.612736
0.614524
0.532866
0.519753
0.598431
0.580549
0.671744
0.732541
0.761747
0.644922
0.740886
0.662804
0.928640
0.636578
0.643730
0.725985
0.689626
0.815988
0.749826
0.581741
0.938773
0.807643
0.667572
0.639558
0.818968
0.955462
0.929832
0.902414
0.968575
0.780821
0.922680
0.866652
0.947714
1.227856
1.027584
1.051426
0.798702
1.138449
1.040697
1.148582
1.325607
1.466870
1.543760
3.125668
10.502934
40.074587
84.386468
190.779567
311.404467
506.418943
645.322800
766.556859
795.871615
731.997490
624.923706
439.779758
304.430723
163.391829
89.700818
33.467412
16.868711
10.727644
10.364652
11.084676
12.504458
15.684962
20.580888
31.002760
42.151809
58.308840
72.465539
84.980726
91.750622
92.870593
88.485479
78.165531
66.446662
53.850412
44.730902
35.136938
29.259920
25.173426
22.696853
21.630526
21.112561
20.594001
20.757914
20.641685
20.891428
20.832419
##ZVALUE=340
0.591874
0.549555
0.678897
0.635982
0.622869
0.614524
0.595450
0.744462
0.802875
0.693798
0.516772
0.744462
0.506639
0.684857
0.560880
0.609756
0.565648
0.675917
0.685453
0.780821
0.611544
0.679493
0.695586
0.773668
0.708699
0.610948
0.678897
0.627637
0.816584
0.749826
0.683665
0.840425
0.750422
0.854731
0.854731
0.849962
0.910759
1.002550
0.858903
0.923872
1.072884
0.967979
1.017451
0.955462
0.937581
0.984669
0.996590
1.030564
1.230836
1.222491
1.421571
1.901984
5.373955
24.901628
60.126781
149.182677
254.432559
427.323580
563.589931
713.557601
775.496960
749.511719
667.119622
504.895449
367.677808
200.550556
112.154484
44.738650
21.559596
11.404753
10.215640
11.039972
11.559725
13.324618
16.007423
22.577643
29.909611
42.690635
53.873658
69.693923
79.820752
87.181926
88.202953
83.420873
75.681806
64.017773
54.183602
43.426752
35.359859
27.806759
24.362803
22.017956
20.808578
20.016432
19.792914
19.819736
##ZVALUE=345
0.650883
0.670552
0.579953
0.599623
0.710487
0.669956
0.691414
0.565648
0.552535
0.565648
0.531673
0.558496
0.615716
0.604987
0.829697
0.660419
0.538826
0.687838
0.723600
0.638962
0.737906
0.595450
0.538826
0.671744
0.688434
0.648499
0.652671
0.836849
0.587702
0.664592
0.801682
0.811815
0.699759
0.781417
0.759959
0.714660
0.838637
0.908971
0.722408
0.712872
0.798702
0.852942
0.885725
0.880957
1.024604
1.009703
0.927448
1.009703
1.090765
1.000762
1.105666
1.254678
1.442432
1.519918
3.231764
11.052489
44.624805
89.388490
191.851854
302.489996
486.264825
616.000891
735.443830
759.930611
690.843463
581.389666
405.066013
271.046758
129.416585
67.189932
25.743842
14.343858
10.869503
10.432601
11.129975
11.745691
13.288856
15.590787
21.022558
27.902722
39.887428
50.305724
62.851906
72.207451
79.815984
82.651973
78.679919
72.459579
61.844587
52.685738
41.178465
33.856630
27.242899
23.284554
20.754933
19.808412
##ZVALUE=350
0.622869
0.411868
0.679493
0.544786
0.604987
0.572801
0.828505
0.609756
0.485778
0.590682
0.669956
0.551939
0.489950
0.664592
0.550747
0.534654
0.613928
0.639558
0.554919
0.541806
0.671744
0.645518
0.522733
0.824928
0.619888
0.641942
0.717640
0.643730
0.850558
0.700951
0.692606
0.694990
0.777841
0.801682
0.752807
0.741482
0.890493
0.791550
0.988841
0.818968
0.784993
0.858903
0.866652
0.871420
0.827909
0.897646
0.901818
1.123548
0.806451
0.920892
0.985861
1.042485
1.109838
1.223683
1.244545
1.355410
1.811981
6.967783
21.763444
66.320896
127.912760
257.461667
381.603837
548.064709
659.182668
732.692480
712.773800
604.375601
474.449992
293.213725
185.122490
89.491606
44.747591
16.856790
11.072755
10.169744
10.529757
11.045933
11.588931
12.953877
15.427470
20.667911
26.277900
36.006570
45.139790
56.956410
66.081882
73.223710
75.318813
73.541999
67.901611
57.920814
50.257444
40.072799
32.608509
26.399493
##ZVALUE=355
0.661612
0.551939
0.773668
0.558496
0.650883
0.589490
0.690818
0.498891
0.410676
0.568628
0.631809
0.565648
0.541806
0.740886
0.692606
0.715852
0.635982
0.708699
0.603795
0.701547
0.667572
0.818968
0.602603
0.743866
0.672936
0.609756
0.603795
0.647902
0.554919
0.542998
0.723600
0.713468
0.842810
0.684857
0.772476
0.810623
0.726581
0.923872
0.773668
0.684857
0.806451
0.738502
0.775456
0.762939
0.700951
0.910759
0.840425
0.858903
0.969768
0.959635
0.966787
1.113415
1.142621
1.131892
1.010895
1.032948
1.195669
1.313686
1.469851
3.667474
11.723638
43.338537
88.879466
187.163949
299.613476
474.865437
595.903993
695.981979
710.646510
624.293685
509.412885
340.912938
217.595696
100.974441
52.383542
22.066832
12.134910
10.007620
10.028481
10.472536
10.762811
11.742711
12.462735
14.279485
17.387867
23.508668
30.101538
40.880442
48.790574
58.763623
65.085888
68.287849
67.737699
62.537789
55.374503
46.277642
##ZVALUE=360
0.617504
0.579953
0.635982
0.454783
0.696778
0.505447
0.571609
0.615716
0.661612
0.726581
0.657439
0.670552
0.684857
0.733733
0.780821
0.652671
0.721812
0.523925
0.598431
0.684857
0.785589
0.506639
0.627637
0.625849
0.479817
0.622869
0.584722
0.803471
0.787973
0.666976
0.649691
0.559688
0.555515
0.680685
0.749826
0.708699
0.734925
0.718832
0.649691
0.821948
0.751615
0.902414
0.795722
0.813603
0.856519
0.893474
0.921488
0.950694
0.984669
0.870824
0.929832
0.935793
0.978708
0.871420
0.968575
0.902414
1.057982
1.226664
1.274943
1.297593
1.331568
2.035499
5.545616
23.654699
55.425763
136.793852
228.492618
382.484794
515.540838
654.552579
697.958469
661.013722
571.279526
403.762460
276.155472
141.803622
75.735450
30.910969
15.092492
9.202957
9.255409
9.796619
9.924769
10.251999
10.637641
11.363626
12.644529
15.693903
19.421577
25.727749
33.213496
43.288469
50.291419
57.247877
60.942769
61.658621
##ZVALUE=365
0.613928
0.644922
0.608563
0.636578
0.556707
0.668764
0.603795
0.415444
0.630617
0.536442
0.562668
0.515580
0.501871
0.562668
0.603795
0.579953
0.736713
0.657439
0.625849
0.487566
0.599623
0.551939
0.728965
0.643730
0.558496
0.714660
0.687838
0.496507
0.545979
0.652671
0.609756
0.744462
0.812411
0.795722
0.737906
0.751615
0.637770
0.720620
0.744462
0.899434
0.778437
0.809431
0.781417
0.660419
0.658631
0.728965
0.767708
0.793934
0.780821
0.886917
0.923872
0.838637
0.938773
1.000762
0.940561
1.027584
0.963807
0.998974
1.204610
1.229644
1.310706
1.349449
1.357794
1.650453
2.895594
13.474822
35.001636
89.783669
168.123841
315.616727
437.276959
579.802990
658.710599
663.830638
600.600839
456.300974
332.637429
189.955831
106.516480
41.824579
19.534826
9.859800
8.538961
8.671880
8.915663
9.341836
9.263754
9.619594
10.198951
11.517406
13.305545
17.124414
21.614432
29.447675
36.166906
45.451522
##ZVALUE=370
0.758767
0.656843
0.579953
0.549555
0.645518
0.701547
0.629425
0.471473
0.667572
0.609756
0.621676
0.887513
0.630617
0.669956
0.639558
0.767708
0.798702
0.605583
0.537634
0.723600
0.710487
0.792742
0.723600
0.747442
0.733733
0.749826
0.680685
0.789762
0.780821
0.816584
0.731945
0.733733
0.761747
0.733733
0.616908
0.774860
0.862479
0.790954
0.676513
0.804663
0.768900
0.906587
0.776649
0.680685
0.896454
0.868440
0.966787
0.881553
1.010895
0.955462
0.870824
0.742674
0.907779
0.949502
0.972748
0.932813
0.908971
1.145601
1.114607
1.008511
1.144409
1.232624
1.298785
1.296997
1.268983
1.488924
1.987815
7.483959
22.370815
68.616867
127.467513
244.996548
366.149545
529.235005
617.897511
660.026670
621.664524
504.062772
380.991697
221.518874
129.333735
54.476857
27.415752
12.220740
8.754730
8.358955
7.903576
8.262992
8.421540
8.828640
9.121895
9.436607
10.233521
12.047887
15.241504
19.928813
##ZVALUE=375
0.596642
0.668764
0.722408
0.774860
0.696778
0.753999
0.776649
0.842810
0.680685
0.787973
0.802875
0.903606
0.829697
0.638962
0.741482
0.684857
0.601411
0.769496
0.780821
0.722408
0.815988
0.830889
0.881553
0.770688
0.785589
0.742674
0.702739
0.794530
0.874996
0.955462
0.798702
0.857711
0.794530
0.750422
0.739694
0.723600
0.949502
0.753999
0.786781
0.871420
0.609756
0.797510
0.902414
0.718832
0.825524
0.918508
0.643730
0.903606
0.783801
0.892878
0.816584
0.724792
0.852942
0.853539
0.899434
0.900626
1.007915
0.886917
0.953674
0.940561
0.950694
0.971556
1.129508
1.261830
1.222491
1.294613
1.293421
1.497865
1.644492
3.919601
12.132525
41.206479
86.454749
190.759897
298.247933
461.936593
564.587712
643.370748
642.949939
549.963713
436.490774
278.184414
179.932714
91.695786
48.250556
18.020868
9.646416
7.505417
7.359982
7.258654
7.515550
8.104444
7.984638
8.179545
8.561611
9.287596
##ZVALUE=380
0.364780
0.671744
0.472665
0.498891
0.566840
0.625849
0.632405
0.540614
0.538826
0.615716
0.543594
0.624657
0.428557
0.576973
0.579953
0.465512
0.526905
0.660419
0.679493
0.552535
0.500679
0.756979
0.600815
0.605583
0.655651
0.621676
0.596642
0.587702
0.651479
0.607967
0.712872
0.584722
0.818968
0.701547
0.678897
0.755787
0.814795
0.745654
0.612736
0.698566
0.561476
0.690818
0.671744
0.835657
0.901818
0.725985
0.858903
0.743866
0.640750
0.602603
0.763535
0.797510
0.654459
0.801682
0.917912
0.786781
0.786781
0.828505
0.898838
0.656843
0.859499
0.756979
0.809431
0.916719
0.939965
0.952482
1.029968
1.038909
1.150966
1.238585
1.397729
2.246499
6.721616
29.087663
65.425634
152.234435
246.416926
396.643877
512.121916
627.522469
649.449825
580.777526
488.358736
349.720716
241.441727
123.924613
65.505505
25.190711
12.099743
7.240772
6.646514
6.826520
6.780624
6.964803
7.081628
7.447600
##ZVALUE=385
0.499487
0.502467
0.458956
0.560880
0.647902
0.572801
0.495911
0.576973
0.514984
0.499487
0.484586
0.619888
0.661612
0.529885
0.685453
0.615716
0.547767
0.607967
0.685453
0.543594
0.682473
0.565648
0.545979
0.410676
0.567436
0.574589
0.648499
0.605583
0.749826
0.661612
0.523925
0.560880
0.614524
0.680685
0.617504
0.658631
0.537634
0.522733
0.702739
0.689626
0.565648
0.700951
0.712872
0.775456
0.794530
0.715852
0.768900
0.672936
0.577569
0.657439
0.736713
0.838637
0.768900
0.690818
0.719428
0.743866
0.570416
0.642538
0.847578
0.743866
0.847578
0.861883
0.957847
0.927448
0.767708
0.872612
0.819564
0.966787
0.935793
1.040697
1.200438
1.262426
1.385808
1.302958
3.590584
17.029643
41.702986
102.493763
183.272958
332.471728
453.598499
581.156611
628.751516
615.355968
550.828576
416.241884
301.883817
170.821548
98.963976
42.757988
19.218922
7.691979
6.215572
6.412864
6.234646
6.384850
##ZVALUE=390
0.498891
0.462532
0.382662
0.553727
0.386834
0.339746
0.498891
0.628829
0.445843
0.510812
0.612736
0.490546
0.688434
0.498891
0.572801
0.689626
0.577569
0.393987
0.626445
0.472665
0.411868
0.570416
0.680685
0.618696
0.631809
0.532866
0.553727
0.649691
0.525713
0.569820
0.521541
0.636578
0.588894
0.363588
0.470877
0.593662
0.554919
0.579953
0.585914
0.533462
0.667572
0.691414
0.553727
0.529885
0.670552
0.579953
0.631809
0.714660
0.559688
0.586510
0.552535
0.659823
0.674725
0.488758
0.653863
0.589490
0.652671
0.576973
0.660419
0.657439
0.680685
0.700951
0.889897
0.649691
0.765920
0.847578
0.750422
0.929832
0.990629
0.987649
1.076460
1.121759
1.067519
1.119971
1.166463
1.278520
1.949668
8.871555
26.747584
78.387856
145.546794
278.585553
384.975672
518.301725
597.205758
635.541677
598.173738
482.199788
374.082923
233.528614
139.155984
59.214830
28.220415
10.166764
6.283522
5.797744
##ZVALUE=395
0.544786
0.461936
0.542998
0.453591
0.545979
0.631809
0.648499
0.541806
0.506639
0.587702
0.536442
0.582933
0.503659
0.696778
0.643730
0.590682
0.614524
0.448823
0.480413
0.678897
0.687838
0.595450
0.616908
0.657439
0.565648
0.513792
0.658631
0.670552
0.630617
0.777841
0.611544
0.748634
0.620484
0.770688
0.764728
0.483990
0.718832
0.600815
0.662804
0.669956
0.642538
0.543594
0.582933
0.623465
0.670552
0.705719
0.615716
0.583529
0.787973
0.592470
0.611544
0.677705
0.725985
0.728965
0.611544
0.578761
0.757575
0.542998
0.689626
0.741482
0.849962
0.693798
0.763535
0.827909
0.797510
0.816584
0.920892
0.850558
0.907779
1.111627
1.142621
1.068711
1.018643
1.131892
0.860691
0.981688
0.982881
1.053810
1.533628
4.156828
20.372868
47.916770
111.923814
187.940598
326.488614
443.670750
575.083494
631.783009
624.246001
555.647016
418.588519
301.444530
165.084004
91.362596
36.225915
17.127991
##ZVALUE=400
0.345707
0.497699
0.571609
0.587702
0.491738
0.625849
0.487566
0.496507
0.507832
0.532866
0.661612
0.542998
0.415444
0.533462
0.614524
0.519753
0.616908
0.475645
0.540614
0.585914
0.383854
0.637770
0.619888
0.601411
0.652671
0.586510
0.418425
0.681877
0.711679
0.478625
0.602603
0.665784
0.656843
0.707507
0.556707
0.608563
0.676513
0.649691
0.632405
0.634789
0.624657
0.651479
0.586510
0.608563
0.677705
0.690818
0.635982
0.603795
0.558496
0.623465
0.480413
0.869632
0.681877
0.649691
0.667572
0.683665
0.834465
0.641942
0.827909
0.731945
0.754595
0.721812
0.817776
0.721812
0.741482
0.752807
0.869632
0.795722
0.958443
0.940561
1.049638
0.941753
0.925660
1.032948
1.006722
0.917912
1.079440
0.976920
1.094937
1.012683
1.308918
2.445579
10.154843
27.901530
77.632666
140.476823
263.337493
374.470949
518.409014
594.263673
621.199012
579.077005
456.835628
343.946815
201.360583
123.626590
##END
