##TITLE=FQP00651
##FORMAT=SPECTACLE-ASCII V-1.2
##DATA TYPE=ULTRAVIOLET SPECTRUM
##SECOND TYPE=ULTRAVIOLET SPECTRUM
##DATE=01/21/18
##TIME=13:28:58
##SPECTROMETER/DATA SYSTEM=SPECTACLE
##XUNITS=NM EM
##YUNITS=ENERGY
##YFACTOR=1
##FIRSTX=220
##LASTX=410
##NPOINTS=96
##3DDATA=Equidistant
##ZUNITS=NM EX
##FIRSTZ=210
##LASTZ=400
##ZPOINTS=39
##XYDATA=(Y..Y)
##ZVALUE=210
2.699494
2.729893
2.049804
2.424717
2.223849
2.699494
2.905726
3.334880
3.730655
2.935529
4.006624
3.704429
4.226565
4.425645
4.666448
5.079508
4.788637
5.994439
5.463958
6.343722
6.830692
6.562471
8.075833
8.571744
8.189678
9.020567
8.947849
8.866787
10.091662
10.910630
9.982586
10.101795
10.475516
10.695457
10.730624
11.579990
10.326505
12.235641
10.246634
10.984540
11.158586
11.137724
11.770725
12.287498
11.378527
11.962652
12.421608
12.038946
11.031628
12.230873
11.878610
13.136864
12.908578
14.240742
13.564825
13.653636
12.632608
12.772679
14.468431
15.185475
13.284683
13.691783
15.525818
14.111996
14.113784
15.290976
15.392900
15.862584
19.926429
21.984577
25.083423
31.576753
38.858652
40.833950
52.836537
54.395795
61.011910
62.475801
63.356757
59.293509
55.763721
48.345923
40.744543
35.991669
27.926564
23.321509
18.838644
14.698505
13.151765
12.968779
12.394786
12.337565
12.772679
13.429523
12.382865
12.854934
##ZVALUE=215
8.137822
9.386539
8.801818
6.261468
5.233884
5.742908
4.595518
4.673600
5.381703
4.721880
6.200671
6.159544
5.943775
5.175471
4.448891
5.320907
5.821586
5.635619
6.546974
6.754994
6.015897
7.758737
7.366538
9.245872
8.798838
8.930564
9.204745
10.186434
10.915995
10.221601
11.275411
12.125969
11.972785
12.681484
11.988878
12.337565
14.004707
12.639761
13.655424
12.527704
13.281703
13.087988
12.460947
12.941957
13.466477
13.215542
13.859868
14.199615
15.345812
15.330911
16.218424
15.833974
15.247464
15.007854
16.491413
15.338659
17.058849
15.910864
15.567541
14.955997
15.437603
15.992522
16.092658
15.681982
17.219782
16.479492
18.186569
20.528436
22.583604
26.766658
31.539798
34.703612
42.432547
52.164793
58.856606
66.325665
70.382953
73.723793
70.289969
68.082809
60.178638
57.273507
47.534704
37.627816
31.467676
27.423501
21.147728
18.149614
17.768741
15.490651
16.194582
16.296506
15.496612
14.820695
16.898513
16.465783
##ZVALUE=220
48.023462
51.165819
59.650540
66.950917
63.376427
49.662590
38.306713
23.584962
16.640425
12.663603
12.415648
12.935996
14.117956
11.658669
11.483431
8.699894
8.275509
7.772446
7.163882
7.359982
7.824898
9.508729
8.560419
9.378791
10.242462
10.577440
10.473728
10.835528
11.864901
12.783408
13.588667
14.323592
15.814900
13.892651
14.116764
17.587543
16.244650
15.761852
15.226603
15.881658
15.600920
16.729832
15.600920
16.404986
15.738606
15.017986
15.908480
15.761852
16.205907
18.156767
16.214848
15.695691
17.461777
16.521811
18.210411
16.654730
17.595887
16.231537
18.128753
18.799901
17.753839
17.813444
18.937588
19.047856
19.397736
18.214583
20.624995
20.845532
24.925470
29.550791
33.758879
40.191412
47.674775
54.723620
61.591864
69.618821
72.332621
73.778629
76.178908
69.550872
61.264634
55.315495
45.435429
37.100911
31.014681
26.130676
20.703673
19.219518
17.969608
16.569495
17.408729
15.174747
15.147924
15.567541
14.956594
14.142990
##ZVALUE=225
94.976425
103.429556
136.500001
175.097585
196.104646
191.763639
171.638727
131.615996
98.502636
70.123672
41.263700
27.402639
24.053454
27.637482
28.190613
26.551485
25.597811
21.941662
17.399788
13.169646
11.268854
10.404587
10.029674
10.486841
10.074973
11.198521
12.979507
13.648868
14.893413
14.903545
15.954971
16.655922
15.551448
16.171932
17.851591
17.815828
18.260479
18.508434
18.982887
17.957687
16.786456
17.226934
17.980933
17.009974
18.282533
17.287731
16.144514
17.516613
17.656684
17.944574
17.054677
16.756654
16.005635
18.552542
17.772913
17.661452
17.059445
18.344522
19.018650
18.694997
16.656518
16.076565
17.152429
19.590855
19.644499
19.131899
20.305514
20.079613
22.610426
26.090741
28.481483
34.787655
37.051439
41.738749
43.927431
44.347644
44.179559
45.013428
47.288537
43.586493
41.947961
38.561821
34.090877
29.682517
23.930669
21.650791
19.176602
16.552806
15.660524
15.711784
15.311837
14.327765
13.333559
13.160706
14.002919
13.211966
##ZVALUE=230
76.725483
85.316896
139.017701
239.664912
321.329832
399.045944
432.680845
422.042608
376.694798
267.742872
190.147758
105.180740
66.075921
46.701431
49.253702
49.783587
51.666498
52.851439
46.124458
40.824413
30.085444
22.499561
16.116500
12.470484
11.836886
10.404587
10.547638
11.829734
12.366772
12.527704
12.886524
14.359951
13.894439
14.371872
15.928745
15.714765
15.346408
14.435649
15.667677
14.046431
14.854670
14.131665
14.763474
14.910698
14.454722
13.524890
15.285611
13.648868
14.558434
15.430450
14.869571
14.349818
14.044642
14.601946
15.487671
15.556812
14.518499
16.180873
14.907718
14.215708
14.755726
15.197992
14.607906
16.691685
16.962886
16.554594
18.393993
20.992756
21.397471
25.619864
29.490590
31.507611
35.828948
40.633678
40.179491
41.849613
40.967464
42.351484
40.190816
40.600896
38.438439
33.803582
30.601621
25.795698
24.368763
22.221804
19.050837
16.793609
16.459823
16.530752
17.223954
15.802979
16.005635
16.514659
15.685558
14.579892
##ZVALUE=235
38.716793
44.239759
99.542737
238.955617
389.142632
638.553500
824.268460
1015.638709
1015.638709
1015.638709
891.874433
693.757534
423.123837
279.008746
149.651766
105.498433
83.585978
80.833435
87.710619
89.018941
83.373785
72.255731
58.605671
42.770505
31.752586
23.309588
17.554760
14.786720
16.257763
15.930533
13.586879
14.882684
16.222000
16.270876
16.182661
17.222762
17.006993
16.748905
17.630458
15.956759
15.197992
16.165972
17.679930
16.402602
16.669631
16.712546
14.852881
15.582442
15.267730
15.443563
15.352964
16.660690
15.554428
16.946793
15.298724
17.707944
16.602874
17.368793
17.100573
17.649531
17.228723
18.388629
19.630790
19.331574
18.311739
20.077825
19.887686
23.513436
25.061965
25.631785
30.319691
32.204986
37.200451
39.822459
40.886998
41.856766
42.755604
42.879581
41.558743
38.479567
36.488771
33.746958
30.178428
26.202798
24.218559
21.606684
19.913912
21.610856
20.007491
19.008517
19.688606
18.554926
18.791556
18.522739
18.460751
18.087626
##ZVALUE=240
3.408790
4.766583
19.034743
76.371431
160.455704
336.368680
526.710749
838.011503
1015.638709
1015.638709
1015.638709
1015.638709
1015.638709
912.985802
642.775893
439.900756
241.084695
151.457787
119.868517
107.069612
117.127895
124.135613
121.384859
105.361938
92.882514
72.510839
53.695440
36.082864
29.335618
21.118522
17.904639
14.783740
15.527606
15.359521
15.194416
16.433001
15.441775
16.254783
16.011000
14.806986
16.016960
17.013550
17.007589
14.939904
15.755892
15.157461
15.817881
15.701652
15.619993
15.896559
15.191436
16.357899
15.238523
15.908480
14.867783
15.750527
15.022755
16.028881
16.069412
14.860630
15.774965
15.959740
16.303658
15.854836
17.706752
17.459989
19.193888
19.262433
22.763610
27.575493
27.417541
32.321811
36.758780
38.199425
42.414665
41.287541
41.257739
40.040612
39.049983
39.350986
35.070777
32.147765
30.272603
26.971698
24.837852
24.849772
21.979809
22.228956
22.623539
21.380782
20.554662
20.011663
21.736622
19.729733
21.012425
22.611618
##ZVALUE=245
2.295971
2.461672
2.007484
2.506971
12.775660
39.474964
133.965015
276.082754
572.917461
817.949772
1015.638709
1015.638709
1015.638709
1015.638709
1015.638709
926.331878
682.925582
416.283607
265.833735
149.110556
110.200644
107.989907
117.536783
129.887462
136.592984
134.071708
117.695928
101.519823
79.370737
59.634447
43.889880
27.509928
20.563602
15.068650
12.782812
11.760592
12.256503
12.914538
13.310909
12.439489
14.805794
12.852550
12.281537
12.496710
12.584925
13.628602
13.435483
11.919737
12.084842
12.956858
11.943579
12.007952
11.861920
12.398958
12.458563
11.675954
11.591911
11.103749
12.092590
11.675954
11.117458
11.559725
12.574792
12.639761
14.142990
13.699532
14.356971
14.536977
15.551448
16.779900
18.294454
20.041466
20.280480
23.216605
24.252534
25.567412
25.472641
25.518537
24.318695
23.185611
22.303462
19.629598
20.259619
19.380450
18.647909
18.205643
17.738938
17.486811
16.172528
17.886758
18.097758
16.886592
17.501712
18.241405
16.813874
17.448664
##ZVALUE=250
1.592636
1.560450
1.727939
1.570582
1.833439
2.041459
2.938509
8.675456
42.806864
89.621544
205.444694
321.231484
460.635424
643.954873
758.915544
882.726908
909.703970
842.087865
754.388571
557.276607
395.841002
267.120004
153.884888
116.046667
112.412572
125.780702
137.030482
145.176649
140.188932
124.752522
111.435652
83.524585
64.425468
40.076971
27.483702
17.267466
13.030767
11.266470
11.143684
10.905862
11.288524
10.893941
10.500550
10.813475
10.186434
10.155439
10.163784
10.214448
9.969473
8.985996
8.411407
8.568764
8.591413
9.132624
8.485913
8.237958
8.619428
8.403659
8.306503
8.056760
7.885695
7.901788
8.191466
8.881688
8.790493
8.679628
10.176897
9.736419
10.450482
11.184812
12.709498
13.464689
13.869405
14.421940
14.613867
15.470982
16.294718
15.862584
15.950799
15.750527
14.871955
15.644431
14.842749
15.637875
15.774965
15.139580
15.652776
14.563799
14.769435
15.303493
15.522838
14.535785
15.543699
14.662743
15.235543
15.505552
##ZVALUE=255
1.434684
1.445413
1.426935
1.346469
1.317859
1.739860
1.417994
1.649857
1.745820
3.955960
16.039610
38.982630
81.224442
181.411505
291.158557
459.045768
588.557720
722.642541
782.717466
761.264563
681.303740
560.694933
372.955799
250.123739
142.269731
105.981827
96.364617
104.406476
132.416487
143.574476
150.053501
147.053599
135.249496
109.808445
84.875822
59.859753
42.893887
25.169849
18.206835
11.635423
11.752844
10.961890
10.756850
10.107756
10.559559
9.275675
10.107756
9.680986
9.671450
8.903742
9.287000
9.146929
8.111596
7.766485
7.626414
6.364584
7.444620
7.135868
7.502437
7.710457
7.523894
7.527471
7.330775
7.504821
7.558465
7.673502
7.872581
9.135604
8.766651
9.260774
10.800958
10.661483
11.805892
12.219548
12.774467
13.604760
13.595819
14.506578
13.947487
14.366508
13.456941
13.214946
13.960600
14.037490
13.459921
14.439821
14.285445
14.224648
13.806820
14.500618
14.266968
13.992786
14.168620
14.660954
14.969707
15.322566
##ZVALUE=260
1.392961
1.283884
1.222491
1.313686
1.291633
1.294613
1.258850
1.285672
1.541972
1.560450
1.674891
2.036691
5.351901
23.350716
55.406690
137.495995
236.478448
411.063433
561.349988
745.379925
834.828615
839.197636
745.953918
613.685846
414.876938
282.779932
165.416002
108.152628
80.155730
86.382627
101.766586
130.870938
145.535469
159.008503
152.323842
134.641528
117.202997
85.224509
65.439939
41.976571
28.854609
18.109679
14.248490
12.028813
11.445880
9.899735
10.829568
10.242462
8.830428
9.910464
9.312630
8.940697
8.385777
7.800460
7.673502
7.739663
7.991791
7.464886
6.977916
6.904602
7.155538
7.423759
7.285476
7.424951
6.970763
7.983446
8.349419
8.268952
7.952452
9.807944
9.828806
11.483431
11.241436
11.777878
13.366938
12.711883
12.692809
14.199615
13.380647
13.481975
13.548732
12.987852
13.462901
13.367534
13.183951
13.893843
13.185740
13.094544
14.041662
13.954639
13.354421
13.599992
13.661981
13.529658
13.984442
14.256835
##ZVALUE=265
1.486540
1.454949
1.348853
1.444817
1.224875
1.390576
1.346469
1.492500
1.545548
1.544952
1.711845
1.934767
2.019405
2.182722
3.723502
16.993880
45.730472
155.136585
327.848792
675.290823
973.399878
1015.638709
1015.638709
1015.638709
1015.638709
952.141881
636.947751
426.155925
226.780772
138.353705
90.236664
74.584484
85.924864
114.839673
135.556459
156.637430
158.593655
152.315497
139.418840
110.856891
89.553595
60.648918
43.414831
27.114749
19.353628
12.951493
11.665821
10.790825
10.282993
10.061860
10.144711
8.962750
9.114742
8.882880
9.317994
8.272529
8.608699
8.000731
8.234978
7.648468
7.696748
7.623434
7.959604
7.244945
7.110834
7.962584
8.228421
8.151531
8.599758
9.576678
9.899735
10.944605
10.722876
11.483431
11.985898
12.771487
12.987852
12.744665
12.775660
12.001991
12.253523
11.705756
11.614561
12.244582
12.459755
12.414455
12.124777
12.461543
12.333989
12.562871
13.014674
12.830496
13.448000
12.746453
12.778640
13.564825
##ZVALUE=270
1.323819
1.301765
1.184940
1.268983
1.156926
1.181960
1.117587
1.354814
1.350641
1.640916
1.578927
1.453757
1.584888
1.926422
1.822710
2.214909
2.575517
8.199811
23.311973
98.586679
251.278877
486.552715
891.548991
1015.638709
1015.638709
1015.638709
1015.638709
1015.638709
773.753524
545.901656
360.803604
185.149908
107.900500
66.579580
65.091848
88.029504
111.229420
138.310790
153.513551
160.147548
154.730678
137.487650
116.253495
85.279942
64.563751
39.566755
27.965903
18.207431
13.515949
10.282993
9.289980
8.905530
8.453727
8.165836
8.552670
7.769465
8.006692
7.020831
7.516742
7.484555
7.415414
7.311702
7.422566
7.461905
6.868839
7.353425
7.627606
8.115768
8.335710
8.532405
9.305477
9.858608
10.190606
10.745525
10.384917
11.411905
11.198521
10.968447
10.764599
11.029840
10.781884
11.127591
10.643601
10.885000
10.991693
11.534691
10.729432
11.239648
11.773705
11.185408
11.572838
11.582971
11.559725
11.675954
11.831522
12.080669
##ZVALUE=275
1.046658
0.967979
1.142621
1.116991
1.156926
1.182556
1.183748
1.330972
1.271963
0.999570
1.253486
1.184940
1.244545
1.420975
1.377463
1.545548
1.546741
1.761913
1.863837
4.080534
13.234615
40.975809
148.031712
299.661756
579.620600
790.261030
1004.051566
1015.635729
1015.635729
1005.973816
865.056515
615.828037
429.172516
225.825906
130.770802
67.722797
50.711632
62.169433
80.397725
110.239983
127.524734
151.055455
155.858994
148.242712
136.127472
106.094480
85.562468
59.994459
43.243766
24.894476
16.964674
11.242628
8.850694
7.694960
7.377863
7.611513
7.052422
7.030964
6.901622
7.294416
7.063746
7.459521
7.367730
6.932616
6.958842
7.410645
7.449985
8.184910
7.687807
8.547902
8.588433
8.717775
9.394884
9.800792
10.141730
10.433793
10.403991
10.082722
10.356903
10.161996
10.508895
10.219812
10.314584
9.926558
10.443926
10.186434
10.627508
10.594726
10.142922
10.904670
10.718703
10.634661
10.911822
10.866523
10.614991
11.072755
##ZVALUE=280
0.948906
0.877976
1.109838
1.120567
0.976920
1.115799
0.889897
1.000762
0.970960
0.981688
1.243949
1.125932
1.246929
1.181960
1.210570
1.436472
1.454949
1.509786
1.707673
1.514554
1.836419
2.170801
8.187890
27.743578
96.108913
182.233453
356.025696
527.637601
754.444599
897.867680
976.900458
961.537957
857.324600
643.630624
474.534631
271.617770
164.136887
74.938536
45.576692
42.026639
54.726601
81.222653
103.425980
129.293799
142.889619
149.666667
143.908858
128.236413
110.798478
79.787970
60.211420
37.851930
26.778579
15.070438
10.454655
7.455945
7.456541
7.310510
7.000566
6.941557
6.712675
7.198453
7.305741
7.253885
7.360578
7.778406
7.729530
7.536411
8.289814
8.011460
8.350611
8.717775
9.230971
8.966923
9.241700
9.356737
9.873509
9.763837
9.793639
9.939671
9.867549
9.900928
10.246634
9.591579
10.083914
10.069609
9.769797
10.326505
10.048747
9.942651
10.120869
10.385513
10.297894
9.693503
9.967685
10.161996
##ZVALUE=285
0.901818
0.905991
1.042485
1.025796
0.817776
0.941753
0.761747
0.921488
0.979900
1.053810
1.083612
1.094937
0.984669
1.015663
1.122952
1.015663
1.056790
1.094937
1.075864
1.195669
1.325607
1.383424
1.806617
1.708865
4.166961
12.870431
43.496490
95.642805
218.988657
348.860621
496.879816
715.292692
843.179822
911.446810
876.595974
722.052455
568.844676
357.679725
223.647952
108.024478
57.393909
32.340884
34.414530
52.738786
71.791410
101.241469
117.892623
137.019753
145.165920
139.778852
129.361749
105.475783
85.146427
58.617592
41.460991
24.201870
16.003847
10.464787
8.109808
7.263422
7.007718
7.107854
7.150769
7.646680
7.229447
7.546544
8.138418
7.827878
8.239746
8.579493
9.011626
9.018779
9.474754
9.244680
9.055734
9.739995
9.864569
10.026693
9.745955
10.046959
9.891987
10.054708
10.186434
9.975433
9.727478
9.920597
9.774566
10.139942
9.815693
10.055900
10.092854
9.827614
10.054708
9.873509
10.124445
9.984970
##ZVALUE=290
0.921488
0.863671
0.713468
0.804663
0.768900
0.915527
0.810623
0.903606
0.855923
0.995994
0.854731
0.998974
0.898838
1.121759
0.895858
0.993609
1.129508
1.146793
1.233816
1.325607
1.428723
1.386404
1.307726
1.336932
1.499653
1.675487
2.097487
5.580783
24.747849
59.317946
121.874809
260.256529
413.896441
643.672943
790.503621
910.272002
909.709930
792.132616
650.897622
443.264842
292.783976
148.071647
78.610778
33.822656
24.774671
33.134818
46.470761
69.994926
89.848638
114.836693
129.685998
139.735937
136.915445
123.274922
105.896592
78.927875
59.078932
39.003491
26.378632
15.603900
11.984706
8.883476
8.120537
7.511973
7.457733
7.715821
8.170605
8.370876
8.319616
8.791685
9.194613
9.415746
9.202957
9.698868
9.974837
10.442734
10.708570
10.114908
10.340810
10.469556
10.149479
10.232925
10.172725
10.315776
10.593534
10.741949
10.217428
9.645820
10.126829
10.115504
10.131598
10.014772
10.232925
9.810925
9.828806
10.265708
##ZVALUE=295
0.917912
0.943542
0.980496
1.018643
1.129508
0.896454
0.970960
1.010895
0.950694
0.988841
0.834465
1.004934
1.110435
1.048446
1.053810
1.098514
1.022816
1.044869
1.102686
1.260638
1.194477
1.440644
1.596808
1.307726
1.344681
1.502633
1.612902
1.714826
2.110600
2.986789
12.936592
36.092997
83.938837
206.784606
341.174006
561.461449
721.688867
875.014663
917.167664
854.915977
737.041831
524.104834
361.788869
189.068913
105.394721
42.920709
23.649931
20.735860
28.223991
44.296980
62.823892
87.505579
104.922652
125.991702
132.364631
130.257607
119.904876
98.906755
80.093741
55.412650
39.796829
24.240613
17.123818
11.806488
9.687543
8.612871
8.385777
8.735657
9.096861
9.122491
9.302497
9.710789
9.803772
10.529757
10.511875
10.948777
10.512471
10.415912
10.197759
10.417700
10.472536
10.457635
10.391474
10.658503
10.135770
10.436773
10.503531
10.178685
9.881854
10.120869
10.273457
10.099411
10.023713
9.639859
10.021925
9.782910
##ZVALUE=300
0.846982
0.793934
0.797510
0.772476
0.875592
0.707507
0.751615
0.746846
0.728965
0.659823
0.638962
0.869632
1.050830
0.903606
1.079440
0.771880
0.934601
0.965595
0.951886
0.996590
0.883937
0.959635
1.017451
1.076460
1.102686
1.185536
1.322627
1.363754
1.322627
1.575947
1.748800
1.759529
5.569458
18.882751
65.503716
129.835010
275.905728
427.586436
647.785664
784.885883
890.007019
887.417793
771.093965
637.256503
423.198938
278.548598
140.649676
75.552464
29.216409
16.980767
17.992854
24.549961
40.951967
57.707429
79.841614
98.516941
119.000673
125.823617
125.607848
116.306543
96.523762
78.834891
56.287646
41.032434
26.221871
18.584728
12.616515
10.515451
8.892417
9.039640
9.235740
9.543896
9.869933
9.974837
9.782910
10.139942
10.198951
10.793805
10.366440
10.606647
10.592937
10.647774
10.709763
10.719895
10.766983
10.557771
10.293722
10.324717
10.162592
10.152459
9.821653
9.691715
9.877682
9.798408
9.810925
9.678602
##ZVALUE=305
0.631809
0.686646
0.763535
0.638962
0.670552
0.746846
0.637770
0.839829
0.712872
0.762939
0.847578
0.755787
0.824928
0.836849
0.731945
0.797510
0.950694
0.883937
0.975728
0.881553
0.981688
0.963807
1.026988
0.866652
1.119971
1.200438
1.102686
1.309514
1.098514
1.221895
1.366735
1.476407
1.769662
1.734495
3.219843
10.472536
42.308569
94.835758
215.115547
340.886712
550.736785
701.462626
847.510695
883.409977
813.313723
695.293546
498.367548
350.304842
189.290643
103.824735
41.069984
20.036697
12.616515
15.915632
24.437904
37.038922
58.301687
74.970722
96.932650
109.454989
119.169950
118.943453
108.660460
95.705986
73.480606
57.271719
38.429499
27.959943
17.307997
12.902617
10.327697
9.668469
9.762645
9.761453
9.577870
10.089874
9.965897
10.146499
10.247827
10.300875
10.450482
10.817647
10.581613
10.283589
10.625720
11.021495
10.487437
10.634661
10.240674
10.012984
10.082722
9.589791
9.664893
9.981990
9.702444
9.649992
##ZVALUE=310
0.608563
0.568628
0.741482
0.645518
0.521541
0.707507
0.688434
0.618696
0.487566
0.626445
0.589490
0.532866
0.520945
0.656843
0.655651
0.797510
0.555515
0.749826
0.770688
0.745654
0.779629
0.926852
0.720620
0.873804
0.957847
0.810623
0.912547
0.847578
1.003742
0.976920
1.137853
1.128912
1.339912
1.337528
1.425743
1.343489
1.602769
5.631447
18.301606
62.295794
125.671625
263.931751
406.858921
615.504980
755.195022
862.876773
862.473845
760.034919
630.322695
420.747995
281.316638
140.263438
75.627565
28.704405
13.800859
10.892749
14.234781
22.324920
32.291412
50.424933
66.608787
87.836981
102.930665
112.636685
113.433599
104.641914
92.313886
73.670745
55.875778
37.576556
26.898980
18.279552
14.026761
11.104941
10.487437
9.887815
10.007620
9.405613
10.049939
9.944439
10.167956
10.060668
10.208488
10.340810
10.819435
10.262728
10.549426
10.504723
10.461807
9.997487
10.263920
10.247827
9.796619
9.455681
9.759665
10.007620
##ZVALUE=315
0.624657
0.598431
0.790954
0.690818
0.509620
0.766516
0.575781
0.630617
0.652671
0.637770
0.707507
0.637770
0.817776
0.703931
0.767708
0.674725
0.581741
0.762939
0.686646
0.824928
0.693798
0.720620
0.833869
0.979900
0.854731
0.904799
0.960827
0.788569
1.028776
0.863671
1.069903
1.064539
0.878572
0.954866
1.176000
0.955462
1.237988
1.457930
1.536608
2.780557
9.400845
38.922429
88.723898
202.008486
328.725576
537.422895
683.668852
817.058682
858.146548
798.323750
685.071945
494.435430
353.948474
189.953446
105.702877
40.472746
18.058419
9.733438
9.760857
13.514757
19.387603
31.746626
44.653416
64.022541
80.613494
98.197460
107.535720
109.498501
101.545453
85.702538
71.994662
52.254796
38.357973
24.643540
18.411875
13.487935
11.330843
9.968877
10.043979
9.779930
9.866953
10.218620
10.330677
10.323524
10.024905
10.182858
10.223985
10.544658
10.493994
10.339618
9.930730
9.859800
9.924769
9.690523
9.780526
9.476542
##ZVALUE=320
0.643730
0.720620
0.731945
0.652671
0.688434
0.884533
0.630617
0.815988
0.580549
0.714660
0.691414
0.736713
0.615716
0.772476
0.751615
0.828505
0.681877
0.823736
0.742674
0.776649
0.823736
0.800490
0.866652
0.955462
0.861883
0.968575
0.931621
1.026988
0.878572
1.035929
1.027584
1.142621
1.075864
0.951886
1.168847
1.205802
1.087785
1.233816
1.375675
1.522899
1.624823
1.886487
4.448891
23.176670
57.982802
146.874785
248.730779
428.705812
574.305654
752.038956
832.055807
836.153626
759.922862
591.561794
433.653593
243.955851
142.097473
62.245727
29.795766
11.497736
8.852482
9.646416
11.986494
18.651485
27.279854
43.234825
57.389736
76.804757
89.497566
100.086927
101.217628
95.846653
84.473491
67.016482
52.994490
35.613775
26.135445
18.027425
14.132857
11.029840
10.380745
10.468960
10.229945
10.006428
10.049939
10.232925
10.341406
9.987950
9.969473
10.330677
9.982586
10.097623
10.203719
10.041595
9.785891
9.933710
##ZVALUE=325
0.673532
0.655651
0.724792
0.620484
0.680685
0.600815
0.630617
0.737906
0.725985
0.567436
0.615716
0.597835
0.577569
0.679493
0.720620
0.722408
0.675917
0.789762
0.656843
0.656843
0.677705
0.918508
0.830889
0.975728
0.872612
0.834465
0.819564
0.846982
0.871420
0.871420
0.901818
0.880957
0.999570
0.782609
0.977516
1.002550
1.100898
1.198649
1.169443
1.316667
1.286864
1.379848
1.674891
1.619458
2.734661
14.152527
37.709475
100.418925
181.834698
348.606706
494.273901
679.969788
784.249902
829.148889
784.675479
627.170801
480.428934
298.537612
184.125900
81.759691
41.914582
14.776587
8.902550
8.143783
8.838773
12.286901
17.345548
28.433800
39.880872
58.115721
71.633458
86.894631
95.697641
95.814466
90.282559
76.396465
63.905716
47.253966
35.537481
23.679733
17.820597
13.168454
11.249781
10.599494
10.078549
10.226965
10.438561
10.224581
9.922981
9.728670
10.078549
9.615421
9.808540
9.862781
9.654760
9.658933
##ZVALUE=330
0.664592
0.578761
0.700951
0.640750
0.682473
0.518560
0.721812
0.630617
0.626445
0.611544
0.641942
0.692606
0.629425
0.687838
0.673532
0.757575
0.666976
0.605583
0.668764
0.657439
0.728965
0.986457
0.711679
0.807643
0.812411
0.783801
0.765920
0.912547
0.879765
0.886917
0.832677
0.895858
0.947714
0.928640
0.737906
0.909567
0.937581
1.042485
1.139641
1.016855
1.137853
1.087785
1.240969
1.251698
1.238585
1.382828
1.803637
6.250739
19.835830
66.098571
128.651857
263.674855
399.321914
594.835877
719.330907
811.386704
795.959830
678.313971
550.533533
367.510915
239.718556
113.288760
58.097839
22.890568
11.230707
7.594824
7.801652
8.990765
11.742711
18.127561
25.497675
39.437413
52.195787
69.696903
80.926418
89.744925
90.643764
84.262490
74.667931
57.986975
45.786500
32.154918
24.388433
17.817616
14.024973
11.444688
10.706782
10.227561
9.626746
9.553432
9.683967
9.606481
9.816885
9.363890
9.358525
9.223819
##ZVALUE=335
0.582933
0.631809
0.708699
0.633597
0.687838
0.625849
0.480413
0.655651
0.690818
0.645518
0.707507
0.549555
0.479817
0.708699
0.716448
0.775456
0.582933
0.743866
0.634789
0.730753
0.753999
0.656843
0.794530
0.721812
0.732541
0.787973
0.847578
0.895858
0.721812
0.881553
0.820756
0.842810
0.799894
0.904799
1.048446
0.886917
0.898838
1.039505
0.833869
1.060963
1.030564
0.994802
1.246929
1.043677
1.146793
1.135468
1.257658
1.485944
1.564622
3.202558
10.912418
42.811632
90.143681
201.875567
327.379704
521.970987
660.375953
783.677697
803.729892
731.514692
614.578724
427.749753
294.028521
154.742599
83.948970
30.122995
14.494658
8.313656
7.682443
8.112788
8.911490
11.740923
16.156435
25.872588
35.743713
52.275658
64.646602
77.015758
83.107948
84.210634
79.782605
67.892671
57.508945
44.220686
34.501553
24.105906
18.305779
13.460517
11.622906
10.204911
9.921789
9.169579
9.311438
9.262562
9.118915
9.270906
##ZVALUE=340
0.539422
0.567436
0.762939
0.670552
0.675917
0.552535
0.580549
0.700951
0.745654
0.631809
0.766516
0.585914
0.685453
0.616908
0.668764
0.603795
0.564456
0.657439
0.729561
0.668764
0.798702
0.578761
0.723600
0.733733
0.678897
0.714660
0.719428
0.687838
0.640750
0.661612
0.880957
0.923872
0.732541
0.775456
0.826716
0.726581
0.778437
0.858903
0.814795
0.917912
0.943542
0.951886
0.940561
0.943542
0.997782
1.038909
1.091957
1.187921
1.252890
1.240969
1.358986
1.791716
14.870763
23.517609
112.174749
141.328573
362.033844
422.835946
663.197637
713.713765
770.016909
744.597912
540.159941
502.695441
330.350995
208.518505
61.374903
44.821501
17.049909
9.000897
7.900596
7.708669
8.768439
9.065866
11.766553
15.898943
24.340749
46.769977
48.053861
62.941909
71.777701
79.545975
79.946518
75.494647
67.929626
54.520965
44.531822
31.623840
24.785995
17.648935
13.561845
10.816455
9.950995
9.239912
8.828640
8.791685
##ZVALUE=345
0.529885
0.492930
0.528693
0.664592
0.657439
0.603795
0.656843
0.607967
0.610948
0.809431
0.623465
0.673532
0.558496
0.595450
0.678897
0.619888
0.640750
0.554919
0.570416
0.571609
0.770688
0.698566
0.646710
0.768900
0.786781
0.764728
0.777841
0.868440
0.764728
0.665784
0.537634
0.679493
0.723600
0.713468
0.580549
0.853539
0.763535
0.862479
0.952482
0.764728
0.801682
0.773668
1.097918
1.055598
1.025796
0.925660
0.967979
1.106858
0.906587
1.248717
1.053810
1.159906
1.133680
1.415610
3.226995
11.037588
46.271682
94.839931
201.764703
316.755772
500.543714
628.710985
741.886497
763.723850
686.524510
578.582883
398.164988
263.719559
124.791861
63.030720
22.335649
11.613965
8.026958
7.486939
7.757545
7.524490
8.548498
10.373592
15.272498
21.718740
33.611655
42.830706
55.755973
64.689517
72.022676
73.859692
70.441961
64.123869
53.031445
43.257475
31.884909
24.366975
16.768575
13.388991
10.671616
9.378791
##ZVALUE=350
0.755787
0.564456
0.502467
0.545979
0.661612
0.663996
0.619888
0.516772
0.572801
0.398755
0.657439
0.602603
0.869632
0.557899
0.591874
0.550747
0.638962
0.603795
0.706911
0.614524
0.587702
0.609756
0.748634
0.727773
0.675917
0.761747
0.713468
0.645518
0.626445
0.688434
0.748634
0.701547
0.789762
0.804663
0.697970
0.796914
0.741482
0.797510
0.565648
0.773668
0.766516
0.924468
0.775456
0.908971
1.012683
0.790954
0.914931
0.937581
0.979900
0.968575
1.109838
1.111627
1.114607
1.221895
1.370907
1.522899
2.034903
7.031560
21.910667
69.893003
134.369731
270.561576
398.934484
567.424893
674.890876
739.700794
714.414716
596.073866
462.348461
280.166864
174.134970
83.264709
39.957762
13.317466
8.138418
7.248521
6.918907
7.282495
7.215738
8.524656
10.404587
15.229583
19.956827
28.941631
37.947893
49.984455
58.553815
65.586567
67.422986
64.821839
59.320927
49.441457
40.699840
29.592514
23.011565
16.785860
##ZVALUE=355
0.635982
0.580549
0.687838
0.476837
0.621676
0.518560
0.565648
0.773668
0.730753
0.538826
0.737906
0.526905
0.533462
0.625849
0.602603
0.768900
0.746846
0.769496
0.876784
0.873804
0.758767
0.621676
0.701547
0.657439
0.630617
0.739694
0.679493
0.765920
0.706911
0.610948
0.701547
0.740886
0.937581
0.820756
0.858903
0.818968
0.745654
0.769496
0.618696
0.922680
0.752807
0.781417
0.700951
0.880957
0.894666
0.979900
0.757575
0.898838
1.015663
0.969768
1.065731
1.098514
1.053810
1.110435
1.077652
1.257658
1.236796
1.469851
1.591444
3.607869
12.060404
46.920776
96.049905
203.096867
320.740938
511.392951
633.229017
734.103918
741.441846
644.915700
520.414710
340.485573
212.218761
96.339583
48.862696
18.911958
9.256601
7.106662
6.643534
6.769896
6.582737
6.848574
7.982850
9.272695
12.114644
17.848611
24.115443
34.556985
42.072535
51.945448
58.109760
61.792731
60.344934
53.994656
47.613978
38.166642
##ZVALUE=360
0.588894
0.680685
0.645518
0.620484
0.651479
0.521541
0.555515
0.684857
0.483990
0.547767
0.513792
0.611544
0.617504
0.499487
0.713468
0.585914
0.731945
0.503659
0.712872
0.692606
0.828505
0.731945
0.613928
0.735521
0.698566
0.671744
0.550747
0.755787
0.768900
0.663996
0.598431
0.776649
0.591874
0.763535
0.749826
0.832677
0.769496
0.664592
0.904799
0.867844
0.861883
0.766516
0.958443
0.900626
0.872612
0.799894
0.881553
0.910759
0.852942
0.844598
0.955462
0.987649
1.044869
1.029968
1.088977
1.214743
1.117587
1.070499
1.178980
1.305938
1.428723
1.964569
5.319715
24.278760
58.798790
146.723986
243.861675
404.122472
537.039638
675.326586
716.770887
672.238469
576.452017
399.482846
271.292925
135.130882
72.248578
28.336644
12.457967
7.009506
6.705523
6.250739
6.247759
6.374717
6.497502
6.966591
7.835627
10.672808
14.276505
20.638704
26.824474
37.119985
44.218898
52.160621
55.213571
55.090785
##ZVALUE=365
0.532866
0.655651
0.569820
0.668764
0.596642
0.568628
0.708699
0.589490
0.614524
0.442863
0.356436
0.661612
0.753999
0.650883
0.752807
0.644922
0.439882
0.740886
0.481606
0.616908
0.626445
0.666976
0.768900
0.530481
0.644922
0.739694
0.689626
0.589490
0.916719
0.774860
1.010895
0.677705
0.678897
0.592470
0.553727
0.782609
0.882745
0.731945
0.772476
0.720620
0.664592
0.609756
0.857711
0.640750
0.772476
0.811815
0.842810
0.940561
0.738502
0.761747
0.840425
0.824928
0.967979
0.935793
0.956655
0.964999
0.998974
1.182556
1.064539
1.155734
1.197457
1.399517
1.481771
1.681447
2.810955
13.183951
36.134720
97.199678
178.336501
338.464975
462.654829
608.229637
688.534975
698.105693
623.850822
467.548966
339.365602
191.645622
104.641914
38.835406
16.837716
7.318854
6.380677
6.151795
6.211996
5.945563
5.805492
5.970597
6.290674
7.071495
8.565784
12.384653
17.040968
24.856925
30.893683
39.796829
##ZVALUE=370
0.550747
0.604987
0.460744
0.561476
0.581741
0.521541
0.531673
0.592470
0.678897
0.678897
0.582933
0.668764
0.649691
0.562668
0.644922
0.653863
0.520945
0.747442
0.640750
0.622869
0.652671
0.621676
0.685453
0.572801
0.677705
0.683665
0.564456
0.553727
0.678897
0.751615
0.723600
0.809431
0.799894
0.645518
0.675917
0.613928
0.631809
0.799894
0.830889
0.639558
0.696778
0.700951
0.733733
0.732541
0.829697
0.783801
0.814795
0.830889
0.844598
0.829697
0.793934
0.782609
0.847578
0.797510
0.923872
0.923872
0.935793
0.961423
0.968575
1.076460
1.029968
1.117587
1.243949
1.324415
1.300573
1.636744
1.887679
6.703734
22.440553
73.629618
138.321519
265.707970
394.074917
570.701957
665.606856
709.326863
661.743879
537.227988
407.634974
231.529474
131.923556
52.461624
24.995804
10.159612
6.466508
5.925894
5.592704
5.438924
5.412698
5.464554
5.435944
5.596876
6.321669
8.278489
10.343790
15.050769
##ZVALUE=375
0.668764
0.498891
0.812411
0.713468
0.509620
0.690818
0.620484
0.629425
0.440478
0.604987
0.569820
0.530481
0.707507
0.607967
0.669956
0.629425
0.546575
0.564456
0.580549
0.541806
0.693798
0.731945
0.615716
0.683665
0.772476
0.585914
0.614524
0.669956
0.680685
0.682473
0.808835
0.660419
0.606775
0.796914
0.679493
0.766516
0.774860
0.700951
0.820756
0.640750
0.729561
0.746846
0.666976
0.680685
0.777841
0.788569
0.834465
0.698566
0.767708
0.774860
0.669956
0.925660
0.713468
0.767708
0.790954
0.764728
0.777841
0.944734
0.817776
0.920892
0.842810
0.887513
1.020432
1.025796
1.100898
1.026988
1.273751
1.387596
1.516938
3.717542
11.932850
43.532848
92.147589
206.802487
325.944424
498.809814
604.239702
685.122013
682.871938
584.364533
465.659499
291.279554
188.570619
94.351768
47.576427
15.751719
7.541776
5.351901
5.306602
5.065799
4.961491
4.988909
5.029440
5.043745
5.207658
5.794764
##ZVALUE=380
0.569820
0.606775
0.607967
0.656843
0.639558
0.585914
0.601411
0.551939
0.575781
0.518560
0.527501
0.503659
0.629425
0.650883
0.584722
0.702739
0.476837
0.521541
0.509620
0.667572
0.576973
0.683665
0.738502
0.498891
0.576973
0.603795
0.583529
0.596642
0.529885
0.462532
0.679493
0.770688
0.727773
0.721812
0.721812
0.811815
0.790954
0.702739
0.797510
0.671744
0.687838
0.734925
0.817776
0.730753
0.749826
0.652671
0.687838
0.903606
0.822544
0.825524
0.478625
0.772476
0.590682
0.809431
0.688434
0.874996
0.852942
0.765920
0.665784
0.823736
0.882745
0.918508
1.000762
1.079440
1.008511
1.024604
0.946522
1.081824
1.092553
1.250505
1.345873
2.161860
6.448627
29.128790
68.932772
162.629485
268.060565
426.524878
546.277761
658.453703
671.011806
593.568683
497.893691
352.765918
242.655873
121.918917
63.805580
23.154616
10.338426
5.500913
4.773736
4.709959
4.665852
4.724860
4.527569
4.300475
##ZVALUE=385
0.280738
0.419617
0.413656
0.380874
0.418425
0.426769
0.357628
0.368953
0.409484
0.409484
0.305772
0.348687
0.507832
0.516772
0.424981
0.441670
0.481606
0.496507
0.521541
0.391603
0.532866
0.617504
0.458956
0.303984
0.418425
0.346899
0.392795
0.373721
0.515580
0.486970
0.469685
0.481606
0.567436
0.446439
0.476837
0.552535
0.660419
0.503659
0.573993
0.389814
0.385642
0.576973
0.255704
0.372529
0.603795
0.438690
0.416636
0.485778
0.509620
0.573993
0.468493
0.321865
0.522733
0.540614
0.672936
0.516772
0.441670
0.488758
0.618696
0.459552
0.696778
0.462532
0.553727
0.594854
0.828505
0.735521
0.683665
0.840425
0.865459
0.997782
0.834465
1.082420
1.240969
1.336932
3.555417
12.401938
47.135949
101.766586
221.316814
345.160961
509.113669
607.169867
670.581460
646.800995
552.403927
443.540812
284.848809
182.749629
84.570646
42.014718
15.086532
6.729960
4.308820
4.094839
4.164577
4.289746
##ZVALUE=390
0.512600
0.559688
0.554919
0.454783
0.629425
0.653863
0.535846
0.411868
0.416636
0.359416
0.500679
0.531673
0.627637
0.644922
0.624657
0.580549
0.627637
0.597835
0.615716
0.602603
0.781417
0.426769
0.561476
0.585914
0.617504
0.549555
0.644922
0.644922
0.736713
0.665784
0.529885
0.625849
0.682473
0.618696
0.679493
0.631809
0.686646
0.700951
0.474453
0.640750
0.651479
0.589490
0.631809
0.589490
0.696778
0.663996
0.683665
0.696778
0.727773
0.735521
0.636578
0.655651
0.613928
0.639558
0.662804
0.834465
0.708699
0.764728
0.646710
0.720620
0.517964
0.781417
0.866652
0.870824
0.905991
0.852942
0.882745
0.883937
0.990629
1.022816
1.071692
1.007915
1.288652
1.161695
1.251698
1.291633
1.851916
9.042621
28.602481
88.233948
165.884495
311.812758
425.958633
560.372472
635.707974
659.862757
614.432693
487.757921
377.007723
231.656432
136.935711
57.157874
26.884675
8.832812
4.935861
4.353523
##ZVALUE=395
0.579953
0.469685
0.659823
0.602603
0.560880
0.479817
0.605583
0.651479
0.591874
0.469685
0.575781
0.501871
0.633597
0.597835
0.693798
0.533462
0.673532
0.627637
0.592470
0.643730
0.684857
0.614524
0.526905
0.609756
0.555515
0.528693
0.600815
0.584722
0.750422
0.660419
0.574589
0.503659
0.519753
0.641942
0.754595
0.735521
0.634789
0.822544
0.564456
0.596642
0.724792
0.611544
0.598431
0.689626
0.602603
0.728965
0.697970
0.692606
0.840425
0.782609
0.699759
0.739694
0.752807
0.663996
0.823736
0.809431
0.673532
0.677705
0.637770
0.713468
0.683665
0.733733
0.780821
0.710487
0.855923
0.650883
0.858903
1.044869
0.823736
1.067519
1.123548
1.153946
1.176596
1.161695
1.190901
1.232624
1.164675
1.334548
1.587868
5.097985
18.444657
67.413449
128.872991
245.015621
361.131430
523.671508
621.463656
678.049922
661.729574
560.392737
442.376733
275.889635
173.130631
77.025890
37.243962
12.985468
##ZVALUE=400
0.461936
0.419617
0.524521
0.427961
0.469685
0.402927
0.354648
0.570416
0.473857
0.399947
0.429749
0.415444
0.493526
0.633597
0.573993
0.549555
0.458956
0.530481
0.385642
0.538826
0.332594
0.425577
0.578761
0.496507
0.580549
0.462532
0.451803
0.477433
0.469685
0.352859
0.262856
0.454783
0.455976
0.591874
0.534654
0.621676
0.538826
0.465512
0.489950
0.577569
0.618696
0.689626
0.476837
0.539422
0.633597
0.375509
0.569820
0.506639
0.689626
0.387430
0.564456
0.667572
0.494719
0.567436
0.405908
0.534654
0.542998
0.733733
0.650883
0.553727
0.735521
0.721812
0.605583
0.483990
0.632405
0.608563
0.698566
0.660419
0.958443
0.777841
0.723600
0.799894
0.932813
0.981688
0.918508
0.986457
1.074672
0.948906
1.049638
1.147985
1.259446
2.680421
9.713769
38.573742
87.582469
203.573704
325.985551
502.884984
615.020990
700.717568
701.420903
607.608557
491.263866
323.312879
212.845802
106.084943
##END
