##TITLE=FQP00352
##FORMAT=SPECTACLE-ASCII V-1.2
##DATA TYPE=ULTRAVIOLET SPECTRUM
##SECOND TYPE=ULTRAVIOLET SPECTRUM
##DATE=01/21/18
##TIME=13:01:36
##SPECTROMETER/DATA SYSTEM=SPECTACLE
##XUNITS=NM EM
##YUNITS=ENERGY
##YFACTOR=1
##FIRSTX=220
##LASTX=410
##NPOINTS=96
##3DDATA=Equidistant
##ZUNITS=NM EX
##FIRSTZ=210
##LASTZ=400
##ZPOINTS=39
##XYDATA=(Y..Y)
##ZVALUE=210
1.841784
1.964569
2.012849
2.132654
2.003908
2.025962
2.676845
2.178550
2.493858
2.293587
2.375841
2.553463
2.475977
2.669692
2.783537
3.226995
3.292561
3.684759
3.030896
3.170967
3.966689
3.805757
3.990531
3.965497
4.364848
4.799962
5.048513
5.036592
5.553961
5.573630
6.201863
6.853938
6.964803
7.068515
7.553697
7.673502
7.512569
7.969737
7.007718
7.507801
6.794930
6.988645
7.724762
7.760525
8.371472
7.903576
7.354617
7.449985
7.248521
7.071495
6.608963
8.226633
7.456541
7.746816
7.606745
6.688833
6.517768
7.027984
6.595850
7.479787
7.139444
6.571412
6.981492
7.908940
8.415580
7.873774
7.934570
8.755922
11.557937
11.786819
13.938546
16.260743
20.612478
20.939708
23.467541
25.119781
27.777553
27.953982
25.586486
25.066733
23.996830
22.212863
20.016432
16.644597
14.488697
11.084676
9.584427
7.404685
7.389784
7.804632
7.342696
6.747842
6.902814
7.651448
7.061958
6.613731
##ZVALUE=215
7.199645
6.603599
7.266998
4.976988
4.253983
3.551841
4.411936
3.726482
4.443526
4.177690
4.560947
3.863573
3.346801
3.575683
3.538728
4.042983
2.940893
3.413558
3.818870
3.745556
3.981590
4.095435
4.572868
4.622936
4.700422
5.751848
5.683899
6.595850
7.663965
8.326769
8.112788
10.246634
10.898709
11.170506
9.942651
10.181665
9.265542
9.931922
10.308623
10.639429
9.833574
8.913875
8.781552
8.487701
9.347796
9.013414
9.360909
9.057522
8.957982
8.311868
8.942485
7.467866
7.474422
8.352995
7.827878
8.511543
8.364916
7.208586
8.249879
8.721948
8.560419
8.272529
8.743405
7.995963
8.442998
9.142756
9.347796
9.528995
11.044741
13.147593
15.865564
19.301772
19.878745
23.245811
27.088523
28.345585
30.623674
34.523606
32.823682
33.305883
30.622482
25.503635
23.741722
19.525886
16.676784
14.586449
11.784434
8.744597
8.453727
8.887649
7.658601
7.349849
8.657575
6.729960
8.192658
7.095933
##ZVALUE=220
23.409724
24.584532
25.813580
28.153658
22.936463
19.179583
15.329719
11.771917
8.906722
9.435415
9.976625
9.612441
11.494756
11.038780
9.174943
7.506609
6.367564
4.941821
5.239844
4.392862
5.404949
5.246997
5.714893
6.115437
7.076859
6.473660
8.806586
9.514689
10.477901
12.146831
13.946891
15.783906
15.581846
16.353726
17.821789
17.292500
16.331673
16.364455
16.792417
16.113520
16.160607
16.001463
15.087724
14.100671
13.690591
14.407635
13.792515
12.528896
12.707710
12.242794
12.397766
11.074543
10.790825
11.713505
11.688471
11.155605
11.209846
9.788871
10.559559
10.201931
11.904836
10.747910
12.065768
11.686683
10.825992
10.733604
11.971593
13.435483
14.520884
16.308427
18.551946
21.164417
24.053454
26.502609
27.633905
31.893849
34.163594
33.782721
34.000874
35.872459
34.102798
30.701756
27.867556
22.089481
18.485785
16.204715
13.721585
12.043715
10.156631
10.457635
8.625984
9.460449
8.696914
8.518696
8.218884
7.822514
##ZVALUE=225
48.404932
50.957799
69.094896
93.985796
100.969672
98.924637
91.760755
76.148510
58.626533
42.000413
26.686788
22.811890
23.851991
25.624633
26.305914
24.545789
20.034909
18.339753
14.982820
9.347796
8.962750
6.431937
6.349683
6.496906
6.551743
8.351803
9.264946
10.903478
12.002587
13.348460
15.678406
17.897487
18.807650
19.540787
21.973848
20.440817
20.197630
19.474626
19.286871
20.610690
20.196438
17.850995
18.556714
16.492605
16.262531
15.686750
14.927983
13.921857
12.875795
13.361573
12.206435
12.358427
12.628436
11.696815
11.706948
11.468530
11.822581
11.154413
11.818409
11.994839
10.678768
11.536479
9.821653
10.050535
10.471940
10.355711
10.616779
13.156533
13.750792
14.599562
17.023683
17.961860
20.869970
22.736788
25.504827
26.164651
26.776791
27.016997
28.443933
25.480986
22.327900
22.023916
19.615889
16.286969
14.962554
13.685822
10.753870
9.892583
9.415746
9.075999
9.639859
9.124875
8.309484
8.341670
9.624958
8.455515
##ZVALUE=230
51.912665
57.742000
91.415644
148.320794
193.283558
235.505700
255.125761
251.340866
218.708515
179.589987
124.123693
81.977844
52.203536
45.544505
44.810772
48.463941
51.377416
51.081777
44.815540
35.492778
31.403899
20.674467
14.244914
10.091662
7.725954
9.223819
9.370446
10.986924
12.152791
14.847517
14.764667
18.153787
17.725825
19.670725
19.413829
21.560788
20.568967
20.842552
18.905997
18.245578
18.569827
18.756986
18.593669
17.411709
16.206503
16.536713
16.268492
15.538931
15.265942
14.079809
13.920665
14.719963
14.525652
14.289618
14.462471
12.245774
12.938976
13.033748
12.813807
12.345910
13.089776
12.983680
12.407899
12.310743
13.049841
13.171434
12.862682
13.766885
16.776919
17.609000
18.367767
21.926761
23.566484
25.101900
25.860667
26.562810
27.064681
28.536916
28.222799
27.213693
25.040507
23.689866
20.793676
18.282533
16.024709
15.464425
13.235807
11.486411
12.940764
12.232661
12.581944
11.501908
11.693835
11.188984
12.216568
11.512637
##ZVALUE=235
18.299818
17.747879
46.878457
87.114573
168.181658
239.529610
345.275998
408.121943
442.753434
442.612767
372.415781
304.784775
222.951770
143.742561
96.645951
72.240829
72.045922
76.758862
81.853867
84.132552
80.119967
70.888996
53.553581
39.443970
25.234818
20.199418
13.303757
11.959672
10.531545
11.087656
11.873841
13.343692
12.487769
14.794469
16.006827
15.500784
15.547872
16.007423
15.554428
15.166998
15.867949
15.934706
15.804768
15.642643
16.129613
13.436675
13.813972
14.380813
14.462471
13.352633
13.674498
13.384819
12.318492
13.425946
11.933446
12.471676
12.350678
11.708736
11.720657
12.680888
12.164712
12.382865
12.077689
12.035966
11.377931
12.579560
12.091994
14.304519
14.408827
14.714599
17.132759
17.304420
19.674897
19.615889
20.021796
21.289587
23.437738
21.058917
23.057461
21.437407
20.001531
19.062757
18.170476
15.872717
15.408993
14.433861
13.981462
14.687777
14.394522
14.282465
12.440681
14.001727
12.593865
13.227463
12.599826
12.585521
##ZVALUE=240
1.708865
1.811981
4.727840
16.824603
34.793615
87.605715
145.602822
268.516541
371.870995
460.307002
552.725792
555.799603
483.928919
411.669016
286.188722
201.652646
122.703910
97.099543
87.978840
100.948811
108.831525
115.311742
112.494826
99.236965
84.142685
60.063601
46.095848
30.837655
21.021962
15.483499
11.818409
10.650754
10.543466
11.603832
11.773705
11.563897
11.893511
13.593435
12.909770
13.334751
13.293624
13.272762
14.080405
12.925863
12.739897
14.440417
12.803674
12.831688
12.018681
12.510419
12.441874
12.221932
12.307763
12.910962
12.108684
11.358857
10.537505
11.275411
11.728406
12.166500
11.564493
11.044741
11.435747
11.093616
10.742545
11.953712
12.362599
12.279749
13.323426
13.881922
17.175674
18.400550
19.980669
20.695925
20.828843
22.246838
20.918846
21.179914
20.379424
20.952821
19.985437
19.890666
20.352602
17.987490
17.450452
17.028451
15.595555
15.027523
14.185905
15.498996
15.419722
14.664531
14.922619
13.553500
13.414621
14.111996
##ZVALUE=245
1.860857
1.759529
2.018809
1.725554
3.689528
8.701682
26.364923
62.448978
158.608556
263.181925
447.389483
591.784716
704.841614
768.017769
741.410851
608.593822
482.091904
310.876966
202.106833
119.388700
96.195936
98.913908
114.779472
127.330422
127.600431
119.276643
109.775662
95.180869
71.152449
54.554939
41.209459
27.355552
19.606948
15.293956
14.528632
13.125539
15.142560
14.775991
14.683604
14.101863
16.419888
14.972687
15.708804
14.935732
15.377998
15.296936
13.794899
13.321638
15.173554
14.160872
12.278557
12.735724
12.294650
11.945963
11.269450
11.210442
11.278987
11.625886
11.453629
10.982752
11.602640
11.801720
11.893511
10.430813
11.716485
11.996627
11.660457
12.546778
12.855530
14.071465
14.430881
15.875697
17.837882
18.938780
18.199682
17.594695
17.534494
18.936992
16.624928
17.442703
17.370582
17.862916
15.976429
15.806556
17.441511
15.731454
16.363859
15.002489
15.256405
14.921427
14.167428
14.133453
14.336705
15.385747
13.926625
15.166998
##ZVALUE=250
1.639724
1.511574
1.341701
1.221895
1.477599
1.632571
2.269745
5.132556
22.213459
48.318505
124.834776
232.431889
364.141464
556.633472
695.489645
808.233619
792.557597
705.261827
581.574440
385.261774
254.873633
165.903568
102.312565
90.092421
102.762580
119.348764
135.518909
138.032436
134.796500
122.846961
109.694004
83.053708
65.477490
42.879581
32.479763
22.668839
21.023750
18.878579
18.146634
18.642545
18.378496
18.893480
17.385483
16.203523
16.683936
16.304851
16.584992
15.738606
15.724897
12.879968
13.955832
13.247728
13.773441
12.532473
12.147427
10.771751
10.838509
10.717511
9.560585
9.827614
10.137558
9.426475
9.608865
8.815527
9.536743
10.102987
9.882450
9.587407
11.392832
10.522604
11.968613
13.681650
13.068914
13.835430
14.334917
15.145540
15.202761
14.607906
14.203787
14.633536
14.671683
13.863444
15.396476
14.756918
14.433861
13.433695
14.337897
13.125539
13.591647
13.231635
13.751984
13.665557
13.610721
13.614893
13.988614
13.303757
##ZVALUE=255
1.409650
1.041889
1.363754
1.311898
1.290441
1.414418
1.445413
1.656413
1.553893
3.796816
15.323758
38.262606
75.066686
178.311467
292.447805
488.130450
628.350973
769.285560
831.334591
793.038011
694.935918
561.631918
347.426534
223.100781
122.786760
90.788603
89.272857
106.257796
127.890706
145.398974
153.654814
150.017738
139.426589
115.467906
96.087456
69.613457
53.895712
36.674738
29.551983
24.625659
21.891594
21.874905
20.982623
20.918846
20.807981
18.370748
18.560886
17.361641
16.227961
16.657710
15.654564
14.554858
14.258623
12.355447
12.717843
11.094809
11.429787
10.130405
10.318756
9.538531
9.878874
8.647442
9.117723
8.841753
8.995533
8.896589
8.963943
8.967519
9.457469
10.685921
10.674596
11.389852
11.433959
11.239648
11.886954
12.223721
12.524724
13.826489
11.974573
12.247562
13.365746
12.377501
12.167692
12.709498
12.810826
12.882948
12.235641
12.615919
13.044477
12.823939
12.780428
12.599826
11.947751
13.396740
13.120770
12.681484
##ZVALUE=260
1.374483
1.308918
1.113415
0.986457
1.128912
1.282692
1.280904
1.456738
1.239777
1.283884
1.420975
2.155900
5.675554
23.628473
51.875710
125.925541
211.832523
376.770496
524.569750
715.060830
826.183558
868.281722
803.010464
676.505566
460.239649
317.861438
178.697705
110.045671
85.422993
91.148615
116.809607
138.418674
160.437822
169.517994
162.380934
152.556896
125.583410
105.013847
75.401664
59.113503
41.602850
34.457445
27.464628
25.012493
23.255944
21.489859
20.408630
19.699931
18.164515
18.358827
16.806722
15.436411
13.951659
13.428926
12.609959
11.639595
11.323690
10.677576
10.775924
10.161996
9.749532
9.044409
8.620620
8.828640
8.524656
8.721948
8.701682
8.596778
8.974671
8.853674
9.582639
9.970665
10.424852
10.553598
11.828542
11.355877
12.069941
11.328459
11.782646
10.907650
11.486411
10.842681
11.309981
11.297464
11.825562
11.269450
11.327863
11.514425
11.358857
11.773705
11.748672
11.950731
11.272430
11.641979
11.311769
12.318492
##ZVALUE=265
0.947714
1.019835
0.946522
1.167655
1.153946
0.968575
1.065731
1.063943
1.097918
1.104474
1.173615
1.204610
1.244545
1.607537
2.796650
13.030767
33.113956
87.389946
160.435438
312.298536
476.734638
647.890568
839.262009
911.976695
878.721476
768.996477
575.279593
408.533812
228.827000
140.392780
95.824003
83.424449
100.500584
130.477548
151.987672
169.401765
177.502632
169.896483
155.443549
127.919912
103.721619
77.864528
58.533549
42.693615
32.148957
25.376678
23.068786
20.836592
20.416975
17.312765
17.162561
15.695691
15.137792
14.025569
12.787580
11.869669
11.867881
11.144876
10.653734
9.588599
9.443760
9.320974
9.010434
8.766651
8.300543
8.276701
8.620620
8.553863
8.703470
8.605719
8.822680
9.013414
9.332895
9.527802
9.887815
10.230541
10.261536
9.821653
10.005832
10.380745
10.119677
10.058880
9.947419
9.726882
10.129809
10.057688
10.634661
10.189414
10.836720
10.645986
10.500550
10.649562
10.718703
10.773540
10.785460
10.748506
##ZVALUE=270
0.889897
0.932813
0.805855
1.011491
0.802875
0.826716
0.909567
0.879765
0.987649
1.119971
0.980496
1.171827
1.107454
1.297593
1.268983
1.380444
1.835823
6.461740
18.621683
61.495900
123.052597
216.907859
390.377641
559.509993
771.061778
870.971680
913.195610
860.325694
688.795447
520.800948
364.564657
196.380615
119.834542
78.702569
81.364512
106.891990
127.772689
156.050920
167.699456
176.144838
170.515776
146.465898
128.944516
98.146796
75.930953
49.858689
38.144588
26.737452
21.461844
18.089414
16.350746
14.952421
14.513731
13.496876
12.571812
11.324883
11.473894
11.243820
10.613799
9.753704
10.330677
9.186864
8.906722
9.288788
8.983612
8.399487
8.774996
8.785725
8.438826
8.904934
9.442568
9.578466
9.819865
9.777546
9.896755
10.362864
9.828806
9.922981
10.116696
9.914637
9.627938
9.869933
9.960532
10.040998
9.748936
9.418726
9.967685
10.240674
10.674596
9.799600
10.213852
9.904504
10.423660
10.003448
10.441542
9.741783
##ZVALUE=275
0.855923
1.096725
0.980496
1.046658
0.850558
0.802875
0.918508
0.963807
0.824928
0.875592
1.060963
1.083612
0.947714
1.109838
1.155734
1.236796
1.369715
1.658797
1.607537
3.156662
10.883808
31.551719
94.623566
176.766515
340.509415
477.466583
667.279959
807.504654
912.234783
906.080604
826.987624
617.268682
442.318916
240.641832
142.832994
76.686740
63.712597
75.103641
91.568828
120.430589
139.268637
156.315565
163.457990
157.050490
141.158700
113.001466
93.885660
67.298412
49.044490
31.457543
24.098754
16.161799
14.666915
12.254715
11.118650
10.440946
10.478497
10.376573
10.417700
10.406971
9.675622
9.869933
9.315610
9.379983
9.469986
9.223819
9.581447
9.592772
9.399652
9.723902
9.742975
10.476708
9.999871
10.332465
10.317564
10.369420
10.392666
10.349751
10.054708
9.913445
9.976625
10.074973
9.936690
10.076761
10.050535
9.779930
9.996891
9.975433
10.003448
9.203553
9.349585
9.391904
10.092854
8.787513
9.019971
9.199977
##ZVALUE=280
0.748634
1.001954
0.721812
1.018643
0.810623
0.804663
0.897646
0.824928
0.856519
0.889897
1.116991
0.963807
1.015663
0.987649
1.116991
1.047850
1.368523
1.203418
1.252890
1.232624
1.454949
1.753569
7.925630
24.081469
10.224581
141.497850
239.298940
404.171944
537.163615
686.136484
756.354928
763.058662
696.896911
534.083843
397.008657
231.299996
142.288804
70.748925
47.168732
44.528842
58.876872
83.471537
103.883743
130.386949
143.343806
149.815679
145.101547
125.494599
108.064413
80.154538
61.446428
38.830638
27.530789
17.323494
12.953877
10.530949
9.211898
9.311438
9.379983
9.258986
9.067655
9.448528
9.931922
9.815693
9.920597
9.750724
10.049939
10.101795
10.196567
10.496974
10.572672
10.494590
10.309815
10.536909
10.409951
10.501742
10.773540
10.613799
10.493994
10.473728
10.123849
10.573864
9.706616
10.138750
10.175705
9.947419
9.789467
9.317994
9.503961
9.434819
9.193420
8.976460
9.464622
9.072423
9.104609
9.299517
##ZVALUE=285
0.732541
0.889897
0.705719
0.830889
0.892878
0.848770
0.972748
0.889897
0.966787
0.823736
0.949502
0.942945
0.910759
0.883937
0.849962
0.841618
1.109838
1.085997
1.049638
1.199841
1.150966
1.316667
1.290441
1.367927
10.326505
11.859536
64.768791
93.003511
262.528658
296.385884
442.837477
565.618873
696.200728
733.924508
690.914989
599.530935
307.997465
277.864933
107.879639
81.674457
47.765970
29.888749
36.044717
46.373606
71.831942
93.080997
117.705464
135.763884
142.237544
137.709975
124.779940
104.514956
79.725981
61.593652
39.418936
27.389526
17.226934
12.818575
10.234714
9.850860
10.160804
10.197759
10.315776
10.360479
10.928512
11.092424
10.819435
11.099577
11.711717
11.262894
11.927485
11.688471
11.609793
11.698604
12.210608
11.505485
11.468530
11.178851
11.605620
11.419654
11.266470
11.179447
10.586977
10.844469
10.584593
10.669827
10.386705
10.187626
9.515882
9.591579
9.272695
9.229779
9.051561
9.378791
9.410977
9.042621
##ZVALUE=290
0.743866
0.623465
0.680685
0.615716
0.633597
0.486970
0.754595
0.579953
0.710487
0.582933
0.754595
0.867844
0.866652
0.882745
0.857711
0.963807
0.845790
0.884533
0.997782
0.853539
1.034737
0.774860
1.192689
1.056790
1.253486
1.591444
2.149940
7.702708
35.312772
73.936582
155.013800
249.353647
400.345922
520.293713
650.929809
707.005858
698.099732
629.831553
482.574701
360.512733
214.770436
128.923655
57.821870
32.049417
23.348927
30.113459
47.434568
64.155459
90.624690
110.541582
128.316879
137.119889
132.688880
123.361945
102.108717
82.933903
56.073666
42.488575
27.047992
19.656420
14.068484
12.341738
11.176467
11.093616
11.787415
11.530519
11.765957
12.366772
12.334585
12.485981
12.738705
12.859702
13.190508
12.930632
12.769699
13.215542
12.728572
12.176633
11.954904
11.926889
12.001991
11.393428
11.378527
10.877848
11.122823
10.691881
10.398626
10.528564
10.407567
10.048747
9.602904
9.647608
9.158850
9.222627
9.017587
9.063482
##ZVALUE=295
0.623465
0.572801
0.618696
0.534654
0.605583
0.645518
0.768900
0.636578
0.769496
0.708699
0.741482
0.668764
0.602603
0.730753
0.707507
0.746846
0.886917
0.965595
1.086593
0.957847
0.822544
1.097918
1.059771
0.981688
1.039505
1.402497
1.354814
1.112819
1.634955
3.286600
21.576881
61.909556
130.074620
264.805555
384.537578
540.430546
635.354519
715.738535
722.614527
655.345917
558.621883
406.609774
280.034542
149.004459
84.153414
34.669638
20.634532
19.281507
26.873946
45.140982
62.216520
87.378621
104.803443
123.132467
131.494999
128.705502
118.579865
97.829700
80.233812
58.261752
43.359995
28.591752
21.370649
15.465617
13.787746
12.151599
12.617707
12.601614
12.757778
13.083816
12.989640
13.480783
13.125539
13.240576
13.586879
13.312697
12.461543
12.796521
12.586713
12.139678
11.904836
12.210608
11.592507
11.534691
11.133552
10.627508
11.029840
10.607839
9.975433
9.878874
10.136962
9.736419
9.262562
9.641647
9.111762
9.007454
##ZVALUE=300
0.905991
0.797510
0.750422
0.750422
0.631809
0.827909
0.631809
0.698566
0.802875
0.755787
0.709891
0.826716
0.823736
0.789762
0.790954
0.857711
0.854731
0.805855
0.787973
0.939965
1.030564
0.941753
0.924468
1.171827
0.908971
1.023412
1.265407
1.144409
1.210570
1.414418
1.536608
1.900792
7.775426
29.122829
94.562769
172.522664
314.854980
442.748666
589.369535
664.639473
712.117553
695.831776
599.662662
492.586493
326.938629
214.631557
109.983683
61.235428
26.107430
15.937686
17.821789
25.536418
41.107535
56.550503
80.206990
99.213719
118.176937
126.276612
125.271678
116.293430
98.028779
80.754757
59.382915
44.710636
29.741526
22.497773
16.636848
14.573932
13.343692
13.139844
13.466477
13.126731
13.451576
13.214946
12.740493
12.690425
13.231635
12.939572
12.571812
12.233853
12.531877
11.894703
11.787415
11.575818
11.776686
10.877848
11.022687
10.787845
10.396838
10.264516
9.650588
9.327531
9.328723
9.456873
8.854866
8.623600
##ZVALUE=305
0.684857
0.648499
0.721812
0.571609
0.812411
0.613928
0.611544
0.769496
0.574589
0.730753
0.749826
0.759959
0.758767
0.703931
0.624657
0.828505
0.770688
0.860691
0.819564
0.739694
0.727773
0.779629
0.830889
0.789762
0.906587
1.022816
0.934601
1.038909
0.922680
1.151562
1.122952
0.976920
1.343489
1.505613
2.186894
10.835528
30.019879
86.043477
154.873729
290.547609
407.582521
558.978915
640.904903
675.240755
635.210872
509.257913
399.014950
257.035494
162.770748
75.324774
38.948655
17.042756
12.821555
17.489791
24.469495
40.286779
54.989457
76.779723
94.361901
111.921430
119.905472
118.154883
110.931993
92.208982
78.119636
56.807995
42.179823
27.447939
21.249652
15.634894
13.884902
12.679696
12.764931
12.424588
12.049675
12.096763
11.656880
11.494756
11.495948
11.331439
11.713505
11.511445
11.699796
11.163950
11.262894
10.932684
10.702610
10.058880
10.221601
10.537505
10.017753
9.124875
9.316802
8.985996
9.041429
8.752942
##ZVALUE=310
0.576973
0.710487
0.507832
0.727773
0.871420
0.516772
0.467896
0.549555
0.683665
0.758767
0.601411
0.705719
0.564456
0.812411
0.761747
0.805855
0.774860
0.849962
0.630617
0.752807
0.836849
0.598431
0.813603
0.809431
0.761747
0.834465
0.895858
0.930429
0.961423
0.928640
1.077652
0.979900
1.155734
1.148582
1.057982
1.330972
1.520514
4.609823
13.789535
48.495531
98.180771
206.253529
327.387452
503.339767
619.084835
712.149739
711.140037
631.257892
519.442558
349.682570
231.284499
115.966797
62.675476
24.910569
13.964772
11.951923
14.936924
23.675561
33.495426
50.793886
66.462755
88.330507
101.805925
111.657977
113.403797
104.194880
92.890859
74.239969
57.364702
39.226413
29.105544
19.664764
15.682578
12.339950
11.498928
11.080503
10.794997
10.860562
10.486841
10.778904
10.329485
10.600686
10.221601
10.508895
9.807944
10.198951
9.903908
9.801984
9.184480
9.526610
9.154677
8.737445
8.964539
8.658767
8.653998
8.757710
##ZVALUE=315
0.636578
0.653863
0.803471
0.795722
0.775456
0.868440
0.655651
0.793934
0.770688
0.707507
0.757575
0.707507
0.719428
0.689626
0.785589
0.773668
0.630617
0.848770
0.618696
0.823736
0.822544
0.715852
0.841618
0.859499
0.818968
0.822544
0.853539
0.912547
0.929832
0.965595
0.924468
0.954866
0.891685
1.036525
1.060963
1.148582
1.313686
1.041889
1.377463
2.463460
7.339716
29.400587
66.720843
157.727003
258.330703
420.499444
535.338521
647.037625
678.497553
629.675984
540.108681
388.609767
275.153518
150.430799
83.652735
32.996535
16.955733
10.594726
10.910630
14.401674
20.209551
32.468438
44.720769
64.581633
80.382824
97.288489
104.638934
106.001496
100.557804
85.140467
71.174502
52.984953
40.034652
25.462508
18.965602
13.512969
11.429787
10.282993
10.056496
10.135770
9.616613
9.639859
9.568930
9.523630
9.551644
9.765625
9.331703
9.198785
9.148717
9.351969
8.659959
8.866787
8.812547
8.349419
8.519888
8.079410
##ZVALUE=320
0.534654
0.642538
0.652671
0.524521
0.666976
0.528693
0.507832
0.690818
0.581741
0.714660
0.654459
0.638962
0.660419
0.568628
0.671744
0.705719
0.738502
0.742674
0.672936
0.719428
0.762939
0.713468
0.728965
0.823736
0.828505
0.904799
0.873804
0.906587
0.915527
0.996590
0.769496
0.770688
1.101494
0.985861
1.012683
0.911951
1.108646
1.044869
1.044869
1.299977
1.272559
1.596808
3.468990
16.960502
42.375922
110.156536
187.057853
315.420628
429.679751
561.404824
626.879930
632.900000
581.384897
450.057983
332.279801
188.861489
109.138489
48.526525
23.981929
10.745525
8.863807
9.949803
12.188554
18.272996
26.320815
42.650700
56.153536
75.171590
87.813735
98.614693
100.083947
93.701482
83.195567
64.357519
50.716996
34.484863
25.084615
17.515421
12.885928
10.339618
9.459853
8.875728
8.661747
8.810759
8.657575
8.559823
8.722544
8.132458
8.462667
8.477569
8.164644
8.377433
8.117557
8.212924
8.072853
8.006692
##ZVALUE=325
0.613928
0.565648
0.532866
0.607967
0.543594
0.684857
0.516772
0.608563
0.632405
0.546575
0.432730
0.466704
0.597835
0.591874
0.643730
0.688434
0.682473
0.612736
0.699759
0.422597
0.617504
0.721812
0.711679
0.764728
0.737906
0.741482
0.741482
0.688434
0.787973
0.662804
0.749826
0.789762
0.684857
0.721812
0.697970
0.894666
0.993609
0.926852
1.196861
0.982881
1.119971
1.160502
1.009703
1.281500
2.194643
10.326505
27.670860
74.730515
136.376619
258.234739
373.407602
525.053740
617.183447
673.801899
648.366809
531.262755
409.519672
253.437757
153.052807
67.166686
33.249855
12.806654
8.196831
7.603765
8.584857
11.623502
16.335845
26.190877
37.512779
56.398511
68.787932
83.003640
91.067553
93.371868
87.618828
73.358417
61.241984
45.321584
33.829808
21.546483
15.786886
11.372566
9.872913
8.838773
8.390546
8.270741
8.427501
8.038878
8.013844
8.090734
8.122921
8.036494
7.842779
7.929802
7.686615
7.729530
##ZVALUE=330
0.500679
0.563860
0.704527
0.703931
0.678897
0.683665
0.685453
0.495911
0.810623
0.538826
0.625849
0.573993
0.599623
0.611544
0.563860
0.691414
0.579953
0.727773
0.571609
0.737906
0.735521
0.677705
0.712872
0.567436
0.797510
0.689626
0.675917
0.753999
0.680685
0.829697
0.708699
0.812411
0.823736
0.985861
0.814795
0.758767
0.902414
0.843406
0.613928
0.791550
0.883937
1.048446
1.007915
0.883937
1.246929
1.193881
1.552701
4.532933
14.545918
49.775839
96.383691
198.317766
297.216773
443.598628
541.170835
612.917542
610.262752
529.901981
429.978967
284.266472
185.572505
88.953972
46.594739
18.360615
9.568930
6.973743
7.171631
8.314848
10.626912
16.904473
24.178624
36.584735
49.319863
67.654848
77.236891
86.367726
86.802840
81.114769
71.642995
56.542754
43.802857
30.494928
22.746921
15.799999
12.023449
9.466410
8.501410
8.114576
7.932782
7.572770
7.548928
7.365942
7.517934
7.655621
7.225871
7.498860
##ZVALUE=335
0.543594
0.470877
0.519753
0.437498
0.620484
0.514984
0.709891
0.487566
0.686646
0.529885
0.617504
0.704527
0.549555
0.601411
0.623465
0.567436
0.523925
0.603795
0.676513
0.592470
0.611544
0.621676
0.613928
0.697970
0.618696
0.598431
0.637770
0.647902
0.677705
0.681877
0.676513
0.656843
0.767708
0.856519
0.845790
0.805855
0.772476
0.827909
0.720620
0.810623
0.906587
0.781417
0.858903
1.053810
0.739694
0.897646
1.145601
1.213551
1.185536
2.183914
7.486939
29.187799
63.673854
144.595504
232.842565
375.506878
473.621488
563.641787
582.238436
532.241464
450.638533
317.253470
218.208432
116.961598
63.639879
23.853779
11.989474
7.105470
6.794930
7.299781
7.918477
10.381937
14.730692
24.321675
33.997893
49.850941
62.571764
74.160695
80.570579
81.144571
76.724887
65.024495
54.652691
42.186975
32.368898
21.619797
16.401410
11.780858
9.444952
8.400679
7.882714
7.391572
7.466674
7.147789
7.164478
7.209778
##ZVALUE=340
0.511408
0.621676
0.471473
0.486970
0.467896
0.533462
0.490546
0.418425
0.347495
0.509620
0.569820
0.470877
0.764728
0.634789
0.475645
0.555515
0.536442
0.727773
0.517964
0.658631
0.567436
0.648499
0.653863
0.638962
0.545979
0.684857
0.635982
0.569820
0.515580
0.627637
0.585914
0.891685
0.628829
0.780821
0.714660
0.772476
0.823736
0.808835
0.744462
0.921488
0.862479
0.790954
0.823736
0.857711
0.815988
0.756979
0.928640
0.850558
1.062751
0.981688
1.209974
1.575947
3.874898
17.823577
43.943524
110.455751
187.470913
315.665007
414.566994
527.661443
568.666458
547.227859
483.716726
361.431837
258.329511
136.449933
77.363849
33.279657
15.402436
7.771850
6.711483
6.767511
6.626844
8.323789
10.172725
15.645623
22.308826
33.731461
44.499636
59.714913
69.006681
75.777769
76.051950
71.335435
64.053535
51.446557
41.572452
29.536486
22.918582
15.771985
12.063980
9.033680
8.095503
7.101893
7.158518
7.032752
##ZVALUE=345
0.633597
0.536442
0.613928
0.581741
0.393987
0.631809
0.499487
0.410676
0.520945
0.587702
0.599623
0.656843
0.590682
0.680685
0.543594
0.508428
0.597835
0.563860
0.785589
0.606775
0.501871
0.744462
0.485778
0.794530
0.760555
0.590682
0.733733
0.649691
0.668764
0.720620
0.689626
0.755787
0.689626
0.565648
0.602603
0.674725
0.750422
0.709891
0.736713
0.640750
0.675917
0.798702
0.844598
0.932813
0.742674
0.731945
0.879765
0.935793
1.084805
0.985861
0.997782
1.046658
1.255870
1.298785
2.041459
9.484887
27.338862
72.386861
131.691694
243.430734
341.872573
466.070771
528.405905
549.084544
509.205461
397.460461
300.605893
180.272460
103.918910
42.928457
21.202564
8.855462
7.085800
6.902814
6.501675
6.590486
7.284880
9.547472
13.416409
21.638870
29.713511
43.540597
52.564740
62.363744
68.082809
70.489645
68.323612
59.937835
51.810741
40.841699
30.807853
20.859838
15.780926
11.120439
8.881688
7.580519
##ZVALUE=350
0.562668
0.548959
0.659823
0.633597
0.509620
0.577569
0.676513
0.631809
0.550747
0.623465
0.631809
0.606775
0.582933
0.661612
0.615716
0.684857
0.692606
0.694990
0.610948
0.517964
0.663996
0.604987
0.544786
0.787973
0.579953
0.834465
0.486970
0.720620
0.630617
0.732541
0.784993
0.646710
0.766516
0.630617
0.758767
0.705719
0.640750
0.715852
0.674725
0.879765
0.689626
0.709891
0.638962
0.882745
0.800490
0.689626
0.926852
1.089573
0.807643
0.944734
0.958443
0.944734
0.918508
1.068711
1.058578
1.168847
1.465678
4.876852
15.132427
48.116446
92.994571
189.161897
280.014873
403.025746
484.067798
535.486937
516.888499
434.578657
337.998867
206.088424
128.903985
61.760545
30.071735
10.934472
7.164478
6.210804
6.137490
5.935431
6.313920
7.118583
9.000897
13.760924
18.672943
27.429461
35.335422
47.047734
55.124760
62.342882
64.760447
62.261820
57.166815
47.030449
38.828850
29.013753
21.974444
15.304685
##ZVALUE=355
0.582933
0.700951
0.593662
0.701547
0.608563
0.436902
0.544786
0.525713
0.594854
0.606775
0.626445
0.501871
0.512600
0.551939
0.643730
0.691414
0.540614
0.633597
0.554919
0.604987
0.630617
0.561476
0.656843
0.657439
0.726581
0.660419
0.574589
0.751615
0.598431
0.568628
0.684857
0.603795
0.746846
0.748634
0.854731
0.688434
0.664592
0.692606
0.750422
0.724792
0.816584
0.802875
0.775456
0.812411
0.746846
0.852942
0.705719
0.801682
0.860691
0.820756
0.818968
0.840425
0.847578
0.776649
0.987649
1.006722
0.949502
0.926852
1.222491
2.749562
8.322001
31.095743
64.735413
138.831735
222.035646
348.933935
434.051752
501.191616
508.375764
444.180965
366.099477
247.869492
159.766674
71.904659
36.655664
13.598800
7.542968
6.018877
5.884767
5.513430
5.616546
6.008744
6.588697
8.234978
10.971427
16.158819
22.452474
31.999946
40.452480
49.302578
55.733919
59.004426
58.330894
51.904917
45.542717
35.856962
##ZVALUE=360
0.455976
0.563860
0.536442
0.442863
0.705719
0.487566
0.645518
0.568628
0.761747
0.621676
0.548959
0.476837
0.616908
0.651479
0.469685
0.471473
0.350475
0.525713
0.590682
0.521541
0.549555
0.634789
0.600815
0.659823
0.451803
0.558496
0.500679
0.537634
0.625849
0.625849
0.667572
0.548959
0.669956
0.678897
0.635982
0.664592
0.676513
0.738502
0.727773
0.669956
0.623465
0.744462
0.584722
0.663996
0.674725
0.657439
0.741482
0.767708
0.741482
0.764728
0.649691
0.852942
0.763535
0.899434
0.865459
0.898838
0.952482
1.002550
0.961423
1.055598
1.201630
1.617670
3.783703
15.801787
38.941503
97.655654
165.286660
276.846886
371.145010
467.322469
497.507453
468.596816
398.643017
276.965499
188.905597
101.027489
54.126978
20.163655
9.587407
5.793571
5.520582
5.615950
5.378723
5.388856
5.185604
5.878806
7.059574
9.333491
12.524724
18.874407
25.732517
35.073757
42.384863
49.994588
52.106977
52.598715
##ZVALUE=365
0.476837
0.607967
0.476837
0.565648
0.471473
0.698566
0.618696
0.784993
0.598431
0.548959
0.641942
0.629425
0.622869
0.512600
0.501871
0.517964
0.684857
0.478625
0.628829
0.497699
0.529885
0.478625
0.589490
0.530481
0.607967
0.581741
0.526905
0.620484
0.661612
0.631809
0.825524
0.502467
0.735521
0.618696
0.652671
0.516772
0.539422
0.613928
0.761747
0.721812
0.633597
0.650883
0.620484
0.778437
0.761747
0.678897
0.601411
0.593662
0.584722
0.570416
0.713468
0.757575
0.704527
0.738502
0.545979
0.771880
0.746846
0.797510
0.802875
0.868440
1.024604
1.010895
1.237988
1.142621
1.969934
8.913875
24.254918
64.451694
121.130943
227.718949
314.345956
413.158536
466.836691
473.870635
425.507426
318.840742
229.866505
129.468441
71.584582
27.983785
12.781620
6.160736
5.419850
5.098581
5.076528
4.917979
4.830956
4.662871
5.157590
5.770922
7.527471
11.508465
15.373826
22.051930
28.860569
36.900640
##ZVALUE=370
0.507832
0.558496
0.515580
0.531673
0.561476
0.642538
0.497699
0.368953
0.493526
0.380874
0.616908
0.601411
0.604987
0.511408
0.520945
0.483990
0.602603
0.491738
0.594854
0.618696
0.523925
0.531673
0.485778
0.601411
0.343919
0.494719
0.410676
0.568628
0.603795
0.734925
0.569820
0.492930
0.649691
0.595450
0.661612
0.570416
0.457764
0.703931
0.743866
0.610948
0.762939
0.661612
0.602603
0.671744
0.649691
0.614524
0.737906
0.609756
0.711679
0.734925
0.620484
0.735521
0.821948
0.704527
0.794530
0.646710
0.749826
0.532866
0.778437
0.823736
0.798702
0.855923
0.798702
0.984669
0.974536
1.146793
1.434684
4.816651
14.803410
49.144626
93.671679
184.044838
275.944471
395.583510
468.855500
499.733686
466.328859
374.680758
279.374719
159.130692
90.683699
37.242770
18.607974
7.927418
5.444884
4.833937
4.534721
4.560947
4.632473
4.539490
4.559755
4.766583
5.371571
6.955862
9.349585
13.929605
##ZVALUE=375
0.439882
0.552535
0.692606
0.514984
0.455976
0.542998
0.526905
0.552535
0.447631
0.520945
0.562668
0.541806
0.479817
0.576973
0.513792
0.469685
0.564456
0.539422
0.451803
0.417829
0.564456
0.569820
0.576973
0.586510
0.645518
0.603795
0.687838
0.694990
0.474453
0.620484
0.544786
0.492930
0.504851
0.571609
0.591874
0.555515
0.694990
0.662804
0.683665
0.562668
0.521541
0.516772
0.504851
0.550747
0.489950
0.871420
0.675917
0.702739
0.611544
0.819564
0.535846
0.595450
0.711679
0.768900
0.716448
0.792742
0.865459
0.708699
0.610948
0.721812
0.878572
0.803471
0.742674
0.701547
0.868440
1.023412
0.896454
1.204610
1.108646
2.486706
8.118749
27.746558
60.270429
136.660933
217.288733
336.713791
414.407849
472.411513
466.806889
392.758846
308.719873
194.084644
124.413967
63.215494
32.403469
11.913776
5.989671
4.502535
4.435778
4.181862
4.091859
3.956556
4.013777
4.175901
4.301667
4.743934
##ZVALUE=380
0.490546
0.532866
0.486970
0.394583
0.358820
0.484586
0.542998
0.469685
0.525713
0.477433
0.559688
0.466704
0.483990
0.473857
0.554919
0.453591
0.569820
0.530481
0.553727
0.506639
0.539422
0.626445
0.598431
0.562668
0.539422
0.529885
0.789762
0.465512
0.633597
0.659823
0.578761
0.447631
0.596642
0.624657
0.538826
0.718832
0.533462
0.625849
0.595450
0.567436
0.546575
0.609756
0.625849
0.559688
0.470877
0.703931
0.490546
0.468493
0.741482
0.592470
0.659823
0.684857
0.626445
0.653863
0.586510
0.612736
0.670552
0.758767
0.412464
0.652671
0.608563
0.688434
0.788569
0.809431
0.771880
0.825524
0.702739
0.778437
0.895858
1.037717
1.121759
1.464486
5.424619
16.481876
49.021840
93.358755
186.583996
272.393823
378.506780
431.128740
452.715755
420.830846
337.702632
259.828568
155.365467
94.506741
40.648580
20.114779
7.277727
4.552603
4.123449
3.840923
3.766418
3.773570
3.931522
3.899932
##ZVALUE=385
0.500679
0.598431
0.455976
0.549555
0.614524
0.558496
0.473857
0.459552
0.513792
0.481606
0.478625
0.469685
0.448823
0.598431
0.549555
0.529885
0.403523
0.667572
0.569820
0.525713
0.535846
0.491738
0.507832
0.433922
0.531673
0.635982
0.488758
0.534654
0.583529
0.688434
0.689626
0.729561
0.699759
0.549555
0.557899
0.587702
0.534654
0.668764
0.629425
0.657439
0.417829
0.590682
0.555515
0.699759
0.562668
0.530481
0.487566
0.627637
0.561476
0.610948
0.568628
0.756979
0.665784
0.520945
0.723600
0.604987
0.639558
0.672936
0.683665
0.754595
0.590682
0.733733
0.785589
0.748634
0.795722
0.646710
0.744462
0.742674
0.798702
0.677705
0.920892
1.010895
1.089573
1.269579
2.347827
10.969639
27.928948
71.391463
128.329992
231.003761
314.334631
400.557518
431.530476
422.096848
380.302668
288.774967
209.562778
118.455887
69.264770
29.777884
13.072491
5.112886
3.951788
3.538728
3.743768
3.637671
##ZVALUE=390
0.478625
0.546575
0.610948
0.550747
0.618696
0.437498
0.363588
0.455976
0.458956
0.517964
0.490546
0.442863
0.510812
0.631809
0.502467
0.492930
0.681877
0.540614
0.563860
0.475645
0.570416
0.616908
0.501871
0.585914
0.556707
0.678897
0.614524
0.614524
0.551939
0.626445
0.450611
0.529885
0.566840
0.509620
0.601411
0.603795
0.553727
0.427961
0.528693
0.520945
0.532866
0.603795
0.732541
0.640750
0.645518
0.529885
0.701547
0.518560
0.467896
0.527501
0.570416
0.535846
0.549555
0.540614
0.689626
0.551939
0.637770
0.644922
0.596642
0.648499
0.485778
0.534654
0.598431
0.691414
0.727773
0.663996
0.824928
0.859499
0.640750
0.904799
0.811815
0.948906
0.873804
0.929832
0.861883
0.765920
1.463890
4.892945
20.805597
47.196746
112.226605
177.664757
274.422765
346.451998
417.320728
435.860753
401.643515
344.054699
242.816806
166.899562
88.246465
47.190785
17.929673
8.052588
4.042983
3.692508
##ZVALUE=395
0.395775
0.438690
0.489950
0.573993
0.416636
0.420809
0.489950
0.504851
0.588894
0.395775
0.458956
0.550747
0.591874
0.452995
0.531673
0.506639
0.471473
0.566840
0.577569
0.541806
0.622869
0.584722
0.450611
0.562668
0.635982
0.470877
0.579953
0.559688
0.589490
0.488758
0.560880
0.648499
0.562668
0.536442
0.597835
0.598431
0.648499
0.572801
0.501871
0.686646
0.633597
0.546575
0.594854
0.613928
0.620484
0.675917
0.512600
0.600815
0.679493
0.489950
0.666976
0.427961
0.561476
0.608563
0.593662
0.625849
0.679493
0.446439
0.592470
0.558496
0.694990
0.726581
0.719428
0.694990
0.708699
0.788569
0.723600
0.666976
0.730753
0.885725
0.861883
0.713468
0.838637
0.889897
0.927448
0.760555
0.988841
1.005530
1.289845
3.405809
11.601448
38.820505
73.919892
145.019889
220.190883
326.583982
394.182801
440.854430
432.129502
377.534628
299.515724
191.697478
122.851729
55.603981
27.392507
10.086894
##ZVALUE=400
0.532866
0.415444
0.406504
0.359416
0.551939
0.491738
0.520945
0.575781
0.356436
0.497699
0.430942
0.496507
0.521541
0.546575
0.541806
0.296831
0.265837
0.489950
0.518560
0.433922
0.409484
0.450611
0.615716
0.433922
0.547767
0.587702
0.604987
0.465512
0.564456
0.592470
0.459552
0.404716
0.495911
0.449419
0.489950
0.540614
0.672936
0.632405
0.481606
0.591874
0.638962
0.677705
0.693798
0.658631
0.649691
0.698566
0.572801
0.580549
0.639558
0.605583
0.582933
0.729561
0.491738
0.611544
0.703931
0.408888
0.646710
0.635982
0.474453
0.643730
0.585914
0.375509
0.629425
0.521541
0.678897
0.641942
0.665784
0.653863
0.743866
0.817776
0.658631
0.873804
0.918508
0.849962
0.756979
0.806451
0.820756
0.705719
0.816584
0.889897
0.841618
1.988411
5.909801
21.816492
46.999454
108.213425
176.957846
279.837847
352.695584
416.721702
429.692864
383.842587
319.131017
224.045515
149.216652
77.989697
##END
