##TITLE=KDZ0101
##FORMAT=SPECTACLE-ASCII V-1.2
##DATA TYPE=ULTRAVIOLET SPECTRUM
##SECOND TYPE=ULTRAVIOLET SPECTRUM
##DATE=01/21/18
##TIME=13:53:39
##SPECTROMETER/DATA SYSTEM=SPECTACLE
##XUNITS=NM EM
##YUNITS=ENERGY
##YFACTOR=1
##FIRSTX=220
##LASTX=410
##NPOINTS=96
##3DDATA=Equidistant
##ZUNITS=NM EX
##FIRSTZ=210
##LASTZ=400
##ZPOINTS=39
##XYDATA=(Y..Y)
##ZVALUE=210
2.543926
2.547503
2.140999
2.460480
2.690554
2.949834
2.790689
2.252460
2.416968
2.817512
2.400875
2.333522
2.445579
2.807975
2.796650
2.886653
2.669692
2.772808
2.733469
3.009439
3.135800
2.901554
3.215671
3.653765
3.311634
3.721714
3.545880
3.846884
3.437996
4.043579
4.520416
4.154444
3.763437
4.465580
4.227757
5.067587
4.108548
4.802942
5.455613
4.199743
4.812479
4.634857
5.378723
4.752874
4.971623
5.729795
4.916787
5.243421
5.464554
5.407929
5.305409
5.287528
5.564690
6.065965
5.673766
5.070567
5.297661
6.476641
5.990863
5.587935
5.417466
5.673766
6.091595
6.383657
6.014705
6.790757
7.284880
7.084608
8.292794
9.201765
11.559725
12.010932
14.433861
17.190576
17.144680
19.654632
18.780828
19.148588
17.423630
17.168522
16.335845
16.212463
12.100935
10.426641
10.090470
8.394718
7.359982
6.846786
6.953478
6.157756
7.022619
6.422997
6.260872
6.329417
6.610751
6.669760
##ZVALUE=215
6.435513
6.375909
6.583929
5.217791
5.443692
4.689693
4.754663
4.338622
4.778504
5.418658
4.819632
5.107522
4.313588
3.340840
2.690554
2.679825
2.547503
2.394915
3.030896
3.077984
3.452897
3.399849
2.946854
2.897978
4.274845
3.233552
3.743768
3.717542
4.009604
3.984571
3.797412
4.571676
4.808903
4.228950
4.318953
4.598498
5.242825
4.998446
5.205870
6.065965
5.347729
4.840493
5.812645
6.081462
5.321503
5.398989
5.992651
5.039573
5.119443
6.300807
5.563498
5.802512
6.193519
6.074905
6.442666
6.478429
6.312728
6.063581
5.906820
5.861521
6.042719
6.286502
5.266666
6.118417
5.370975
7.575750
6.916523
7.738471
8.961558
10.259748
11.977553
13.619661
14.546514
15.601516
16.993880
19.342899
19.514561
15.754700
17.497540
16.708970
16.084909
14.118552
12.063980
11.051893
10.482669
8.384585
7.372499
6.735921
6.575584
5.974770
5.948544
5.218983
6.574988
5.730987
6.372929
5.696416
##ZVALUE=220
18.421412
19.855499
20.837784
20.858645
20.461679
17.480850
16.046762
12.441874
10.976791
12.232661
11.024475
12.056828
12.189746
10.984540
9.625554
7.173419
5.408525
5.071759
3.594756
4.214644
3.191829
3.408790
3.948808
4.623532
3.566742
3.882647
3.883839
3.849864
4.546642
5.009770
4.587770
4.840493
5.018711
5.122423
4.663467
5.352497
5.140901
5.182624
5.000830
5.738735
5.707741
5.358458
6.069541
4.898906
6.355643
5.307794
6.271601
4.799962
5.996823
6.078482
6.613731
6.698966
6.106496
5.852580
5.550981
6.810427
6.546974
6.328821
6.352663
6.499887
6.219745
6.894469
6.990433
7.003546
6.830692
6.278753
6.726980
6.932616
8.353591
9.903908
11.228919
11.791587
12.461543
14.153719
16.562939
17.077923
16.733408
17.290711
16.809702
15.723705
15.238523
11.851788
11.735559
11.546612
10.379553
7.966757
8.198619
6.910563
7.371902
6.510615
5.985498
5.980730
5.884767
5.806684
6.625652
6.370544
##ZVALUE=225
30.385852
32.979846
44.676661
59.356689
63.821673
68.314672
60.965419
49.948692
39.160848
32.579899
24.868846
22.928715
23.750663
25.184751
26.902556
24.729967
21.145940
17.211437
14.495850
8.763671
6.839633
5.367994
4.276633
4.259944
4.007816
3.887415
3.678799
4.767776
4.451871
4.904866
4.814863
5.418658
5.442500
5.131960
5.592704
5.868673
6.231666
5.753636
5.870461
6.288886
5.763769
6.479621
5.818605
5.805492
6.790757
6.924868
5.577803
6.219745
6.604791
7.324815
6.357431
6.100535
7.006526
6.931424
6.985664
7.014871
7.432699
7.734895
6.974936
7.930994
7.681847
8.142591
7.283688
7.470846
7.311702
7.871985
7.925630
8.118749
8.713603
9.983778
10.248423
12.757778
15.119910
16.772747
15.561581
17.346740
15.191436
15.524626
14.847517
15.048981
12.374520
11.428595
11.430979
10.471940
9.025931
8.700490
7.760525
7.710457
8.050799
7.098913
7.367730
7.509589
7.678866
7.219911
6.717443
7.166862
##ZVALUE=230
26.584864
28.246641
55.180788
81.559420
111.379623
139.162540
162.410736
167.586803
150.515437
127.443671
91.623664
67.351460
51.940680
45.642853
46.750903
50.496459
51.637888
50.941706
48.743486
35.864711
26.991963
21.945834
12.426972
7.803440
6.180406
5.186796
5.103946
6.022453
4.822612
6.183982
5.999804
5.341768
5.424619
6.008744
5.659461
6.279945
6.220937
5.368590
6.748438
7.072687
6.567836
6.484985
7.277727
6.846786
7.138848
6.952882
6.946921
7.445812
7.801652
7.407665
7.265806
7.446408
7.690787
7.649660
7.574558
8.115768
7.739663
8.097887
7.321835
8.008480
8.012652
7.947683
8.656979
8.571744
7.940531
8.601546
9.205937
10.507703
9.842515
11.760592
12.557507
14.174581
15.299916
17.547607
17.343760
17.684698
17.694831
15.722513
16.433001
14.820695
13.851523
13.642907
12.920499
11.044741
10.161996
10.240674
10.115504
9.862781
9.915829
8.674860
8.220673
9.013414
9.089708
8.982420
8.472800
7.906556
##ZVALUE=235
9.519458
11.148453
22.095442
57.104826
91.641545
156.147480
212.991834
275.817513
317.170620
327.620506
292.010903
249.570608
174.922943
130.549669
94.893575
76.198578
74.830651
78.843832
86.887479
85.264444
80.848932
67.487955
51.828623
36.192536
24.073720
13.886690
10.381937
7.201433
5.869865
6.711483
6.626844
6.530881
6.943941
7.074475
6.614923
6.791949
7.323623
7.318854
7.259846
7.361770
7.016659
7.432699
7.549524
7.356405
7.681847
7.039905
7.073879
7.443428
7.516742
8.050799
7.787943
6.287694
8.239746
7.769465
7.712841
8.799434
8.409619
8.313656
8.741617
8.191466
7.978678
8.626580
10.483861
10.429621
9.210706
10.595918
10.202527
11.178851
10.896921
13.990998
13.924837
16.108751
18.087626
17.636418
19.189715
19.978881
19.153953
19.057989
18.515587
16.893744
16.126633
15.360713
15.819669
14.412999
12.692809
12.194514
12.504458
11.613965
11.819601
11.826754
11.120439
11.665821
11.827946
11.093616
10.964870
12.531877
##ZVALUE=240
1.926422
1.798868
4.753470
12.243986
36.033988
66.252947
144.049525
219.121575
341.223478
432.753563
510.597825
508.024693
480.950475
389.021635
311.954618
206.162930
149.723887
109.251738
97.209811
103.964806
115.394592
120.313764
114.999413
103.739500
82.711577
65.487623
45.158863
31.819940
19.621849
12.781620
9.934902
7.964969
8.168817
7.864833
7.074475
7.420778
7.771850
7.665753
7.033944
7.319450
7.005930
6.838441
7.340908
7.704496
6.602407
7.738471
5.778670
7.575750
7.524490
7.249713
7.137656
8.151531
7.208586
7.489920
7.917881
7.895827
7.792711
7.538795
8.975863
7.879734
8.331537
9.151697
9.155869
9.013414
9.596944
10.324717
10.714531
11.914968
13.242960
12.659431
14.102459
16.643405
18.061996
19.577742
19.446611
19.130707
19.876957
18.376708
18.044710
20.040870
16.357899
16.814470
17.091632
15.558600
15.824437
13.604760
12.817979
13.186932
14.361739
12.980700
12.729764
12.253523
13.233423
12.112856
12.877584
12.730956
##ZVALUE=245
1.780987
2.050996
1.663566
2.076626
3.018975
10.912418
27.791858
72.445869
134.527683
258.547664
362.306833
502.610803
580.670834
627.619624
608.028769
536.666512
416.287780
304.908752
191.693902
139.243603
104.440451
103.864670
119.406581
129.475594
132.756829
130.434632
116.472840
96.673965
76.576471
53.498745
37.531853
22.433996
14.913678
10.939837
9.112954
8.961558
7.238984
7.878542
7.926822
8.115768
7.737875
8.168817
7.888675
7.405877
7.468462
6.932616
7.394552
7.056594
6.864667
7.760525
8.345842
8.340478
7.513762
7.665753
7.910728
7.314682
8.235574
8.769631
7.352829
7.721782
7.865429
7.713437
7.657409
8.608699
9.185672
10.022521
9.734631
10.166764
11.751652
12.241602
13.832450
14.469624
16.111732
17.556548
17.784834
16.235709
18.392801
17.478466
18.889904
16.569495
16.502738
14.790893
15.034676
14.655590
14.332533
13.845563
13.991594
13.836622
12.756586
13.082623
13.082623
12.296438
12.906790
12.630820
12.954473
13.005733
##ZVALUE=250
1.405478
1.753569
1.572967
1.683831
1.672506
1.658797
2.008677
7.187724
21.524429
48.769712
121.193528
216.707587
375.913978
500.966907
626.631975
702.784657
708.929896
660.017729
572.333932
401.732922
283.270478
162.630677
113.862753
96.984506
108.319521
125.169754
139.829516
142.853856
137.366652
126.150846
105.238557
74.977875
56.199431
34.997463
25.384426
13.541579
9.903908
7.775426
7.799864
7.114410
6.877780
7.329583
7.022619
7.497668
6.862879
6.888509
6.161928
6.491542
6.403923
6.347895
6.847978
5.846620
6.877780
6.906986
6.504655
6.842613
6.732941
6.908774
7.151961
6.581545
6.959438
7.463694
7.764697
7.600784
7.077456
7.723570
8.250475
9.393692
10.073781
10.978580
12.135506
13.227463
14.480948
14.463663
14.990568
17.874837
16.120672
16.128421
15.174747
14.129877
14.170408
12.634993
13.979673
12.738705
12.414455
12.472868
13.337731
11.527538
12.517571
12.395978
11.929870
12.456775
12.165904
12.465715
11.957884
12.376904
##ZVALUE=255
1.709461
1.381636
1.623631
1.660585
1.795888
1.622438
1.741648
1.836419
1.872778
3.761649
16.959906
41.579604
88.180900
198.125839
310.342908
503.552556
630.847812
784.016848
832.855701
789.180994
696.160793
558.113456
357.473493
234.354734
131.761432
98.403692
90.975761
105.887651
130.399466
142.468810
148.398876
144.942999
132.047534
105.443597
82.254410
55.074692
38.498640
22.476912
14.135838
9.187460
7.880926
6.737709
6.923676
6.581545
6.497502
6.456971
6.554723
6.160736
6.501675
5.657673
6.279945
5.667806
5.962849
6.100535
6.024837
6.358624
6.749630
5.712509
5.885959
5.746484
5.786419
6.237626
6.556511
6.899834
6.957650
6.822944
6.928444
7.693768
8.669496
9.020567
10.269880
10.883808
11.615753
12.605786
13.643503
13.343692
14.296770
13.160706
12.364984
12.227893
11.326671
11.557937
11.278987
11.045933
11.266470
10.579824
11.711717
11.018515
10.720491
11.304617
10.890961
11.136532
10.560751
10.466576
10.849833
10.135770
##ZVALUE=260
1.261830
1.194477
1.132488
1.486540
1.290441
1.594424
1.492500
1.530647
1.715422
1.599789
1.970530
2.052784
8.495450
24.544597
65.633655
135.870576
285.135508
428.092480
576.613545
779.967904
888.278484
903.768539
830.317736
650.802851
482.094884
290.900469
191.037655
108.541846
84.941983
87.684989
107.140541
130.150914
145.393610
152.926445
151.535869
134.171844
112.054944
81.236959
59.798956
38.166642
23.734570
13.443828
8.851886
6.779432
5.957484
6.266832
5.874634
6.288886
5.480647
5.624890
5.582571
5.838871
4.915595
5.429983
5.286932
5.714893
5.954504
5.170703
4.992485
5.747676
5.482435
5.701780
5.658865
6.084442
6.372929
6.154776
6.841421
6.484985
7.487535
8.119941
8.990765
10.146499
9.933710
11.069775
11.562705
11.424422
11.491776
11.085868
11.268854
10.474920
10.956526
10.276437
9.580851
9.800792
9.962916
9.742975
10.407567
9.640455
9.529591
9.734631
9.887815
10.309815
9.826422
9.607673
9.518862
10.014772
##ZVALUE=265
1.074672
1.109838
1.354814
1.315475
1.317859
1.757741
1.468658
1.366735
1.532435
1.411438
1.882911
1.689792
1.847744
2.090931
3.960729
18.303990
45.080781
118.433833
210.612416
404.434800
591.272712
767.326951
957.880616
1006.890535
926.972032
805.676579
604.063869
434.827805
246.968865
151.673555
93.792677
72.187781
82.425475
112.791657
130.647421
152.760744
156.477690
148.671865
132.993460
106.924772
83.963871
55.793524
38.075447
21.306872
14.345646
7.658601
6.516576
5.673766
5.499721
5.639791
5.975962
5.800724
5.681515
5.416870
5.724430
5.465746
5.458593
5.409718
5.818605
5.461574
5.740523
6.061792
5.811453
5.664825
6.139874
6.540418
6.491542
6.467700
7.044673
7.682443
8.021593
8.852482
9.650588
9.642839
10.496974
10.679960
10.786653
10.307431
10.100603
9.059906
9.905696
8.912683
9.103417
8.941889
9.367466
9.284616
8.857846
8.881688
9.110570
9.256601
8.984804
9.206533
9.028912
8.915663
9.323955
9.368658
##ZVALUE=270
0.973940
0.872612
1.120567
1.054406
1.121759
1.149774
1.157522
1.095533
1.354814
1.058578
1.291633
1.241565
1.245737
1.680851
1.690984
1.730919
2.436638
8.323789
25.294423
83.980560
169.692636
301.192999
550.301671
749.557614
971.146822
1015.502810
1015.502810
956.115723
751.751661
574.982762
413.211584
215.582848
121.749640
67.104697
62.572956
84.375739
105.730891
132.503510
148.848891
156.179667
151.044726
132.887959
110.193491
82.396865
60.418844
36.360621
22.435784
12.654662
8.654594
6.342530
5.809665
5.409718
5.597472
5.301833
5.292892
5.623698
5.615950
5.270839
5.622506
5.651712
5.399585
5.799532
5.316734
5.885959
5.391836
6.147623
5.698800
6.690621
6.792545
7.371902
7.327795
7.947683
8.918643
8.907914
9.560585
9.274483
9.304881
9.222627
8.676648
9.287000
9.210706
8.720756
8.707643
8.589625
7.898808
8.682609
8.368492
8.518696
8.638501
8.625984
8.121729
8.495450
8.633733
8.253455
8.398890
8.033514
##ZVALUE=275
1.126528
1.217723
1.047850
1.008511
1.361966
1.067519
1.263618
1.321435
1.166463
1.292825
1.414418
1.460910
1.302958
1.442432
1.596808
1.578927
1.710653
1.819730
2.048612
4.262924
15.499592
44.735670
132.607818
252.735615
484.042764
671.717525
904.033780
1015.638709
1015.638709
1015.638709
954.926610
721.041560
519.394875
285.842419
165.853500
75.733662
54.221749
61.268806
78.884959
108.557940
126.509666
149.962902
154.003501
147.822499
132.804513
104.483962
83.960891
57.431459
40.531754
23.534894
14.464855
9.407997
6.923676
5.496740
5.903840
5.242825
5.603433
5.782843
5.690455
5.845428
6.102920
5.644560
5.943775
6.322861
6.077886
5.559921
6.492734
5.953908
6.277561
7.490516
7.844567
8.394718
8.909702
8.988976
9.425879
9.655952
9.330511
9.042621
8.714795
8.751750
8.746982
8.065701
8.381605
8.235574
7.697940
7.924438
8.248687
7.953644
7.759929
7.715821
7.653832
8.270741
7.835627
8.089542
8.285642
7.778406
##ZVALUE=280
0.909567
0.934601
1.129508
1.180768
0.924468
1.059771
1.115799
1.214743
1.146793
1.211762
1.081824
1.462698
1.433492
1.250505
1.372695
1.259446
1.426935
1.459718
1.665950
1.714826
1.863837
2.274513
10.895729
33.165812
107.968450
200.765729
387.900472
578.501821
844.935775
1005.990505
1015.638709
1015.638709
1015.638709
823.716521
617.397428
361.849666
213.355422
96.008778
53.845644
42.548776
55.619478
81.170797
103.146434
129.489899
144.730806
149.931908
144.607425
127.976537
108.096004
60.809851
38.602948
36.395788
25.048852
13.570786
9.015799
6.688833
5.676746
5.315542
5.722642
5.653501
5.794764
5.744696
5.693436
5.640984
5.830526
6.008744
6.197691
6.031990
7.044673
7.371902
7.220507
7.871985
8.203983
8.616447
9.096861
8.851886
9.008646
8.930564
8.437634
8.015633
8.417964
7.663965
7.731915
8.168817
7.491708
7.724762
7.720590
7.196665
8.254647
7.508993
7.617474
7.250905
7.710457
7.786751
7.605553
7.572770
##ZVALUE=285
1.049638
0.910759
0.941753
1.123548
0.979900
1.136661
1.191497
0.847578
1.136661
1.080632
0.964999
1.197457
1.176596
1.224875
1.082420
1.256466
1.214743
1.384616
1.513958
1.415610
1.510978
1.704693
1.941919
2.043843
5.071759
15.860796
58.849454
129.083991
294.651985
470.501781
743.649006
951.751471
1015.616655
1015.616655
1015.616655
993.918777
731.728673
516.950488
284.724832
166.002512
70.600510
38.691759
37.343502
49.378872
75.698495
97.621679
123.756528
135.847926
145.813823
143.137574
126.075745
107.802749
80.809593
60.999990
38.627982
25.458932
13.956428
9.551644
6.848574
5.963445
5.523562
5.391836
5.651712
5.584955
6.073713
5.937815
5.726814
5.904436
6.720424
6.800890
7.453561
7.624626
7.881522
8.048415
8.450747
8.300543
8.238554
8.414984
7.882714
7.727742
8.149743
7.450581
7.928610
7.445812
7.729530
7.509589
7.567406
7.798672
7.449985
7.144809
7.799864
7.363558
7.610917
7.727742
7.258654
7.722974
##ZVALUE=290
1.059771
1.059771
1.064539
0.994802
1.032948
1.030564
1.201630
1.052618
0.978708
1.012683
1.122952
1.129508
1.043677
1.127720
1.066923
1.035929
1.180768
1.065731
1.256466
1.358986
1.270771
1.659989
1.694560
1.677871
1.927614
1.935959
2.422929
7.067919
34.207702
81.174970
194.177628
345.729589
551.890731
858.454704
1015.638709
1015.638709
1015.638709
1015.638709
909.036994
622.736812
414.887667
210.305452
109.287500
42.625666
27.345419
33.601522
48.358440
71.867704
91.024637
118.584633
132.420659
141.249895
138.454437
124.264956
106.822848
78.348517
56.836605
35.698414
24.022460
14.164448
9.780526
6.683469
6.119609
5.816817
5.797744
5.884767
5.987883
6.385446
6.566644
7.082820
7.098913
7.272959
7.603765
7.829666
8.324981
8.066893
8.378625
7.492900
8.002520
7.793903
7.823706
7.290840
7.447600
7.576942
7.580519
7.919669
7.715821
7.844567
7.597804
7.855892
7.596612
7.346869
7.382631
7.418990
7.419586
6.869435
##ZVALUE=295
0.968575
0.970960
0.833869
0.784993
0.824928
0.936985
0.906587
0.899434
1.010895
0.949502
1.101494
1.029968
1.128912
1.195669
1.094937
1.168847
0.932813
1.353621
0.979900
1.458526
1.307726
1.220703
1.450777
1.592636
1.754761
1.545548
1.794696
2.015829
2.257824
3.423691
11.347532
50.976872
119.715929
290.527940
483.672619
804.501772
1008.722782
1015.638709
1015.638709
1015.638709
1015.638709
776.275992
545.862913
293.949842
161.154866
60.259700
30.071735
22.355914
29.025674
45.932531
63.742995
89.586973
108.441710
128.496885
134.210587
131.630898
119.345784
98.932981
79.512596
54.390430
39.951801
23.182631
15.796423
9.553432
7.429719
6.426573
6.068945
6.291866
6.697774
6.807446
7.085800
7.436872
7.898808
8.214712
8.397698
8.266568
8.244514
8.258820
8.082986
7.742643
7.935762
8.040667
7.667542
7.886887
7.553697
7.902980
7.715821
7.778406
7.506609
7.822514
7.921457
7.547736
7.175803
7.159710
7.349849
7.017851
##ZVALUE=300
0.872612
0.967979
0.901818
0.856519
0.891685
0.963807
1.037717
1.093745
0.808835
0.954866
0.960827
1.040697
1.030564
1.133680
1.004934
0.919700
0.937581
1.031756
1.121759
1.136661
1.163483
1.165867
1.195669
1.363754
1.387596
1.391768
1.432896
1.467466
1.638532
1.906753
1.972914
2.204776
7.802844
27.802587
94.955564
191.583633
409.383774
632.245541
954.909921
1015.638709
1015.638709
1015.638709
1015.638709
968.627930
656.165481
432.285666
218.206644
116.493702
43.347478
20.636916
18.629432
26.238561
41.073561
56.673884
81.067681
100.049973
118.794441
126.820803
125.404596
114.011765
95.645785
79.036951
54.720640
39.865971
23.839474
16.341805
10.118484
8.098483
6.915927
6.812811
7.201433
7.446408
7.733703
7.638931
7.975698
7.869601
7.927418
8.052588
7.887483
8.042455
7.719994
7.957816
7.820725
8.032918
7.856488
7.455945
7.563829
7.722974
7.742643
7.483959
7.605553
7.501841
7.438660
7.344484
7.260442
7.570982
##ZVALUE=305
0.842810
0.816584
0.825524
0.872612
0.851750
0.913739
0.800490
0.897646
0.980496
0.830889
0.849962
1.035929
0.939965
1.084805
1.035929
0.947714
1.113415
1.043677
0.897646
1.007915
1.145601
1.229644
1.055598
1.150966
1.122952
1.296997
1.233816
1.360774
1.544952
1.693964
1.660585
1.920462
2.266765
2.198815
4.468560
16.400814
68.857670
156.526566
366.339684
579.150915
907.799006
1015.638709
1015.638709
1015.638709
1015.638709
1015.638709
794.552565
562.746525
303.228498
165.523887
62.080622
27.497411
13.943911
16.279817
25.163889
37.259459
58.654547
76.687932
97.061992
111.231804
120.911002
119.857788
108.436942
94.601512
73.049664
55.188537
35.979748
25.568604
14.950633
10.815859
8.237958
7.332563
8.027554
8.007884
8.047819
7.817745
7.462502
7.658601
7.748604
7.658601
7.784963
7.766485
7.911921
7.717609
8.091927
8.183718
7.699728
7.895827
7.666945
7.728934
7.644892
7.712841
7.539988
7.649660
7.193685
7.336736
##ZVALUE=310
0.910759
0.944734
0.772476
0.872612
0.741482
0.768900
0.777841
0.770688
1.013875
0.902414
0.856519
0.986457
1.017451
0.800490
1.052618
0.980496
1.083612
0.991821
0.968575
0.996590
1.087785
1.193881
1.164675
1.206994
1.201630
1.260638
1.282692
1.261830
1.453757
1.316667
1.303554
1.458526
1.530647
1.732707
2.019405
2.062917
2.423525
8.497834
29.304624
104.955435
211.894512
451.080799
691.241026
1001.905799
1015.644670
1015.644670
1015.644670
1015.644670
996.931791
680.989027
454.118848
229.429603
122.690797
43.549538
18.707514
11.983514
14.786720
22.526979
32.868981
52.132607
67.805648
89.869499
104.009509
112.984776
113.885999
104.034543
91.866851
72.174668
54.983497
36.031604
26.093721
16.801953
12.733936
9.294748
8.579493
7.733703
7.645488
7.431507
7.746816
7.752776
7.418990
7.497668
7.539988
7.704496
8.180737
7.729530
8.077621
7.661581
8.050799
7.830858
7.429719
7.522702
7.615685
7.264614
7.253885
7.356405
##ZVALUE=315
0.794530
0.627637
0.816584
0.995994
0.760555
0.817776
0.964999
0.987649
0.874996
0.916719
0.934601
0.892878
0.868440
0.819564
0.882745
0.846982
0.949502
0.990629
0.949502
1.009703
0.955462
1.154542
1.056790
1.102686
0.997782
1.048446
1.137853
1.020432
1.233816
1.227856
1.207590
1.286864
1.567602
1.551509
1.507998
1.704693
1.697540
1.988411
2.226830
4.149675
14.551878
64.008832
145.651698
340.038538
559.891462
910.053849
1015.638709
1015.638709
1015.638709
1015.638709
1015.638709
792.543888
560.718775
305.711627
165.468454
61.384439
25.555491
11.049509
10.525584
14.130473
19.700527
32.309890
44.756532
64.005852
80.371499
98.933578
106.285810
105.976462
101.411939
86.584687
71.358681
51.642656
38.252473
24.008751
17.322898
11.366606
9.566545
7.941723
7.892847
7.700920
7.506609
7.326603
7.721782
7.544756
7.688999
8.027554
7.605553
7.583499
7.741451
8.378625
7.939935
7.560849
7.499456
7.222891
7.232428
7.445812
##ZVALUE=320
0.827909
0.831485
0.655651
0.805855
0.846982
0.789762
0.794530
0.787973
0.810623
0.788569
0.873804
0.775456
0.707507
0.731945
1.004934
0.883937
0.886917
0.943542
0.926852
0.969768
0.903606
1.145601
0.882745
1.031756
0.841618
0.961423
0.912547
1.142621
0.999570
0.996590
1.023412
1.317859
1.295805
1.326799
1.246929
1.313686
1.466870
1.502633
1.737475
1.886487
2.067685
2.841949
6.628633
36.649704
93.919635
250.058770
422.987938
718.184710
973.431468
1015.620828
1015.620828
1015.620828
1015.620828
972.362757
711.495876
399.140716
227.792859
96.979737
43.077469
14.054775
9.095669
9.843707
12.418628
18.808842
27.614832
43.175817
57.091713
76.610446
90.023875
100.813508
102.585554
95.992684
84.929466
65.705776
50.994754
34.310818
25.002956
16.063452
11.879802
9.059906
8.023977
7.689595
7.590652
7.885695
7.449985
7.652640
7.810593
7.834435
7.496476
7.677674
7.793903
7.675886
7.532835
7.386804
7.509589
7.507801
##ZVALUE=325
0.659823
0.931621
0.764728
0.781417
0.822544
0.882745
0.751615
0.998974
0.957847
0.619888
0.865459
0.835657
0.945926
0.784993
0.827909
0.865459
0.898838
0.894666
0.832677
0.953674
0.957847
0.946522
0.906587
0.897646
1.086593
0.893474
1.001954
0.923872
0.945926
1.076460
1.027584
1.157522
1.358986
1.131892
1.179576
1.253486
1.249909
1.458526
1.565814
1.766682
1.568794
1.827478
1.792908
2.214909
3.775954
21.835566
62.525868
174.033642
317.596793
593.147874
840.230584
1015.638709
1015.638709
1015.638709
1015.638709
1015.638709
809.262991
493.657589
301.214457
133.480430
61.804652
19.229650
10.051727
8.678436
9.355545
12.296438
16.999841
28.304458
40.365458
58.059692
71.714520
87.467432
94.747543
96.534491
89.984536
75.972676
62.888861
46.101809
34.542680
22.232533
16.493797
11.273623
9.285808
8.107424
8.108616
7.795691
7.385612
7.422566
7.538795
7.630587
7.552505
7.223487
7.249713
7.305741
7.351637
7.124543
##ZVALUE=330
0.684857
0.695586
0.673532
0.746846
0.793934
0.764728
0.784993
0.752807
0.693798
0.849962
0.953674
0.766516
0.699759
0.828505
0.975728
0.784993
0.850558
0.874996
0.894666
0.898838
0.931621
0.784993
0.842810
0.882745
1.068711
0.893474
0.878572
1.013875
0.983477
1.043677
0.973940
1.017451
1.218915
1.113415
1.176000
1.123548
1.239777
1.444817
1.287460
1.302958
1.515746
1.508594
1.700521
1.682639
1.846552
2.026558
2.579689
10.195971
33.374429
112.750530
224.695802
462.298989
700.666904
1015.638709
1015.638709
1015.638709
1015.638709
1015.638709
960.481763
628.044605
405.792594
186.672807
94.733834
32.940507
13.804436
8.172989
7.886887
9.154677
11.495948
17.705560
25.434494
39.177537
52.000880
70.470572
81.180930
89.185834
90.265870
83.121657
73.853731
56.650639
44.401884
30.113459
22.632480
15.433431
12.241602
9.319782
8.122921
7.721782
7.491708
7.403493
7.253885
7.233620
6.977916
7.191896
6.863475
6.948709
##ZVALUE=335
0.805855
0.776649
0.770688
0.872612
0.811815
0.945926
0.813603
0.834465
0.713468
0.801682
0.755787
0.767708
1.023412
0.935793
1.072884
0.742674
0.955462
0.968575
0.960827
0.918508
1.023412
0.978708
0.906587
1.017451
1.044869
1.047850
1.107454
1.023412
1.049638
1.090765
1.207590
1.150966
1.047850
1.028776
1.042485
1.214743
1.266599
1.369715
1.311898
1.210570
1.324415
1.459718
1.387596
1.422763
1.686811
1.761913
1.960993
2.095699
2.401471
5.418658
17.581582
71.634650
155.951977
360.206962
591.928959
965.725780
1015.723944
1015.723944
1015.723944
1015.723944
1015.723944
775.188804
525.972843
272.441506
141.630769
47.361851
19.014478
9.003878
7.856488
8.203983
8.534789
11.731982
15.688539
26.085973
35.879612
52.276850
64.013600
76.565742
82.824826
84.012747
79.274774
68.026781
55.775642
41.819811
32.183528
22.013783
16.197562
11.671782
9.825826
8.395910
7.521510
7.320642
7.078648
7.002950
7.093549
6.837845
##ZVALUE=340
0.798702
0.669956
0.655651
0.788569
0.682473
0.888705
0.856519
0.798702
0.770688
0.563860
0.786781
0.685453
0.905991
0.957847
0.898838
0.871420
0.782609
0.777841
0.908971
0.844598
0.871420
0.788569
0.759959
0.856519
0.961423
0.962615
1.008511
0.932813
0.831485
0.974536
1.014471
0.937581
0.961423
0.866652
0.921488
1.006722
0.994802
1.126528
1.154542
1.049638
1.124740
1.195669
1.143813
1.191497
1.345873
1.351833
1.483560
1.598597
1.761913
1.808405
2.122521
3.181696
8.563995
43.279529
109.507442
283.540487
488.804579
819.296837
1015.635729
1015.635729
1015.635729
1015.635729
1015.635729
888.749957
627.310872
325.990915
179.041624
71.824789
28.357506
9.621978
8.043647
7.890463
8.011460
8.805990
11.363626
16.629696
23.489594
35.337806
46.975613
61.968565
71.464777
78.857541
78.290701
74.542761
66.383481
53.380728
43.170452
30.546784
22.895932
15.744567
11.799932
8.845925
7.839799
7.011890
6.978512
6.670952
##ZVALUE=345
0.688434
0.488758
0.737906
0.748634
0.712872
0.610948
0.584722
0.516772
0.538826
0.572801
0.521541
0.614524
0.770688
0.779629
0.721812
0.686646
0.741482
0.755787
0.616908
0.625849
0.856519
0.706911
0.680685
0.730753
0.679493
0.790954
0.733733
0.770688
0.779629
0.682473
0.660419
0.818968
0.763535
0.806451
0.858903
0.872612
0.855923
0.995994
0.958443
0.853539
0.932813
1.069903
0.997782
1.045465
1.062751
1.191497
1.283884
1.200438
1.176000
1.625419
1.568794
1.518726
1.797676
2.090931
4.023910
24.236441
67.716837
184.982419
339.368582
642.557740
899.443626
1015.526652
1015.526652
1015.526652
1015.526652
992.519855
747.480392
445.623994
256.171823
101.320744
46.042800
14.460683
8.828640
7.659793
7.601976
7.413626
7.942915
10.094643
13.889670
21.979809
30.626655
44.624805
53.961873
65.815449
71.582794
72.851777
70.467591
61.754584
52.752495
41.162968
31.702518
21.385550
15.885830
11.379719
8.683801
7.249713
##ZVALUE=350
0.815988
0.646710
0.734925
0.697970
0.658631
0.850558
0.652671
0.739694
0.855923
0.771880
0.882745
0.726581
0.697970
0.786781
0.837445
0.704527
0.686646
0.666976
0.790954
0.656843
0.636578
0.843406
0.735521
0.796914
0.890493
0.989437
0.837445
0.779629
0.959635
0.813603
0.882745
0.856519
0.962615
0.954866
1.015663
0.823736
1.032948
1.083612
0.982881
0.841618
1.013875
1.046658
1.049638
1.106858
1.227856
1.026988
1.234412
1.091957
1.260638
1.389980
1.205802
1.366735
1.541972
1.807809
1.753569
1.965761
2.774596
13.641715
43.459535
137.277842
270.809531
539.587736
788.280964
1015.638709
1015.638709
1015.638709
1015.638709
1015.638709
894.005895
557.137728
340.801477
148.400664
67.683458
19.252896
9.337664
7.498860
7.164478
6.951690
6.840825
7.675886
9.379983
13.891459
18.699765
28.579831
37.504435
48.455596
56.845546
63.344836
66.303611
64.583421
58.724880
47.466755
39.694905
29.298663
22.148490
14.889836
##ZVALUE=355
0.837445
0.650883
0.649691
0.784993
0.767708
0.584722
0.861883
0.715852
0.778437
0.771880
0.809431
0.793934
0.714660
0.729561
0.729561
0.908971
0.727773
0.814795
0.817776
0.686646
0.809431
0.803471
0.818968
0.865459
0.848770
0.957847
0.823736
0.862479
0.850558
0.869632
0.757575
0.963807
0.957847
1.088977
1.027584
1.005530
1.162887
1.127720
0.905991
1.002550
1.091957
1.040697
1.103878
1.103878
1.069903
1.034737
1.071692
1.265407
1.279712
1.255870
1.202822
1.354814
1.452565
1.563430
1.530647
1.708865
1.880527
1.863837
2.367496
5.998611
21.179914
83.348751
173.933506
388.495922
622.257590
980.680585
1015.678644
1015.678644
1015.678644
1015.678644
998.353958
685.098767
429.811478
187.258720
89.662671
26.907921
11.378527
7.379651
6.886721
6.757975
6.422997
6.860495
7.228851
8.698702
11.105537
17.079711
23.369789
33.190846
41.583776
51.217675
56.886673
60.997605
59.150457
53.548813
46.805739
36.640763
##ZVALUE=360
0.727773
0.810623
0.851750
0.806451
0.772476
0.867844
0.906587
0.761747
0.692606
0.798702
0.714660
0.702739
0.695586
0.834465
0.804663
0.673532
0.785589
0.701547
0.886917
0.865459
0.872612
0.877976
0.832677
0.819564
0.740886
0.877976
0.853539
0.843406
0.884533
0.873804
0.867844
0.930429
0.982881
0.819564
0.995994
0.995994
0.905991
0.836849
0.975728
1.065731
1.170635
1.178980
1.187921
1.197457
0.966787
1.095533
1.144409
1.093745
1.245737
1.227856
1.296997
1.293421
1.492500
1.546741
1.179576
1.504421
1.669526
1.550913
1.728535
2.041459
2.147555
3.060699
9.715557
42.477846
106.425881
279.672742
488.740802
841.110945
1015.638709
1015.638709
1015.638709
1015.638709
1015.638709
756.518841
502.113700
244.763494
125.793815
45.128465
17.178655
7.576942
6.754994
6.413460
6.263852
5.955696
5.933642
6.390810
7.343888
9.542704
13.036728
19.730926
26.925802
36.817789
43.782592
50.751567
53.864717
54.979920
##ZVALUE=365
0.742674
0.699759
0.647902
0.769496
0.749826
0.768900
0.673532
0.788569
0.719428
0.809431
0.668764
0.841618
0.872612
0.807643
0.722408
0.587702
0.830889
0.774860
0.802875
0.887513
0.740886
0.855923
0.712872
0.817776
0.780821
0.833869
0.872612
0.849962
0.775456
0.896454
1.020432
0.879765
1.009703
0.855923
0.904799
0.876784
0.952482
0.977516
0.970960
0.904799
0.847578
1.001954
1.017451
1.056790
1.092553
1.042485
1.080632
1.083612
1.086593
1.281500
1.366735
1.215935
1.289845
1.120567
1.244545
1.503825
1.408458
1.458526
1.486540
1.524687
1.778603
1.985431
2.143979
2.504587
4.575849
24.639964
68.166852
186.582804
355.025530
672.208667
939.209461
1015.625596
1015.625596
1015.625596
1015.625596
895.430446
639.995933
360.652804
197.730660
69.428682
26.551485
8.424520
6.724596
6.260872
5.811453
5.619526
5.493760
5.473495
5.483627
6.219745
7.914901
11.566877
15.943646
23.993850
30.455589
39.405823
##ZVALUE=370
0.637770
0.821948
0.815988
0.658631
0.745654
0.896454
0.740886
0.809431
0.723600
0.758767
0.738502
0.742674
0.680685
0.838637
0.858903
0.757575
0.742674
0.932813
0.683665
0.726581
0.753999
0.732541
0.694990
0.811815
0.779629
0.873804
0.954866
0.799894
0.826716
0.814795
0.903606
0.948906
0.817776
0.772476
0.860691
0.980496
0.960827
0.964999
0.965595
0.812411
1.020432
0.902414
0.993609
0.983477
0.773668
1.027584
1.080632
0.869632
1.005530
1.106858
1.220703
1.105666
1.029968
1.279712
1.213551
1.255870
1.257658
1.324415
1.449585
1.531839
1.477599
1.834631
1.765490
1.620650
1.923442
2.178550
2.779961
13.387799
42.404532
133.605599
261.579752
517.885685
762.522817
1015.638709
1015.638709
1015.638709
1015.638709
983.735919
749.441981
434.671640
249.447823
97.733736
42.193532
11.984706
6.806850
5.803704
5.546808
5.107522
5.186796
4.841685
4.864931
5.011559
5.529523
7.175803
9.467602
14.246702
##ZVALUE=375
0.729561
0.801682
0.670552
0.798702
0.726581
0.790954
0.713468
0.660419
0.834465
0.894666
0.730753
0.819564
0.818968
0.688434
0.717640
0.663996
0.693798
0.827909
0.764728
0.741482
0.872612
0.704527
0.599623
0.864863
0.842810
0.795722
0.858903
0.850558
0.770688
0.842810
0.754595
0.783801
0.819564
0.654459
0.612736
0.714660
0.796914
0.824928
0.950694
0.775456
0.939965
0.794530
0.866652
0.807643
0.832677
0.933409
0.913739
1.044869
0.933409
0.903606
0.994802
0.897646
1.022816
0.875592
1.164675
1.138449
1.039505
1.064539
1.246929
1.220703
1.367927
1.259446
1.334548
1.526475
1.430511
1.740456
1.639724
2.055764
2.318621
6.272793
21.391511
77.394843
171.312690
390.460491
620.224476
951.133966
1015.638709
1015.638709
1015.638709
1015.638709
839.809775
517.679453
331.441760
162.822604
80.723763
24.576783
9.300709
5.593896
4.917979
4.967451
4.632473
4.592538
4.265904
4.414916
4.438758
4.940629
##ZVALUE=380
0.697970
0.660419
0.731945
0.839829
0.812411
0.739694
0.687838
0.776649
0.683665
0.827909
0.847578
0.872612
0.808835
0.713468
0.694990
0.719428
0.816584
0.633597
0.711679
0.548959
0.658631
0.650883
0.735521
0.764728
0.599623
0.761747
0.925660
0.922680
0.645518
0.807643
0.819564
0.790954
0.723600
0.677705
0.650883
0.825524
0.925660
0.813603
0.810623
0.930429
0.946522
0.907779
0.947714
0.779629
0.807643
0.797510
1.040697
0.945926
0.901818
0.853539
0.998974
1.108646
0.888705
1.030564
1.048446
1.173615
1.080632
1.103878
1.195669
1.132488
1.087785
1.352429
1.190901
1.361966
1.262426
1.416802
1.541972
1.757741
1.835823
2.136827
2.428889
3.708601
13.028979
62.972903
145.566463
347.750783
567.682981
889.808536
1015.648842
1015.648842
1015.648842
1015.648842
976.309776
680.879951
455.126762
224.738717
114.635825
38.571954
15.206933
6.003976
5.037785
4.597902
4.596710
4.331470
4.168749
4.074574
##ZVALUE=385
0.614524
0.640750
0.596642
0.577569
0.696778
0.535846
0.701547
0.706911
0.730753
0.741482
0.768900
0.530481
0.572801
0.637770
0.725985
0.878572
0.753999
0.629425
0.646710
0.714660
0.852942
0.794530
0.651479
0.723600
0.792742
0.743866
0.713468
0.802875
0.633597
0.616908
0.764728
0.943542
0.831485
0.802875
0.755787
0.798702
0.725985
0.658631
0.848770
0.957847
0.726581
0.905991
0.894666
0.887513
0.832677
0.887513
0.850558
0.904799
0.931621
0.893474
0.853539
0.899434
0.834465
0.869632
0.949502
0.841618
0.890493
1.017451
0.932813
1.017451
1.130700
1.195669
1.071692
1.199841
1.103878
1.250505
1.312494
1.441836
1.586676
1.693964
1.912713
2.108812
2.141595
2.551675
6.092787
35.914779
96.323490
247.101784
432.496667
773.762465
1001.963019
1015.638709
1015.638709
1015.638709
1015.638709
840.288997
597.921610
327.718854
183.983445
75.488687
29.190779
7.545948
4.821420
4.406571
4.368424
4.196763
##ZVALUE=390
0.660419
0.724792
0.498891
0.680685
0.648499
0.761747
0.763535
0.883937
0.673532
0.819564
0.690818
0.586510
0.687838
0.766516
0.589490
0.723600
0.818968
0.764728
0.745654
0.647902
0.762939
0.642538
0.680685
0.625849
0.766516
0.780821
0.564456
0.689626
0.837445
0.761747
0.809431
0.711679
0.730753
0.817776
0.758767
0.811815
0.785589
0.823736
0.767708
0.657439
0.848770
0.724792
0.784993
0.816584
0.642538
0.901818
0.774860
0.905991
0.834465
0.894666
0.743866
0.907779
0.807643
0.930429
0.871420
0.821948
0.844598
1.081824
1.019835
0.902414
1.063943
1.007915
1.099706
1.160502
1.203418
1.021624
1.179576
1.347661
1.457930
1.422763
1.700521
1.710653
1.837611
1.956820
2.003908
2.069473
3.732443
14.268756
67.881942
159.516931
376.687646
591.809750
896.464586
1015.638709
1015.638709
1015.638709
1015.638709
1005.746722
715.648532
489.151478
255.419612
131.621957
43.948889
15.314817
5.285740
4.375577
##ZVALUE=395
0.659823
0.667572
0.651479
0.642538
0.694990
0.781417
0.643730
0.669956
0.451803
0.540614
0.622869
0.569820
0.699759
0.677705
0.526905
0.703931
0.701547
0.659823
0.602603
0.553727
0.730753
0.540614
0.659823
0.681877
0.697970
0.802875
0.617504
0.739694
0.822544
0.726581
0.715852
0.738502
0.734925
0.625849
0.556707
0.764728
0.739694
0.711679
0.889897
0.694990
0.720620
0.832677
0.827909
0.814795
0.680685
0.951886
0.872612
0.865459
0.798702
0.907779
0.775456
0.816584
0.860691
0.870824
0.904799
1.042485
0.909567
0.925660
0.974536
0.922680
1.018643
0.984669
1.047850
1.079440
1.087785
0.988841
1.241565
1.253486
1.302958
1.570582
1.497865
1.589656
1.639724
1.681447
1.719594
1.815557
1.842976
2.039671
2.359748
8.535981
31.740665
117.747784
237.208009
492.478609
740.681887
1015.638709
1015.638709
1015.638709
1015.638709
1015.638709
954.097509
602.557659
386.832952
182.884932
86.334944
26.663542
##ZVALUE=400
0.670552
0.648499
0.700951
0.760555
0.674725
0.624657
0.764728
0.672936
0.621676
0.689626
0.696778
0.742674
0.626445
0.733733
0.783801
0.660419
0.829697
0.552535
0.689626
0.613928
0.748634
0.714660
0.721812
0.702739
0.738502
0.666976
0.564456
0.753999
0.831485
0.655651
0.730753
0.694990
0.717640
0.545979
0.705719
0.803471
0.525713
0.730753
0.768900
0.815988
0.719428
0.697970
0.786781
0.859499
0.800490
0.720620
0.688434
0.704527
0.819564
0.856519
0.873804
0.849962
0.919700
0.921488
0.949502
0.863671
0.899434
0.844598
0.939965
0.907779
0.895858
0.939965
0.970960
1.065731
1.017451
1.125932
1.279712
1.177788
1.295805
1.567602
1.754761
1.655817
1.538992
1.582503
1.552701
1.607537
1.784563
1.702905
1.721978
2.004504
2.159476
5.436540
18.491745
69.792867
158.969760
371.889472
604.924560
961.709023
1015.638709
1015.638709
1015.638709
1015.638709
1005.867720
692.476630
461.437702
234.009624
##END
