##TITLE=QP00652
##FORMAT=SPECTACLE-ASCII V-1.2
##DATA TYPE=ULTRAVIOLET SPECTRUM
##SECOND TYPE=ULTRAVIOLET SPECTRUM
##DATE=01/21/18
##TIME=13:25:42
##SPECTROMETER/DATA SYSTEM=SPECTACLE
##XUNITS=NM EM
##YUNITS=ENERGY
##YFACTOR=1
##FIRSTX=220
##LASTX=410
##NPOINTS=96
##3DDATA=Equidistant
##ZUNITS=NM EX
##FIRSTZ=210
##LASTZ=400
##ZPOINTS=39
##XYDATA=(Y..Y)
##ZVALUE=210
2.275705
2.376437
2.288818
2.045631
1.947880
2.241731
2.884865
3.474951
3.571510
3.020763
3.096461
3.556609
3.793836
3.906488
3.649592
4.610419
5.199909
5.097985
4.974604
5.180836
6.241798
5.701780
6.147623
6.513596
7.262826
7.316470
8.041859
8.732677
9.615421
8.889437
8.477569
9.360909
9.079576
8.987784
9.156466
9.554625
8.570552
9.111762
9.378791
9.188652
9.414554
11.646748
10.728836
10.271668
10.147691
11.081696
10.242462
10.711551
11.119843
12.426972
11.698604
11.251569
11.902452
12.067556
12.951493
12.540817
11.772513
13.078451
13.324618
11.642575
12.260675
12.736917
12.461543
13.830662
14.568567
14.679432
14.586449
18.014908
20.259619
23.539662
25.725961
32.982826
38.891435
43.544769
47.608614
53.317547
49.738884
51.743984
50.415993
46.492815
44.560432
38.255453
34.545660
27.209520
22.289753
18.327832
16.253591
15.995502
13.718605
12.858510
12.685657
13.170838
13.645887
12.337565
12.301803
12.906790
##ZVALUE=215
6.346703
6.915927
7.026792
5.574822
5.031824
4.383922
4.140735
4.131794
4.397631
5.087852
4.850626
4.588962
4.939437
4.130602
3.998876
3.694892
3.631711
4.237890
4.548430
4.403591
4.213452
5.182624
5.559921
4.553795
6.062984
5.983710
6.335974
5.682707
6.338954
6.695986
6.910563
7.797480
6.766915
8.305907
8.284450
7.535815
8.860826
7.681847
8.402467
7.756948
8.847713
9.114742
9.873509
9.572506
10.099411
9.084940
10.778904
10.599494
9.950995
9.384751
10.645986
11.108518
10.913610
11.859536
10.959506
11.479855
10.602474
12.425780
12.338758
12.603998
13.445616
11.785626
12.228489
12.420416
13.033748
13.848543
13.027787
15.246868
17.040968
19.464493
22.932887
27.164817
29.393435
35.717487
38.721561
39.540529
41.436553
41.992664
41.073561
37.596822
36.542416
32.313466
28.349757
25.825500
22.118688
18.155575
14.040470
13.440847
12.499690
11.611581
11.730790
10.781884
11.358857
12.541413
10.541677
10.627508
##ZVALUE=220
24.972558
28.338432
30.669570
32.643676
29.865503
26.710629
21.422505
15.835762
11.899471
10.466576
10.382533
11.276603
12.221932
10.194778
9.676814
8.010864
6.511807
6.765723
5.286932
5.389452
5.273819
5.789995
6.290674
6.606579
7.007718
7.190704
7.203817
7.403493
7.029772
8.089542
8.344650
8.463860
8.070469
8.245707
8.825660
9.275675
9.034872
8.367896
9.523630
9.523630
8.963943
10.251999
9.625554
9.554625
11.013746
9.882450
9.934902
10.458827
10.851622
10.492802
10.436773
11.431575
10.500550
11.566877
11.680722
10.946989
11.818409
11.007786
11.796951
12.793541
12.188554
12.206435
13.248920
11.517406
13.227463
12.227893
11.720657
14.507771
15.604496
18.469691
22.682548
24.441481
28.203726
33.284426
34.933686
34.633875
37.130713
37.777424
34.398437
33.299923
31.987429
26.349425
26.497841
22.806525
19.123554
18.340945
14.544725
13.923645
12.891889
12.472868
12.333989
11.536479
12.110472
11.312962
11.016726
11.478662
##ZVALUE=225
58.972836
65.690875
89.917779
121.015906
138.359666
148.729682
144.269466
114.698410
89.887977
67.583919
38.139820
27.836561
23.663640
25.031567
27.709603
26.131868
23.274422
17.866492
14.531612
12.815595
10.748506
8.325577
8.896589
8.294582
9.092689
9.837747
10.001659
9.869933
10.175705
11.850595
11.124611
10.951757
12.603998
11.290908
11.411905
11.982918
11.590719
12.553930
13.090968
13.858676
12.376904
12.328625
13.328791
12.257695
12.690425
13.259649
13.275743
13.956428
13.853908
13.836622
13.736486
15.637875
14.891624
14.101863
13.938546
14.394522
14.683604
16.127825
15.696883
17.043948
16.320944
15.507936
16.608834
18.118620
17.096996
18.065572
19.689798
18.068552
23.070574
25.555491
30.639768
31.523705
39.064884
46.822429
47.460794
47.885776
46.939850
43.175817
38.780570
36.242604
32.386780
28.841496
26.955605
23.911595
20.085573
18.725991
18.741488
16.923547
17.049909
16.546845
16.971827
16.191602
15.689731
15.858412
16.070604
15.018582
##ZVALUE=230
61.706901
69.194436
116.232634
215.908885
281.919837
365.558863
400.812626
403.720737
358.217955
301.451683
191.585422
117.689967
68.676472
49.957633
46.824813
49.816966
50.422549
50.269961
46.509504
41.121840
30.935407
24.845600
18.366575
11.836886
10.332465
9.573698
9.177923
9.488463
9.044409
9.706616
9.759665
9.862781
9.741783
9.860992
9.743571
9.912848
10.784864
10.007620
11.222959
9.769797
10.695457
10.449886
9.893775
10.250807
10.751486
10.183454
10.577440
11.154413
11.165738
11.330843
10.929704
11.316538
10.181665
11.114478
11.280775
11.934638
11.543632
10.886788
11.407733
12.166500
12.811422
12.673736
12.942553
13.373494
13.695955
13.861656
14.380813
15.248656
18.424988
20.200610
22.799969
26.252866
28.014779
31.929612
35.720468
33.175945
35.342574
34.740567
34.066439
31.764507
30.472875
28.111935
24.663806
22.647977
19.595623
17.935634
16.386509
14.085770
14.466643
14.558434
14.212728
14.939904
16.053915
13.977885
14.945865
13.354421
##ZVALUE=235
22.380948
26.752949
55.454969
133.940578
218.625665
335.897803
435.640812
538.668633
579.134822
557.428002
473.144650
383.255482
249.380469
178.061724
112.265944
84.477663
75.924993
81.564784
84.198713
85.225701
82.078576
64.700842
56.477785
41.301847
26.870966
17.651916
12.598634
10.254979
9.114742
10.652542
10.771751
9.714961
10.743737
11.066794
9.738803
10.538697
10.155439
10.734797
11.167526
9.998679
10.882616
11.357665
10.639429
10.984540
10.935664
11.234879
11.204481
10.965466
10.162592
11.264682
11.094809
12.032986
13.056993
11.746883
11.770725
12.774467
12.751818
12.653470
12.318492
13.079643
13.279915
12.958646
14.584661
14.686584
14.110804
16.102791
16.294718
18.114448
18.300414
21.826625
25.490522
27.740598
30.373931
34.508705
35.553575
35.174489
38.481951
35.681725
36.256909
33.982992
31.642914
27.061701
25.848746
23.221970
21.363497
21.118522
18.457770
18.356442
18.317699
17.006993
16.328692
16.053915
16.283989
16.009808
16.169548
16.786456
##ZVALUE=240
2.452731
2.169609
7.947683
23.254752
66.627860
130.682588
263.628960
392.775536
593.217015
749.997497
892.924666
937.213898
919.730663
792.880654
662.954450
460.667014
337.761641
221.534967
162.115693
120.124817
112.610459
121.631622
113.209486
107.727647
89.163780
68.192482
48.985481
35.982728
22.837520
17.150640
12.643933
11.141896
9.836555
10.909438
11.722445
10.802746
9.719729
10.659695
10.592937
10.224581
11.428595
10.682940
10.871887
10.200739
10.066628
11.933446
11.073947
10.618567
10.669827
10.236502
11.414886
11.589527
11.492968
12.473464
11.908412
12.499690
11.672974
12.040734
13.842583
11.615753
13.864636
13.688803
13.606548
14.023781
14.678836
15.403628
15.359521
17.274618
17.102957
20.499825
21.850467
26.320815
29.086471
31.022429
32.379627
34.403801
36.506653
36.092997
32.228827
31.268597
28.960705
24.633408
24.765730
21.643639
21.867752
19.788742
18.997788
20.068884
19.750595
19.601583
18.043518
20.592809
19.698739
17.600656
18.778443
17.463565
##ZVALUE=245
1.949668
1.917481
1.584888
1.632571
3.809929
14.157891
31.942725
89.505911
171.032548
283.245444
488.572717
662.575960
855.598450
955.513716
945.639014
875.183940
673.846602
512.787700
360.177755
211.811662
147.552490
112.540722
115.925670
131.357908
134.804845
128.183961
118.552446
98.346472
75.994730
52.669644
39.217472
23.874640
17.314553
11.989474
11.099577
9.873509
10.249615
9.307861
8.939505
9.580851
9.256601
9.025931
8.344650
7.377863
8.306503
8.745790
8.638501
8.875728
9.271502
9.385943
8.826852
8.306503
8.860826
9.770989
8.942485
9.170771
9.026527
8.992553
10.053515
11.150837
10.436773
11.080503
11.408925
11.261702
11.402965
11.586547
12.376904
13.307929
14.670491
16.109943
19.365549
19.649863
21.940470
23.981929
25.083423
26.201606
25.792718
24.487972
22.666454
23.100972
23.425817
21.302700
20.052791
20.386577
19.179583
18.060803
18.856525
17.403960
18.225908
16.663671
16.537905
19.211769
16.379952
17.395616
17.881989
16.100407
##ZVALUE=250
1.511574
1.773834
1.399517
1.560450
1.829863
1.997948
2.462864
7.273555
32.974482
72.793961
191.679001
334.669948
520.782471
812.358856
1005.138755
1015.520692
1015.520692
1015.520692
1015.520692
775.697827
524.298549
322.572589
159.695745
115.386844
110.010505
125.624537
148.084760
141.933560
138.307810
126.936436
107.216835
82.573891
63.020587
38.122535
26.095510
16.387701
12.251735
10.050535
9.667873
9.565949
9.261966
9.257793
8.923411
8.778572
8.986592
8.087754
8.546710
8.798838
8.556843
8.415580
8.299947
8.066893
8.298755
8.742809
9.206533
8.927584
9.890795
9.688735
9.793639
9.936690
10.311604
10.136962
10.547638
10.695457
11.203885
11.544824
12.619495
12.679696
14.553666
15.542507
17.803907
20.354986
21.745563
24.318695
26.329756
24.971962
25.983453
25.243759
24.169683
23.575425
22.385716
21.540523
19.931793
19.135475
19.000769
18.407702
18.302798
17.062426
17.803907
17.796755
17.846823
17.719865
16.535521
17.499924
17.528534
17.550588
##ZVALUE=255
1.758933
1.593828
1.581907
1.883507
2.240539
2.033710
2.281666
1.978874
2.478957
4.046559
20.809770
57.656765
160.706639
306.836963
621.145964
915.587544
1015.638709
1015.638709
1015.638709
1015.638709
1015.638709
933.411717
649.415851
338.952541
197.823644
110.931993
96.234679
109.144449
127.193928
144.093633
151.065588
145.823956
134.152770
106.578469
84.966421
56.905746
41.746497
23.344755
15.752912
10.866523
9.147525
8.931756
8.132458
8.278489
8.524656
7.644892
7.514954
8.035898
8.070469
7.916689
8.600950
7.412434
7.958412
8.508563
8.301735
8.271933
8.133650
7.905960
8.697510
7.913709
8.186698
8.746982
8.843541
9.151697
9.727478
9.475946
10.052919
11.215806
12.365580
13.010502
14.964938
17.809868
18.499494
20.589828
19.890666
20.625591
19.806623
19.018650
20.280480
18.488765
17.900467
17.321706
16.635656
15.927553
16.284585
15.058517
16.306639
16.467571
15.623569
15.599728
14.977455
16.427636
16.264915
15.030503
16.222596
15.821457
##ZVALUE=260
1.557469
1.396537
1.259446
1.365542
1.318455
1.651645
1.744628
1.695752
1.666546
1.870990
1.870990
2.575517
7.312894
31.675696
72.531700
181.390643
307.546854
550.198555
763.065815
999.334455
1015.638709
1015.638709
1015.638709
893.346667
604.484677
412.234664
231.449604
141.281486
89.612603
86.223483
101.185441
127.228498
142.078996
155.656934
146.549940
130.842924
109.068751
79.824924
59.001446
34.818649
23.701787
12.270808
9.436607
6.340742
5.886555
5.557537
5.458593
6.155968
5.798936
6.229877
6.300807
5.254745
6.000996
6.162524
5.599856
5.668998
5.857944
6.104708
6.366968
6.211996
6.418824
7.184744
6.820560
6.736517
6.938577
7.445812
7.526875
8.735657
9.552836
10.032654
10.905862
12.172461
13.181567
14.418960
14.365911
14.927983
14.602542
15.233755
14.208555
13.934970
13.748407
13.925433
13.459921
13.616681
12.859702
13.176799
13.017654
12.628436
13.348460
13.001561
12.928843
13.604760
13.697743
13.617873
13.460517
13.669729
##ZVALUE=265
1.250505
1.350641
1.189709
1.242757
1.236796
1.379848
1.338720
1.580715
1.555681
1.574755
1.540780
1.510978
1.979470
2.516508
4.539490
19.735694
48.746467
129.582882
234.165788
451.730490
663.938522
876.732469
1015.638709
1015.638709
1015.638709
1009.829640
792.929530
582.648516
334.976912
206.489563
123.660564
77.251792
82.321763
109.573603
129.097700
149.707794
153.324604
147.244930
133.948922
105.665922
83.425641
54.912567
37.453771
21.332502
12.829900
8.032918
6.743670
5.850792
5.648732
5.983710
5.599856
5.199909
5.951524
5.533695
5.505681
6.219745
5.854964
5.764961
6.127954
6.134510
5.955696
6.061792
6.128550
6.622672
6.449819
7.077456
6.989837
7.631779
7.475615
9.079576
9.871721
10.474920
10.885596
12.447834
13.120770
12.914538
13.338923
13.349652
12.680888
11.806488
12.388825
11.424422
11.487603
11.762977
12.001991
11.884570
12.333989
12.236834
11.917949
11.591911
12.696981
12.153983
12.660623
12.541413
12.481809
12.951493
##ZVALUE=270
1.323819
1.489520
1.397729
1.347661
1.433492
1.752973
1.498461
1.285672
1.661777
1.516938
1.565814
1.780987
1.756549
1.953840
2.036691
2.293587
2.805591
9.489655
28.348565
93.094707
182.535648
321.694613
624.600649
899.875760
1015.803814
1015.803814
1015.803814
1015.803814
1015.803814
898.767710
546.094775
323.869586
146.581531
82.000494
66.862702
81.555843
109.516978
127.253532
150.081515
153.670907
148.491859
133.784413
107.651949
85.235834
56.383610
39.062500
22.234917
14.418960
8.907914
6.866455
6.063581
5.921721
5.542636
5.836487
5.783439
5.954504
6.085634
6.437898
6.610751
6.142855
6.313920
6.513596
6.614923
6.449819
6.742477
6.929636
7.330775
7.445812
8.437634
8.854866
9.769797
10.530949
10.437965
11.539459
11.806488
11.947751
11.940598
11.805892
11.929870
11.280775
11.616945
10.798573
11.422634
10.720491
11.273623
11.018515
11.179447
10.815859
10.524988
10.911822
11.573434
11.579990
11.438727
11.545420
11.795759
12.105703
##ZVALUE=275
1.256466
1.104474
1.184940
1.096725
1.133680
1.287460
1.143813
1.129508
1.155734
1.378655
1.510978
1.602769
1.559854
1.962781
1.744628
1.873970
1.818538
2.109408
2.078414
4.752874
16.520619
48.477650
146.920681
283.827782
566.422939
819.301009
1015.638709
1015.638709
1015.638709
1015.638709
1015.638709
1015.638709
789.745450
404.915810
219.276547
93.865991
57.534575
60.158968
79.681873
107.331872
128.643513
144.490600
150.053501
145.154595
129.953623
104.131699
83.043575
56.580901
38.717985
21.848679
14.845729
8.843541
7.121563
5.472898
5.520582
5.955696
5.460978
5.571842
5.952716
6.082654
6.166697
6.393790
6.016493
6.036758
6.717443
6.497502
6.841421
7.366538
7.600784
8.774996
8.497834
10.018945
10.820627
10.806918
11.127591
10.836720
10.949969
11.044741
10.660887
10.218620
10.536909
9.899735
10.560751
10.237694
10.506511
9.498000
10.185838
10.202527
10.778904
10.799766
10.232925
10.396838
10.699630
10.033846
10.246634
10.544658
##ZVALUE=280
0.924468
1.046658
1.046658
1.084805
1.060963
1.163483
1.189709
1.146793
1.208782
1.312494
1.367927
1.227856
1.190901
1.132488
1.120567
1.372695
1.347661
1.684427
1.711845
2.007484
2.301931
3.069639
10.573864
34.694672
114.951730
217.059851
433.259606
666.143894
985.114574
1015.638709
1015.638709
1015.638709
1015.638709
1015.638709
729.568601
483.071804
238.162875
124.196410
53.657889
42.530894
56.774616
77.495575
105.659962
124.164820
142.295957
148.104429
142.406821
129.914880
104.854703
82.399845
55.195689
37.670732
22.322536
14.028549
9.052753
6.947517
5.828738
5.564690
5.413890
6.064773
5.858541
5.688667
5.632639
6.111860
6.276965
6.504655
6.484985
6.586909
7.252693
7.964969
8.440614
9.058714
9.510517
9.736419
9.965897
10.418892
10.264516
9.934902
9.855628
9.671450
10.241866
9.508729
9.851456
9.694695
9.636879
9.573698
9.545684
9.540915
9.232759
10.123849
9.670854
9.743571
9.382963
9.824634
9.569526
9.850860
##ZVALUE=285
1.118779
1.031756
0.944734
0.952482
1.120567
1.042485
1.076460
0.970960
1.334548
1.324415
0.998974
1.240969
1.286864
1.313686
1.245737
1.548529
1.516938
1.492500
1.767874
1.767874
1.601577
1.566410
2.008677
2.366900
5.855560
19.256473
68.627596
145.304799
334.048867
545.193553
808.697939
1015.681624
1015.681624
1015.681624
1015.681624
1015.681624
929.329991
582.613945
363.282561
169.909000
83.320737
37.375689
35.763979
54.712892
72.628856
100.515485
119.512677
136.321783
143.901706
138.970613
128.876567
104.543567
82.378983
57.056546
38.872957
22.343993
14.699697
9.640455
7.188916
6.062984
6.100535
5.982518
6.015897
6.511807
6.159544
6.626844
6.721616
7.027984
7.037520
8.005500
8.312464
8.753538
8.669496
9.623766
9.995699
10.096431
10.011792
10.034442
10.171533
9.578466
9.955764
9.839535
9.131432
9.540915
9.028912
8.783937
9.520650
9.479523
8.859634
9.668469
9.564757
9.197593
9.378791
9.521842
9.509921
9.317994
##ZVALUE=290
0.863671
0.996590
1.052618
0.847578
1.146793
1.115799
1.114607
1.119971
1.011491
0.999570
1.160502
1.062751
1.199841
1.405478
1.298785
1.471639
1.276731
1.465678
1.230836
1.383424
1.300573
1.646876
1.549721
2.210736
2.221465
2.336502
3.070831
7.844567
36.956668
90.056658
183.647871
409.752727
675.864816
1015.640497
1015.640497
1015.640497
1015.640497
1015.640497
1015.641093
796.242952
530.950427
265.498757
132.867694
48.540831
28.513670
34.540892
47.211647
70.091486
91.049671
115.184784
131.412745
138.976574
138.022900
121.742487
104.173422
76.760650
58.326721
36.331415
25.284886
14.825463
10.337830
7.359982
6.645918
6.357431
6.240606
6.619692
6.711483
7.260442
7.502437
8.157492
8.385777
8.757710
9.445548
10.208488
10.347962
10.078549
10.171533
9.958744
9.375811
9.431839
10.014772
9.399652
9.328723
10.058880
9.448528
9.737611
9.307861
9.388924
9.460449
9.211898
9.442568
9.120703
8.932948
9.564757
9.022951
9.368658
##ZVALUE=295
0.823736
1.145601
0.934601
0.829697
0.969768
1.040697
1.148582
0.982881
1.050830
0.971556
0.813603
1.009703
1.119971
1.072884
1.237988
1.085997
0.993609
1.225471
1.205802
1.382828
1.410842
1.503825
1.499653
1.488924
1.679659
1.768470
1.815557
2.045631
2.560616
3.919601
13.323426
58.746934
137.056708
335.022807
559.642911
949.538946
1015.626788
1015.626788
1015.626788
1015.626788
1015.626788
1000.585556
724.306703
369.604826
193.944573
66.979527
31.101704
21.831989
28.868914
46.150684
63.749552
89.715719
107.500553
125.532746
132.146478
129.833817
117.260814
98.524690
79.343915
53.828955
39.508939
23.937821
16.550422
10.801554
8.101463
7.444620
7.132888
7.062554
7.501841
8.077621
8.528829
8.717775
9.393692
9.287000
9.634495
9.506941
9.804964
9.586811
9.312630
9.451509
9.427667
9.287596
9.039640
9.686947
9.303689
9.575486
9.429455
9.526610
9.160638
9.185672
9.298921
9.194613
8.961558
8.793473
8.776784
8.854866
##ZVALUE=300
0.948906
0.942945
0.956655
0.846982
0.773668
0.908971
0.956655
0.974536
0.860691
1.091957
0.999570
0.930429
0.828505
0.880957
0.843406
0.970960
1.017451
1.088977
1.264811
1.222491
1.243949
1.321435
1.217723
1.377463
1.247525
1.465678
1.721978
1.636744
1.903772
2.076626
2.222657
2.486706
8.529425
30.526519
108.551979
216.951966
458.841920
696.910024
1007.198691
1015.638709
1015.638709
1015.638709
1015.638709
1015.638709
796.687007
529.905558
268.529654
140.923858
48.004985
21.495819
18.911958
25.680661
40.558577
56.575537
80.214739
98.079443
117.864609
125.572681
123.772621
116.373897
97.161531
78.447461
56.148767
40.509701
24.411678
17.551780
10.725856
8.688569
7.940531
7.928610
8.372664
8.466840
8.946657
9.409785
9.042621
9.734631
9.539723
9.477735
9.509921
9.405613
9.427667
9.359717
9.000897
9.376407
9.370446
9.474754
8.942485
9.233952
9.372830
9.169579
9.336472
8.919835
9.037852
9.492636
8.823872
8.953810
##ZVALUE=305
0.813603
0.872612
0.892878
1.038909
0.961423
1.042485
0.994802
0.910759
0.977516
0.982881
0.871420
0.692606
0.934601
1.039505
1.023412
0.965595
0.953674
1.217723
1.122952
1.105666
1.085997
1.017451
1.165867
1.240969
1.206994
1.430511
1.405478
1.442432
1.491904
1.542568
1.833439
1.920462
2.119541
2.342463
3.899932
19.968748
59.338808
171.101689
316.455960
595.233440
855.431557
1015.638709
1015.638709
1015.638709
1015.638709
1015.638709
996.039510
662.128925
421.459675
192.411542
90.287924
27.184486
15.092492
16.936660
23.769736
39.947629
56.127906
79.085827
94.231963
111.497641
118.804574
116.777420
110.518932
92.368722
74.372888
51.590800
37.741661
24.936795
17.103553
11.651516
9.816885
9.289980
9.044409
9.267926
9.709597
9.718537
9.477735
9.407997
9.219646
9.377599
9.595752
9.589791
9.421706
9.793639
9.947419
9.617805
9.467602
9.505749
9.419918
9.215474
9.183884
8.930564
9.091496
8.960962
8.581877
9.147525
##ZVALUE=310
0.786781
0.791550
0.914931
0.834465
0.755787
0.730753
0.833869
0.812411
0.924468
0.983477
0.827909
0.814795
0.824928
0.946522
0.887513
0.908971
1.162887
0.991821
0.992417
0.976920
1.045465
1.134872
1.075864
1.280904
1.297593
1.342893
1.285672
1.514554
1.278520
1.397729
1.459718
1.598597
1.834631
1.855493
1.981854
2.284646
2.644658
9.433627
31.974912
112.406015
226.571560
479.523540
737.193823
1015.638709
1015.638709
1015.638709
1015.638709
1015.638709
1015.638709
864.231586
585.625768
296.414495
154.412985
49.178600
19.613504
12.073517
15.155673
23.388863
33.444762
51.412582
66.315532
88.893771
102.202892
112.107992
113.168955
105.066895
91.066957
71.629882
55.904984
37.115812
26.578903
17.939806
13.586879
10.816455
10.076761
9.923577
9.688735
9.332895
9.295940
9.543896
9.646416
9.471774
9.318590
9.538531
9.564757
9.705424
9.248853
9.087920
9.504557
9.542704
9.567738
9.199977
9.302497
8.987784
8.693933
8.961558
##ZVALUE=315
0.813603
0.782609
0.817776
0.767708
0.862479
0.805855
0.760555
0.806451
0.744462
0.795722
0.785589
0.993609
0.882745
1.049638
1.012683
0.825524
0.913739
0.963807
0.959635
1.015663
1.047850
1.012683
1.048446
1.035929
1.042485
1.217723
1.064539
1.189709
1.285672
1.453757
1.260638
1.514554
1.639724
1.612902
1.617670
1.792908
2.031922
2.131462
2.419949
4.370809
15.309453
68.115592
153.999925
363.099575
599.840879
980.427861
1015.638709
1015.638709
1015.638709
1015.638709
1015.638709
1005.317569
754.438639
414.800048
227.799416
78.572631
29.457808
11.783838
11.133552
14.207959
20.221472
32.648444
44.697523
64.417720
80.802441
97.903609
105.159879
106.750727
101.514459
86.347461
71.437955
52.729845
39.038658
25.497675
18.785000
13.343692
11.146665
9.830594
9.712577
9.597540
9.614825
9.455681
9.459853
9.439588
9.533763
9.427667
9.459853
9.666681
9.950995
9.453893
9.495616
9.399652
9.321570
9.325743
9.149909
8.849502
##ZVALUE=320
0.854731
0.706911
0.648499
0.658631
0.849962
0.784993
0.781417
0.712872
0.844598
0.799894
0.770688
0.774860
0.939965
0.977516
0.867844
0.981688
0.972748
1.115799
0.904799
1.003742
1.035929
0.942945
0.810623
1.091957
0.863671
1.074672
1.017451
1.075864
1.131892
1.092553
1.196861
1.306534
1.394749
1.390576
1.463890
1.547933
1.552701
1.816750
1.832843
2.121925
2.093911
2.842546
6.765723
35.190582
92.896819
254.582763
436.918736
758.664608
1006.140709
1015.638709
1015.638709
1015.638709
1015.638709
1015.638709
946.353674
554.017425
330.164433
144.787431
60.131550
15.906692
9.979606
10.247827
13.196468
19.697547
28.140545
43.460727
59.211850
77.321529
89.232922
101.425648
103.340745
96.113682
85.735917
67.435503
52.152872
35.623908
26.008487
17.971992
13.674498
11.131763
10.094643
9.689927
9.766817
9.608865
9.558797
9.669662
9.325743
10.035634
9.386539
9.714961
9.630919
8.966923
9.278655
9.295940
9.259582
9.123683
##ZVALUE=325
0.883937
0.794530
0.761747
0.875592
0.870824
0.888705
0.929832
0.971556
0.995994
1.011491
0.968575
0.904799
1.039505
0.967979
0.880957
0.955462
0.746846
0.809431
1.059771
0.932813
1.093745
1.133680
0.948906
0.893474
1.028776
0.920892
1.047850
1.091957
1.236796
1.152754
1.204610
1.282692
1.328588
1.273751
1.394749
1.388788
1.552701
1.561642
1.512766
1.811981
1.863837
1.929998
2.129674
2.430677
4.269481
25.475621
68.359971
182.437897
338.485837
658.780932
937.950611
1015.705466
1015.705466
1015.705466
1015.705466
1015.705466
1015.705466
700.848699
451.217890
214.104652
101.625919
27.190447
12.025833
9.344816
9.910464
13.207793
18.230677
29.205680
40.700436
58.927536
73.464513
87.987781
95.903873
96.309781
91.562867
77.565908
64.390898
47.779679
35.633445
23.394823
17.968416
13.194680
11.440516
10.267496
10.074973
9.744763
9.854436
9.595752
9.480715
9.475946
9.318590
9.293556
9.397864
9.301901
9.283423
9.139776
##ZVALUE=330
0.752807
0.881553
0.723600
0.774860
0.762939
0.698566
0.880957
0.749826
0.793934
0.799894
0.730753
0.806451
0.887513
0.888705
0.888705
0.819564
0.961423
0.860691
0.939965
0.701547
0.805855
0.955462
0.925660
0.947714
0.819564
0.847578
0.996590
1.085997
1.114607
0.888705
1.164675
1.066923
1.128912
1.181960
1.073480
1.156926
1.304746
1.428723
1.454949
1.638532
1.507998
1.522899
1.662970
1.764894
1.986623
2.485514
2.670884
11.980534
38.732886
129.953623
254.314542
524.681807
794.906020
1015.638709
1015.638709
1015.638709
1015.638709
1015.638709
1015.638709
812.368989
538.556576
257.207751
132.162571
45.422912
16.560555
8.986592
9.401441
10.203719
12.552738
18.942952
26.322603
40.539503
53.189993
71.372986
82.357526
90.351701
91.731548
84.830523
73.973536
58.162808
45.619607
31.481981
24.742484
17.367601
13.887882
10.773540
10.670424
9.599924
9.440780
9.237528
9.007454
9.210706
9.162426
8.949637
8.849502
9.027719
##ZVALUE=335
0.745654
0.745654
0.677705
0.706911
0.735521
0.692606
0.736713
0.959635
0.876784
0.929832
0.816584
0.870824
0.972748
0.972748
0.845790
0.758767
1.065731
0.817776
0.810623
1.037717
0.796914
0.803471
0.927448
0.904799
0.987649
0.976920
1.023412
0.963807
0.890493
0.972748
1.006722
0.988841
1.009703
1.156926
1.247525
1.211762
1.174808
0.996590
1.247525
1.308918
1.320839
1.346469
1.571774
1.648664
1.712441
1.772642
1.901984
2.006888
2.126694
5.022883
18.257499
76.392889
163.794756
379.278660
624.957681
988.814831
1015.672684
1015.672684
1015.672684
1015.672684
1015.672684
882.732868
603.963733
322.864652
172.980428
58.169961
22.424459
10.174513
8.973479
9.237528
10.028481
12.799501
17.093420
26.718974
37.058592
52.846670
65.032840
77.166557
83.279610
84.201694
79.521537
67.568421
57.497621
43.237805
33.939481
23.535490
17.491579
13.097525
11.406541
9.686947
9.124875
9.072423
8.733869
8.865595
8.888841
8.530617
##ZVALUE=340
0.683665
0.715852
0.694990
0.761747
0.696778
0.722408
0.804663
0.709891
0.752807
0.661612
0.845790
0.669956
0.594854
0.805855
0.781417
0.819564
0.840425
0.690818
0.865459
0.824928
0.763535
0.824928
0.964999
0.776649
0.812411
0.900626
0.902414
0.867844
0.989437
0.889897
0.967979
0.953674
0.790954
0.959635
1.003742
0.925660
0.996590
1.105666
0.956655
1.016855
1.109838
1.328588
1.374483
1.373887
1.334548
1.309514
1.502633
1.678467
1.917481
2.131462
2.185702
3.130436
9.599924
46.476722
116.818547
300.028920
508.990884
864.663720
1015.638709
1015.638709
1015.638709
1015.638709
1015.638709
987.104774
727.157593
404.524803
225.447416
85.029602
34.387708
11.836886
9.021759
8.844733
9.061694
10.287762
12.224913
17.828941
24.699569
36.366582
47.444701
62.861443
72.326660
79.031587
79.358816
74.108839
67.062974
54.104924
43.655634
32.001734
23.730993
17.274618
13.216734
10.462999
9.710789
8.666515
8.558631
8.229613
##ZVALUE=345
0.657439
0.571609
0.566840
0.578761
0.715852
0.694990
0.555515
0.580549
0.663996
0.790954
0.715852
0.812411
0.619888
0.672936
0.648499
0.839829
0.744462
0.826716
0.844598
0.739694
0.836849
0.697970
0.858903
0.795722
0.919700
0.750422
0.891685
0.880957
0.878572
0.815988
0.848770
0.948906
1.040697
0.773668
0.941753
0.954866
0.916719
0.943542
1.147985
1.004934
1.168847
1.250505
1.244545
1.284480
1.321435
1.235604
1.427531
1.519918
1.418591
1.650453
1.578927
1.823902
2.017617
2.290606
4.571676
26.331544
75.010657
202.890635
367.745757
682.007670
960.582495
1015.634537
1015.634537
1015.634537
1015.634537
1015.634537
829.401612
486.053824
278.640985
109.716654
48.445463
16.140938
9.593964
9.040833
8.569956
8.596778
9.168983
11.603832
15.139580
23.445487
32.407641
45.514703
55.710673
65.994859
71.881413
73.691607
70.529580
62.156916
53.873658
41.956902
32.856464
22.488832
17.285943
12.222528
10.401607
9.059906
##ZVALUE=350
0.790954
0.729561
0.694990
0.667572
0.769496
0.783801
0.685453
0.665784
0.750422
0.803471
0.750422
0.726581
0.645518
0.891685
0.752807
0.708699
0.820756
0.702739
0.809431
0.839829
0.803471
0.750422
0.675917
0.840425
0.730753
0.808835
0.618696
0.798702
0.634789
0.874996
1.016855
0.996590
0.974536
0.985861
0.994802
0.892878
0.997782
0.885725
0.966787
1.068711
1.103878
1.060963
1.099706
1.149774
1.225471
1.224875
1.324415
1.326799
1.260638
1.547933
1.583695
1.554489
1.563430
1.885891
1.851916
2.080798
2.997518
12.506843
40.398836
132.010579
256.374478
527.386665
782.568455
1015.641689
1015.641689
1015.641689
1015.641689
1015.641689
972.680449
604.653955
363.698602
159.243941
72.702765
20.117760
10.507703
8.496642
8.131862
7.855892
7.916689
8.673668
10.261536
14.881492
20.476580
29.675961
37.915707
49.940944
57.631731
65.839887
67.757964
64.892769
59.280992
49.237609
40.607452
30.161738
23.529530
17.240644
##ZVALUE=355
0.717640
0.667572
0.690818
0.628829
0.671744
0.734925
0.597835
0.703931
0.655651
0.717640
0.599623
0.776649
0.733733
0.912547
0.731945
0.738502
0.775456
0.588894
0.677705
0.799894
0.730753
0.793934
0.837445
0.806451
0.664592
0.867844
0.930429
0.814795
0.834465
0.944734
0.904799
0.907779
1.003742
0.899434
0.847578
0.979900
1.057982
1.085997
1.103878
1.008511
1.017451
1.028776
1.044869
0.947714
1.148582
0.960827
1.088977
1.323819
1.369715
1.324415
1.422763
1.395941
1.356602
1.544952
1.609921
1.874566
1.952648
2.244711
2.398491
6.343722
22.302866
90.561509
191.013813
417.545438
657.147765
998.989940
1015.638709
1015.638709
1015.638709
1015.638709
999.833941
662.029982
414.103866
183.906555
89.511871
29.142499
11.910796
8.032918
7.697940
7.164478
7.569790
7.513762
8.022785
9.968877
12.510419
18.256903
24.555922
34.918785
42.327642
52.381754
57.573915
60.752630
59.194565
53.924918
47.650933
37.810802
##ZVALUE=360
0.847578
0.822544
0.705719
0.719428
0.660419
0.556707
0.713468
0.714660
0.687838
0.763535
0.841618
0.887513
0.936985
0.700951
0.793934
0.786781
0.798702
0.828505
0.807643
0.796914
0.763535
0.907779
0.978708
0.923872
0.842810
1.047850
0.904799
0.789762
0.920892
0.991821
0.954866
0.919700
0.937581
0.959635
0.981688
1.123548
0.968575
1.130700
1.080632
1.117587
0.907779
1.008511
1.087785
1.047850
1.051426
1.302958
1.225471
1.172423
1.308918
1.241565
1.337528
1.321435
1.484752
1.503825
1.342893
1.665950
1.539588
1.755953
1.990795
2.042651
2.247691
3.428459
9.811521
47.839880
118.236542
296.160579
496.448874
818.549991
1015.706658
1015.706658
1015.706658
1015.706658
1015.706658
799.015760
538.888574
267.194510
138.872862
49.443841
18.800497
8.478761
7.503629
7.271767
7.262826
7.108450
6.906986
7.534623
8.392930
11.104941
14.662743
20.699501
27.200580
37.727952
43.727756
51.251650
54.473877
54.318905
##ZVALUE=365
0.717640
0.687838
0.743866
0.828505
0.855923
0.833869
0.808835
0.861883
0.613928
0.849962
0.661612
0.794530
0.812411
0.739694
0.698566
0.861883
0.808835
0.685453
0.752807
0.752807
1.005530
0.780821
0.875592
0.790954
0.820756
0.789762
0.778437
0.798702
0.893474
0.928640
0.794530
0.817776
1.030564
0.922680
0.868440
0.825524
0.964999
0.975728
1.032948
0.985861
0.953674
0.928640
0.767708
0.953674
0.876784
1.083612
1.088977
1.221895
1.233816
1.132488
1.227856
1.117587
1.408458
1.283884
1.386404
1.355410
1.539588
1.568794
1.676679
1.690984
1.722574
2.080798
2.280474
2.589822
4.920959
26.353598
74.326992
200.411677
371.575952
688.558817
958.488584
1015.638709
1015.638709
1015.638709
1015.638709
979.990959
703.712702
383.361578
204.586983
72.426796
27.918816
9.328723
7.221699
6.954670
6.726980
6.627440
6.452799
6.329417
6.449819
7.414818
8.778572
12.729764
17.315745
25.111437
31.611919
39.534569
##ZVALUE=370
0.650883
0.660419
0.732541
0.727773
0.822544
0.678897
0.664592
0.703931
0.738502
0.626445
0.652671
0.657439
0.743866
0.904799
0.769496
0.735521
0.820756
0.693798
0.786781
0.774860
0.794530
0.725985
0.813603
0.710487
0.892878
0.889897
0.928640
0.846982
0.736713
0.871420
0.872612
0.892878
0.851750
0.966787
0.964999
0.952482
0.785589
0.739694
0.915527
0.988841
1.050830
0.833869
1.073480
1.060963
0.994802
0.787973
1.016855
1.024604
1.129508
1.060963
1.211762
1.104474
1.253486
1.156926
1.047850
1.342893
1.310706
1.511574
1.553893
1.443624
1.530647
1.693964
1.608729
1.784563
2.000928
2.373457
3.212690
15.019774
48.608780
162.819624
311.070681
590.547919
862.308741
1015.638709
1015.638709
1015.638709
1015.638709
1015.638709
790.995955
441.646576
243.105888
92.114806
41.752458
13.967752
7.684827
6.639957
6.097555
6.135702
5.853772
5.834699
5.790591
5.824566
6.632805
8.419752
10.876656
15.878677
##ZVALUE=375
0.686646
0.675917
0.722408
0.761747
0.676513
0.698566
0.638962
0.617504
0.706911
0.603795
0.761747
0.685453
0.777841
0.817776
0.838637
0.782609
0.791550
0.749826
0.785589
0.756979
0.615716
0.805855
0.610948
0.755787
0.740886
0.871420
0.807643
0.800490
0.754595
0.781417
0.844598
0.954866
0.780821
0.870824
0.846982
0.939965
0.965595
0.961423
0.878572
0.929832
0.963807
0.901818
0.901818
0.958443
0.896454
0.947714
0.870824
0.930429
1.028776
0.997782
0.994802
1.125932
1.127720
1.255870
1.120567
1.098514
1.011491
1.101494
1.132488
1.122952
1.196861
1.379848
1.421571
1.570582
1.580715
1.731515
1.818538
2.308488
2.676845
8.835793
32.377839
121.361613
260.061622
538.548827
821.274519
1015.638709
1015.638709
1015.638709
1015.638709
1015.638709
898.106694
547.165871
343.106985
166.590810
81.443787
24.792552
9.967685
6.439686
6.092787
5.626678
5.190969
5.386472
5.258918
5.083680
5.496740
5.988479
##ZVALUE=380
0.823736
0.668764
0.716448
0.698566
0.650883
0.661612
0.617504
0.751615
0.745654
0.616908
0.734925
0.592470
0.701547
0.753999
0.800490
0.682473
0.564456
0.714660
0.817776
0.822544
0.660419
0.770688
0.636578
0.744462
0.747442
0.810623
0.783801
0.702739
0.671744
0.774860
0.803471
0.658631
0.899434
0.743866
0.765920
0.836849
0.833869
0.876784
0.763535
0.798702
0.783801
0.931621
0.873804
0.742674
0.891685
0.971556
0.806451
0.972748
0.939965
0.888705
0.866652
1.010895
0.930429
1.089573
1.040697
0.928640
0.911951
1.113415
1.201630
0.973940
1.143813
1.092553
1.246929
1.197457
1.306534
1.546741
1.523495
1.696944
1.866817
1.988411
2.465844
4.111528
15.020967
73.196888
167.375803
386.080742
615.583658
954.426527
1015.638709
1015.638709
1015.638709
1015.638709
987.665653
670.827627
445.400476
218.220949
111.130476
37.141442
14.844537
6.485581
5.596876
5.148649
5.128980
5.010962
5.105734
4.971623
##ZVALUE=385
0.717640
0.702739
0.712872
0.718832
0.834465
0.800490
0.749826
0.694990
0.516772
0.705719
0.756979
0.684857
0.645518
0.842810
0.720620
0.725985
0.730753
0.686646
0.719428
0.804663
0.634789
0.771880
0.816584
0.949502
0.698566
0.609756
0.499487
0.718832
0.712872
0.811815
0.656843
0.846982
0.676513
0.737906
0.826716
0.499487
0.818968
0.766516
0.754595
0.716448
0.756979
0.791550
0.648499
0.844598
0.967979
1.008511
0.936985
0.816584
0.811815
0.751615
0.887513
0.937581
0.970960
0.885725
0.904799
1.024604
0.990629
1.052618
1.042485
1.099706
1.071692
1.171827
1.131892
1.308918
1.164675
1.424551
1.505613
1.606941
1.646876
1.806617
2.090931
2.144575
2.363920
2.973676
7.819533
45.882463
126.867890
319.864750
541.362762
932.787657
1015.638709
1015.638709
1015.638709
1015.638709
1015.638709
921.363831
643.127561
346.034765
196.251869
76.457858
28.868914
8.262992
5.628467
5.270839
4.982948
4.928708
##ZVALUE=390
0.547767
0.705719
0.692606
0.672936
0.635982
0.633597
0.706911
0.739694
0.588894
0.671744
0.674725
0.633597
0.559688
0.710487
0.600815
0.436902
0.682473
0.793934
0.747442
0.627637
0.794530
0.678897
0.747442
0.665784
0.866652
0.664592
0.566840
0.702739
0.793934
0.729561
0.758767
0.684857
0.745654
0.533462
0.807643
0.723600
0.662804
0.567436
0.758767
0.789762
0.695586
0.735521
0.835657
0.639558
0.801682
0.773668
0.707507
0.753999
0.815988
0.764728
0.904799
0.842810
0.852942
0.949502
0.900626
0.928640
0.930429
0.874996
1.024604
1.040697
1.027584
0.951886
0.949502
0.979900
1.187921
1.187921
1.264811
1.419783
1.308918
1.706481
1.713634
1.895428
1.979470
1.911521
2.053976
2.332926
3.628731
21.222830
69.653988
217.362642
409.910679
769.181848
1007.769704
1015.634537
1015.634537
1015.634537
1015.634537
1015.634537
821.928978
493.586659
283.952951
114.401579
50.980449
14.743805
6.493926
5.150437
##ZVALUE=395
0.542998
0.762939
0.748634
0.686646
0.568628
0.469685
0.524521
0.536442
0.641942
0.610948
0.729561
0.772476
0.687838
0.703931
0.637770
0.664592
0.858903
0.663996
0.711679
0.714660
0.529885
0.540614
0.614524
0.511408
0.577569
0.613928
0.721812
0.734925
0.649691
0.635982
0.668764
0.645518
0.727773
0.649691
0.695586
0.745654
0.696778
0.868440
0.666976
0.744462
0.584722
0.919700
0.857711
0.734925
0.781417
0.845790
0.712872
0.918508
0.781417
1.011491
0.846982
0.911951
0.836849
0.748634
0.809431
1.012683
0.796914
0.742674
0.892878
0.830889
0.926852
1.132488
1.095533
1.036525
0.915527
0.946522
1.317859
1.353621
1.352429
1.642704
1.808405
1.662970
1.652837
1.770854
1.866817
1.794696
1.879930
1.975894
2.652407
11.756420
44.867992
153.926611
288.020968
547.086000
816.816688
1015.633941
1015.633941
1015.633941
1015.633941
1015.633941
983.745456
620.175600
382.875800
165.547729
77.190995
24.348497
##ZVALUE=400
0.655651
0.543594
0.512600
0.544786
0.746846
0.632405
0.399947
0.662804
0.592470
0.502467
0.490546
0.594854
0.548959
0.578761
0.501871
0.657439
0.628829
0.685453
0.583529
0.651479
0.596642
0.629425
0.806451
0.673532
0.633597
0.513792
0.611544
0.685453
0.602603
0.762939
0.728965
0.586510
0.649691
0.635982
0.831485
0.747442
0.733733
0.675917
0.669956
0.750422
0.697970
0.716448
0.835657
0.757575
0.700951
0.698566
0.771880
0.755787
0.699759
0.737906
0.800490
0.644922
0.920892
1.011491
0.794530
0.893474
0.927448
0.998974
0.914931
1.103878
0.915527
1.171827
1.255870
1.052618
1.104474
1.130700
1.072884
1.305938
1.351833
1.509786
1.613498
1.755953
1.748800
1.489520
1.482964
1.700521
1.542568
1.647472
1.753569
2.004504
2.382994
5.897880
20.556450
80.561638
180.072784
411.911607
669.544935
1015.636921
1015.636921
1015.636921
1015.636921
1015.636921
1015.636921
796.898007
527.238846
256.456733
##END
