##TITLE=QP00602
##FORMAT=SPECTACLE-ASCII V-1.2
##DATA TYPE=ULTRAVIOLET SPECTRUM
##SECOND TYPE=ULTRAVIOLET SPECTRUM
##DATE=01/21/18
##TIME=13:09:39
##SPECTROMETER/DATA SYSTEM=SPECTACLE
##XUNITS=NM EM
##YUNITS=ENERGY
##YFACTOR=1
##FIRSTX=220
##LASTX=410
##NPOINTS=96
##3DDATA=Equidistant
##ZUNITS=NM EX
##FIRSTZ=210
##LASTZ=400
##ZPOINTS=39
##XYDATA=(Y..Y)
##ZVALUE=210
1.928806
1.928806
1.428723
1.710653
2.055764
2.325773
2.353787
2.191663
2.113581
2.503991
2.004504
2.095699
2.518892
2.954602
3.040433
2.755523
2.932549
3.010631
3.344417
4.283786
3.621578
3.073812
4.127622
4.203916
4.265904
5.239844
4.283786
4.644990
4.916787
4.288554
4.464984
4.633665
5.818605
5.059838
5.466938
5.048513
5.161762
5.810857
5.374551
5.256534
5.104542
5.720854
5.799532
5.513430
5.995631
7.016659
6.134510
6.053448
5.804896
6.773472
6.553531
5.909801
6.915927
7.243752
6.062984
6.863475
7.287860
7.832646
6.532669
7.299781
6.789565
7.101893
6.695986
8.333921
7.818937
8.088946
7.753968
9.030700
10.812879
12.307763
13.308525
16.547441
17.687678
21.563768
25.083423
27.489662
30.261874
34.747720
30.824542
33.252835
31.380653
28.186440
24.244785
21.199584
17.374754
13.495684
11.077523
9.413958
8.495450
8.187890
7.716417
8.348823
7.285476
8.682609
9.572506
8.827448
##ZVALUE=215
5.843639
5.439520
5.021691
4.556775
3.357530
3.443956
3.443956
3.109574
3.587604
3.771782
4.141927
3.875494
3.877878
2.944469
3.017783
2.399683
2.881885
3.504753
3.412962
3.789663
3.882647
3.963709
4.049540
3.613830
3.682971
4.103780
4.126430
4.622936
4.824996
4.818439
4.699826
5.035996
4.709959
5.598664
5.463958
6.235838
5.034804
5.827546
5.623698
6.476641
6.001592
5.882978
7.321835
5.527735
6.525517
6.060600
6.179810
6.107688
6.189942
6.817579
6.391406
7.329583
6.533861
7.352829
6.605983
7.131696
7.569790
7.259846
6.539822
6.619692
7.010698
7.358789
6.691813
7.457733
7.757545
8.077621
8.198619
8.474588
11.075735
12.852550
13.696551
14.512539
17.774701
20.251870
23.654699
26.407838
31.188726
29.612780
31.030774
30.731559
29.779673
28.145909
26.145577
22.897720
20.120740
14.365911
13.129711
9.475946
7.843971
8.201599
8.596778
8.522868
8.107424
8.241534
8.276701
8.227825
##ZVALUE=220
19.474626
20.469427
24.152994
25.514960
24.929643
20.458698
15.890598
11.838675
9.430647
10.316968
10.889769
11.483431
10.513663
10.700822
9.900928
8.093715
5.784631
5.021691
4.752874
5.201697
4.789829
5.202889
5.067587
5.520582
6.667972
6.012917
6.037951
6.103516
7.028580
6.779432
7.456541
7.774830
7.910728
7.908940
8.352995
9.023547
9.564757
8.720756
9.135604
9.235740
10.163784
9.921789
10.482669
10.935664
10.524988
13.081431
11.032820
10.405779
11.660457
12.845993
10.607839
12.900829
12.203455
11.402965
11.853576
11.744499
13.367534
12.914538
12.870431
12.850761
13.096929
13.248920
13.485551
13.324618
13.518929
14.960766
15.749931
15.959740
16.628504
21.786690
22.956729
28.295517
31.748414
36.722422
40.240884
45.142770
47.380924
50.495863
50.960779
55.182576
52.170753
52.500963
51.880479
47.081709
37.966967
31.275749
27.789474
20.714998
17.875433
15.359521
14.366508
14.993548
14.027953
12.769699
15.290976
12.899637
##ZVALUE=225
37.158728
38.555861
53.890944
73.613524
87.696910
94.168782
93.753934
81.149936
62.755942
48.722625
31.088591
24.962425
22.803545
24.215579
24.534464
24.998784
21.721721
17.407537
14.541745
10.548830
8.727908
7.105470
6.293654
6.790757
6.656647
6.964803
7.300973
8.161664
8.168817
8.165836
8.119941
9.038448
8.266568
9.567738
8.463860
9.267926
8.894801
9.690523
9.925961
11.169910
10.473728
11.283755
11.402965
11.847615
10.399818
10.910630
10.953546
11.139512
12.063980
12.021661
11.716485
11.504889
11.725426
12.134910
12.409687
12.644529
11.435747
11.312962
12.917519
12.284517
12.736917
13.728738
13.225675
12.301803
13.371706
13.745427
14.260411
13.976693
14.954805
17.230511
19.285679
21.616817
26.709437
29.933453
30.051470
30.272603
36.841631
34.376979
35.083890
34.288764
31.155944
30.004978
25.013685
22.339821
20.906925
18.003583
15.768409
14.986992
14.591813
13.839602
12.618899
13.175607
13.883710
12.725592
12.998581
11.850595
##ZVALUE=230
29.939413
32.995939
54.144859
98.682642
134.153962
172.647834
193.680525
197.586417
183.736682
156.858563
109.055638
77.567697
55.280924
44.758916
42.836666
45.985579
52.224994
46.803951
42.453408
36.649704
29.402971
18.935800
13.105869
9.056926
7.722974
6.431937
6.808639
6.037951
6.972551
6.541610
6.458759
8.092523
7.514954
8.134842
7.800460
7.846951
8.136630
8.041859
8.092523
8.543730
8.726716
8.853674
9.023547
8.786917
9.256601
9.240508
10.456443
10.138750
10.266900
9.712577
10.069609
10.613799
10.888577
9.877682
9.538531
10.772943
11.728406
11.108518
11.058450
10.389686
10.947585
12.351871
12.886524
12.998581
13.751984
12.657642
14.717579
12.916923
18.254519
17.773509
20.489693
22.176504
26.746988
26.712418
30.524731
28.644800
29.243827
32.066703
32.192469
31.781793
28.680563
27.293563
27.148724
25.199652
24.462938
23.323894
20.513535
20.119548
19.369721
19.579530
19.298792
18.300414
18.188953
17.698407
17.841458
18.067956
##ZVALUE=235
9.282827
10.878444
24.665594
64.983964
112.204552
182.124972
250.157714
340.744853
384.247899
405.763984
371.980667
311.900973
211.817622
154.877901
104.312897
77.960491
74.246526
74.726939
83.620548
82.605481
79.431534
65.916777
54.514408
39.364696
25.695562
16.050935
11.825562
8.388758
7.988811
7.827878
8.485913
8.108616
8.936524
8.130670
9.077787
8.593798
8.522868
9.780526
8.708835
8.952618
8.692741
8.687973
9.531975
9.075999
9.281635
9.014606
10.358691
9.223819
9.891987
11.024475
10.541677
10.082722
10.500550
9.779930
11.201501
12.038946
13.415813
11.998415
11.977553
12.939572
12.389421
13.717413
13.829470
14.984608
15.727878
16.478896
16.893744
19.097924
21.561980
22.846460
24.990439
26.071668
30.785799
31.737685
33.842921
34.462810
34.116507
35.736561
34.865737
33.527613
33.053756
33.083558
31.269789
28.539896
30.017495
28.819442
27.328730
26.626587
25.080442
24.452806
27.466416
24.898648
25.136471
24.989843
25.164485
24.318695
##ZVALUE=240
1.827478
1.928806
5.569458
14.820695
41.170716
79.371929
170.974731
265.498757
417.414904
527.683496
623.258948
653.422475
616.019964
522.286892
410.994887
269.612670
187.479854
123.014450
103.216767
102.854967
109.128952
112.817883
113.368630
101.265907
81.812739
66.445470
48.359632
33.824444
21.758676
16.381741
12.228489
9.907484
9.243488
9.716749
9.414554
9.675622
9.036660
8.638501
9.036660
9.352565
9.630919
8.841753
8.345842
9.534955
8.690953
8.216500
9.028912
8.978844
9.542704
8.723736
10.934472
9.361506
10.369420
10.979772
11.312962
11.373758
12.456775
12.112856
13.732910
13.839602
13.568997
14.575720
15.885830
15.108585
15.871525
17.112494
18.230677
19.445419
22.511482
23.067594
23.936629
29.579997
29.788613
34.563541
37.713647
36.729574
38.742423
39.164424
37.592649
37.394762
35.918951
34.337640
33.883452
34.200549
31.996965
33.224821
31.637549
31.983852
29.717684
31.174421
31.679869
31.138659
29.500723
29.348731
30.654669
30.813813
##ZVALUE=245
1.914501
1.681447
1.841784
1.885891
5.861521
18.594861
57.329535
120.071769
259.306431
393.051505
604.094863
728.361011
848.099589
897.866488
839.501619
714.636445
579.271913
398.152471
281.585455
162.599683
121.411681
107.142925
114.258528
125.696659
134.627819
131.050944
110.810995
98.729730
71.386695
55.615902
41.022897
27.625561
17.425418
12.614727
11.997819
11.333823
10.819435
10.136962
10.409951
9.598732
9.155869
9.455681
8.882880
9.130836
9.194613
9.817481
9.120703
9.495616
9.031892
10.128617
9.727478
9.818673
9.734631
10.034442
9.903908
11.073947
11.789799
10.788441
12.541413
11.949539
12.347698
13.342500
13.456941
14.483929
14.532804
15.822649
16.019940
17.950535
21.776557
23.074746
24.312735
27.688742
29.325485
32.422543
33.357739
33.796430
36.459565
34.248829
35.753846
34.289956
33.314824
34.076571
34.799576
31.250715
30.996799
29.574633
30.162930
32.223463
28.767586
31.215549
32.384992
28.625727
30.762553
30.522943
29.117465
31.244755
##ZVALUE=250
1.715422
1.741648
1.845956
1.454949
1.838803
2.228618
2.962947
8.918643
48.116446
115.332603
279.445648
454.528928
655.601025
900.713801
1013.476849
1015.638709
1015.638709
947.783589
781.801939
533.262491
359.667540
229.373574
132.955909
106.046796
110.844970
121.181607
138.094425
144.763589
136.616826
128.462911
104.607940
80.818534
60.975552
38.384795
27.536750
17.847419
12.745857
10.875463
10.371804
9.783506
10.085702
9.663701
9.821653
9.952784
8.845925
9.167790
8.598566
8.716583
9.100437
9.446740
9.207726
9.148717
9.076595
9.342432
9.810925
9.664893
10.061860
9.700656
10.625720
11.110902
10.363460
12.355447
12.042522
12.975931
13.559461
15.028715
15.018582
16.268492
18.177629
20.314455
22.590756
24.163723
26.006699
28.388500
28.305650
28.143525
28.795600
27.238727
29.317737
28.707981
29.422641
29.048920
28.375983
28.502941
28.772950
29.061437
27.583838
27.122498
27.785897
27.269721
27.510524
28.043985
26.954412
28.418899
28.917789
27.645826
##ZVALUE=255
1.542568
1.286864
1.725554
1.602769
1.469851
1.570582
1.677871
1.589656
2.422929
4.384518
21.251440
54.126382
118.645430
255.678892
414.858460
645.871758
813.919902
983.633995
1015.638709
980.679989
841.705799
674.551725
427.611470
269.209743
142.671466
100.932717
91.944933
105.153918
129.591823
142.176747
144.366622
144.699812
131.964684
106.156468
84.769726
54.282546
38.194656
23.010969
14.725924
9.711981
8.637905
8.014441
7.332563
8.024573
7.600784
7.557869
7.860661
7.185936
7.566810
7.200837
7.587671
7.938743
7.629991
7.923841
7.550716
7.843971
7.729530
8.156896
8.291602
9.191632
9.299517
9.342432
9.906888
10.417700
11.393428
11.828542
12.739897
13.145804
13.712645
15.511513
18.038750
18.756986
20.276904
20.350814
23.401976
23.684502
23.326874
25.383830
23.393631
25.100708
24.140477
23.987889
24.847984
24.505854
26.061535
25.632977
26.493669
25.614500
26.522875
26.484728
26.123524
26.678443
26.246905
24.811625
26.460886
25.535822
##ZVALUE=260
1.346469
1.581907
1.160502
1.252890
1.565814
1.597404
1.634955
1.737475
1.755953
1.637936
1.933575
2.578497
7.902980
33.670664
76.688528
199.235678
338.114500
582.388639
782.161951
1006.518602
1015.653014
1015.653014
1012.762785
861.839652
578.672886
402.656794
232.564807
146.673918
95.696449
87.988973
97.911954
129.990578
141.562819
151.350498
144.376755
126.236677
111.751556
83.205700
61.190724
36.623478
24.248958
14.594793
10.332465
8.285642
8.179545
8.147955
7.679462
7.316470
8.069873
7.492900
7.451773
7.808805
7.688999
7.812977
8.303523
8.015633
8.553863
8.096695
8.466840
9.160638
8.677840
9.925961
10.313988
11.307597
10.480881
10.999441
12.315512
12.363791
13.692975
15.133619
15.791655
18.613935
18.684864
20.462871
20.673871
21.566749
21.025538
21.416545
22.062659
22.325516
22.926927
23.191571
23.095608
22.465587
23.136735
23.576617
23.933649
22.452474
23.624897
24.274588
24.624467
24.462938
24.700761
24.748445
25.378466
25.893450
##ZVALUE=265
1.184940
1.234412
1.345873
1.204610
1.302958
1.401901
1.187921
1.450777
1.313686
1.326799
1.617670
2.143979
1.986623
2.315640
4.860759
22.723675
55.994987
151.573420
277.716517
541.787744
767.853856
977.457762
1015.633941
1015.633941
1015.633941
986.102819
718.639493
505.017638
270.342827
162.149668
89.676976
71.618557
79.427958
108.462572
128.398538
149.053931
152.788758
146.768689
134.312510
104.918480
83.419681
55.647492
39.011836
22.958517
15.623569
9.818673
8.488894
7.838607
8.190870
7.635951
7.631779
7.674694
7.804632
8.408427
8.803606
7.884502
7.866621
8.337498
8.584857
8.778572
9.431839
8.779764
9.973645
10.436773
9.916425
11.744499
11.449456
12.619495
13.467669
13.901591
14.717579
16.898513
16.785860
18.556714
19.590855
19.224882
19.612908
21.229982
19.136667
20.383000
20.871758
20.508766
20.529628
21.374822
21.357536
20.400882
21.959543
22.821426
21.699667
21.473765
23.112893
22.263527
22.962689
23.053885
22.791624
23.782849
##ZVALUE=270
0.713468
1.097918
0.941753
1.083612
0.940561
1.022816
1.188517
1.284480
1.297593
1.209974
1.240969
1.254678
1.125932
1.394749
1.632571
2.100468
2.483726
9.792447
29.670596
101.210475
206.479430
371.840596
686.462522
939.101577
1015.425920
1015.425920
1015.425920
1015.425920
890.068412
662.462711
393.712521
233.023763
129.292607
66.720843
62.180758
82.641840
105.438828
131.995678
146.230459
154.099464
149.184465
128.849745
110.309720
81.821680
58.616996
36.113858
24.688840
15.167594
11.405945
9.073615
8.052588
8.056760
8.049607
8.065701
7.904768
8.336902
8.547902
8.665919
8.748770
9.136796
9.103417
9.754896
10.005832
10.123849
10.329485
10.833740
11.229515
12.399554
12.627840
13.829470
14.236569
15.221834
16.482472
17.151833
17.897487
18.499494
17.789602
19.618869
18.713474
19.258857
19.340515
19.571781
19.499660
19.522905
19.740462
19.976497
20.321608
21.147728
20.310879
20.714998
21.224618
20.428896
21.245480
21.422505
21.507740
21.604896
##ZVALUE=275
1.094937
1.057982
1.082420
1.102686
1.080632
1.242757
1.380444
1.187921
1.384616
1.287460
1.595616
1.257658
1.505613
1.671910
1.599789
1.597404
1.860857
1.825690
2.339482
3.825426
19.861460
56.996942
175.234675
322.185755
548.970699
852.570534
1015.638709
1015.638709
1015.638709
1015.638709
1015.638709
814.130902
578.052998
314.520001
179.089904
80.733895
52.150488
61.437488
80.660582
106.523633
126.412511
145.822763
152.199864
147.414804
132.873654
103.338957
83.053708
58.320761
43.121576
25.564432
17.062426
11.921525
10.083914
9.059906
8.866787
8.638501
8.768439
9.368658
9.701848
9.602904
9.904504
10.240674
10.906458
10.699630
11.547804
11.286736
11.775494
12.919903
12.505651
14.020801
15.053749
15.965700
16.413927
16.356707
17.245412
17.299652
17.886758
18.867850
18.426776
19.177794
18.600821
19.139647
19.423962
20.005703
19.989610
19.937754
19.921660
20.221472
20.246506
19.330978
19.817948
20.714998
20.219684
20.358562
20.772815
19.835830
##ZVALUE=280
1.094937
1.045465
0.976920
1.184940
1.015663
1.052618
1.217723
1.311898
1.188517
1.010895
1.271963
1.286864
1.262426
1.262426
1.258850
1.235604
1.565814
1.543760
1.675487
1.938939
2.011657
2.542734
11.400580
38.824677
125.124454
236.749053
462.153554
691.905618
993.537903
1015.638709
1015.638709
1015.638709
1015.638709
966.385603
717.116594
410.020947
240.885019
104.689598
58.542490
44.174790
54.912567
80.919862
100.796819
127.954483
140.287876
148.652792
142.850876
127.820969
107.661486
78.850985
60.092807
38.137436
26.231408
16.228557
12.484789
10.328889
9.049773
9.111762
9.315610
9.506941
10.189414
10.018945
10.721684
11.312962
11.758804
12.128949
12.368560
12.860894
14.210939
13.708472
14.938712
15.421510
15.701652
16.879439
17.429590
17.881989
17.869473
18.439889
18.045902
17.961860
19.030571
18.852949
18.868446
18.545985
18.818974
19.433498
19.101501
19.965768
19.151568
19.734502
18.695593
18.743873
20.033717
19.855499
19.568801
20.008683
##ZVALUE=285
0.897646
0.940561
0.980496
1.184940
1.047850
1.133680
1.116991
1.192689
1.143813
1.171827
1.134872
1.169443
0.950694
1.272559
1.222491
1.478791
1.249909
1.413822
1.375675
1.560450
1.719594
1.906753
1.994967
2.155900
5.764961
19.014478
67.356825
144.619942
324.541926
517.037511
818.513036
1013.984680
1015.638709
1015.638709
1015.638709
1015.638709
798.721910
562.212467
301.906466
175.657868
72.575808
39.987564
36.548972
50.498843
73.757768
95.844865
119.949579
133.832693
142.951608
140.061975
124.841928
106.028914
80.129504
60.842633
40.032864
27.102828
16.848445
12.843609
10.491610
9.932518
9.919405
9.797812
10.550618
10.874867
11.535883
11.816621
12.671947
12.445450
13.366938
13.798475
14.391541
15.690923
16.378760
16.837716
17.832518
17.668605
17.930865
17.625690
18.318892
18.531680
18.712878
18.831491
19.031763
18.627644
19.106865
18.658638
18.901825
19.254684
19.249916
18.547773
19.117594
18.971562
18.900633
18.837452
19.125938
18.692613
##ZVALUE=290
0.929832
0.948906
0.891685
0.891685
0.868440
0.856519
1.058578
0.983477
1.123548
1.174808
0.878572
1.081824
1.025796
1.168847
1.159906
1.196861
1.077652
1.352429
1.417994
1.444817
1.390576
1.533628
1.662970
1.849532
1.947880
2.128482
2.813935
8.414984
39.138794
93.961954
182.580948
401.374698
637.435913
983.870029
1015.634537
1015.634537
1015.634537
1015.634537
976.812840
666.167736
445.072651
226.139426
118.490458
46.315789
27.045608
33.944845
46.271682
69.739819
87.855458
115.033984
130.077600
137.815475
136.626959
121.702552
103.614926
78.009963
59.117675
38.672686
27.679801
17.167926
13.611913
11.097789
10.337830
10.749698
10.657907
11.756420
12.055635
12.951493
13.115406
14.308691
14.540553
15.042424
16.083717
16.622543
16.892552
17.351508
17.096996
17.779469
17.631650
17.813444
18.579960
18.962622
17.990470
18.508434
18.883944
18.702745
19.324422
19.178987
18.856525
19.345880
18.284917
18.649697
18.476844
18.370748
18.894672
18.587708
##ZVALUE=295
0.796914
0.979900
0.918508
0.832677
1.024604
0.966787
0.971556
0.821948
0.951886
0.955462
1.049638
1.034737
0.970960
1.022816
1.393557
1.056790
1.242757
1.085997
1.183748
1.198649
1.256466
1.508594
1.513958
1.526475
1.754761
1.731515
1.929998
2.240539
2.361536
5.319715
18.297434
72.476864
155.789852
353.629589
565.719008
905.786753
1015.638709
1015.638709
1015.638709
1015.638709
1015.638709
847.500563
605.399013
339.618921
186.391473
70.565939
32.332540
22.177696
28.657913
45.991540
60.930848
85.507631
105.396509
125.378966
130.782723
129.128695
118.696690
98.266602
79.153776
55.482984
40.693879
26.368499
19.479990
14.185905
12.388825
11.613965
11.407733
12.455583
12.979507
13.685822
14.469624
15.122890
15.289783
16.224980
16.630888
17.517805
17.377734
17.778873
18.415451
18.162727
18.206835
18.992424
18.954873
19.106865
18.570423
19.200444
19.515753
18.817782
18.279552
18.872619
18.925667
18.849969
19.038916
18.849969
18.644929
18.398762
##ZVALUE=300
0.821948
0.719428
0.825524
0.811815
0.872612
0.958443
0.899434
0.811815
0.896454
1.182556
0.940561
0.891685
0.952482
0.976920
1.088977
1.037717
0.973940
1.117587
1.118779
1.125932
1.182556
1.231432
1.396537
1.311898
1.327991
1.306534
1.529455
1.834631
1.959801
1.878738
2.161860
2.534986
6.625652
38.730502
98.002553
251.771808
434.125662
777.719617
1010.119915
1015.638709
1015.638709
1015.638709
1015.638709
982.716680
745.661855
447.935462
278.971791
129.509568
60.309768
21.538734
17.724633
26.828647
37.875772
58.807731
77.573657
101.057887
116.124749
123.748779
124.387741
113.073587
98.301768
75.761676
59.208870
41.258931
29.502511
20.012856
15.906692
13.472438
13.411641
14.000535
13.969541
15.139580
15.841722
16.721487
17.295480
17.054677
17.884970
18.099546
18.655658
18.886924
18.653870
19.491911
19.468665
19.370914
19.225478
19.723773
20.012856
19.530654
20.236969
18.555522
18.837452
18.911958
18.946528
18.966794
18.509626
18.695593
##ZVALUE=305
0.824928
0.762939
0.829697
0.894666
0.966787
0.891685
0.931621
0.939965
1.033545
1.052618
0.991821
0.947714
0.883937
1.078844
1.018643
1.020432
0.954866
0.879765
1.063943
1.130700
1.002550
1.119971
1.314878
1.285672
1.205802
1.571774
1.598597
1.597404
1.623631
1.723766
1.762509
1.893640
2.104640
2.353787
4.041791
23.641586
66.251755
189.402699
345.780849
664.227009
943.791866
1015.644670
1015.644670
1015.644670
1015.644670
1015.644670
855.744481
547.238588
343.883634
156.329870
76.456666
26.367903
15.180707
17.474890
24.252534
39.922595
54.818988
76.814890
93.530416
111.069679
119.381547
117.078424
109.684467
93.565583
77.998638
55.681467
42.097569
28.973818
22.266507
17.768741
16.493797
15.392900
15.955567
16.846657
17.304420
17.642975
17.939806
17.730594
18.828511
19.301772
19.538999
19.390583
20.549893
20.158887
20.437837
20.180941
20.550489
20.037889
19.961596
19.979477
20.037889
19.593835
18.833876
18.920898
19.596815
19.004941
##ZVALUE=310
0.809431
0.703931
0.895858
0.752807
0.847578
0.949502
0.934601
0.819564
0.905991
0.824928
0.854731
0.866652
0.884533
1.055598
0.921488
1.019835
1.013875
1.167655
1.151562
1.095533
1.024604
1.058578
1.147985
0.975728
1.151562
1.060963
1.088977
1.266599
1.192689
1.181960
1.562834
1.574755
1.598597
1.920462
1.982450
2.146959
2.479553
11.071563
37.140846
125.021935
245.166421
521.849990
799.119473
1015.639901
1015.639901
1015.639901
1015.639901
1015.639901
1011.705399
692.303777
455.821753
226.032734
120.742917
43.575764
19.171834
12.424588
15.369654
23.536682
33.043623
51.210523
67.832470
89.062452
103.108883
113.445520
114.710927
105.850697
94.575882
76.704621
60.604811
42.540431
32.925606
24.366975
21.106601
18.523932
17.967820
17.902851
18.235445
18.404722
19.067526
18.897653
19.745827
20.438433
20.131469
19.988418
20.185709
20.587444
21.040440
20.512938
20.426512
20.709634
20.289421
20.315647
19.563437
19.503832
19.628406
19.626617
##ZVALUE=315
0.632405
0.735521
0.661612
0.625849
0.779629
0.708699
0.771880
0.635982
0.816584
0.820756
0.727773
0.841618
0.824928
0.680685
0.746846
0.667572
0.678897
0.823736
0.828505
0.774860
0.938773
0.998974
0.847578
1.037717
0.981688
1.025796
1.165867
1.132488
1.246929
1.338720
1.226664
1.326799
1.483560
1.591444
1.439452
1.691580
1.764894
1.902580
2.108812
5.107522
20.229816
87.419748
187.158585
414.915681
681.442022
1015.498638
1015.498638
1015.498638
1015.498638
1015.498638
1015.498638
856.677890
591.515899
306.196809
163.245797
59.628487
25.345683
11.858940
11.913776
15.667677
21.181703
34.313798
46.997666
66.211820
82.715750
98.625422
107.497573
109.546781
103.930831
89.342594
75.494647
56.715608
45.387745
32.522678
26.383996
21.444559
19.652843
19.213557
18.880963
19.552708
19.426942
20.174980
20.090938
20.575523
20.688772
20.743608
20.709634
20.792484
21.086931
20.521879
20.771623
20.428896
20.316839
19.911528
19.834638
19.944906
##ZVALUE=320
0.685453
0.838637
0.762939
0.898838
0.904799
0.714660
0.888705
0.813603
0.736713
0.763535
0.917912
0.841618
0.748634
0.864863
0.906587
0.825524
0.808835
0.916719
0.842810
1.084805
1.012683
0.906587
1.066923
0.881553
1.004934
1.077652
1.004934
1.056790
1.198649
1.282692
1.207590
1.325607
1.430511
1.527667
1.423955
1.641512
1.657605
1.744628
1.955628
1.979470
2.305508
2.999902
9.162426
51.393509
127.924681
325.670838
562.050939
967.273712
1015.638709
1015.638709
1015.638709
1015.638709
1015.638709
1015.638709
771.991611
413.403511
230.467916
95.617771
42.936802
15.359521
10.786653
12.256503
14.592409
21.176934
29.350519
45.174956
60.227513
80.594420
93.951821
103.009939
106.550455
100.473762
90.259910
73.169470
59.116483
43.947697
34.350753
26.808977
22.877455
20.760894
20.141602
20.239949
20.784736
20.481944
20.692945
21.204948
20.594597
21.104813
20.795465
21.308661
20.545721
20.930767
20.492673
20.446777
20.580888
20.300746
##ZVALUE=325
0.701547
0.780821
0.700951
0.882745
0.735521
0.774860
0.761747
0.839829
0.889897
0.826716
0.856519
0.834465
0.943542
0.761747
0.889897
0.869632
0.934601
0.883937
0.957847
0.965595
0.847578
0.820756
1.008511
0.996590
1.036525
0.966787
0.947714
1.122952
0.920892
1.096725
1.030564
1.154542
1.146793
1.191497
1.243949
1.373887
1.342893
1.399517
1.488924
1.489520
1.742840
2.022982
2.038479
2.560616
4.618764
29.180646
78.971982
216.424465
386.964679
732.159615
1003.251672
1015.638709
1015.638709
1015.638709
1015.638709
1015.638709
885.860920
508.899689
306.074619
136.212707
64.459443
21.135807
11.508465
10.744929
11.994839
15.283823
20.527840
31.352639
43.085814
62.472820
75.673461
90.645552
100.237727
101.309419
95.825791
82.409978
71.092844
55.210590
44.525862
32.667518
26.719570
23.010969
22.297502
21.083951
21.068454
20.703673
20.698905
20.962954
20.741820
20.893812
21.097660
20.587444
20.848513
20.482540
20.232797
19.992590
##ZVALUE=330
0.733733
0.599623
0.776649
0.571609
0.885725
0.779629
0.739694
0.879765
0.782609
0.799894
0.654459
0.748634
0.643730
0.927448
0.849962
0.647902
0.715852
0.781417
0.831485
0.925660
0.928640
0.791550
0.786781
0.942945
1.039505
0.898838
0.995994
0.974536
0.887513
0.933409
0.972748
1.110435
1.035929
1.111627
1.115799
1.311898
1.481771
1.471639
1.337528
1.426935
1.613498
1.490712
1.545548
1.771450
1.975894
2.299547
2.913475
11.966825
41.722655
143.477917
276.733637
557.248592
826.062560
1015.638709
1015.638709
1015.638709
1015.638709
1015.638709
998.494029
659.909844
421.271920
191.250443
95.036626
33.913851
15.289783
11.012554
11.272430
12.808442
15.703440
22.358894
30.054450
44.305921
57.228804
75.987577
87.550879
96.329451
96.269846
90.778470
81.727505
66.633821
55.028796
41.553974
33.888817
27.289987
24.111867
22.066832
21.532774
20.507574
20.640492
19.971728
20.112991
20.226836
20.499825
19.927621
19.988418
19.776821
##ZVALUE=335
0.705719
0.570416
0.765920
0.514984
0.696778
0.659823
0.652671
0.730753
0.671744
0.817776
0.736713
0.745654
0.832677
0.726581
0.756979
0.977516
0.816584
0.590682
0.845790
0.839829
0.944734
0.921488
0.845790
0.843406
0.958443
0.940561
0.833869
0.909567
1.120567
1.048446
1.029968
1.014471
1.016855
1.068711
1.162887
1.090765
0.939965
1.172423
1.172423
1.360774
1.271963
1.407862
1.511574
1.501441
1.634955
1.765490
1.872778
1.981854
2.387762
5.562901
21.931529
91.780424
196.182728
445.140004
722.360611
1015.638709
1015.638709
1015.638709
1015.638709
1015.638709
1015.638709
815.444589
550.737977
283.172727
148.056746
50.830841
21.755695
11.843443
11.018515
12.061000
13.193488
17.043948
21.322966
32.025576
42.251945
57.896972
70.115924
83.593726
89.452863
90.611577
86.239576
75.132847
66.257715
53.965449
44.321418
33.554435
28.658509
24.120808
22.043586
20.546913
20.010471
19.482970
19.990802
19.248724
19.276738
19.139647
##ZVALUE=340
0.513792
0.478625
0.563860
0.478625
0.485778
0.521541
0.490546
0.708699
0.695586
0.642538
0.640750
0.538826
0.498891
0.630617
0.414848
0.659823
0.631809
0.645518
0.543594
0.580549
0.663996
0.707507
0.524521
0.654459
0.514984
0.787973
0.676513
0.718832
0.628829
0.732541
0.762939
0.816584
0.835657
0.868440
0.886917
0.878572
0.909567
0.929832
0.982881
1.105666
1.088977
1.136661
1.278520
1.196861
1.210570
1.261830
1.373887
1.640916
1.761913
1.759529
1.987815
3.099442
9.995699
52.572489
135.684609
350.329876
601.059794
982.818604
1015.474796
1015.474796
1015.474796
1015.474796
1015.474796
966.476798
683.645010
359.109640
198.770761
82.551837
34.774542
12.881756
11.627674
11.789799
12.696981
14.092922
16.750693
22.496581
29.376745
41.489601
52.701831
69.100857
78.318715
85.233450
86.934566
82.269907
74.512959
62.317848
52.460432
41.210651
33.652782
26.985407
23.077726
20.419955
19.078851
18.788576
18.781424
18.365979
##ZVALUE=345
0.751615
0.770688
0.652671
0.694990
0.620484
0.739694
0.638962
0.753999
0.686646
0.660419
0.680685
0.661612
0.646710
0.734925
0.828505
0.758767
0.856519
0.750422
0.776649
0.728965
0.972748
0.921488
0.746846
0.738502
0.865459
0.919700
0.881553
0.777841
0.798702
0.838637
0.979900
0.889897
0.989437
1.094937
0.971556
0.962615
0.994802
0.928640
0.995994
1.192689
1.119971
0.950694
1.122952
1.160502
1.305938
1.308918
1.476407
1.463890
1.400709
1.679659
1.676679
1.954436
2.143979
2.410412
4.740953
30.122995
86.209774
228.027701
409.373641
753.282905
1008.815765
1015.638709
1015.638709
1015.638709
1015.638709
1014.887691
782.395005
445.764661
253.265500
105.301738
47.212839
17.168522
12.145638
11.718869
12.084842
12.381673
13.657808
15.737414
19.757748
28.617978
37.217736
50.804615
61.254501
72.363615
78.239441
80.548525
78.483820
69.763660
62.271953
50.227642
41.334629
31.346679
26.533604
21.961927
19.830465
18.729568
##ZVALUE=350
0.589490
0.525713
0.494719
0.572801
0.549555
0.499487
0.695586
0.717640
0.638962
0.594854
0.599623
0.602603
0.645518
0.616908
0.721812
0.660419
0.547767
0.576973
0.634789
0.739694
0.613928
0.571609
0.725985
0.730753
0.716448
0.645518
0.803471
0.579953
0.702739
0.728965
0.527501
0.789762
0.753999
0.842810
0.819564
0.911951
0.769496
1.090765
0.907779
0.811815
0.947714
0.889897
1.064539
1.051426
1.032948
0.925660
0.952482
1.216531
1.124740
1.230836
1.201630
1.641512
1.518726
1.585484
1.771450
2.063513
2.749562
14.432669
48.148632
155.302882
300.569534
615.952611
904.762745
1015.510559
1015.510559
1015.510559
1015.510559
1015.510559
899.811387
523.991585
315.156579
145.180821
67.447424
21.634698
12.602806
11.166930
11.212826
11.653900
11.749864
13.260841
15.372634
20.521879
25.494695
34.866929
43.240786
55.878758
63.873529
71.609616
73.453784
71.824789
66.879988
56.171417
47.559738
37.530661
30.689836
24.704933
##ZVALUE=355
0.761747
0.758767
0.716448
0.747442
0.598431
0.569820
0.743866
0.659823
0.635982
0.659823
0.795722
0.793934
0.889897
0.855923
0.760555
0.787973
0.786781
0.710487
0.843406
0.737906
0.696778
0.662804
0.749826
0.740886
0.840425
0.724792
0.712872
0.897646
0.859499
0.777841
0.839829
0.904799
0.901818
0.985861
0.970960
0.938773
0.972748
0.993609
1.026988
0.922680
0.971556
1.020432
1.084805
1.155734
1.262426
1.172423
1.231432
1.336932
1.231432
1.466870
1.485944
1.547933
1.669526
1.805425
1.696944
1.941919
2.054572
2.046824
2.478957
7.034540
25.437474
100.286603
209.855437
450.515747
716.360807
1015.638709
1015.638709
1015.638709
1015.638709
1015.638709
1012.887955
689.086914
436.132550
190.325975
89.952946
29.555559
13.911724
10.636449
10.696650
10.796785
11.224747
11.534691
12.432933
15.016794
17.821789
23.696423
30.453801
40.398836
48.331618
58.427453
64.338446
67.352653
66.290498
61.603785
54.627657
44.910908
##ZVALUE=360
0.667572
0.629425
0.803471
0.722408
0.790954
0.712872
0.707507
0.770688
0.654459
0.827909
0.747442
0.742674
0.698566
0.715852
0.638962
0.777841
0.709891
0.671744
0.724792
0.877976
0.725985
0.796914
0.869632
0.894666
0.929832
0.874996
0.903606
0.701547
0.997782
0.933409
0.856519
0.744462
0.834465
0.865459
0.882745
0.919700
1.028776
0.945926
1.017451
0.988841
1.071692
1.010895
1.138449
0.989437
1.234412
1.090765
0.918508
1.266599
1.342893
1.361966
1.263618
1.283884
1.332760
1.335740
1.628995
1.623631
1.713634
1.851916
2.007484
2.087951
2.408624
3.080964
14.653802
44.656992
142.862797
280.058980
586.172938
881.595612
1015.638709
1015.638709
1015.638709
1015.638709
1015.638709
834.642649
492.242575
295.548439
127.519965
56.299567
17.837882
11.094809
9.913445
10.296702
10.550618
10.483861
10.573864
11.272430
12.980700
14.909506
19.644499
24.653673
33.541918
40.468574
50.310493
56.482553
60.214996
60.215592
##ZVALUE=365
0.822544
0.756979
0.672936
0.680685
0.646710
0.695586
0.661612
0.645518
0.735521
0.622869
0.709891
0.818968
0.710487
0.768900
0.806451
0.890493
0.837445
0.851750
0.819564
0.704527
0.751615
0.765920
0.740886
0.829697
0.823736
0.719428
0.714660
0.809431
0.822544
1.016855
0.655651
0.917912
0.867844
0.884533
0.864863
0.938773
0.909567
0.863671
0.877976
0.896454
1.083612
0.893474
1.050830
1.083612
1.111627
0.959635
1.163483
1.138449
1.072884
1.108646
1.156926
1.290441
1.305938
1.061559
1.395941
1.416802
1.483560
1.608729
1.706481
1.822710
1.920462
2.072453
2.428889
2.553463
5.367994
32.389760
85.695982
219.990015
400.874615
751.236677
1000.015736
1015.638709
1015.638709
1015.638709
1015.638709
882.004499
617.972016
340.831876
187.652707
69.416761
28.581619
11.345744
9.592772
9.496808
9.486675
9.426475
9.630919
9.617805
10.169744
11.097789
12.870431
17.194748
21.157861
28.495789
35.079718
44.267774
##ZVALUE=370
0.667572
0.600815
0.646710
0.670552
0.816584
0.803471
0.699759
0.635982
0.666976
0.771880
0.656843
0.854731
0.656843
0.788569
0.693798
0.960827
0.747442
0.755787
0.576973
0.743866
0.804663
0.652671
0.688434
0.708699
0.772476
0.738502
0.868440
0.901818
0.986457
0.818968
0.841618
0.838637
0.813603
0.899434
0.796914
0.925660
0.999570
0.963807
0.772476
0.858903
0.955462
1.077652
0.885725
0.957847
0.952482
1.036525
1.260638
1.072884
1.003742
0.991821
0.952482
1.068711
1.050830
1.135468
0.998974
1.387596
1.491904
1.426935
1.571774
1.406670
1.434684
1.724958
1.784563
1.899600
1.954436
2.346635
3.161430
15.118718
52.374005
168.693662
308.701396
597.381592
883.271694
1015.634537
1015.634537
1015.634537
1015.634537
992.873907
756.890774
431.779623
249.840617
100.352764
44.203997
14.256835
9.272695
8.499622
8.554459
8.499622
8.478761
8.810759
8.923411
9.135604
10.117888
11.701584
14.214516
19.319654
##ZVALUE=375
0.557899
0.541806
0.525713
0.479817
0.489950
0.791550
0.395775
0.533462
0.572801
0.560880
0.666976
0.660419
0.532866
0.560880
0.529885
0.602603
0.590682
0.465512
0.592470
0.697970
0.623465
0.803471
0.851750
0.611544
0.623465
0.680685
0.687838
0.781417
0.738502
0.703931
0.640750
0.625849
0.648499
0.533462
0.770688
0.751615
0.792742
0.784993
0.822544
0.663996
0.796914
0.754595
0.739694
0.731945
0.886917
0.850558
0.934601
0.718832
0.874996
0.967979
0.899434
0.622869
0.932813
0.779629
0.887513
0.926852
1.046658
1.028776
1.156926
1.088977
1.200438
1.337528
1.164675
1.374483
1.395941
1.539588
1.721978
2.046824
2.474785
7.931590
29.040575
102.656484
219.109654
473.485589
726.535916
1015.511751
1015.511751
1015.511751
1015.511751
1015.511751
881.738663
547.183752
349.223018
174.473524
87.659955
27.852654
11.920929
7.919669
7.756948
7.802844
7.572770
7.878542
7.913709
8.204579
8.554459
9.108782
##ZVALUE=380
0.486970
0.480413
0.481606
0.527501
0.651479
0.715852
0.642538
0.603795
0.427961
0.659823
0.570416
0.597835
0.628829
0.488758
0.651479
0.686646
0.484586
0.571609
0.671744
0.572801
0.686646
0.629425
0.577569
0.534654
0.530481
0.658631
0.548959
0.601411
0.755787
0.873804
0.519753
0.635982
0.632405
0.615716
0.741482
0.668764
0.723600
0.812411
0.716448
0.659823
0.783801
0.747442
0.736713
0.794530
0.773668
0.873804
0.668764
0.746846
0.815988
0.703931
0.859499
0.870824
0.887513
0.928640
1.039505
0.906587
0.984669
1.007915
0.917912
1.113415
1.079440
1.153946
1.112819
1.197457
1.296997
1.319647
1.354814
1.499653
1.850724
2.196431
2.429485
4.168749
16.989708
78.913569
177.390575
400.720835
639.100671
987.004638
1015.534997
1015.534997
1015.534997
1015.534997
995.575786
691.167712
460.548997
225.116611
115.561485
40.801764
17.346740
8.245707
7.180572
6.970763
7.155538
7.233620
7.228851
7.321835
##ZVALUE=385
0.569820
0.679493
0.554919
0.522733
0.604987
0.691414
0.692606
0.633597
0.560880
0.628829
0.628829
0.638962
0.740886
0.785589
0.765920
0.709891
0.594854
0.735521
0.758767
0.637770
0.574589
0.778437
0.772476
0.572801
0.693798
0.833869
0.696778
0.782609
0.762939
0.686646
0.536442
0.644922
0.744462
0.728965
0.742674
0.717640
0.726581
0.693798
0.818968
0.866652
0.950694
1.000762
0.862479
0.714660
0.880957
0.759959
0.992417
0.846982
0.768900
0.818968
0.871420
0.816584
0.816584
1.079440
0.901818
0.991821
1.037717
1.118779
0.974536
1.043677
1.116991
1.045465
1.198649
1.308918
1.204610
1.166463
1.370907
1.546741
1.651645
1.943707
2.074838
2.143979
2.310872
2.587438
8.709431
31.092763
114.018917
241.638422
518.225431
799.653530
1015.638709
1015.638709
1015.638709
1015.638709
1015.638709
963.237882
598.662496
375.940800
166.747570
80.134869
26.676655
10.936856
6.935596
6.489754
6.707907
6.562471
##ZVALUE=390
0.649691
0.695586
0.579953
0.566840
0.640750
0.689626
0.512600
0.620484
0.767708
0.654459
0.587702
0.561476
0.600815
0.779629
0.672936
0.804663
0.588894
0.642538
0.567436
0.571609
0.707507
0.660419
0.701547
0.700951
0.651479
0.776649
0.793934
0.634789
0.538826
0.615716
0.681877
0.778437
0.735521
0.665784
0.684857
0.677705
0.787973
0.610948
0.770688
0.710487
0.796914
0.709891
0.736713
0.886917
0.734925
0.884533
0.764728
0.845790
0.775456
0.861883
0.868440
0.840425
0.858903
1.018643
0.961423
0.897646
0.824928
0.828505
0.996590
0.979900
0.996590
0.987649
1.068711
1.069903
1.260638
1.220703
1.251698
1.329780
1.418591
1.590848
1.757741
1.920462
1.744628
2.130866
2.034903
2.300739
4.012585
22.473931
69.775581
206.683874
385.944843
727.769732
988.121033
1015.638709
1015.638709
1015.638709
1015.638709
1015.638709
809.944868
485.060811
279.495716
113.231540
50.233603
14.209747
7.380843
6.488562
##ZVALUE=395
0.406504
0.434518
0.475645
0.418425
0.531673
0.574589
0.397563
0.548959
0.367761
0.517964
0.535846
0.634789
0.450611
0.480413
0.611544
0.584722
0.400543
0.488758
0.562668
0.565648
0.588894
0.573993
0.409484
0.647902
0.453591
0.416636
0.747442
0.614524
0.600815
0.511408
0.611544
0.479817
0.691414
0.654459
0.579953
0.528693
0.630617
0.551939
0.691414
0.663996
0.600815
0.589490
0.622869
0.575781
0.726581
0.531673
0.681877
0.714660
0.597835
0.751615
0.635982
0.598431
0.765920
0.812411
0.835657
0.678897
0.716448
0.748634
0.834465
0.842810
0.865459
0.959635
0.887513
0.906587
0.940561
0.975728
0.993609
1.220703
1.353621
1.480579
1.491904
1.603961
1.762509
1.595616
1.733899
1.602769
1.759529
2.161860
2.500415
13.248920
49.790740
165.727735
305.369496
569.135547
838.387609
1015.510559
1015.510559
1015.510559
1015.510559
1015.510559
1015.510559
673.837662
422.634482
185.185671
87.772608
26.838779
##ZVALUE=400
0.568628
0.582933
0.642538
0.556707
0.553727
0.526905
0.743866
0.557899
0.565648
0.596642
0.465512
0.621676
0.707507
0.642538
0.639558
0.526905
0.701547
0.658631
0.749826
0.610948
0.741482
0.650883
0.840425
0.824928
0.801682
0.561476
0.813603
0.820756
0.705719
0.754595
0.740886
0.672936
0.755787
0.639558
0.681877
0.849962
0.837445
0.819564
0.809431
0.874996
0.763535
0.684857
0.680685
0.684857
0.814795
0.768900
0.886917
0.793934
0.839829
0.749826
0.996590
0.851750
0.827909
0.901818
0.738502
0.918508
0.813603
0.869632
0.940561
0.926852
1.070499
1.023412
1.058578
1.057982
1.161695
1.169443
1.230836
1.429915
1.594424
1.489520
1.793504
1.766682
1.904964
1.656413
1.764894
1.699924
1.747608
1.874566
1.982450
2.284646
2.491474
6.988645
27.543902
105.721951
224.861503
493.162870
782.280564
1015.638709
1015.638709
1015.638709
1015.638709
1015.638709
1015.638709
824.208856
529.036522
256.744623
##END
