##TITLE=QP00302
##FORMAT=SPECTACLE-ASCII V-1.2
##DATA TYPE=ULTRAVIOLET SPECTRUM
##SECOND TYPE=ULTRAVIOLET SPECTRUM
##DATE=01/21/18
##TIME=12:38:59
##SPECTROMETER/DATA SYSTEM=SPECTACLE
##XUNITS=NM EM
##YUNITS=ENERGY
##YFACTOR=1
##FIRSTX=220
##LASTX=410
##NPOINTS=96
##3DDATA=Equidistant
##ZUNITS=NM EX
##FIRSTZ=210
##LASTZ=400
##ZPOINTS=39
##XYDATA=(Y..Y)
##ZVALUE=210
1.237988
1.266599
1.397729
1.338720
1.923442
2.012849
1.384616
1.557469
1.722574
2.303720
2.068877
2.215505
2.372861
2.094507
1.962781
2.179742
2.693534
3.278852
2.710819
3.325939
2.729893
4.141927
3.918409
3.625751
3.853440
4.205704
4.295707
4.623532
5.087852
4.805923
5.254745
6.470680
5.592704
5.925894
5.944967
6.209612
5.820990
5.639791
6.766915
6.481409
7.079840
7.253885
7.650852
7.560849
7.104874
8.308887
8.627772
8.362532
8.446574
8.606911
8.815527
8.952618
9.602904
9.595752
10.700822
9.693503
9.645820
10.251999
9.378791
10.172725
10.804534
10.994673
11.486411
10.350943
11.496544
11.572838
12.971759
15.298724
16.711950
20.099878
22.492409
27.731657
31.295419
36.268830
38.503408
40.967464
41.779876
41.310787
42.120814
38.763881
37.015676
32.302737
28.889775
24.745464
21.463633
16.850829
14.690757
13.444424
12.635589
11.767745
10.163784
11.129975
10.397434
10.613799
11.542439
11.124611
##ZVALUE=215
5.064607
4.860759
4.077554
3.849864
3.419518
3.703833
3.197789
3.444552
3.338456
3.839731
3.917813
3.576875
2.917647
3.558993
2.695918
2.710819
2.416968
2.840757
2.661943
2.561808
3.006458
3.513694
3.671646
4.019737
4.714727
4.325509
4.002452
4.206896
5.310774
4.719496
5.084872
5.464554
5.220771
5.930662
5.691648
6.337762
6.908774
7.494688
7.898808
7.343888
7.528663
8.312464
8.237958
7.079840
8.541942
7.674694
9.318590
8.859634
9.789467
9.248853
9.431839
9.498596
9.018779
10.047555
10.267496
9.412766
10.321736
10.674000
10.577440
9.928942
11.066794
10.862947
11.705756
11.432767
11.594892
10.944605
13.104677
14.122725
16.234517
19.806623
22.940636
26.716590
28.934479
32.247901
35.958886
38.565993
38.658977
36.732554
35.545826
34.394860
31.502843
26.010871
23.591518
20.151734
18.038750
16.301870
13.850927
12.904406
11.689663
10.827780
10.815859
11.173487
9.957552
10.982752
10.652542
12.483597
##ZVALUE=220
18.578768
20.208955
21.402836
26.711822
26.127696
22.988915
17.616749
13.564825
11.790991
10.198951
11.151433
10.679960
10.898709
10.184646
9.692907
6.923676
5.603433
5.898476
4.271865
4.812479
4.237890
4.820824
5.313754
4.671812
5.543828
5.662441
5.055666
6.062984
6.769896
7.150769
7.394552
7.216930
6.589890
6.568432
7.325411
8.160472
7.118583
8.778572
8.854866
8.365512
8.720756
9.086728
9.091496
9.068847
10.149479
9.778738
10.259748
10.203719
10.728836
10.125637
10.676980
10.770559
11.210442
10.800958
11.404753
11.713505
11.571646
10.870695
12.415648
11.155605
11.688471
12.073517
11.497736
11.704564
13.117790
13.305545
13.214946
16.003847
16.455650
18.771887
21.421909
26.785731
29.233694
32.680631
37.210584
38.970709
39.525628
37.197471
33.248663
31.976700
28.486848
26.506782
24.298429
22.756457
19.612908
17.239451
16.169548
13.781786
13.497472
10.916591
12.139678
11.426806
12.093782
12.458563
11.652708
12.452602
##ZVALUE=225
36.025643
36.644936
51.671863
71.515441
79.291463
83.724856
77.473521
61.766505
49.060583
35.044551
25.767684
23.382902
21.965504
23.495555
25.539994
24.572611
21.238923
15.751719
14.393926
9.680986
7.882714
5.464554
5.248785
5.352497
4.995465
6.829500
5.097985
6.443858
6.286502
7.106662
7.464886
6.778836
6.646514
7.765889
7.685423
8.796453
7.932782
8.875728
10.277629
9.036660
8.802414
10.319948
11.691451
10.284781
11.237860
11.058450
10.229945
11.902452
11.541843
11.759996
10.811687
12.354851
12.577772
11.487603
11.648536
12.413859
13.889670
13.429523
12.969971
13.556480
14.891624
14.717579
13.478994
14.877915
16.382933
14.496446
17.237663
17.495751
19.068718
20.838976
22.736788
27.485490
31.017661
32.202601
31.801462
32.724738
33.082962
30.595660
31.883717
28.978586
26.420951
24.315715
22.686720
20.736456
18.751621
18.206835
17.065406
17.032623
16.385913
16.963482
17.174482
16.036630
15.291572
14.994740
14.190674
14.466643
##ZVALUE=230
27.770996
31.134486
52.408576
95.336437
131.935477
165.896416
187.518597
195.613503
184.835792
144.250989
112.425685
74.691772
57.528615
46.807528
48.012733
50.507784
47.969818
49.140453
43.853521
37.415624
26.889443
20.853877
10.860562
8.314848
6.902814
5.283952
5.730987
5.854964
6.998777
6.668568
7.002950
7.519722
7.839799
7.771850
8.125901
9.680986
8.604527
8.869767
9.905696
10.286570
10.201931
9.674430
9.823442
12.329817
10.482669
11.384487
10.030866
10.460615
12.720823
11.493564
12.581944
12.216568
13.813972
12.206435
12.109876
12.780428
14.254451
15.088916
13.884902
15.499592
15.289783
15.102625
16.393661
17.010570
16.371608
17.306805
18.941760
21.348596
21.938682
25.166869
26.711822
31.535625
30.296445
34.848452
37.878752
36.395788
35.763979
34.902692
33.941865
33.359528
30.705929
26.488900
26.106834
25.629997
23.530722
23.250580
22.084713
20.666718
20.522475
22.164583
21.144748
19.178987
21.437407
20.263791
21.664500
19.971728
##ZVALUE=235
9.290576
12.377501
25.788546
67.166686
109.565854
186.456442
264.423490
351.955891
396.520495
407.880545
384.509563
318.615437
227.597952
164.098740
109.056830
85.854530
76.761842
79.455972
88.423491
87.780952
81.725717
70.137978
54.685473
38.730502
26.651621
14.567971
11.904836
8.485913
7.630587
8.277893
8.037686
8.293986
7.713437
9.144545
9.437799
9.326935
9.628534
11.195540
10.984540
10.582805
11.261702
11.133552
11.147857
11.982918
13.542771
12.840629
12.013912
13.659596
12.321472
13.452768
14.536977
12.996793
14.046431
14.395714
16.037822
16.009808
15.354753
16.578436
17.602444
18.400550
16.732812
18.933415
20.223856
20.722747
20.026565
20.317435
23.977757
24.410486
26.487708
27.629733
34.491420
36.288500
39.054751
42.288899
42.524934
44.468641
44.327974
43.504834
41.944981
40.509701
36.785603
36.427975
34.929514
33.287406
31.629801
32.799840
31.416416
30.104518
28.706789
29.515624
30.334592
30.488968
29.821992
28.721690
28.857589
30.048490
##ZVALUE=240
1.635551
1.289845
5.079508
13.145804
38.121939
75.288415
163.157582
261.899829
412.118435
509.208441
615.206957
628.484488
587.316751
479.072928
385.117531
245.460868
173.518658
115.993619
97.272992
99.776983
104.634762
111.699700
109.152794
100.577474
81.989765
65.540671
44.426918
32.712817
19.493699
14.368892
10.807514
8.500814
8.870959
8.999705
9.084940
9.847879
9.224415
9.992719
8.971691
9.253621
9.945631
10.544658
10.001659
11.035800
10.172725
10.470748
10.397434
10.518432
11.422634
10.993481
11.699796
12.592673
12.006760
13.211966
12.779832
13.369918
14.528632
15.635490
14.716983
16.899705
17.515421
18.567443
16.906857
19.060969
19.672513
20.232797
21.736622
24.732947
26.692748
27.304888
32.300949
33.495426
36.123991
41.366816
42.167902
42.737722
41.903853
42.222738
44.396520
40.308833
38.443804
37.814975
37.537813
35.695434
35.978556
33.373833
31.445622
33.474565
32.678843
31.711459
33.881664
31.310916
33.198595
31.240582
33.663511
32.127500
##ZVALUE=245
1.424551
1.169443
1.593828
1.580715
3.333688
9.733438
34.825802
78.910589
185.469985
289.133787
474.503636
610.967875
721.513629
797.867775
774.230957
659.288764
545.184612
375.425816
264.411569
158.784986
114.048719
101.962686
111.137629
121.947527
125.422478
121.648908
109.844804
93.978643
69.131851
53.394437
37.820935
22.696853
15.938878
10.000467
9.841919
8.904934
9.144545
8.456707
9.445548
9.060502
9.649992
9.414554
9.632707
9.200573
9.931922
10.137558
9.672642
9.332895
9.503961
10.303855
10.615587
10.746717
10.551810
12.624860
11.654496
11.947751
12.062788
13.595819
12.514591
12.675524
13.620853
15.221834
16.461611
15.716553
17.564893
17.810464
19.234419
22.519827
21.272898
26.848912
28.623939
30.687451
34.361482
37.170649
37.519932
39.049983
39.085746
37.276745
37.928820
35.065413
36.661625
34.868717
34.378767
34.919977
33.351779
34.081936
31.770468
33.263564
32.672882
32.050610
33.909678
31.262636
32.512546
32.142997
32.688975
34.862757
##ZVALUE=250
1.206994
1.658797
1.542568
1.767874
1.613498
1.873970
2.551675
7.107854
29.815435
67.573786
170.142651
290.778875
437.372923
645.812750
782.473683
915.613770
922.165513
833.941698
709.486008
500.251651
342.697501
219.988823
124.559999
100.490451
99.945664
114.960670
129.908919
134.612918
132.402778
118.217468
100.499988
75.661540
57.592988
36.364794
24.485588
15.044808
12.118816
8.726716
9.577870
8.877516
8.571744
8.751750
9.194613
9.442568
8.659959
9.493828
9.302497
9.474754
8.786917
9.233952
9.608865
9.168983
10.213852
9.659529
9.445548
10.677576
11.242628
11.560917
11.719465
12.669563
12.645721
13.209581
14.548898
13.953447
15.394688
15.620589
17.707944
18.913746
19.720793
22.509694
24.479628
26.856661
28.430820
31.984448
34.157634
34.152865
33.227801
34.615993
32.826662
33.387542
31.860471
31.317472
32.754540
30.269623
31.438470
30.072927
31.027794
30.263662
28.659701
31.419992
30.358434
31.148791
30.414462
30.254722
29.482841
30.753613
##ZVALUE=255
1.003742
1.103878
1.176596
1.241565
1.244545
1.493692
1.389980
1.535416
1.917481
3.084540
16.963482
47.096610
132.055879
230.026841
412.573814
588.157773
812.580585
932.026505
993.039012
956.884623
841.597915
624.638796
446.572900
257.492661
160.610676
99.245906
87.849498
100.183487
117.340684
133.914948
136.941671
134.643912
124.541521
99.242926
78.753829
53.850412
37.926435
20.919442
13.604760
10.472536
9.533763
8.971691
8.712411
8.363724
8.447766
8.465648
8.984804
8.623600
8.092523
8.954406
8.046627
9.126663
9.291768
8.809566
9.255409
9.658933
10.740757
10.089874
10.917783
10.165572
11.341572
11.223555
12.440681
12.670755
13.399720
14.332533
14.830828
15.970469
17.672777
19.410849
21.003485
22.510886
25.873780
27.619600
27.145743
28.069615
29.087663
28.377771
29.160976
27.874708
27.165413
27.675629
28.096437
27.158856
26.894808
26.492476
27.766824
27.300715
27.116537
27.186871
27.556419
27.576685
28.232932
28.510690
28.529763
27.055740
##ZVALUE=260
0.964999
1.050830
1.245737
1.115799
1.337528
1.237988
1.176000
1.308918
1.600981
1.455545
1.575947
2.522469
8.270741
38.013458
87.993741
211.407542
352.466702
601.293445
784.894824
1002.873778
1015.638709
1015.638709
973.961949
806.258917
546.904802
381.013751
218.412876
132.865906
85.920691
81.706643
99.439621
118.731856
133.430958
141.902566
140.998960
124.773979
106.517673
76.298714
59.137940
36.501884
24.495721
15.150905
11.361837
8.944869
9.234548
8.331537
8.289814
8.582473
8.059740
8.725524
9.084940
8.848906
9.117723
8.808970
9.315610
9.052753
9.218454
9.528995
9.010434
10.285974
10.141730
10.743737
11.117458
11.079907
11.796951
12.865663
13.122559
14.536977
15.264750
17.229915
18.147826
20.362735
20.977855
23.379922
24.038553
24.868846
24.225712
25.541782
25.152564
24.356842
24.435520
24.619699
24.580956
24.552941
25.062561
24.857521
23.958683
25.177598
24.486780
25.742650
26.511550
25.769472
25.186539
25.552511
25.799870
25.709867
##ZVALUE=265
1.057982
1.232624
1.090765
1.036525
1.088977
1.216531
1.092553
1.228452
1.219511
1.360774
1.450777
1.461506
1.920462
1.987815
4.029870
20.826459
58.294535
164.821744
297.159553
564.732552
790.549517
997.668505
1015.638709
1015.638709
1015.638709
987.927914
733.699799
534.850955
312.202573
195.403695
103.997588
75.988770
77.036619
102.236867
122.143626
142.232776
145.763755
140.820742
126.308799
102.760792
81.602931
56.177974
39.793849
23.218989
16.477704
10.731816
9.845495
9.130836
9.235740
8.674860
8.881688
8.871555
8.895993
9.131432
9.445548
9.691715
9.405613
9.799600
10.018945
10.498762
10.105968
10.412931
10.398626
10.985732
11.483431
12.265444
12.657642
13.547540
13.641715
15.667677
17.022491
18.670559
19.538999
20.142794
21.566749
22.026896
22.223592
22.148490
21.645427
22.730827
21.690726
21.719933
21.685958
22.741556
22.805929
22.746921
23.899674
22.958517
23.931861
23.372769
24.064779
23.552775
23.507476
23.643970
24.883747
25.150776
##ZVALUE=270
1.033545
0.980496
1.064539
0.887513
0.929832
0.996590
1.360774
1.186728
1.135468
1.018643
1.441836
1.541972
1.684427
1.665950
1.754761
1.811981
2.480745
8.384585
26.357770
97.056627
205.699801
443.667769
672.426820
987.615585
1015.638709
1015.638709
1015.638709
1015.638709
999.509692
727.802515
507.103801
269.363523
156.684518
77.305436
63.667893
79.551935
100.878477
127.697587
140.336752
146.627426
143.616796
127.775669
107.648969
79.637766
60.068965
37.543774
26.274920
16.308427
12.187958
10.022521
9.626746
9.127855
9.424686
9.181499
9.222627
9.321570
9.277463
9.691715
9.986758
10.306835
10.217428
10.307431
11.198521
11.084676
10.799766
11.297464
12.548566
13.004541
13.750792
14.808774
15.849471
17.889738
17.919540
19.010901
20.473599
20.937920
20.223856
20.713806
21.433830
20.574927
20.539761
21.030903
20.619631
20.602942
21.629930
21.638870
21.172762
21.928549
21.774769
21.591783
21.831989
21.795630
22.450686
21.297932
22.154450
22.033453
##ZVALUE=275
0.945926
0.915527
1.029968
1.024604
1.130700
0.974536
0.987649
1.027584
0.933409
1.107454
1.342893
1.141429
1.319647
1.499653
1.552701
1.618862
1.618862
1.894832
2.268553
4.826784
18.194914
57.052970
178.775787
344.254971
668.494701
927.762985
1015.675664
1015.675664
1015.675664
1015.675664
1015.675664
917.882919
655.711889
354.490876
206.026435
93.984604
58.246851
57.971478
75.533986
102.095604
121.492743
138.154626
145.259500
139.056444
125.559568
100.685954
81.411004
56.327581
40.588975
25.630593
18.296838
12.932420
10.906458
9.227991
9.551644
9.465814
9.445548
10.068417
10.103583
10.293722
10.756850
10.946989
10.425448
11.163950
11.774898
11.982918
12.405515
13.510585
14.221668
14.893413
15.618801
17.393827
17.610788
19.104481
19.997954
20.937920
20.697713
20.717978
20.692945
20.944476
20.594597
19.826889
20.350814
19.816756
20.017624
20.214915
20.446777
20.925999
20.141602
21.003485
20.665526
20.512938
20.686984
20.697713
21.527410
21.675825
##ZVALUE=280
1.006722
0.986457
1.235604
1.138449
1.001954
0.976920
0.885725
0.945926
1.156926
0.979900
1.224875
1.189709
1.163483
1.259446
1.389980
1.480579
1.409650
1.514554
1.801848
1.770854
2.123713
3.325939
10.363460
52.607656
135.217905
332.482457
543.162823
902.812481
1015.638709
1015.638709
1015.638709
1015.638709
1015.638709
1015.638709
799.787641
464.347601
278.025866
123.008490
65.246820
44.279695
53.754449
77.396631
96.867681
122.457743
135.350823
140.244961
137.107968
119.959712
102.643967
77.568889
58.839917
39.274693
27.307868
16.944408
13.660789
10.655522
10.153651
10.003448
10.170937
10.094643
10.477901
11.053681
11.429787
11.274815
12.130737
12.418628
12.616515
13.265610
14.072657
14.930964
16.033649
17.520785
18.556714
18.686652
19.710660
20.184517
20.077825
19.692779
19.803643
20.287633
19.269586
19.945502
19.847751
19.866824
19.474626
19.794703
19.475818
20.286441
19.843578
20.263791
20.112991
19.906759
19.840598
19.960999
20.328760
20.502806
##ZVALUE=285
0.888705
1.056790
0.931621
0.839829
0.911951
0.986457
0.960827
0.806451
1.120567
1.104474
1.070499
1.048446
1.214743
1.113415
1.252890
1.353621
1.340508
1.597404
1.337528
1.618862
1.882911
1.871586
1.912713
2.365708
6.104708
22.207499
83.931684
182.169676
406.089425
668.903589
968.081951
1015.638709
1015.638709
1015.638709
1015.638709
1015.638709
992.260575
627.985597
390.107036
186.269879
95.666647
41.428804
35.097599
50.576925
68.822503
95.524788
111.172795
129.565597
135.855675
132.781863
122.452974
99.656582
81.688762
57.553649
40.973425
25.826693
18.673539
13.203621
11.186600
10.915995
10.736585
10.928512
11.386871
11.511445
11.870861
12.661815
12.996793
13.295412
14.530420
15.334487
16.528964
17.356873
17.703772
19.018650
18.803477
19.583702
19.262433
19.139647
19.577742
19.467473
19.169450
19.348860
19.564629
19.963980
19.385815
19.202828
20.037889
20.118952
20.010471
19.134879
19.885898
19.746423
19.290447
18.875599
19.760728
20.077825
##ZVALUE=290
0.880957
0.860691
0.750422
0.704527
0.968575
0.980496
0.890493
0.946522
0.823736
0.915527
1.008511
1.022816
1.095533
1.132488
1.214743
1.090765
1.082420
1.340508
1.300573
1.329780
1.429915
1.548529
1.676679
1.761913
2.117753
2.101660
3.286600
10.933876
51.728487
117.767453
216.755867
499.593616
801.957846
1015.638709
1015.638709
1015.638709
1015.638709
1015.638709
1015.638709
833.751559
548.745990
273.402929
145.368576
55.671930
30.331612
33.077002
45.366883
65.683722
85.891485
108.972788
122.924447
131.737590
131.313801
117.810965
102.106929
75.907707
57.207942
39.345622
28.093457
18.662810
14.842749
12.233853
11.873841
11.682510
12.057424
12.647510
13.136864
13.530850
13.991594
15.412569
16.448498
17.301440
17.967820
18.731952
19.277930
19.152761
18.879771
19.237995
19.610524
18.934608
19.579530
19.556880
19.518733
19.611716
19.315481
19.668937
19.977689
19.615889
19.742846
19.557476
19.726753
19.460917
19.180775
19.223690
19.444823
19.031763
##ZVALUE=295
0.825524
0.862479
0.795722
0.834465
0.924468
0.938773
0.950694
1.002550
0.966787
1.093745
0.866652
0.838637
0.815988
1.013875
1.082420
1.101494
1.236796
1.204610
1.263618
1.289845
1.122952
1.458526
1.426935
1.457930
1.709461
1.881719
1.939535
2.102852
2.568960
4.803538
19.006729
82.084537
185.481906
432.825089
710.770488
1015.638709
1015.638709
1015.638709
1015.638709
1015.638709
1015.638709
1012.903452
743.875504
392.759442
213.989615
80.484748
36.927462
22.722483
28.015971
43.262839
59.431791
83.090663
100.104809
118.210912
124.607682
124.041438
113.987923
95.857978
77.372789
54.865479
41.305423
27.147532
20.316839
15.352964
13.149977
13.159513
13.147593
13.804436
14.514923
15.247464
16.192794
16.988516
17.705560
18.624663
19.263625
19.239783
19.521713
19.480586
19.177794
19.418597
19.222498
19.570589
19.527674
19.096732
20.249486
19.521713
19.970536
20.383000
19.554496
19.497871
18.940568
18.977523
19.732714
19.305944
19.199848
19.140840
##ZVALUE=300
0.911951
0.807643
0.722408
0.883937
0.889897
0.735521
0.696778
0.826716
0.864863
0.799894
0.924468
1.068711
0.806451
0.835657
1.017451
0.877976
0.861883
1.071692
1.190901
1.035929
1.069903
1.293421
1.236796
1.189709
1.246929
1.638532
1.736879
1.922846
1.963973
2.153516
2.396703
2.972484
7.305741
48.851967
126.394629
325.784683
557.927489
975.556970
1015.638709
1015.638709
1015.638709
1015.638709
1015.638709
1015.638709
976.164937
566.239953
345.656872
155.980587
73.299408
24.910569
18.704534
27.437806
37.722588
57.815909
75.728893
97.763538
110.258460
121.147633
120.258927
108.716488
96.249580
75.302720
58.737993
41.129589
30.038953
20.655990
17.079711
14.961958
14.801621
15.630722
16.656518
17.455816
17.070770
18.570423
18.691421
19.246936
18.983483
18.994808
19.567609
19.583702
19.854903
20.034909
20.169616
20.512938
20.342469
20.059943
19.993782
20.187497
20.153522
20.319819
19.900799
20.327568
20.124912
19.368529
19.775629
18.845797
##ZVALUE=305
0.786781
0.780821
0.693798
0.824928
0.718832
0.809431
0.906587
0.760555
0.866652
0.877976
0.793934
0.758767
0.841618
0.912547
0.787973
0.904799
0.947714
1.095533
0.910759
0.985861
1.023412
1.106858
1.087785
1.141429
1.283884
1.335740
1.313686
1.398921
1.689792
1.888871
1.707673
2.101660
2.543926
2.807975
4.496574
28.000474
86.390972
267.979503
487.787724
904.985666
1015.565991
1015.565991
1015.565991
1015.565991
1015.565991
1015.565991
1015.565991
794.616938
492.667556
217.570662
103.982687
32.302737
16.890764
18.147826
24.851561
39.225817
53.649545
74.569583
89.997649
106.597543
113.959908
114.784837
106.721520
91.142654
75.774789
53.582788
41.859746
29.611588
23.380518
18.502474
17.263889
17.524958
17.578602
18.214583
18.704534
18.905997
18.802881
20.100474
19.858479
19.973516
20.105839
20.454526
20.728707
20.159483
20.772815
20.278692
21.130443
20.299554
20.887852
20.573735
21.000504
20.293593
19.728541
20.568967
20.077825
19.695759
##ZVALUE=310
0.771880
0.732541
0.949502
0.863671
0.746846
0.855923
0.756979
0.804663
1.008511
0.843406
1.007915
1.034737
0.810623
0.988841
1.152754
1.007915
0.894666
0.945926
1.079440
1.028776
0.981688
1.154542
1.094937
1.073480
1.229644
1.187921
1.444817
1.535416
1.603961
1.677871
1.757741
1.933575
2.106428
2.207756
2.325773
2.769828
3.362894
11.990666
44.449568
173.171759
363.694429
777.732730
1015.638709
1015.638709
1015.638709
1015.638709
1015.638709
1015.638709
1015.638709
1015.638709
742.637515
360.686779
182.519555
60.104728
23.593903
14.097691
16.330481
24.322867
33.014417
49.702525
65.092444
85.460544
97.583532
109.047890
109.404922
102.745891
91.828704
73.632002
59.256554
42.763948
33.657551
26.265979
22.606850
20.226836
20.003915
19.720793
19.894838
20.092726
20.002723
20.007491
20.395517
20.775795
21.505952
21.145940
21.546483
21.603703
21.310449
20.873547
21.770000
21.494627
20.954609
20.994544
20.862818
20.521879
20.087957
20.190477
##ZVALUE=315
0.808835
0.724792
0.698566
0.706911
0.915527
0.965595
0.883937
0.904799
0.865459
0.837445
0.965595
0.746846
1.003742
0.947714
1.026988
0.947714
1.033545
0.968575
0.925660
0.932813
1.050830
1.010895
1.118779
1.061559
1.180768
1.162887
1.328588
1.220703
1.386404
1.453757
1.275539
1.430511
1.716614
1.757741
1.887679
2.127886
2.213717
2.540946
2.819896
5.484819
21.076798
100.098848
240.526795
572.119951
947.628021
1015.644670
1015.644670
1015.644670
1015.644670
1015.644670
1015.644670
1015.644670
928.955674
486.601591
256.878734
91.777444
36.492944
14.368892
12.808442
16.524792
21.479726
33.243895
44.989586
62.938929
78.036785
96.330643
103.026628
106.401443
101.415515
86.664557
74.279904
57.904720
45.943856
33.122897
27.093887
23.075938
21.278858
20.639896
20.477772
20.546913
20.747781
20.692945
21.273494
21.352768
21.551847
21.674633
21.783710
21.686554
21.586418
21.499991
21.310449
20.839572
21.543503
21.125674
21.308661
20.626783
##ZVALUE=320
0.706911
0.847578
0.714660
0.834465
0.814795
0.659823
0.860691
0.799894
0.760555
0.926852
0.801682
0.786781
1.026988
0.995994
0.803471
0.798702
0.984669
0.906587
0.869632
0.990629
0.932813
1.070499
0.993609
0.920892
1.148582
1.003742
1.211762
1.146793
1.266599
1.338720
1.421571
1.358986
1.377463
1.580715
1.646876
1.821518
1.681447
2.181530
1.978874
2.420545
2.831817
3.534555
9.076595
56.004524
157.210827
455.686450
784.629583
1015.625596
1015.625596
1015.625596
1015.625596
1015.625596
1015.625596
1015.625596
1015.625596
628.832579
356.675386
148.691535
65.328479
19.408464
12.742877
13.174415
15.308857
21.563768
29.291511
44.718981
57.926774
77.029467
89.132786
99.883676
103.281736
99.130869
88.782907
72.568655
59.388876
43.881536
34.803748
27.692914
24.114847
21.706820
21.155477
21.450520
21.198988
21.795630
21.823645
21.626949
21.835566
21.446943
21.694899
22.363663
21.796823
22.012591
21.399856
21.231771
21.113753
21.174550
##ZVALUE=325
0.804663
0.643730
0.628829
0.684857
0.669956
0.801682
0.766516
0.893474
0.791550
0.717640
0.871420
0.959635
0.850558
0.885725
0.858903
0.865459
0.951886
0.857711
0.851750
0.824928
0.826716
0.938773
0.985861
0.927448
0.925660
1.221895
1.190901
1.096725
1.123548
1.276731
1.287460
1.400709
1.229644
1.308918
1.315475
1.698732
1.705885
1.697540
2.065897
2.246499
2.418756
2.528429
2.810955
3.362894
5.616546
34.317970
103.727579
326.275826
617.451668
1015.638709
1015.638709
1015.638709
1015.638709
1015.638709
1015.638709
1015.638709
1015.638709
861.061811
512.712002
223.189592
100.520849
28.786659
14.566779
12.702942
13.456941
16.570687
21.062493
31.775832
43.590665
60.749650
73.358417
89.276433
96.719861
99.257827
94.799995
82.787871
70.821643
55.018663
44.621825
33.419728
28.098822
24.190545
22.699833
22.084713
22.185445
21.986961
22.339821
22.000670
21.966696
22.272468
21.262765
21.356940
21.164417
21.379590
21.258593
21.169782
##ZVALUE=330
0.695586
0.745654
0.660419
0.681877
0.835657
0.846982
0.821948
0.980496
0.612736
0.868440
0.745654
0.815988
0.955462
0.901818
0.893474
0.951886
0.879765
0.980496
1.007915
1.057982
0.989437
0.912547
0.737906
0.889897
1.025796
1.003742
1.150966
1.040697
1.070499
1.216531
1.145601
1.208782
1.282692
1.197457
1.315475
1.342893
1.559854
1.442432
1.671910
1.741648
1.880527
2.135634
2.214909
2.427697
2.686977
3.197789
3.906488
15.345812
52.890778
195.093751
405.404568
881.576538
1015.638709
1015.638709
1015.638709
1015.638709
1015.638709
1015.638709
1015.638709
1015.638709
765.488744
342.423916
165.824890
52.948594
21.019578
12.647510
12.875795
13.987422
16.474724
23.029447
30.575991
43.343902
55.768490
73.754787
84.225535
92.525482
93.991756
88.832974
79.442859
66.014528
53.385496
40.789843
34.301877
28.458834
25.241971
22.643805
21.732450
21.725893
21.501780
21.819472
21.403432
21.042824
21.251440
21.328926
21.292567
20.738840
##ZVALUE=335
0.750422
0.829697
0.821948
0.690818
0.853539
0.665784
0.639558
0.782609
0.855923
0.657439
0.716448
0.629425
0.660419
0.698566
0.766516
0.832677
0.733733
0.845790
0.918508
0.769496
0.983477
0.894666
0.843406
0.965595
1.137853
0.956655
1.049638
1.018643
1.053810
1.187921
1.087785
1.010895
1.156926
1.233816
1.249909
1.265407
1.593828
1.459718
1.390576
1.571774
1.759529
1.918674
1.947880
2.103448
2.154708
2.592802
2.659559
3.014803
3.448725
7.104874
26.040673
112.544894
258.429646
650.185943
1015.638709
1015.638709
1015.638709
1015.638709
1015.638709
1015.638709
1015.638709
1015.638709
1015.638709
582.684875
298.179984
91.078877
32.416582
14.498830
13.295412
14.196634
15.240908
18.373728
23.120642
32.101870
41.980743
56.567788
67.738891
80.718994
86.909533
88.760853
85.258484
74.197650
65.007806
53.122640
43.586493
34.434795
29.191971
24.876595
23.144484
21.585822
21.469593
20.911694
20.424724
20.378828
20.659566
20.812750
##ZVALUE=340
0.813603
0.676513
0.701547
0.854731
0.627637
0.789762
0.843406
0.756979
0.666976
0.694990
0.715852
0.832677
0.703931
0.811815
0.681877
0.775456
0.723600
0.774860
0.713468
0.839829
0.948906
0.854731
0.984669
0.869632
0.882745
0.922680
1.052618
1.132488
1.069903
1.103878
1.056790
1.089573
1.114607
1.133680
1.151562
1.215935
1.236796
1.135468
1.317859
1.398921
1.508594
1.517534
1.715422
1.691580
1.546741
1.880527
2.326965
2.261996
2.328753
2.738833
3.085732
4.389882
13.013482
70.147514
184.573531
494.793653
875.110626
1015.640497
1015.640497
1015.640497
1015.640497
1015.640497
1015.640497
1015.640497
1015.640497
762.125850
411.744714
146.778822
53.949952
17.506480
13.847947
14.486909
14.649630
15.934706
18.251538
23.385882
29.953718
41.093826
51.297545
67.011714
75.180531
83.202720
84.138513
79.427958
73.429942
61.758757
52.089691
41.415691
34.967661
28.006434
24.353862
21.437407
20.756721
19.782782
19.802451
19.787550
##ZVALUE=345
0.815988
0.789762
0.805855
0.667572
0.861883
0.720620
0.725985
0.811815
0.780821
0.733733
0.667572
0.753999
0.794530
0.849962
0.756979
0.829697
0.845790
0.863671
0.739694
0.844598
0.728965
0.755787
0.797510
0.895858
0.786781
0.959635
0.930429
0.803471
0.975728
0.921488
0.899434
1.105666
0.858903
1.156926
1.089573
1.196861
1.130700
1.231432
1.001954
1.328588
1.434684
1.396537
1.425743
1.371503
1.396537
1.576543
1.661777
1.976490
1.949668
2.207756
2.250671
2.555847
2.762675
3.340840
6.402731
39.048791
115.436912
319.494605
588.057637
1015.647650
1015.647650
1015.647650
1015.647650
1015.647650
1015.647650
1015.647650
1015.647650
968.956947
571.894050
226.010680
90.680718
25.674701
15.703440
14.258623
14.449954
14.186502
15.359521
17.046928
20.649433
28.775930
37.242770
49.823523
59.262514
69.393516
75.284839
78.350902
76.168776
68.770647
62.148571
51.496625
42.174459
32.522678
27.774572
23.365617
21.099448
20.051599
##ZVALUE=350
0.868440
0.698566
0.738502
0.930429
0.712872
0.862479
0.755787
0.743866
0.836849
0.603795
0.658631
0.781417
0.805855
0.789762
0.765920
0.912547
0.799894
0.738502
1.101494
0.844598
1.054406
0.884533
0.983477
0.902414
0.910759
0.977516
0.942945
0.890493
0.899434
1.001954
0.926852
0.949502
1.066923
0.964999
1.173615
1.012683
1.155734
1.201630
1.184940
1.091957
1.216531
1.129508
1.242757
1.322627
1.292825
1.368523
1.587868
1.646876
1.679659
1.866817
2.019405
2.080798
2.354980
2.454519
2.718568
3.131628
4.311800
20.066500
67.845583
235.030055
466.455817
954.264998
1015.639901
1015.639901
1015.639901
1015.639901
1015.639901
1015.639901
1015.639901
1015.639901
837.085843
406.922698
184.044838
42.815804
16.906857
13.477802
13.203621
13.139844
13.578534
14.336705
16.507506
20.798445
25.998950
34.604669
43.113828
55.089593
63.304901
69.986582
72.254539
70.060492
65.071583
56.704879
48.150420
38.928986
32.018423
25.792718
##ZVALUE=355
0.707507
0.793934
0.702739
0.861883
0.849962
0.652671
0.731945
0.759959
0.714660
0.774860
0.796914
0.735521
0.931621
0.980496
0.816584
0.710487
0.779629
0.682473
0.681877
0.768900
0.754595
0.877976
0.952482
0.932813
1.047850
0.950694
0.977516
0.992417
0.863671
0.883937
0.981688
1.036525
1.118779
1.101494
1.076460
1.091957
1.181960
0.940561
1.006722
1.109838
1.228452
1.122952
1.348853
1.383424
1.494884
1.248717
1.346469
1.534820
1.516938
1.620650
1.785755
1.825690
1.946688
2.235770
2.195835
2.460480
2.596974
3.107786
3.252625
10.393858
39.578676
157.203674
326.499939
704.232454
1015.638709
1015.638709
1015.638709
1015.638709
1015.638709
1015.638709
1015.638709
1015.638709
924.756527
452.367663
234.946012
77.971816
26.123524
12.548566
12.288690
12.134910
12.281537
12.487769
13.307929
15.302896
18.294454
23.430586
29.268861
38.939714
46.769977
56.080818
61.637759
65.541863
64.861774
58.981776
53.527951
44.764876
##ZVALUE=360
0.780821
0.726581
0.722408
0.640750
0.903606
0.651479
0.783801
0.644922
0.709891
0.699759
0.841618
0.768900
0.675917
0.865459
0.755787
0.700951
0.865459
0.863671
0.842810
0.834465
0.803471
0.905991
0.893474
0.955462
0.894666
0.914931
0.879765
0.983477
0.869632
0.999570
0.876784
1.003742
1.018643
0.900626
1.047850
1.094937
0.955462
1.167655
1.043677
1.260638
1.204610
1.039505
1.194477
1.230836
1.052618
1.278520
1.359582
1.470447
1.558661
1.396537
1.683831
1.810789
1.693964
1.748800
2.000928
2.108812
2.079606
2.268553
2.521873
3.043413
3.394485
5.060434
16.707778
86.432695
217.230916
544.668436
912.979841
1015.638709
1015.638709
1015.638709
1015.638709
1015.638709
1015.638709
1015.638709
917.637944
461.043715
241.667628
87.656975
33.226609
12.773871
11.397600
11.031628
11.452436
11.568666
11.485815
12.171865
12.972951
15.961528
19.064546
25.187731
31.674504
41.317940
47.766566
55.164695
58.026910
59.157610
##ZVALUE=365
0.833869
0.758767
0.765920
0.805855
0.849962
0.700951
0.661612
0.708699
0.660419
0.691414
0.776649
0.774860
0.749826
0.693798
0.937581
0.865459
0.770688
0.839829
0.782609
0.746846
0.767708
0.830889
0.991821
0.948906
0.909567
0.795722
0.948906
0.891685
0.801682
0.973940
0.993609
0.952482
0.959635
0.993609
0.957847
1.127720
1.047850
1.131892
0.981688
1.245737
1.181960
1.149774
1.294613
1.289845
1.248717
1.537800
1.415610
1.271963
1.320839
1.399517
1.486540
1.527667
1.537800
1.742840
1.856685
2.031922
1.899600
1.958609
2.176762
2.505779
2.693534
3.213882
3.360510
4.129410
7.307529
45.447946
142.601728
416.089892
752.701759
1015.636921
1015.636921
1015.636921
1015.636921
1015.636921
1015.636921
1015.636921
998.095870
569.923520
307.732821
114.604831
45.247674
13.987422
10.703802
10.517836
10.289550
10.024905
10.325909
10.493994
10.536909
12.011528
13.568997
17.142892
21.029711
27.264953
34.301877
42.130947
##ZVALUE=370
0.766516
0.759959
0.711679
0.899434
0.947714
0.784993
0.638962
0.730753
0.677705
0.809431
0.613928
0.625849
0.725985
0.890493
0.829697
0.930429
0.839829
0.778437
0.703931
0.844598
0.804663
0.819564
0.898838
0.725985
0.944734
0.875592
0.926852
0.993609
0.701547
0.965595
0.768900
0.913739
0.874996
1.041889
1.051426
0.784993
1.043677
0.994802
0.846982
1.096725
0.982881
1.124740
1.102686
1.034737
1.097918
1.156926
1.168847
1.173615
1.335740
1.293421
1.406670
1.431704
1.365542
1.334548
1.557469
1.602769
1.584888
1.791716
1.764894
2.047420
2.279878
2.309680
2.585649
2.764463
2.925992
3.647804
5.200505
27.563572
95.365644
320.716500
601.266623
1015.639901
1015.639901
1015.639901
1015.639901
1015.639901
1015.639901
1015.639901
1015.639901
677.049756
372.641683
141.228437
62.136650
20.683408
11.475682
9.608865
9.414554
9.240508
9.295940
9.569526
9.457469
9.689927
10.566711
12.272000
14.491677
19.205809
##ZVALUE=375
0.744462
0.703931
0.755787
0.767708
0.725985
0.700951
0.655651
0.647902
0.958443
0.841618
0.893474
0.891685
0.768900
0.920892
0.705719
0.651479
0.670552
0.697970
0.857711
1.053810
0.863671
0.842810
0.772476
0.934601
0.936985
0.961423
0.891685
0.856519
0.822544
0.804663
0.917912
0.848770
0.964999
0.998974
1.072884
0.935793
0.926852
0.892878
1.111627
0.929832
0.958443
0.840425
0.967979
0.972748
1.023412
1.173615
0.966787
1.041889
1.047850
1.116991
1.151562
1.188517
1.260638
1.385808
1.439452
1.426935
1.487732
1.638532
1.534820
1.811981
1.745820
1.927614
1.941919
2.127886
2.286434
2.666712
2.690554
3.315806
4.097819
13.632774
50.057769
185.952783
409.748554
909.237862
1015.697718
1015.697718
1015.697718
1015.697718
1015.697718
1015.697718
1015.697718
849.748850
519.130826
247.431993
121.915936
38.560629
15.680790
9.296536
8.968711
8.748770
8.649826
8.552670
8.549690
8.700490
8.821487
9.691715
##ZVALUE=380
0.636578
0.770688
0.638962
0.523925
0.733733
0.638962
0.559688
0.531673
0.690818
0.645518
0.587702
0.628829
0.728965
0.810623
0.819564
0.687838
0.597835
0.718832
0.832677
0.759959
0.861883
0.690818
0.771880
0.886917
0.772476
0.768900
0.796914
0.812411
0.667572
0.673532
0.855923
0.816584
0.817776
0.895858
0.937581
0.879765
0.799894
1.049638
0.881553
0.808835
0.875592
0.864863
0.907779
1.088977
0.995994
0.977516
0.903606
1.077652
1.015663
1.146793
1.078844
1.043677
1.245737
1.112819
1.176000
1.193881
1.244545
1.261830
1.283884
1.342893
1.470447
1.567602
1.758933
1.842976
1.784563
2.192855
2.200603
2.643466
2.843738
3.505945
3.880858
6.995797
28.817654
148.665905
348.766446
816.299915
1015.638709
1015.638709
1015.638709
1015.638709
1015.638709
1015.638709
1015.638709
1015.638709
702.508688
331.876874
169.610977
62.640905
24.396777
9.747744
8.333921
8.062720
7.910728
7.873774
7.932782
8.055568
##ZVALUE=385
0.609756
0.614524
0.648499
0.728965
0.629425
0.526905
0.555515
0.561476
0.812411
0.783801
0.691414
0.709891
0.775456
0.660419
0.661612
0.691414
0.691414
0.566840
0.591874
0.797510
0.662804
0.803471
0.659823
0.799894
0.782609
0.688434
0.678897
0.719428
0.800490
0.911951
0.712872
0.658631
0.734925
0.796914
0.666976
0.775456
0.848770
0.633597
0.698566
0.791550
0.766516
0.843406
0.749826
0.869632
0.990629
0.913739
0.955462
1.007915
0.889897
0.966787
1.003742
0.941753
1.027584
1.096725
1.148582
1.121759
1.252890
1.272559
1.322627
1.226664
1.346469
1.393557
1.501441
1.513958
1.679659
1.806617
2.049804
2.112985
2.513528
3.032684
3.107786
3.439784
3.650784
4.412532
12.117624
78.962445
216.288567
569.730997
974.046588
1015.638709
1015.638709
1015.638709
1015.638709
1015.638709
1015.638709
1015.638709
1015.638709
637.301803
355.876684
143.785477
55.725574
13.531446
8.323789
7.690787
7.620454
7.588863
##ZVALUE=390
0.539422
0.668764
0.548959
0.590682
0.664592
0.638962
0.627637
0.483990
0.572801
0.606775
0.585914
0.700951
0.765920
0.743866
0.673532
0.608563
0.707507
0.751615
0.744462
0.661612
0.699759
0.774860
0.840425
0.491738
0.605583
0.642538
0.738502
0.879765
0.808835
0.811815
0.875592
0.715852
0.595450
0.673532
0.810623
0.783801
0.744462
0.804663
0.772476
0.923872
0.991821
0.953674
0.762939
0.816584
0.984669
0.901818
0.917912
1.003742
0.843406
0.997782
0.961423
1.024604
0.995994
0.992417
1.130700
1.016855
1.110435
1.284480
1.396537
1.359582
1.416802
1.399517
1.674891
1.575947
1.726747
1.796484
1.946688
2.345443
2.610683
2.976656
3.022552
3.583431
3.334880
3.609657
3.715754
4.077554
6.605983
38.302541
134.283900
442.575812
867.180824
1015.638709
1015.638709
1015.638709
1015.638709
1015.638709
1015.638709
1015.638709
1015.638709
994.370580
588.056445
226.089954
96.173882
24.364591
10.354519
8.066893
##ZVALUE=395
0.522733
0.567436
0.528693
0.628829
0.724792
0.662804
0.517964
0.591874
0.747442
0.717640
0.776649
0.646710
0.729561
0.677705
0.729561
0.660419
0.555515
0.832677
0.735521
0.857711
0.821948
0.711679
0.685453
0.838637
0.807643
0.719428
0.645518
0.729561
0.655651
0.715852
0.699759
0.799894
0.840425
0.880957
0.805855
0.746846
0.779629
0.829697
0.708699
0.859499
0.760555
0.899434
0.814795
0.779629
1.063943
1.008511
0.936985
1.072884
0.962615
0.924468
0.924468
0.915527
0.969768
1.106858
1.043677
1.142621
1.058578
1.117587
1.276731
1.168847
1.285672
1.281500
1.425743
1.460910
1.715422
1.826882
1.933575
2.166629
2.353787
2.541542
2.787709
2.936721
2.778769
3.047585
2.907515
3.137589
3.371835
3.757477
4.637837
20.859838
85.931420
323.392749
624.440908
1015.640497
1015.640497
1015.640497
1015.640497
1015.640497
1015.640497
1015.640497
1015.640497
1015.640497
791.363716
327.021480
145.529509
41.437745
##ZVALUE=400
0.575781
0.567436
0.667572
0.557899
0.678897
0.470877
0.503659
0.635982
0.510812
0.717640
0.752807
0.784993
0.607967
0.667572
0.536442
0.630617
0.685453
0.671744
0.557899
0.612736
0.721812
0.755787
0.797510
0.714660
0.806451
0.710487
0.612736
0.638962
0.723600
0.867844
0.771880
0.895858
0.888705
0.699759
0.943542
0.821948
0.658631
0.869632
0.717640
0.714660
0.741482
0.925660
0.930429
0.725985
0.889897
0.806451
0.940561
0.854731
0.970960
1.091957
0.980496
1.026988
1.030564
1.067519
0.957847
0.984669
1.094937
1.292825
1.133680
1.086593
1.305938
1.140833
1.338720
1.357794
1.492500
1.533628
1.810789
1.892447
1.982450
2.407432
2.390742
2.463460
2.595782
2.578497
2.605915
2.500415
2.727509
2.666712
3.140569
3.304482
4.050732
7.105470
39.261580
123.902559
385.113955
736.486912
1015.638709
1015.638709
1015.638709
1015.638709
1015.638709
1015.638709
1015.638709
1015.638709
951.462984
566.857457
##END
