##TITLE=QP00601
##FORMAT=SPECTACLE-ASCII V-1.2
##DATA TYPE=ULTRAVIOLET SPECTRUM
##SECOND TYPE=ULTRAVIOLET SPECTRUM
##DATE=01/21/18
##TIME=13:06:00
##SPECTROMETER/DATA SYSTEM=SPECTACLE
##XUNITS=NM EM
##YUNITS=ENERGY
##YFACTOR=1
##FIRSTX=220
##LASTX=410
##NPOINTS=96
##3DDATA=Equidistant
##ZUNITS=NM EX
##FIRSTZ=210
##LASTZ=400
##ZPOINTS=39
##XYDATA=(Y..Y)
##ZVALUE=210
1.641512
1.516938
1.756549
1.891851
2.071857
1.977682
2.086759
2.115965
1.964569
2.299547
1.615882
1.959801
1.959801
2.115965
2.213717
2.026558
1.998544
2.507567
2.393723
2.470613
2.638698
2.726912
2.777576
3.050566
3.533959
3.317595
3.409982
3.394485
4.124641
3.536940
3.212690
3.880858
3.686547
3.797412
4.104972
3.777742
3.944635
3.198981
3.498793
3.875494
3.871918
4.017949
4.118681
3.959537
4.086494
3.854632
4.725456
4.169941
4.032850
4.446507
4.390478
4.242659
4.128814
4.100800
4.474521
4.795790
4.211664
4.315972
5.000830
3.989935
4.453659
4.723668
4.877448
4.575849
5.535483
5.146861
5.470514
5.068779
5.611777
7.031560
9.218454
9.222627
10.601878
12.262464
12.351871
12.526512
12.813807
14.906526
13.775826
10.987520
11.645555
11.441708
9.873509
7.958412
7.464886
6.755590
5.616546
5.679727
4.513860
4.448891
5.707741
4.816651
4.538894
5.530715
4.399419
5.506873
##ZVALUE=215
4.111528
3.935695
3.693700
3.023744
3.512502
3.297925
3.180504
3.252625
4.421473
4.173517
4.228950
3.197789
3.187656
2.533793
2.736449
2.626777
2.680421
2.592802
2.659559
2.648830
2.979636
2.932549
2.673864
2.901554
2.521873
3.113747
2.798438
3.389716
3.336668
3.582835
3.931522
4.152656
3.609657
4.195571
3.171563
4.569888
4.693866
4.193783
4.193783
3.935695
3.686547
4.405975
4.245639
4.541874
4.442930
5.181432
4.246831
5.037785
4.628897
4.413724
4.819632
4.571676
5.323887
4.448891
4.302859
5.148649
4.673600
5.780458
5.098581
4.974604
4.582405
5.703568
5.909801
4.973412
5.095601
5.229712
5.897880
6.910563
6.793737
8.680820
8.638501
9.955764
11.410713
12.542605
12.713671
11.859536
15.017986
12.982488
12.210608
11.434555
9.589791
10.043979
9.209514
8.423924
8.153915
7.038713
6.606579
5.412698
5.752444
5.821586
5.722642
6.651878
5.649924
5.404949
5.385876
5.240440
##ZVALUE=220
12.822747
14.131665
15.374422
14.415979
16.059875
12.474656
11.627674
10.059476
8.496642
8.507967
9.252429
10.004640
10.044575
9.369850
7.822514
5.489588
5.388856
4.220605
3.146529
2.832413
3.578663
3.944635
2.735853
3.537536
3.479719
3.571510
3.656745
3.430843
3.894567
3.709793
3.984571
3.489852
3.859997
4.386902
4.824996
4.216433
4.700422
4.903674
4.337430
4.822612
5.177855
5.547404
5.841851
4.884601
5.293489
5.376935
5.183816
5.437732
4.855990
5.061626
5.598664
5.039573
5.424619
5.653501
5.455613
5.680919
5.343556
5.465746
5.541444
5.938411
6.631613
5.781651
6.191730
5.698800
5.133748
5.751848
6.344914
7.961988
7.891655
8.864999
9.928942
11.857748
13.105869
14.827847
14.080405
14.856458
15.064478
15.680790
14.985800
13.625622
13.385415
10.669827
11.201501
9.789467
8.028746
8.018613
7.818937
6.958842
6.888509
7.242560
6.656647
7.063746
5.762577
6.998777
7.699728
7.141829
##ZVALUE=225
22.444725
25.688410
33.275485
46.109557
52.415729
54.262877
51.577687
45.387745
35.071969
27.498603
22.220612
19.308925
22.994876
24.113655
24.769902
22.490621
19.379854
15.187860
10.479689
6.229877
5.502701
4.113913
3.872514
3.854632
3.078580
3.711581
4.215837
4.091859
4.350543
4.770756
4.358888
4.543662
4.468560
4.664660
4.844666
4.942417
5.729795
5.031824
6.204844
5.065799
6.124973
5.672574
5.757809
5.477667
5.122423
5.425811
5.990863
5.920529
5.544424
5.884767
6.347895
6.724596
7.263422
7.619858
6.519556
6.089807
7.170439
6.820560
7.297993
7.350445
6.491542
7.569790
6.603599
6.950498
7.999539
8.634925
8.339882
9.080768
10.764599
10.239482
10.809898
13.424754
13.546944
15.711784
16.464591
17.280579
17.370582
15.826821
15.316606
14.320612
13.947487
12.546778
11.514425
11.321902
11.472702
11.341572
10.344982
10.155439
9.781718
9.375811
9.756684
9.073615
8.746982
8.624792
9.721518
9.458661
##ZVALUE=230
21.221638
23.313761
41.135550
63.070655
84.032416
119.584799
132.124424
138.915777
130.650997
107.241869
86.404681
57.686567
47.913790
41.666627
44.733882
49.000978
48.770905
48.165917
43.773651
33.824444
26.590824
19.690990
12.313724
7.355809
4.568696
4.535913
5.142689
4.734993
5.113482
5.882978
5.312562
5.299449
4.963875
5.612969
5.631447
5.473495
5.981922
6.386638
6.083846
6.020665
6.219745
7.035732
5.847812
5.794764
6.368756
6.237626
6.819963
6.333590
7.183552
6.602407
6.900430
7.548928
7.286668
7.434487
8.410811
7.677674
8.061528
7.741451
9.557605
10.081530
8.996725
9.099841
8.835793
10.149479
10.669827
11.022687
11.321902
12.047887
12.729764
15.158653
13.855696
16.876459
17.718673
17.367601
19.393563
22.460818
22.260547
20.964742
20.459890
21.120906
19.962788
18.500686
17.684698
16.046762
17.576814
16.131997
15.029907
14.349818
15.736818
14.772415
15.253425
15.056729
14.477968
14.543533
14.851689
15.132427
##ZVALUE=235
6.709695
8.551478
22.946596
42.818785
83.399415
126.660466
186.932683
232.735872
270.655751
285.579562
264.179707
224.700570
173.298717
120.113492
94.617605
77.425838
76.287985
76.971650
82.627535
82.097650
78.006983
68.663955
55.449605
38.851500
22.584796
16.800761
9.897947
7.553697
6.091595
4.515648
6.202459
5.793571
5.890727
6.380677
5.353689
5.694628
6.287694
6.313920
6.626844
6.174445
8.022785
7.027984
6.288886
6.002784
6.241798
6.969571
6.592870
6.724000
7.569790
7.117987
7.261634
7.083416
7.081628
8.328557
7.441640
9.135604
8.660555
9.545684
9.554625
9.206533
11.960864
10.949969
11.652708
12.109876
12.510419
14.061928
13.141632
14.229417
16.083717
17.094612
19.437671
21.400452
23.193955
24.796724
25.031567
26.265979
26.052594
25.618672
25.243759
25.368929
24.539828
23.900867
23.266673
23.552775
24.399757
24.171472
22.881627
24.983883
23.698807
23.298860
21.837950
24.336576
22.644997
21.440983
21.999478
22.955537
##ZVALUE=240
1.530647
1.225471
3.457665
11.614561
27.067661
67.007542
109.527707
198.253989
273.480415
350.059867
425.275564
444.355011
414.577723
352.761745
269.467831
198.738575
132.365823
106.922984
95.511675
101.357698
105.697513
117.753744
114.778876
99.438429
82.367659
58.018565
45.392513
29.759407
20.369887
12.150407
9.000897
7.025599
6.197691
6.497502
6.465912
6.117821
6.617904
6.008744
6.106496
6.001592
6.664991
6.582737
6.773472
6.639957
6.363988
6.758571
7.097721
6.603599
6.345510
6.951690
7.731915
6.925464
7.775426
7.243752
7.431507
8.234978
9.061694
9.231567
9.473562
9.765625
10.630488
11.330843
11.341572
12.660623
14.150739
14.762878
14.054775
17.440915
18.340945
20.496845
21.475554
23.588538
25.408864
25.801659
27.157664
28.757453
29.541850
30.884743
29.804707
27.964711
30.709505
29.664636
28.083920
29.447675
28.552413
26.834607
28.619766
27.499795
27.189851
28.310418
28.512478
28.884411
27.639866
28.744936
28.876662
26.122928
##ZVALUE=245
1.223683
1.145601
1.242757
1.598597
3.292561
7.701516
24.886727
58.040619
133.166909
207.866430
327.055454
424.385667
493.986011
540.787578
526.281595
470.013618
383.242965
275.539756
203.968883
131.298900
107.927918
103.301406
112.877488
119.935870
133.976936
123.887658
108.491778
94.425678
70.239902
51.756501
39.475560
20.774603
13.910532
8.108616
6.804466
7.101893
7.020831
7.015467
6.732941
5.838871
6.478429
6.602407
5.843639
6.131530
5.251765
6.569624
5.979538
5.286932
5.715489
6.142855
6.163716
5.700588
6.346703
6.882548
7.063746
7.820725
7.648468
8.274913
8.087754
8.966923
9.463429
10.104775
10.656714
11.652708
12.493730
12.150407
13.992786
14.092922
14.807582
17.542839
18.263459
19.160509
21.002889
23.246408
26.422739
25.715828
26.245713
26.740432
27.685761
26.409626
26.633739
26.728511
26.673675
27.283430
27.003884
27.562976
26.386976
27.849674
27.903914
27.973652
28.608441
27.779937
28.327703
27.626753
28.050542
27.744770
##ZVALUE=250
1.285672
1.467466
1.297593
1.342893
1.568794
1.602769
2.180934
5.080700
23.259521
48.861504
121.308565
200.484991
300.926566
441.112518
533.071756
622.812510
618.298650
577.660799
505.495667
373.385549
264.759660
189.175606
108.940601
100.397468
102.451444
121.680498
139.803886
134.879947
131.339431
123.992562
88.153481
58.337450
53.906441
36.155581
24.206638
12.984872
9.172559
6.423593
6.635785
5.952716
6.139874
6.143451
6.166697
5.761981
5.800724
5.600452
5.840659
5.103946
6.014705
5.940795
5.667806
6.729960
6.645918
6.473660
6.022453
6.916523
6.960630
7.008910
7.510781
7.617474
8.142591
8.927584
7.949471
9.678602
10.452867
10.686517
11.456609
12.631416
13.643503
14.384985
16.333461
18.074512
21.145940
19.736886
21.147728
22.322536
23.261905
24.282932
23.998618
24.114847
25.362968
25.080442
26.137829
24.865866
25.372505
25.275946
25.515556
25.005937
26.260614
26.434660
26.033521
25.436878
25.581717
25.789738
26.426911
27.018785
##ZVALUE=255
1.249909
1.318455
1.233816
1.205802
1.302958
1.304746
1.473427
1.581907
1.896620
3.235936
15.009642
38.830638
77.673793
171.656609
266.293883
428.301692
537.296534
652.508736
700.868964
679.430962
605.674982
506.910682
353.661776
249.445438
151.768923
109.468699
91.865659
101.420879
124.515891
138.377547
143.976808
139.135718
127.498507
103.878975
82.466602
54.050684
36.471486
20.082593
12.960434
7.601976
6.766915
5.668998
5.186796
5.753636
5.205870
5.358458
5.833507
5.478859
5.293489
5.805492
5.774498
5.680919
5.605817
6.151795
5.834699
5.814433
6.262660
6.656647
7.384419
7.095933
7.029772
7.886887
7.613897
8.738637
8.567572
9.640455
10.778904
11.950731
12.317896
12.371540
15.146732
15.452504
17.325878
18.377900
18.452406
20.648837
20.059943
20.571947
21.867752
22.210479
21.601915
21.365881
21.560788
23.126602
23.479462
22.995472
23.083687
23.694634
22.960901
24.139881
24.350882
24.531484
24.848580
24.871826
24.854541
25.224686
##ZVALUE=260
1.331568
1.504421
1.219511
1.040697
1.279712
1.194477
1.391768
1.343489
1.478791
1.598597
1.733899
2.259612
6.300807
25.723577
58.400631
140.193701
233.664513
387.300849
521.999598
676.679015
759.649873
784.189701
706.080794
598.350763
432.863832
312.579870
191.659927
129.941702
88.613629
82.050562
97.502470
124.080777
139.649510
150.814652
142.757893
125.958920
109.764934
80.235004
57.732463
34.466982
22.736788
13.022423
8.633733
6.181598
6.171465
6.405711
5.767941
5.832911
5.145669
5.775690
5.853772
6.292462
6.075501
5.840659
6.140471
6.192923
6.620884
6.447434
6.935596
7.269979
7.289648
7.684827
8.108616
8.569956
9.006858
9.711981
9.748936
10.770559
11.901855
12.613535
13.273954
14.871955
15.479922
16.349554
17.818809
18.517971
19.113421
19.264817
19.602776
19.102693
20.101666
20.632744
20.587444
20.021796
20.381808
22.581816
22.178888
22.586584
22.764802
22.216439
23.160577
23.136735
22.675991
24.396777
23.650527
23.862720
##ZVALUE=265
1.176596
1.196861
1.273751
1.230836
1.176596
1.216531
1.085997
0.974536
1.274943
1.366735
1.324415
1.538992
1.790524
1.784563
3.695488
18.487573
44.644475
113.055706
200.924873
372.400880
527.932644
670.076013
819.810629
853.690505
779.232979
676.655769
511.442423
363.445878
203.984976
130.332708
77.892542
68.348646
77.109933
105.898976
126.813650
144.677758
153.033733
143.367648
131.846666
104.541779
83.469748
54.862499
36.238432
21.165609
13.957620
8.251667
6.430745
6.398559
6.248951
5.593896
5.840659
5.997419
6.255507
6.746650
6.434917
6.613731
6.570816
6.767511
7.031560
7.181764
6.594658
7.645488
7.860661
8.178949
8.481741
8.837581
9.443760
9.688735
10.489821
11.221766
12.257695
13.623834
14.825463
15.086532
16.021729
16.747713
16.895533
17.994642
17.567873
18.152595
19.128919
19.068718
19.654632
18.722415
19.853711
20.328760
20.675659
21.527410
21.210909
21.136999
21.365881
20.659566
22.083521
21.217465
21.988750
22.474527
##ZVALUE=270
1.181960
1.053810
1.102686
0.997782
0.995994
1.031756
1.045465
1.159906
1.104474
0.952482
1.319647
1.233816
1.566410
1.364946
1.567602
1.650453
2.149940
7.327795
22.955537
77.071786
154.940486
273.815989
482.687950
650.767684
832.576752
894.476771
875.678658
791.381001
618.554950
463.948846
320.545435
167.769790
99.753737
59.312582
59.315562
83.837509
104.247928
132.152438
145.132542
151.668787
148.117542
128.858685
108.611584
79.594851
59.249997
34.918785
23.763776
13.592839
9.620786
6.845593
6.437898
6.336570
6.420612
6.559491
6.004572
6.431937
6.976724
6.642938
7.129908
7.114410
7.513762
8.136630
8.333921
8.138418
8.336902
8.581877
9.727478
10.205507
10.862947
11.046529
11.420846
13.005733
13.571978
14.093518
14.800429
16.051531
15.713573
16.325712
15.868545
16.967654
17.398596
17.561913
17.808676
19.056797
18.951893
19.669533
19.096732
19.227862
19.680858
20.418763
19.505620
20.602942
20.130873
20.845532
20.656586
20.853877
##ZVALUE=275
1.083612
1.005530
0.894666
1.024604
1.062751
1.018643
1.098514
1.063943
1.174808
1.096725
1.298785
1.290441
1.216531
1.268983
1.365542
1.397729
1.492500
1.631975
1.950860
3.685951
13.568997
42.433739
130.192637
242.443681
451.005697
610.580444
797.349811
901.453495
939.924717
881.870985
774.762630
570.265651
403.958559
217.528939
127.693415
62.388778
47.653913
57.321787
78.359842
105.041862
123.853683
144.572854
149.137974
143.808722
131.123662
103.670955
82.070827
57.215691
40.942430
23.218989
16.223788
9.674430
7.929802
7.079840
6.984472
7.324815
6.717443
7.680655
7.679462
7.764697
8.211732
7.741451
8.288622
8.716583
9.328723
9.085536
9.674430
10.224581
11.048913
11.703968
12.509823
12.588501
14.549494
14.375448
15.038848
15.189648
15.660524
16.448498
15.845895
16.193986
16.915798
17.933846
17.896891
17.702579
17.997622
18.142462
18.562675
18.538833
18.776655
18.862486
19.133687
19.085407
18.433928
18.578768
19.847751
19.521713
##ZVALUE=280
1.012683
0.944734
0.969768
0.933409
0.849962
1.021624
0.884533
1.181960
1.132488
1.064539
1.046658
0.956655
1.043677
1.020432
1.329780
1.160502
1.217723
1.498461
1.379848
1.892447
1.640916
1.946688
8.266568
27.114749
91.846585
169.996619
329.527855
488.823652
699.806809
844.762921
926.299691
926.638842
840.979815
652.850866
485.756993
282.163620
170.738697
78.026652
45.936704
40.773749
52.447915
77.651739
98.552704
126.961470
139.544606
145.460963
140.886903
124.462843
104.763508
77.832937
58.340430
37.106872
25.158525
14.647841
10.455847
8.123517
7.406473
7.367730
7.947683
7.529855
7.975698
8.200407
8.735657
8.854866
9.179711
9.585619
10.127425
11.344552
11.390448
11.628866
12.901425
13.204813
13.313890
14.942884
15.121698
15.187860
15.839934
15.762448
16.235709
16.596913
16.785860
17.853975
17.077923
17.733574
17.863512
17.891526
17.938614
18.494725
18.278956
18.967986
18.108487
18.239617
18.023849
19.018650
18.855929
18.523932
##ZVALUE=285
0.900626
0.705719
0.930429
0.821948
0.955462
0.996590
0.829697
0.958443
0.967979
0.869632
1.077652
0.910759
1.086593
1.172423
0.946522
1.240969
1.171827
1.222491
1.254678
1.356602
1.382828
1.341701
1.452565
1.702905
4.257560
13.206601
47.501922
105.098486
238.302946
375.662446
528.687835
749.777555
880.192518
950.261950
906.994939
749.913454
600.336790
376.851559
239.402652
113.697648
58.831573
32.077432
33.323765
50.553679
70.067644
97.844005
116.149783
134.530663
141.496658
137.565732
126.480460
103.463531
82.961917
57.445765
40.165782
24.422407
16.523600
10.689497
9.229779
8.558631
8.212924
8.692741
8.929968
9.056926
10.052919
9.920597
10.334849
10.925531
11.921525
12.540817
12.978911
12.962818
13.698936
13.998747
14.841557
15.048981
15.329719
16.001463
16.147494
16.667843
17.430782
17.254949
17.234683
17.113686
17.685890
18.103719
17.792583
18.540621
17.741919
18.197894
18.629432
18.256903
17.768741
17.931461
17.989874
17.917752
##ZVALUE=290
0.823736
0.841618
0.889897
0.938773
0.848770
0.888705
0.929832
0.880957
0.959635
1.137853
1.044869
0.934601
1.078844
0.984669
1.084805
1.113415
1.148582
0.934601
1.069903
1.056790
1.346469
1.303554
1.330972
1.478791
1.554489
1.667738
2.127886
5.709529
26.975870
67.243576
135.192871
290.021896
454.741716
688.452721
838.449597
943.372846
943.914652
824.898481
686.634779
473.577976
318.458676
160.203576
87.150931
36.396980
24.947524
32.636523
45.141578
67.966580
88.009834
113.095641
128.594637
139.921904
136.136413
120.516419
103.569627
77.914000
58.628917
37.961602
26.994944
16.671419
11.754632
9.874701
9.657741
9.623766
9.580851
9.937882
10.728836
10.786653
11.702776
12.791753
13.328791
13.676882
14.616847
15.411973
15.849471
15.697479
16.124845
16.547441
16.424656
17.312765
16.659498
17.236471
17.488599
17.399788
18.077493
18.003583
18.107891
18.300414
18.782616
18.148422
18.211603
18.072724
18.071532
17.934442
17.893910
18.078685
##ZVALUE=295
0.753999
0.881553
0.775456
0.909567
0.867844
1.040697
0.755787
0.768900
0.790954
0.875592
0.883937
1.030564
1.170635
0.967979
0.940561
1.062751
0.946522
0.945926
1.116991
1.177788
1.192689
1.246929
0.993609
1.060963
1.363754
1.301765
1.397729
1.526475
1.921654
2.974868
8.757710
39.557815
92.485547
226.224661
374.216437
603.942871
765.329003
928.411484
967.019796
908.848643
789.597631
582.515597
416.121483
227.534771
125.502944
48.371553
24.835467
20.418763
27.284622
44.499636
61.750412
86.979866
103.173852
123.143792
131.420493
128.789544
117.177963
96.690655
79.172850
56.213737
39.919615
25.472641
18.830895
13.892651
11.822581
10.829568
10.939837
11.801720
11.896491
12.954473
13.541579
13.891459
14.533997
15.347600
15.526414
16.178489
16.410947
16.602874
17.182827
17.372966
17.709732
18.065572
17.674565
18.417835
18.441677
19.051433
18.304586
18.878579
18.647909
17.990470
18.875599
18.239617
18.140674
17.444491
18.339753
18.031597
##ZVALUE=300
0.678897
0.691414
0.822544
0.720620
0.861883
0.825524
0.799894
0.776649
0.772476
1.018643
0.820756
0.700951
0.851750
0.923872
0.898838
0.965595
0.844598
0.904799
0.976920
0.959635
1.016855
1.128912
0.961423
0.968575
1.001954
1.406670
1.313686
1.213551
1.371503
1.553893
1.805425
2.097487
5.936623
20.623803
71.731806
144.724846
306.831598
473.401546
709.007978
854.163766
987.069011
1009.657979
919.155478
774.232745
537.940860
360.388756
185.784698
98.807812
36.462545
18.375516
17.460585
25.114417
40.033460
55.524707
79.705715
98.890662
118.302703
125.489831
123.885870
115.676522
96.470714
78.662634
57.410598
43.761730
27.859807
20.473599
14.826655
13.292432
12.433529
12.827516
13.429523
14.385581
15.055537
15.694499
16.289949
16.161799
16.723871
16.777515
18.156767
17.726421
18.205643
18.261671
18.575788
18.967986
18.818974
19.004941
19.092560
18.582940
18.640757
19.078851
18.854737
18.417835
18.070936
18.383861
18.125772
18.341541
##ZVALUE=305
0.771880
0.815988
0.644922
0.710487
0.747442
0.693798
0.933409
0.907779
0.809431
0.670552
0.877976
0.988841
0.871420
0.751615
0.988841
0.889897
0.940561
0.995994
0.962615
0.839829
0.923872
1.010895
1.104474
0.926852
1.029968
1.001954
1.081824
1.368523
1.247525
1.232624
1.289845
1.618862
1.614690
1.741648
2.845526
14.301538
40.732622
120.412707
224.654675
430.952907
616.221428
851.846933
988.495946
1015.638709
1005.373597
829.393864
662.033558
435.800552
274.638534
125.352740
60.849786
21.306872
13.313890
16.615987
23.595691
39.265752
54.873824
75.586438
93.679428
111.355782
119.097829
117.202997
109.682679
93.357563
77.274442
54.933429
42.275786
28.764606
21.545887
17.039776
15.437603
15.525818
15.516877
16.184449
16.685724
16.931891
16.913414
17.246604
18.055439
18.280745
18.881559
19.556880
19.021630
19.700527
19.402504
19.766688
19.566417
19.521713
19.882917
19.487739
19.218922
19.041896
19.210577
19.171834
18.616915
18.944740
##ZVALUE=310
0.579953
0.719428
0.755787
0.733733
0.804663
0.798702
0.841618
0.765920
0.679493
0.935793
0.882745
0.787973
0.832677
0.934601
0.888705
0.703931
0.820756
0.894666
0.895858
0.884533
0.945926
0.877976
0.938773
0.998974
1.023412
0.851750
1.222491
1.125932
1.189709
1.214743
1.192689
1.244545
1.413822
1.469851
1.494884
1.684427
1.979470
6.421804
22.057891
73.755980
149.750710
319.417715
490.014553
729.456544
892.492533
1015.638709
1015.638709
930.554867
794.165730
553.034544
381.371975
195.096731
105.835795
37.673712
16.306639
11.729598
14.265776
22.459626
32.817721
50.670505
66.149831
89.089870
102.780461
113.492608
114.508867
107.456446
94.577670
74.842572
59.259534
42.268634
32.115579
23.895502
20.078421
17.254949
17.038584
16.951561
17.303824
18.052459
18.291473
18.781424
18.632412
19.076467
19.776821
19.399524
20.208955
20.391941
19.922853
20.484924
20.346642
19.743443
20.053983
19.418597
19.445419
18.610954
18.975735
19.373894
##ZVALUE=315
0.692606
0.677705
0.790954
0.613928
0.559688
0.709891
0.711679
0.737906
0.550747
0.864863
0.682473
0.766516
0.704527
0.766516
0.674725
0.854731
0.818968
0.794530
0.844598
0.781417
0.750422
0.832677
0.735521
0.896454
0.913739
0.832677
1.064539
1.060963
1.056790
1.070499
1.130700
1.334548
1.179576
1.218915
1.233816
1.562834
1.530647
1.650453
1.783967
3.271699
11.265874
47.811866
107.635856
248.349905
408.262014
662.785769
821.904540
981.406569
1015.638709
990.947485
875.552893
642.184019
464.964509
259.199739
145.829916
53.673983
23.493767
10.778904
10.794997
15.164614
20.902753
33.230782
46.186447
65.744519
81.661940
99.123716
107.668638
108.610988
103.884935
89.754462
74.697733
57.560802
44.525862
31.652451
25.382638
21.057725
18.756986
18.454790
18.522739
18.404722
19.361973
19.606948
19.828677
20.216703
20.351410
20.621419
20.233989
20.782948
20.281672
20.088553
20.399690
20.398498
19.973516
19.555688
18.964410
19.852519
##ZVALUE=320
0.723600
0.713468
0.539422
0.654459
0.608563
0.717640
0.668764
0.619888
0.715852
0.658631
0.857711
0.906587
0.805855
0.804663
0.817776
0.788569
0.771880
0.938773
0.723600
0.800490
0.865459
0.779629
0.926852
0.731945
0.902414
1.010895
0.846982
0.973940
0.866652
0.996590
0.963807
1.152754
0.983477
1.181960
1.222491
1.333952
1.295805
1.286864
1.397729
1.647472
1.677871
2.160668
4.916787
26.288629
69.583654
191.678405
326.914787
554.856658
756.917000
990.172625
1015.637517
1015.637517
1015.406847
817.663670
611.525774
355.427861
208.554864
89.368820
40.575862
13.882518
10.223985
11.256933
13.541579
20.289421
28.545856
44.607520
59.640408
79.235435
92.610717
103.610754
106.022954
99.970698
89.566708
71.458817
58.034658
42.613745
33.473969
26.111603
22.457838
20.254850
19.766688
19.767880
20.138621
20.244718
20.627975
20.476580
20.482540
20.968914
20.205975
20.861626
20.334721
20.491481
19.651651
20.021796
20.083785
20.380616
##ZVALUE=325
0.792742
0.789762
0.692606
0.641942
0.694990
0.582933
0.548959
0.908971
0.724792
0.836849
0.719428
0.840425
0.868440
0.801682
0.774860
0.752807
0.860691
0.874996
0.807643
0.886917
0.762939
0.871420
0.729561
0.903606
0.732541
0.874996
0.893474
0.827909
0.801682
0.984669
0.826716
0.921488
1.139641
1.050830
1.091957
1.113415
1.241565
1.076460
1.271963
1.388788
1.487732
1.451969
1.619458
1.725554
3.130436
17.801523
46.908855
126.999617
235.438943
459.411740
663.798451
926.021934
1015.643477
1015.643477
1015.643477
935.590863
756.402612
504.062772
325.367451
152.967572
73.385835
22.004843
11.672974
10.000467
11.223555
14.924407
20.007491
30.765533
42.725801
61.620474
75.768828
91.689825
99.969506
100.917816
96.733570
82.945824
70.882440
54.984689
44.022799
32.254457
27.079582
23.042560
21.258593
20.569563
20.373464
20.520687
20.760894
20.683408
20.638704
20.645857
19.944906
20.598769
20.025969
20.290613
20.346642
20.031929
##ZVALUE=330
0.753999
0.644922
0.519753
0.565648
0.576973
0.637770
0.555515
0.615716
0.652671
0.550747
0.605583
0.708699
0.746846
0.691414
0.704527
0.557899
0.667572
0.688434
0.789762
0.675917
0.740886
0.693798
0.744462
0.860691
0.704527
0.874996
0.892878
0.854731
0.899434
0.929832
0.924468
0.894666
1.044869
1.027584
0.921488
1.015663
1.007915
0.863671
1.066923
1.198649
1.241565
1.145601
1.272559
1.490712
1.617670
1.677871
2.174973
8.059740
26.241541
85.303783
169.169903
354.342461
535.928011
799.759626
976.366997
1015.609503
1015.609503
973.299742
808.385015
551.077724
372.948647
185.643435
97.921491
35.925508
15.591979
10.333657
10.374784
12.209415
14.669895
21.642447
29.309988
42.724609
56.237578
74.470639
86.874962
95.472932
96.142888
89.679956
80.985427
65.358877
53.522587
40.659904
33.299923
27.530789
24.253726
21.337867
20.892620
20.537972
20.242929
20.650625
19.860864
19.617677
19.612908
19.458532
19.732714
19.579530
##ZVALUE=335
0.689626
0.755787
0.572801
0.744462
0.518560
0.683665
0.651479
0.555515
0.678897
0.483990
0.599623
0.784993
0.737906
0.611544
0.710487
0.946522
0.789762
0.896454
0.759959
0.694990
0.699759
0.918508
0.804663
0.788569
0.844598
0.793934
0.783801
0.734925
0.761747
0.687838
0.782609
0.869632
0.826716
0.849962
0.990629
1.012683
0.982881
1.097918
0.931621
1.040697
1.060963
1.087785
1.087785
1.182556
1.346469
1.271963
1.403689
1.545548
1.919866
3.952980
12.953877
52.081943
111.402869
260.348916
434.288979
720.490813
925.159454
1015.638709
1015.638709
1015.638709
925.496817
642.746687
442.638993
234.313607
123.670697
44.001937
19.857883
11.285543
10.922551
11.622906
12.476444
16.202927
21.113753
31.704903
41.271448
56.453943
68.369508
83.508492
89.588761
90.304613
86.224675
75.297952
66.658854
52.541494
43.609738
33.361912
28.225780
23.393631
21.424890
20.856857
19.407868
19.298792
19.168854
19.373894
19.669533
19.165874
##ZVALUE=340
0.771880
0.560880
0.650883
0.562668
0.546575
0.709891
0.540614
0.621676
0.693798
0.628829
0.555515
0.667572
0.717640
0.614524
0.703931
0.659823
0.659823
0.827909
0.720620
0.708699
0.479817
0.641942
0.727773
0.585914
0.762939
0.917912
0.814795
0.911951
0.758767
0.855923
0.975728
0.784993
0.839829
0.927448
0.912547
0.856519
0.986457
0.941753
0.999570
0.918508
1.094937
1.075864
1.097918
1.118779
1.074672
1.312494
1.430511
1.277924
1.530647
1.585484
1.741648
2.455711
6.975532
35.948753
91.803670
233.115554
397.019982
653.602481
858.377814
1015.638709
1015.638709
1015.638709
1006.861925
780.387521
564.326644
302.033424
168.253779
66.961646
27.838945
12.154579
10.825992
11.290908
12.111664
13.407469
16.011596
21.893978
28.989911
41.315556
52.321553
67.900419
78.234673
86.082816
85.907578
82.219839
74.925423
62.572956
52.990913
40.762424
33.469796
26.935935
23.053885
20.178556
19.448996
18.168688
18.290877
18.466711
##ZVALUE=345
0.464916
0.467896
0.526905
0.522733
0.552535
0.436902
0.554919
0.444651
0.499487
0.446439
0.609756
0.425577
0.704527
0.495911
0.448823
0.470877
0.515580
0.545979
0.541806
0.591874
0.671744
0.522733
0.516772
0.657439
0.649691
0.604987
0.660419
0.730753
0.497699
0.484586
0.732541
0.682473
0.715852
0.655651
0.646710
0.647902
0.664592
0.782609
0.699759
0.748634
0.720620
0.754595
0.851750
1.063943
1.016855
0.890493
0.993609
1.074672
1.190901
1.133680
1.282692
1.333952
1.636744
1.701713
3.145933
18.952489
57.060719
159.700513
281.279683
520.677567
721.770525
972.836614
1015.501022
1015.501022
1015.501022
889.043808
684.572458
421.706438
245.149732
98.388791
42.477846
14.941692
11.199713
11.189580
11.470914
11.713505
12.949705
15.737414
20.072460
27.740598
37.220716
51.083565
61.212778
71.985722
77.147484
80.441833
77.379942
70.257783
61.737895
50.110817
41.384697
31.714439
25.875568
21.352768
19.297600
18.368959
##ZVALUE=350
0.681877
0.655651
0.712872
0.765920
0.638962
0.572801
0.587702
0.507832
0.654459
0.682473
0.632405
0.678897
0.645518
0.691414
0.683665
0.749826
0.633597
0.761747
0.777841
0.761747
0.760555
0.851750
0.649691
0.611544
0.589490
0.639558
0.704527
0.601411
0.826716
0.761747
0.745654
0.806451
0.843406
0.875592
0.684857
0.729561
0.778437
0.774860
0.900626
0.895858
0.995994
0.968575
0.924468
0.911951
0.860691
0.998974
1.113415
1.109838
1.206994
1.155734
1.145601
1.401901
1.446605
1.576543
1.424551
1.685619
2.253652
10.621548
33.550858
103.353858
198.545456
401.440859
587.931871
823.975801
977.439880
1015.636921
1015.636921
880.274773
697.941780
436.519980
273.633599
122.959614
57.642460
18.785000
11.594892
10.497570
10.675788
10.966659
11.410713
12.989640
15.036464
20.037889
25.451779
34.600496
43.295622
55.442452
63.470602
71.494579
74.609518
70.799589
66.849589
55.954456
48.394799
37.539601
30.887723
24.695992
##ZVALUE=355
0.737906
0.594854
0.571609
0.636578
0.637770
0.649691
0.513792
0.575781
0.642538
0.602603
0.449419
0.612736
0.731945
0.655651
0.690818
0.768900
0.738502
0.661612
0.716448
0.611544
0.651479
0.715852
0.754595
0.714660
0.771880
0.809431
0.812411
0.707507
0.703931
0.710487
0.667572
0.681877
0.837445
0.854731
0.781417
0.726581
0.856519
0.834465
0.971556
0.822544
0.884533
0.948906
0.681877
0.712872
0.855923
0.863671
0.927448
0.921488
1.084805
1.051426
1.168847
1.049638
1.313686
1.310706
1.305938
1.472831
1.650453
1.655817
1.871586
4.870892
17.568469
70.777535
149.575472
327.968597
515.255928
786.731839
959.301591
1015.625000
1015.625000
916.262865
735.687017
492.189527
316.195488
141.010880
69.399476
23.531914
12.528896
10.106564
9.978414
10.157824
10.758638
11.359453
12.118816
13.986826
16.880631
23.102760
29.621720
40.173531
47.799945
57.387948
63.165426
66.870451
65.526962
60.176849
53.579807
44.193864
##ZVALUE=360
0.586510
0.522733
0.502467
0.575781
0.657439
0.687838
0.619888
0.674725
0.654459
0.517964
0.717640
0.665784
0.686646
0.716448
0.721812
0.684857
0.515580
0.825524
0.682473
0.703931
0.704527
0.686646
0.665784
0.667572
0.857711
0.731945
0.826716
0.719428
0.754595
0.735521
0.828505
0.879765
0.715852
0.822544
0.941753
0.828505
0.741482
0.657439
0.831485
0.810623
0.932813
0.981688
0.903606
0.873804
0.967979
1.166463
1.119971
0.980496
1.135468
0.948906
1.077652
1.122952
1.093745
1.253486
1.392961
1.324415
1.647472
1.459718
1.597404
1.631975
1.901984
2.999902
9.087920
38.901567
91.486573
226.674676
389.329791
668.480992
876.095891
1015.638709
1015.638709
1003.319025
850.012898
578.023791
384.504795
188.819766
99.309683
37.961602
17.035604
9.989738
9.471774
9.508729
9.876490
9.957552
10.556579
11.200905
12.328625
14.910698
18.256903
25.437474
32.613873
42.494535
49.604774
56.424737
60.094595
59.973598
##ZVALUE=365
0.586510
0.725985
0.593662
0.622869
0.635982
0.681877
0.746846
0.650883
0.776649
0.685453
0.584722
0.742674
0.684857
0.650883
0.648499
0.627637
0.691414
0.701547
0.638962
0.534654
0.639558
0.761747
0.544786
0.829697
0.737906
0.733733
0.842810
0.789762
0.702739
0.815988
0.812411
0.837445
0.594854
0.882745
0.784993
0.791550
0.763535
0.727773
0.833869
0.808835
0.979900
0.846982
0.795722
0.808835
0.887513
1.013875
0.811815
1.041889
0.996590
0.849962
0.946522
1.126528
1.023412
1.087785
0.972748
1.088977
1.317859
1.326799
1.313686
1.391768
1.593828
1.800656
1.976490
2.134442
4.837513
17.534494
67.767501
145.910978
338.268876
533.399582
800.215006
957.990885
1015.638709
1015.638709
865.945816
702.663660
453.091860
280.752778
125.099421
60.321689
19.913912
10.665655
8.712411
8.607507
8.981824
8.919835
8.976460
9.136796
9.894967
10.696650
12.461543
15.962720
21.675825
27.891994
36.509633
43.212771
##ZVALUE=370
0.611544
0.615716
0.607967
0.565648
0.531673
0.607967
0.784993
0.717640
0.581741
0.831485
0.796914
0.669956
0.650883
0.685453
0.619888
0.616908
0.574589
0.636578
0.649691
0.590682
0.672936
0.699759
0.596642
0.783801
0.685453
0.696778
0.730753
0.735521
0.753999
0.590682
0.590682
0.629425
0.603795
0.746846
0.570416
0.869632
0.645518
0.834465
0.806451
0.723600
0.812411
0.806451
0.919700
0.720620
0.717640
0.832677
0.821948
0.849962
0.961423
0.875592
0.970960
0.940561
0.996590
1.111627
1.103878
1.046658
1.074672
1.223683
1.255870
1.189709
1.264811
1.420975
1.475811
1.600981
1.685619
1.674891
2.879500
10.166764
50.744414
123.443007
288.217664
456.672907
709.964633
900.056958
1015.638709
1015.638709
1005.547643
857.701898
585.938692
384.876728
181.923509
93.079805
35.402775
16.052723
8.543730
7.887483
7.876754
8.096695
8.146763
8.362532
8.593798
8.940697
9.986758
11.446476
14.916658
18.167496
##ZVALUE=375
0.649691
0.646710
0.561476
0.532866
0.679493
0.567436
0.610948
0.517964
0.608563
0.669956
0.635982
0.687838
0.642538
0.554919
0.660419
0.549555
0.614524
0.469685
0.800490
0.692606
0.606775
0.688434
0.637770
0.491738
0.634789
0.711679
0.748634
0.731945
0.697970
0.645518
0.758767
0.813603
0.647902
0.562668
0.686646
0.723600
0.856519
0.681877
0.702739
0.723600
0.904799
0.641942
0.831485
0.815988
0.768900
0.855923
0.755787
0.771880
0.962615
0.877976
0.846982
0.802875
0.772476
0.706911
0.797510
0.924468
0.945926
1.021624
1.074672
0.981688
1.015663
1.094937
1.330972
1.088977
1.284480
1.363754
1.437664
1.756549
2.253652
4.563928
23.896694
64.962506
182.248950
326.689482
570.659637
788.940787
1015.161872
1015.638709
1015.638709
938.760638
659.464598
457.013845
251.219869
142.318606
56.600571
25.645494
9.750724
7.408857
7.344484
7.529855
7.609725
7.507801
7.820725
7.961988
8.437634
8.902550
##ZVALUE=380
0.619888
0.579953
0.590682
0.587702
0.557899
0.648499
0.734925
0.601411
0.649691
0.608563
0.601411
0.628829
0.693798
0.636578
0.702739
0.618696
0.746846
0.684857
0.701547
0.825524
0.764728
0.835657
0.633597
0.631809
0.669956
0.531673
0.516772
0.691414
0.672936
0.611544
0.705719
0.815988
0.792742
0.745654
0.687838
0.774860
0.810623
0.779629
0.617504
0.765920
0.684857
0.724792
0.637770
0.996590
0.726581
0.781417
0.961423
0.820756
0.830889
0.843406
0.830889
0.669956
0.868440
0.880957
0.836849
1.030564
1.025796
0.985861
0.965595
1.069903
1.028776
1.024604
1.107454
0.949502
1.298785
1.404881
1.407862
1.507998
1.661777
1.961589
2.187490
3.285408
10.745525
55.636764
134.093761
324.981809
535.743833
844.827890
1015.653014
1015.653014
1015.653014
1002.469659
818.857551
551.322699
357.449651
171.900988
86.708665
30.529499
13.702512
7.828474
7.040501
7.007718
6.982684
7.103682
7.530451
7.352829
##ZVALUE=385
0.395775
0.565648
0.350475
0.333786
0.456572
0.369549
0.454783
0.322461
0.385642
0.500679
0.446439
0.468493
0.297427
0.559688
0.360608
0.631809
0.487566
0.441670
0.393987
0.497699
0.482798
0.357628
0.540614
0.458956
0.418425
0.490546
0.494719
0.498891
0.535846
0.499487
0.748634
0.500679
0.541806
0.566840
0.600815
0.590682
0.453591
0.421405
0.487566
0.548959
0.765920
0.446439
0.622869
0.505447
0.680685
0.754595
0.787973
0.785589
0.584722
0.644922
0.596642
0.678897
0.652671
0.784993
0.671744
0.568628
0.707507
0.632405
0.548959
0.715852
0.728965
0.713468
0.718832
0.823736
0.898838
1.056790
1.235604
1.237988
1.451969
1.280904
1.493692
1.554489
1.902580
2.198815
5.020499
30.432940
85.227489
232.780576
419.359803
746.732950
974.053741
1015.478969
1015.478969
1015.478969
1001.668572
735.017657
513.348579
274.628401
153.338909
60.820580
24.265647
8.360744
6.370544
6.139874
6.282926
6.340742
##ZVALUE=390
0.371933
0.503659
0.620484
0.588894
0.395775
0.536442
0.582933
0.524521
0.500679
0.577569
0.483990
0.425577
0.592470
0.510812
0.488758
0.660419
0.441670
0.537634
0.600815
0.631809
0.535846
0.514984
0.714660
0.653863
0.564456
0.405908
0.615716
0.533462
0.570416
0.636578
0.579953
0.571609
0.616908
0.467896
0.610948
0.684857
0.569820
0.602603
0.665784
0.576973
0.640750
0.691414
0.626445
0.542998
0.716448
0.626445
0.587702
0.575781
0.598431
0.581741
0.683665
0.744462
0.689626
0.739694
0.614524
0.666976
0.871420
0.773668
0.743866
0.701547
0.759959
0.878572
0.755787
0.813603
0.855923
0.907779
0.944734
1.092553
1.353621
1.375675
1.334548
1.473427
1.493692
1.695752
1.636744
1.838803
3.367662
12.562871
62.980652
159.408450
388.902426
608.065724
904.325843
1015.560031
1015.560031
1015.560031
1015.560031
888.401866
595.608950
399.764776
197.296739
99.607706
34.140944
13.423562
6.329417
5.540848
##ZVALUE=395
0.503659
0.505447
0.616908
0.538826
0.535846
0.736713
0.683665
0.525713
0.530481
0.548959
0.638962
0.526905
0.704527
0.689626
0.687838
0.558496
0.500679
0.557899
0.648499
0.548959
0.593662
0.507832
0.657439
0.694990
0.623465
0.576973
0.587702
0.727773
0.568628
0.658631
0.631809
0.698566
0.709891
0.674725
0.633597
0.642538
0.625849
0.614524
0.698566
0.761747
0.862479
0.650883
0.876784
0.668764
0.772476
0.840425
0.651479
0.708699
0.782609
0.818968
0.701547
0.710487
0.752807
0.806451
0.739694
0.795722
0.782609
0.879765
0.831485
0.822544
0.778437
0.944734
1.050830
0.830889
0.890493
1.065731
1.070499
1.299977
1.331568
1.284480
1.514554
1.484752
1.419783
1.211762
1.504421
1.628995
1.635551
1.886487
2.103448
7.957816
30.925870
120.088458
256.966949
524.307489
764.995813
1015.638709
1015.638709
1015.638709
1015.638709
972.727537
742.854476
455.509424
288.782716
135.431886
63.998699
20.849705
##ZVALUE=400
0.639558
0.692606
0.574589
0.491738
0.579953
0.570416
0.593662
0.388622
0.580549
0.500679
0.574589
0.564456
0.644922
0.684857
0.640750
0.565648
0.563860
0.622869
0.549555
0.456572
0.617504
0.604987
0.733733
0.666976
0.613928
0.637770
0.715852
0.580549
0.661612
0.591874
0.487566
0.673532
0.631809
0.704527
0.632405
0.708699
0.579953
0.578761
0.654459
0.693798
0.645518
0.760555
0.638962
0.616908
0.595450
0.703931
0.761747
0.697970
0.779629
0.839829
0.688434
0.755787
0.732541
0.601411
0.659823
0.720620
0.642538
0.702739
0.775456
0.819564
0.779629
0.810623
0.832677
0.823736
0.955462
0.985861
1.079440
0.964999
1.101494
1.182556
1.280904
1.393557
1.377463
1.354814
1.246929
1.351833
1.369715
1.426935
1.484752
1.668930
1.850724
3.396869
17.793775
54.750443
176.308751
340.609550
648.217797
893.558860
1015.638709
1015.638709
1015.638709
1004.776955
749.788880
542.206764
312.437415
187.034607
##END
