##TITLE=QP00301
##FORMAT=SPECTACLE-ASCII V-1.2
##DATA TYPE=ULTRAVIOLET SPECTRUM
##SECOND TYPE=ULTRAVIOLET SPECTRUM
##DATE=01/21/18
##TIME=12:35:42
##SPECTROMETER/DATA SYSTEM=SPECTACLE
##XUNITS=NM EM
##YUNITS=ENERGY
##YFACTOR=1
##FIRSTX=220
##LASTX=410
##NPOINTS=96
##3DDATA=Equidistant
##ZUNITS=NM EX
##FIRSTZ=210
##LASTZ=400
##ZPOINTS=39
##XYDATA=(Y..Y)
##ZVALUE=210
1.647472
1.335740
1.510978
1.299977
1.531839
1.663566
1.939535
1.522899
1.816750
1.774430
1.628995
1.879930
1.795888
1.648664
1.692772
1.947880
1.905560
2.060533
2.314448
2.395511
1.988411
2.678633
2.344847
2.361536
2.603531
2.862811
3.442764
2.500415
3.330708
3.428459
3.205538
2.708435
3.410578
3.384948
4.354715
3.723502
3.619790
3.421903
3.971457
4.170537
4.021525
3.682971
3.544688
4.249811
3.374815
4.397631
4.244447
4.075766
4.401803
4.351735
4.469752
4.182458
4.518628
4.079938
4.432797
3.690720
4.604459
4.570484
4.653931
4.972816
4.857779
4.764795
4.797578
4.941821
4.561543
5.569458
5.277991
5.879998
6.032586
8.373857
8.214712
10.114908
11.075735
14.796853
14.788508
15.383959
14.549494
15.821457
14.111996
14.373660
12.673736
12.077689
9.763837
9.171963
7.738471
6.226897
6.041527
5.410910
4.878640
4.511476
4.715919
5.657673
5.588531
5.092621
5.144477
5.218983
##ZVALUE=215
4.545450
5.123615
3.973842
3.908873
3.185868
3.591776
3.151894
3.252625
4.167557
3.922582
3.863573
3.445745
3.156662
2.669692
2.416968
2.423525
2.101660
1.831651
2.178550
2.484918
2.420545
2.548695
3.084540
2.374649
2.687573
2.524853
2.851486
3.935695
3.180504
3.689528
3.259778
4.020929
3.796816
3.496408
3.631711
3.837943
3.967881
3.559589
3.908873
3.598928
3.607869
4.037619
4.155636
3.940463
3.837943
4.073977
4.239678
4.557967
5.103946
3.804564
4.344583
4.030466
3.792644
4.189610
4.784465
4.874468
4.985929
4.339814
5.291700
4.207492
5.295873
5.404949
4.982948
4.858971
5.107522
5.054474
5.445480
5.736947
6.746650
7.510781
8.485913
11.021495
12.326837
12.205839
13.973713
14.694929
13.386607
14.323592
14.164448
12.859702
12.290478
10.062456
9.900928
8.988976
8.287430
7.443428
5.917549
5.216599
4.738569
5.262494
5.018711
4.917979
4.855990
5.025864
5.087852
4.992485
##ZVALUE=220
16.006827
14.312863
18.760562
17.693639
17.015934
13.121963
11.135936
10.512471
7.168651
9.128451
8.586645
9.859800
9.668469
10.074973
7.424951
5.709529
4.656911
3.481507
2.721548
3.195405
2.836585
2.608895
3.240705
2.697706
3.092885
3.286600
2.940893
3.346801
3.569722
3.423691
3.723502
4.365444
4.838705
4.875660
5.085468
4.715919
4.925728
4.862547
4.494786
4.426837
4.761815
5.447865
4.736781
4.967451
5.323887
4.869699
4.935861
4.401803
4.457831
4.922748
5.520582
4.635453
4.937649
5.245805
5.356669
4.909635
4.737973
5.755424
5.520582
5.327463
5.685687
5.269647
5.219579
5.544424
5.651712
6.175637
6.090999
5.549788
7.908940
7.652640
9.209514
11.440516
13.110638
14.475584
15.906692
16.521811
16.222596
14.677644
16.102791
13.242960
13.444424
13.624430
12.153983
9.969473
9.101629
8.812547
7.961988
6.779432
6.892681
6.115437
6.451607
6.344914
7.455945
6.637573
6.196499
6.425977
##ZVALUE=225
26.846528
27.957559
35.854578
50.072670
57.606697
58.854818
53.284764
45.127869
33.745766
27.944446
21.456480
20.746589
21.570921
23.285747
23.460984
22.626519
18.561482
15.505552
12.248755
7.642508
5.330443
3.841519
3.638864
3.236532
3.277659
2.996922
3.696680
3.887415
3.459454
4.099607
4.018545
4.867911
4.704595
5.126595
5.365610
5.826950
6.102920
5.360842
6.889701
5.964637
5.949736
6.119609
6.332994
7.240772
5.275607
5.970597
6.625652
5.723834
6.155968
5.775690
5.702972
6.469488
6.002784
5.665421
5.780458
7.548928
6.053448
7.093549
7.710457
7.275939
6.950498
6.645918
7.800460
7.592440
9.043813
8.369684
7.964969
9.547472
9.758472
10.237694
10.557771
13.122559
13.669729
15.804768
16.356707
17.155409
17.079711
16.347766
15.603900
14.708638
15.333891
13.224483
13.489723
12.373924
11.122823
11.128783
10.455847
8.933544
11.412501
10.233521
8.924603
9.283423
10.086894
9.468794
9.270906
9.748936
##ZVALUE=230
23.505688
24.539828
45.921803
69.010854
93.398690
127.143860
144.429803
147.855878
139.732957
113.832951
86.712837
60.042739
48.104525
40.779710
43.727756
47.966838
49.929619
48.358440
41.693449
35.439730
26.761889
18.709898
11.137724
7.593632
4.814863
5.171895
4.294515
4.425645
5.240440
5.005598
5.369782
5.027652
5.439520
5.939603
6.617904
6.638765
7.121563
6.960630
6.852746
7.048845
6.571412
6.081462
6.542802
8.086562
6.907582
6.445646
7.194877
6.745458
7.923841
6.768703
6.778836
7.637739
6.781816
7.516742
7.614493
7.546544
7.118583
6.837845
8.124709
9.234548
8.919835
8.757710
10.709763
10.928512
11.331439
12.331605
11.268854
13.089776
12.459755
14.367700
15.539527
17.935634
19.360781
20.601749
20.818710
21.434426
22.668839
23.062825
21.579862
21.072626
21.374822
19.541979
18.687844
17.114878
18.679500
16.351938
16.265512
16.218424
17.143488
15.703440
16.712546
17.239451
17.264485
14.822483
15.807748
15.755892
##ZVALUE=235
8.597970
9.221435
23.508668
49.782991
93.488693
137.671828
206.672549
259.549618
302.700996
305.632949
275.910497
232.259631
180.989504
123.409629
87.860823
74.772835
73.816776
81.245899
87.088943
84.824562
82.188845
69.618821
53.954720
38.014650
25.050640
17.145872
10.885000
7.575750
6.250739
5.924702
6.429553
7.063746
6.563663
7.239580
7.234812
5.990863
6.694794
7.149577
7.503629
6.773472
7.541776
6.935596
7.118583
6.331801
6.732941
7.185936
7.474422
8.307695
7.579923
7.323623
7.431507
7.888675
8.958578
8.100867
8.609891
8.756518
9.024739
9.400845
9.309649
10.816455
10.392666
10.470748
12.336969
11.433959
12.478828
12.692809
14.253855
15.171766
16.063452
18.948913
19.330978
19.697547
22.510886
23.863912
26.413798
27.716756
27.467608
27.414560
28.611422
26.622415
24.707913
25.260448
24.961829
25.152564
24.243593
22.731423
23.199916
25.634766
24.299622
22.690892
22.743940
23.040771
23.315549
22.080541
22.483468
22.618771
##ZVALUE=240
1.518726
1.374483
4.388690
11.308789
33.697486
63.252449
132.094622
199.561715
303.242803
377.655625
437.123775
442.311764
418.146849
333.230495
262.297988
173.414946
128.513575
97.872615
89.339614
93.534589
104.320645
112.275481
109.396577
98.225474
79.116821
63.393712
45.437813
32.016635
22.032857
13.596416
10.682940
8.285642
7.883906
8.046627
8.222461
6.892681
7.405877
7.794499
7.169843
6.655455
7.664561
6.938577
6.346703
7.456541
6.715655
6.891489
6.922483
6.838441
6.258488
6.452799
7.162690
6.412864
6.605983
6.892681
8.393526
7.785559
7.947683
8.132458
8.745790
10.289550
10.322928
10.319948
10.949969
12.782812
12.942553
13.754964
14.065504
14.595985
17.896891
18.427968
19.713640
21.277666
23.227930
25.165677
26.044846
25.976896
28.019547
29.156804
27.714968
27.422905
27.989745
27.838945
27.505755
26.573539
29.655695
28.232932
27.710795
27.504563
29.015541
27.978420
27.649999
27.462840
26.762486
26.605725
26.696920
27.174950
##ZVALUE=245
0.947714
1.001954
1.256466
1.159906
3.107786
9.329915
31.404495
63.117743
141.714811
219.803452
350.755453
445.326567
520.038605
552.038550
535.454750
443.646908
365.510583
251.935720
177.274942
113.102794
95.471740
93.549490
109.912753
122.219920
125.419497
122.175813
107.795596
95.856786
70.490837
53.252578
39.097667
23.938417
16.971827
10.638833
9.646416
8.192658
8.104444
8.431673
7.417798
7.312894
7.271767
6.819963
7.538795
6.432533
6.420612
6.506443
5.725622
6.089807
5.711913
6.543994
6.197691
6.729960
6.734729
7.145405
6.292462
7.450581
7.109642
8.536577
7.661581
8.177757
8.501410
9.814501
9.103417
10.214448
10.614991
11.919737
13.581514
14.005899
15.560985
18.507838
19.716620
20.348430
22.311807
24.286509
23.962855
25.052428
25.369525
27.624965
26.697516
26.950836
27.635694
24.970770
26.453733
25.917888
27.536750
24.802685
25.406480
27.886629
26.757717
27.655959
26.966929
28.947592
26.778579
27.600527
27.634501
28.024912
##ZVALUE=250
1.231432
1.142621
1.339912
1.362562
1.560450
1.479983
2.152920
6.288886
25.459528
57.788491
134.998560
222.522616
327.901840
467.890501
560.804009
628.380775
632.154942
559.113622
478.829741
335.146785
233.611465
154.890418
99.608898
91.981888
100.055933
114.068985
133.076906
136.440992
130.929947
119.263530
99.680424
76.116920
57.194829
36.278963
25.576949
14.057755
11.059642
8.687973
7.796884
7.789731
7.569790
6.692410
7.226467
6.325841
6.505847
6.897449
6.958842
6.623864
6.056428
6.099939
5.835891
5.749464
6.380677
6.257892
6.404519
6.484985
7.268786
6.853938
7.449985
7.864833
7.865429
8.122921
8.611679
10.511875
10.093451
10.876656
11.084676
13.480783
13.581514
14.365911
16.439557
17.804503
20.185709
21.172762
22.041798
22.961497
23.681521
23.586750
23.211837
25.301576
24.095774
24.865866
24.080873
24.628639
25.134683
24.950504
25.041699
25.088787
25.761724
25.104880
25.801659
24.804473
25.475621
28.160810
25.417805
25.798678
##ZVALUE=255
0.958443
0.983477
0.984669
1.107454
1.025796
1.032948
1.026988
1.494884
1.373887
3.687739
18.331409
45.693517
91.207623
193.474889
296.783447
455.704927
573.653579
676.821470
712.224841
668.248534
576.827526
458.619595
291.540623
191.601515
108.565688
84.413886
85.849762
97.841620
119.248629
134.462714
137.451887
136.732459
123.904943
101.094842
78.688860
52.924752
38.380623
20.935535
14.236569
8.706450
7.701516
7.167459
6.733537
6.940961
6.203651
5.974770
5.879998
6.120801
5.807877
6.262660
5.723834
5.973577
5.985498
5.919933
5.939603
6.979704
5.678535
6.576777
7.050633
6.732941
7.305741
7.244945
7.886887
7.742643
8.775592
8.892417
10.318756
11.637807
12.154579
12.821555
14.271736
15.333891
16.196966
18.788576
18.213987
19.564629
20.088553
21.016598
20.152926
20.881891
21.787882
22.019744
22.312999
22.318959
21.881461
22.800565
22.010803
22.338629
23.813844
24.021864
24.106503
23.671985
23.478866
22.864938
24.704933
24.404526
##ZVALUE=260
0.913739
0.912547
0.950694
0.938773
1.039505
0.922680
1.035929
1.086593
1.321435
1.030564
1.560450
2.195835
5.962849
28.764606
64.783692
156.426430
254.541636
414.142609
551.905632
714.989901
787.445903
789.175630
688.582659
568.435788
376.816988
258.492827
148.992538
95.394850
72.699785
77.761412
93.333721
120.083690
133.821964
141.924620
140.266418
125.715733
106.566548
77.389479
57.522655
35.172701
22.852421
13.468862
9.585619
6.537437
6.229877
5.883574
6.395578
5.986691
6.068945
5.858541
6.254911
6.250739
6.423593
6.449819
6.390810
5.716681
6.322861
6.439686
6.483793
6.563663
6.756783
7.220507
7.764697
8.042455
8.227825
8.815527
9.381771
10.584593
10.772943
12.387633
13.695955
14.537573
15.329719
17.768741
17.280579
18.368959
18.243790
19.017458
17.945766
18.902421
19.746423
20.276904
20.449758
20.393729
20.643473
21.267533
22.451878
20.639896
21.314621
21.868944
21.843910
21.973848
23.082495
22.228956
22.240877
23.337603
##ZVALUE=265
0.829697
0.999570
0.809431
1.002550
1.070499
1.036525
1.191497
1.218915
1.266599
1.256466
1.215935
1.149774
1.440644
1.850724
4.052520
21.223426
50.894618
130.772591
222.564936
411.577821
556.609631
667.665601
835.496783
860.002637
783.187747
671.449900
494.421721
350.533724
191.259980
121.408701
71.550608
63.458681
80.065727
100.473762
127.397776
139.482617
145.721436
141.435862
119.667649
103.870630
76.000690
57.231784
34.205914
22.327900
12.877584
8.764863
7.259846
6.752610
6.058812
5.801916
6.169677
5.941987
6.152987
6.246567
5.831718
6.663799
6.432533
6.451607
6.608963
7.052422
6.821752
7.196665
7.686615
7.890463
7.881522
8.707643
8.757710
10.160804
10.476708
11.776686
11.881590
14.061928
14.543533
14.658570
15.166998
16.243458
17.144680
16.688704
17.016530
17.487407
17.546415
17.338991
18.120408
18.398762
18.861890
19.821525
19.693971
20.176768
20.495653
20.112991
20.554662
21.351576
21.064878
20.433664
21.809936
21.598935
##ZVALUE=270
0.802875
0.834465
0.852942
0.700951
0.792742
0.988841
1.157522
0.789762
0.950694
0.899434
1.155734
1.374483
1.239777
1.088977
1.478791
1.580715
2.002716
7.966757
25.582910
82.935691
164.692998
285.493731
499.301553
670.627952
842.203498
905.761719
906.960964
816.134810
630.288720
476.341844
330.846906
170.902610
98.257661
56.230426
56.424737
76.878667
97.472668
123.787522
135.432482
143.077970
139.898658
122.794509
103.302598
76.773763
56.496859
34.760833
24.310946
13.709664
9.944439
7.675886
6.585717
6.647706
6.373525
6.096959
6.325841
6.599426
6.802678
6.336570
7.487535
6.546974
7.108450
7.479787
7.718801
7.813573
8.070469
8.489490
8.942485
10.023713
10.031462
10.628700
11.711717
12.911558
13.507605
14.845729
14.656782
15.923977
15.755892
16.088486
16.190410
16.667843
16.977787
17.540455
17.284751
17.914772
17.830729
18.547773
19.002557
19.020438
18.834472
18.915534
18.984675
18.675923
19.308925
19.526482
19.049644
18.936992
##ZVALUE=275
0.861883
0.858903
0.883937
1.012683
0.974536
1.084805
0.883937
0.863671
0.874996
0.938773
1.084805
0.917912
1.050830
1.058578
1.217723
1.084805
1.361966
1.268983
1.639724
3.833771
13.712645
38.808584
119.164586
227.377415
433.570743
590.170622
790.613890
912.465453
971.989632
927.270651
788.057446
620.961785
440.660715
235.227942
133.487582
63.000917
45.606494
54.126978
71.894526
100.016594
116.479993
139.198899
141.024590
133.902431
121.725798
97.767711
78.576803
53.972602
36.503673
22.558570
15.105605
9.987950
7.676482
6.740689
6.787777
6.790757
6.695986
6.966591
7.665753
7.648468
7.921457
7.660985
7.850528
8.051991
8.994937
9.177923
9.205937
9.598732
10.233521
11.168718
11.869669
12.888908
13.377666
14.134645
14.835596
14.801621
15.763640
16.168952
16.625524
16.141534
16.807914
16.921759
16.691685
17.735958
17.355680
17.336607
17.979741
18.010736
18.190742
18.196702
17.950535
18.339753
18.906593
18.480420
18.785596
18.566847
##ZVALUE=280
0.626445
0.705719
0.846982
0.905991
0.833869
0.999570
1.063943
0.893474
0.917912
0.870824
1.014471
0.887513
1.115799
0.966787
1.154542
1.046658
1.141429
1.096725
1.351833
1.518726
1.468658
1.947880
8.722544
31.170845
106.322765
192.490816
360.158682
527.489781
746.564865
892.360806
989.067554
995.093584
910.493731
695.049763
505.497456
291.010737
172.556639
77.408552
44.321418
38.804412
50.637722
74.426532
93.568563
118.166804
131.730437
137.074590
131.646991
117.130876
100.193620
73.567629
55.071712
34.769773
24.083853
14.207959
10.090470
7.552505
7.144809
7.005930
7.451773
7.670522
7.882714
7.682443
8.626580
8.941889
8.879900
9.709597
9.728670
10.534525
10.999441
11.347532
11.730790
13.024807
13.477802
14.100671
14.850497
15.374422
15.609860
15.699863
15.620589
16.192794
16.399622
16.635656
16.620755
16.593933
17.142892
16.292930
17.365813
17.734766
17.474890
17.703772
17.278790
17.603636
17.803907
17.767549
17.565489
18.022656
##ZVALUE=285
0.776649
0.742674
0.689626
0.765920
0.673532
0.662804
0.767708
0.854731
0.849962
0.876784
0.871420
0.873804
0.771880
1.035929
1.228452
1.006722
1.014471
0.957847
1.170635
1.287460
1.270771
1.408458
1.446605
1.675487
4.055500
15.299916
56.577921
123.888850
269.446969
426.742435
592.504740
832.116604
967.554450
1015.638709
975.051522
786.599517
611.047745
371.934772
227.995515
105.803609
55.791736
30.048490
31.558871
48.702955
65.250993
94.546676
109.902620
126.426816
133.330822
129.970908
119.577646
97.799897
79.270601
54.734945
39.149523
23.100972
15.606880
10.386705
8.880496
7.941723
8.153915
7.937551
8.352995
8.821487
9.277463
9.776950
9.657741
10.438561
11.249781
12.203455
12.636781
12.899637
13.774633
14.400482
14.108419
15.209913
15.544891
15.883446
15.800595
16.509891
16.653538
16.516447
16.315579
16.797781
17.101765
17.063618
17.665625
17.391443
17.000437
17.715693
16.877651
17.079711
17.541647
17.422438
17.524958
17.544627
##ZVALUE=290
0.592470
0.601411
0.730753
0.687838
0.725985
0.850558
0.708699
0.681877
1.014471
0.699759
0.755787
0.924468
0.941753
0.649691
0.831485
0.910759
0.931621
0.873804
1.058578
1.085997
1.285672
1.145601
1.222491
1.406670
1.543760
1.613498
2.160668
6.456971
29.961467
72.401762
179.234743
315.840840
503.197908
781.493783
957.610607
1015.638709
1015.638709
917.204618
739.864707
483.304858
312.404633
151.142478
76.922774
31.026602
23.054481
30.884743
43.515563
65.230727
83.047748
105.696917
119.318962
128.250718
126.953721
114.095807
97.950697
73.201656
56.025982
35.177469
25.019646
15.577674
12.073517
9.588599
9.002686
9.364486
9.288788
9.411573
10.451674
10.834932
11.259913
11.679530
12.630820
13.987422
13.730526
14.187694
15.153885
15.587807
15.448928
15.442967
15.771985
16.291738
16.550422
16.839504
17.147660
17.546415
17.509460
16.904473
17.737746
17.556548
17.433763
17.461777
17.086864
17.212629
17.311573
17.177463
17.525554
17.053485
##ZVALUE=295
0.766516
0.825524
0.755787
0.880957
0.786781
0.821948
0.825524
0.873804
0.857711
0.806451
0.961423
0.860691
1.001954
0.726581
0.919700
0.959635
0.869632
0.984669
1.071692
1.011491
1.054406
1.042485
1.313686
1.281500
1.418591
1.457930
1.627803
1.687407
1.753569
2.970695
9.858608
43.685436
105.765462
257.004499
424.814820
684.706569
869.250894
1015.754938
1015.754938
984.458923
841.418505
594.168901
409.719944
218.200684
117.452741
44.274926
22.810698
19.679666
26.248693
42.811632
58.283806
81.573725
97.780824
116.844773
123.650432
121.278763
109.978914
91.247559
73.773861
53.360462
39.316416
24.528503
17.839670
12.934804
11.415482
10.221601
10.563731
11.155605
11.437535
12.571812
12.926459
13.886690
14.309883
14.967918
15.225410
15.786886
16.024709
16.170740
16.540885
16.608834
16.857982
17.443895
17.688870
17.243624
17.725825
18.536448
17.610788
18.395782
17.344952
17.095804
17.434955
17.557740
16.916990
17.448664
17.039776
17.661452
##ZVALUE=300
0.620484
0.557899
0.795722
0.750422
0.812411
0.887513
0.853539
0.658631
0.776649
0.807643
0.565648
0.691414
0.630617
0.834465
0.947714
0.841618
0.811815
0.753999
0.834465
0.829697
0.881553
0.989437
0.996590
0.943542
1.032948
1.137853
1.224875
1.142621
1.299977
1.490712
1.544952
1.788735
4.292727
25.007725
64.463615
177.916884
313.982964
566.096902
765.820742
987.280011
1015.638709
1015.638709
957.249999
727.020502
525.947809
284.964442
169.588923
74.165463
34.987926
15.957952
16.052723
25.049448
34.560561
54.031610
71.707964
94.304681
108.398795
117.706656
115.814805
105.663538
93.990564
71.839690
54.910779
38.133860
27.450919
18.629432
14.658570
12.934804
12.385845
12.316704
12.870431
13.866425
14.228821
14.919639
15.899539
15.633702
16.366839
16.583800
16.474724
17.186999
17.860532
17.456412
17.457604
18.110871
18.308759
17.978549
18.395782
18.098950
17.615557
17.750859
17.558932
17.520785
17.798543
17.389655
17.522573
17.641783
##ZVALUE=305
0.721812
0.703931
0.662804
0.697970
0.564456
0.703931
0.611544
0.738502
0.687838
0.776649
0.757575
0.744462
0.881553
0.681877
0.711679
0.733733
0.744462
0.615716
0.778437
0.885725
0.673532
0.839829
0.769496
0.883937
1.191497
1.113415
1.177788
1.112819
1.319647
1.130700
1.242757
1.335740
1.411438
1.713634
2.713799
13.063550
39.354563
121.663809
229.860544
453.323722
654.847622
922.516584
1015.638709
1015.638709
1015.638709
828.433633
637.143850
393.853784
241.028666
111.218691
54.646730
19.448996
13.096929
15.561581
21.941662
36.409497
51.201582
72.940588
88.482499
104.588866
111.489892
110.572577
103.096962
87.958574
72.870851
52.747726
40.026903
27.229786
20.882487
15.409589
15.162826
14.030933
15.044808
15.232563
15.634894
16.320944
16.403794
16.845465
17.237663
17.327666
17.610788
18.474460
18.609762
18.756986
18.829703
18.959641
18.640757
18.798709
19.118786
18.272996
18.622875
18.116832
17.737746
18.247962
18.452406
17.950535
##ZVALUE=310
0.593662
0.658631
0.878572
0.714660
0.590682
0.714660
0.700951
0.658631
0.766516
0.521541
0.706911
0.687838
0.734925
0.712872
0.732541
0.751615
0.820756
0.795722
0.793934
0.590682
0.877976
0.828505
0.812411
0.907779
0.857711
0.983477
0.900626
0.947714
0.858903
1.084805
1.130700
1.203418
1.283884
1.300573
1.459718
1.619458
1.950860
6.476641
20.629764
72.325468
150.142908
332.669616
522.365570
812.032819
999.705791
1015.638709
1015.638709
1012.298465
853.810906
562.307835
369.811654
183.582902
95.386505
33.758879
15.415549
11.035800
13.693571
21.423697
31.139851
47.073960
62.701702
82.882643
95.367432
104.927421
106.800795
100.070834
89.255571
71.780682
56.286454
40.007830
30.535460
23.632646
19.101501
16.767979
15.844703
16.610622
16.842484
17.064810
17.349720
17.886758
17.475486
18.032789
18.564463
19.048452
18.969774
19.154549
19.345880
19.345880
19.059777
19.117594
19.411445
18.669963
18.399954
18.509626
18.049479
18.423796
##ZVALUE=315
0.706911
0.555515
0.710487
0.546575
0.759959
0.586510
0.715852
0.728965
0.688434
0.755787
0.688434
0.654459
0.770688
0.822544
0.626445
0.651479
0.746846
0.699759
0.732541
0.757575
0.867844
0.784993
0.857711
0.831485
0.791550
0.937581
0.855923
0.815988
0.960827
0.977516
1.001954
0.994802
1.184940
1.315475
1.202822
1.313686
1.233816
1.539588
1.739860
3.108978
11.144876
48.058629
110.216737
259.397626
436.871648
731.393695
936.949849
1015.637517
1015.637517
1015.637517
973.107815
692.755580
478.040576
240.385532
125.871897
44.143796
19.422770
9.966493
10.308623
14.088750
18.785596
30.572414
42.415857
60.867667
76.230764
93.122721
100.708604
103.169680
98.980665
83.834529
72.380900
55.789948
43.055415
30.996799
24.890900
20.047426
18.108487
17.901659
17.795563
17.923713
18.170476
18.324852
19.255877
18.998981
19.542575
19.487739
19.801855
19.511580
19.297600
19.610524
19.424558
18.828511
19.141436
18.883944
18.850565
18.403530
##ZVALUE=320
0.562668
0.662804
0.563860
0.557899
0.532866
0.666976
0.662804
0.562668
0.538826
0.806451
0.624657
0.640750
0.604987
0.512600
0.761747
0.737906
0.818968
0.538826
0.627637
0.819564
0.902414
0.656843
0.892878
0.690818
0.738502
0.814795
0.877976
0.896454
0.811815
0.973940
0.993609
1.035929
1.057982
1.091957
1.066923
1.127720
1.236796
1.373887
1.505613
1.582503
1.627803
2.171993
7.056594
21.667480
80.133677
167.956948
357.039571
551.033616
847.412944
1015.638709
1015.638709
1015.638709
1015.638709
899.896622
588.027835
368.648767
163.327456
80.536604
29.581785
13.868809
9.761453
10.350943
13.624430
18.274784
28.645992
38.775802
57.481527
71.408749
89.370608
95.629692
98.551512
94.814897
82.991719
71.974993
54.821968
43.835640
32.296777
25.877953
20.871758
19.662976
19.326806
19.047856
18.802881
19.185543
19.552708
19.555688
19.568801
19.608736
19.190907
19.454956
19.463897
19.309521
19.248724
19.109845
19.021630
18.776655
##ZVALUE=325
0.619888
0.630617
0.611544
0.705719
0.460744
0.559688
0.640750
0.474453
0.681877
0.557899
0.798702
0.719428
0.735521
0.648499
0.717640
0.734925
0.717640
0.616908
0.689626
0.677705
0.655651
0.584722
0.676513
0.702739
0.847578
0.859499
0.804663
0.856519
0.796914
0.771880
0.930429
0.947714
0.857711
0.969768
1.022816
0.995994
0.995994
1.146793
1.105666
1.244545
1.280904
1.379848
1.549721
1.791716
2.920628
16.829967
46.265721
127.912760
241.297483
478.402972
697.582960
979.684591
1015.638709
1015.638709
1015.638709
926.633477
694.673657
414.793491
245.065689
101.134777
46.441555
16.554594
10.174513
9.696484
10.244846
13.802648
18.647909
28.788447
39.856434
57.475567
71.188807
85.591674
92.787743
95.343590
90.613961
78.156590
66.499710
51.943660
41.644573
31.167865
25.550723
21.615624
20.153522
19.276738
19.161701
19.489527
19.547939
19.219518
19.455552
19.305944
19.439459
19.148588
19.034743
19.035935
19.127727
18.893480
##ZVALUE=330
0.433922
0.517964
0.573993
0.629425
0.502467
0.620484
0.612736
0.668764
0.567436
0.609756
0.620484
0.672936
0.606775
0.537634
0.637770
0.645518
0.569820
0.698566
0.629425
0.667572
0.666976
0.637770
0.822544
0.627637
0.813603
0.782609
0.756979
0.697970
0.713468
0.822544
0.782609
0.752807
0.755787
0.878572
0.858903
0.969768
0.932813
0.965595
1.147985
1.094937
1.177788
1.176000
1.331568
1.296997
1.399517
1.637936
1.985431
8.240938
25.982857
87.060928
175.806880
362.925529
554.747581
836.409926
1007.812619
1015.638709
1015.638709
986.531973
794.074535
513.797402
325.515866
148.466825
72.454810
25.738478
12.844801
9.565949
9.970665
11.316538
13.350844
20.197630
27.652979
41.079521
53.591728
71.456432
81.845522
88.957548
91.181993
85.508823
77.136755
62.631965
51.171780
39.183497
32.233596
26.304722
23.096800
20.300746
19.834638
19.228458
19.084811
18.850565
18.433928
18.490553
18.495917
18.593669
18.950701
18.529892
##ZVALUE=335
0.647902
0.640750
0.643730
0.620484
0.350475
0.538826
0.489950
0.609756
0.604987
0.546575
0.619888
0.545979
0.650883
0.614524
0.560880
0.447631
0.738502
0.535846
0.650883
0.637770
0.521541
0.633597
0.583529
0.693798
0.795722
0.732541
0.561476
0.763535
0.707507
0.755787
0.751615
0.796914
0.774860
0.982881
0.893474
0.911951
0.914931
0.965595
0.996590
0.878572
1.018643
0.808835
1.147985
0.959635
1.221895
1.199841
1.479983
1.704693
1.586676
3.989935
14.356971
56.914687
121.440887
281.985998
469.548702
764.292479
968.229771
1015.636921
1015.636921
1015.636921
913.982987
624.405742
416.747928
210.822821
106.343627
35.784841
16.634464
10.124445
9.911656
10.794997
12.229681
14.859438
19.326806
28.720498
38.148761
53.645968
64.749718
77.661872
84.615946
85.615516
82.140565
71.491599
62.513947
50.719976
41.676760
31.705499
26.440620
22.247434
20.246506
18.638968
18.603802
18.421412
18.454790
18.084645
17.927885
18.066764
##ZVALUE=340
0.458956
0.499487
0.560880
0.516772
0.450611
0.334978
0.564456
0.620484
0.529885
0.525713
0.605583
0.428557
0.493526
0.471473
0.552535
0.593662
0.396967
0.446439
0.393987
0.406504
0.554919
0.749826
0.485778
0.597835
0.512600
0.590682
0.709891
0.809431
0.747442
0.601411
0.726581
0.716448
0.756979
0.785589
0.795722
0.685453
0.688434
0.681877
0.748634
0.866652
0.745654
0.888705
0.934601
1.011491
0.898838
1.003742
1.042485
1.137853
1.350641
1.455545
1.541972
1.944900
9.554625
29.908419
95.043778
190.410614
403.299928
593.835711
851.709843
1009.118557
1015.581489
1015.581489
936.357975
743.670464
460.053682
281.551480
125.056505
58.633685
19.231439
11.276603
10.170937
10.134578
11.267662
12.266636
15.141964
18.881559
27.459860
36.784410
51.460862
62.097907
74.074864
79.556704
81.678629
77.639818
69.339871
61.335564
48.455000
39.668679
30.795932
26.161671
21.686554
19.333959
18.261671
17.911792
17.321706
17.415881
##ZVALUE=345
0.362992
0.490546
0.563860
0.460744
0.636578
0.395775
0.481606
0.356436
0.336766
0.431538
0.506639
0.305772
0.340939
0.384450
0.378489
0.569820
0.465512
0.483990
0.477433
0.506639
0.463724
0.583529
0.360608
0.377893
0.365973
0.439882
0.456572
0.513792
0.466704
0.561476
0.742674
0.590682
0.526905
0.632405
0.538826
0.655651
0.716448
0.601411
0.720620
0.648499
0.575781
0.683665
0.651479
0.670552
0.772476
0.848770
0.915527
0.967979
0.875592
1.003742
0.996590
1.346469
1.357794
1.502633
2.941489
19.717813
55.273771
152.934790
282.554626
529.053807
737.812519
987.697840
1015.486717
1015.486717
1005.573869
769.114494
561.355948
325.262547
179.751515
70.092678
32.542944
13.780594
10.387897
10.499954
10.600686
11.188984
11.994839
14.569759
18.278956
26.479959
34.756660
47.729611
56.875944
67.291856
72.624683
75.939894
73.574781
66.608787
59.050918
47.635436
38.544536
29.571652
24.349689
19.918680
17.910600
16.892552
##ZVALUE=350
0.483990
0.449419
0.535846
0.380874
0.358820
0.397563
0.663996
0.369549
0.464916
0.663996
0.612736
0.498891
0.483990
0.511408
0.445843
0.632405
0.549555
0.558496
0.504851
0.525713
0.420809
0.400543
0.510812
0.480413
0.540614
0.610948
0.375509
0.597835
0.462532
0.317693
0.510812
0.531673
0.655651
0.618696
0.670552
0.540614
0.624657
0.684857
0.664592
0.652671
0.777841
0.639558
0.823736
0.626445
0.735521
0.727773
0.808835
0.908971
1.071692
0.822544
1.030564
1.046658
1.119971
1.250505
1.472831
1.615882
1.862645
10.576844
36.684871
115.066767
221.939683
452.909470
666.527748
940.330029
1015.534997
1015.534997
1015.534997
895.490646
670.952797
387.677550
230.249763
102.496743
47.715902
17.007589
10.792613
10.106564
9.948611
10.012984
10.890961
11.759996
14.051795
18.535852
23.515821
32.512546
39.965510
52.291751
60.890913
67.920685
69.651604
67.690611
62.813759
53.466558
46.723485
37.046671
30.297637
23.805499
##ZVALUE=355
0.550747
0.590682
0.630617
0.505447
0.562668
0.610948
0.479817
0.437498
0.575781
0.668764
0.651479
0.701547
0.598431
0.708699
0.604987
0.668764
0.611544
0.514984
0.724792
0.587702
0.547767
0.533462
0.557899
0.550747
0.660419
0.672936
0.590682
0.537634
0.523925
0.517964
0.802875
0.613928
0.770688
0.869632
0.656843
0.665784
0.636578
0.759959
0.881553
0.800490
0.796914
0.753999
0.860691
0.725985
0.736713
0.797510
0.823736
0.966787
0.936985
0.984669
0.880957
1.121759
1.050830
1.288652
1.207590
1.330972
1.624823
1.450777
1.867414
4.592538
16.913414
68.924427
144.750476
318.905711
510.223508
801.309943
991.199613
1015.638709
1015.638709
916.939974
717.842579
456.815958
284.397006
124.542713
60.401559
21.689534
11.446476
9.337664
9.548664
9.686947
9.890795
10.909438
11.531711
13.608932
15.907884
21.754503
27.980804
37.469864
45.024753
54.163933
60.240626
63.417554
63.018799
57.593584
51.777959
42.931437
##ZVALUE=360
0.556707
0.680685
0.568628
0.534654
0.676513
0.573993
0.569820
0.522733
0.516772
0.531673
0.482798
0.571609
0.566840
0.552535
0.553727
0.620484
0.710487
0.552535
0.709891
0.699759
0.546575
0.588894
0.630617
0.561476
0.559688
0.527501
0.674725
0.678897
0.803471
0.573993
0.707507
0.791550
0.664592
0.585914
0.705719
0.771880
0.668764
0.705719
0.738502
0.773668
0.757575
0.870824
0.847578
0.748634
0.905991
0.772476
0.976920
1.037717
0.825524
0.984669
0.970960
1.044869
1.088977
1.018643
1.222491
1.228452
1.460910
1.544952
1.485944
1.474619
1.737475
2.228618
9.665489
33.580661
112.282634
217.848420
437.230468
654.543638
937.662721
1015.638709
1015.638709
1015.638709
806.256533
597.510934
349.429846
205.963850
85.896850
38.119555
13.677478
9.386539
8.899570
8.943677
9.395480
9.484887
9.743571
10.497570
11.925697
13.979673
18.586516
22.935867
31.026602
38.084984
47.341585
52.650571
57.389736
57.696700
##ZVALUE=365
0.497699
0.653863
0.633597
0.518560
0.562668
0.690818
0.622869
0.612736
0.613928
0.464916
0.551939
0.640750
0.484586
0.518560
0.723600
0.643730
0.604987
0.523925
0.571609
0.671744
0.646710
0.697970
0.673532
0.608563
0.603795
0.703931
0.648499
0.628829
0.730753
0.674725
0.805855
0.682473
0.723600
0.719428
0.801682
0.764728
0.820756
0.795722
0.659823
0.513792
0.716448
0.751615
0.764728
0.745654
0.838637
0.703931
0.806451
0.862479
0.661612
0.908971
0.936985
1.039505
0.898838
0.932813
0.843406
0.965595
0.913739
1.085997
1.143813
1.151562
1.240969
1.456738
1.531839
1.825690
3.469586
19.939542
56.620836
151.363611
284.546018
532.605648
729.869008
948.984027
1015.638709
991.469026
854.661465
604.197979
418.940783
221.785903
117.306709
42.631626
19.306540
9.089708
8.211732
8.300543
8.194447
8.389950
8.808970
8.605719
9.450912
10.187626
11.705756
15.638471
19.538999
26.900768
33.357739
41.351914
##ZVALUE=370
0.447631
0.569820
0.386834
0.541806
0.589490
0.552535
0.497699
0.473857
0.486970
0.444651
0.523925
0.453591
0.557899
0.561476
0.460744
0.482798
0.671744
0.519753
0.562668
0.493526
0.629425
0.595450
0.750422
0.607967
0.586510
0.608563
0.455976
0.642538
0.656843
0.546575
0.737906
0.500679
0.559688
0.717640
0.523925
0.770688
0.605583
0.622869
0.724792
0.634789
0.532866
0.673532
0.665784
0.654459
0.770688
0.686646
0.791550
0.721812
0.760555
0.851750
0.683665
0.791550
0.861883
0.747442
0.944734
0.908971
0.826716
0.940561
0.889897
1.159906
0.994802
1.228452
1.096725
1.226664
1.300573
1.624823
1.915693
7.961988
28.399825
100.457668
195.200443
383.985639
586.200953
853.855014
985.513926
1010.816693
927.412510
713.877678
517.330766
283.105969
156.768560
60.381889
28.723478
12.000799
8.230805
7.583499
7.490516
7.704496
7.784963
7.954836
8.016825
8.322597
9.029508
10.989904
13.269782
18.125772
##ZVALUE=375
0.491738
0.364780
0.542998
0.419617
0.540614
0.503659
0.537634
0.531673
0.539422
0.562668
0.404716
0.442863
0.433922
0.458956
0.669956
0.634789
0.600815
0.452995
0.499487
0.495911
0.592470
0.567436
0.543594
0.492930
0.496507
0.555515
0.686646
0.464916
0.626445
0.635982
0.628829
0.615716
0.639558
0.533462
0.509620
0.618696
0.674725
0.510812
0.581741
0.570416
0.668764
0.786781
0.749826
0.617504
0.685453
0.700951
0.660419
0.554919
0.737906
0.737906
0.722408
0.848770
0.828505
0.742674
0.877976
0.875592
0.731945
0.762939
0.885725
0.843406
0.849962
1.004934
1.036525
0.926852
1.074672
1.206994
1.247525
1.437664
1.645684
4.172921
14.148951
54.822564
125.603676
300.937891
482.666492
746.454597
910.234451
1011.762619
987.557769
811.618567
623.391867
375.118852
232.643485
110.534430
54.759979
18.350482
9.528995
7.345676
7.019639
6.998777
7.053614
7.236600
7.119775
7.636547
7.933974
8.245707
##ZVALUE=380
0.569820
0.442863
0.318885
0.547767
0.390410
0.410676
0.293851
0.378489
0.510812
0.656843
0.461936
0.459552
0.451803
0.463724
0.572801
0.495911
0.594854
0.398755
0.585914
0.516772
0.639558
0.587702
0.707507
0.689626
0.713468
0.641942
0.653863
0.597835
0.546575
0.441670
0.613928
0.502467
0.637770
0.568628
0.656843
0.556707
0.689626
0.576973
0.497699
0.612736
0.573993
0.651479
0.511408
0.533462
0.582933
0.617504
0.542998
0.678897
0.699759
0.636578
0.696778
0.612736
0.753999
0.799894
0.609756
0.730753
0.708699
0.747442
0.804663
0.722408
0.868440
0.904799
0.822544
0.845790
0.850558
1.040697
1.019835
1.045465
1.280904
1.488924
1.706481
2.559423
8.061528
41.000843
101.062655
246.978998
409.547687
647.631884
809.637904
951.684713
967.167020
844.677687
681.812763
454.536676
303.354859
147.391558
76.601505
27.774572
12.846589
7.089972
6.213784
6.541610
6.259680
6.386638
6.546974
6.545782
##ZVALUE=385
0.433922
0.458956
0.432730
0.572801
0.474453
0.459552
0.485778
0.345707
0.548959
0.361800
0.505447
0.408888
0.624657
0.693798
0.677705
0.382662
0.507832
0.478625
0.435710
0.591874
0.611544
0.431538
0.578761
0.613928
0.504851
0.526905
0.509620
0.595450
0.576973
0.421405
0.610948
0.556707
0.555515
0.476837
0.601411
0.553727
0.440478
0.591874
0.563860
0.708699
0.633597
0.663996
0.462532
0.542998
0.515580
0.454783
0.541806
0.660419
0.503659
0.613928
0.587702
0.731945
0.732541
0.631809
0.646710
0.700951
0.643730
0.604987
0.886917
0.726581
0.844598
0.711679
0.721812
0.874996
0.748634
0.884533
1.127720
0.913739
1.065731
1.190901
1.332760
1.424551
1.352429
1.866817
4.654527
24.583936
65.582991
174.507499
312.379599
556.292534
734.033585
919.835567
965.048671
903.585553
775.616765
561.323762
394.122005
214.850903
121.321678
49.365759
20.696521
7.804632
6.055832
5.814433
5.842447
5.979538
##ZVALUE=390
0.568628
0.538826
0.625849
0.469685
0.333786
0.379682
0.471473
0.449419
0.346899
0.544786
0.368953
0.560880
0.610948
0.364780
0.564456
0.499487
0.593662
0.492930
0.415444
0.496507
0.443459
0.441670
0.620484
0.415444
0.685453
0.624657
0.656843
0.593662
0.509620
0.494719
0.520945
0.543594
0.398755
0.376701
0.619888
0.559688
0.727773
0.524521
0.497699
0.689626
0.630617
0.463724
0.685453
0.596642
0.641942
0.696778
0.427961
0.598431
0.734925
0.621676
0.673532
0.768900
0.450611
0.545979
0.664592
0.517964
0.715852
0.737906
0.772476
0.747442
0.731945
0.712872
0.746846
0.860691
0.692606
0.774860
0.826716
0.987649
0.995994
0.997782
1.210570
1.229644
1.425743
1.321435
1.491904
1.547933
2.460480
12.215972
40.152669
126.033425
242.403746
465.991497
646.007657
843.347907
941.392779
961.663723
880.007744
681.767464
518.184900
313.238502
181.439519
73.366761
32.230616
10.120869
5.983710
5.474687
##ZVALUE=395
0.286698
0.133514
0.287890
0.257492
0.269413
0.275970
0.352859
0.282526
0.315905
0.230670
0.242591
0.358820
0.213981
0.420809
0.314713
0.394583
0.311732
0.411868
0.407696
0.400543
0.340939
0.225902
0.552535
0.379682
0.216961
0.245571
0.305772
0.285506
0.353456
0.344515
0.436902
0.287890
0.238419
0.475645
0.445843
0.342727
0.306964
0.358820
0.483990
0.374913
0.434518
0.353456
0.355840
0.430942
0.369549
0.328422
0.300407
0.582933
0.459552
0.438690
0.448823
0.458956
0.575781
0.476837
0.491738
0.541806
0.566840
0.436902
0.480413
0.428557
0.476837
0.681877
0.534654
0.742674
0.773668
0.635982
0.719428
0.645518
0.872612
0.939965
0.990629
1.215935
1.019835
1.024604
1.042485
0.958443
1.194477
1.236796
1.383424
6.170869
24.920702
93.287826
188.801885
368.756652
532.381535
757.490993
885.137916
953.711867
924.629569
779.767036
603.818893
378.610492
242.202878
114.968419
55.431724
17.892718
##ZVALUE=400
0.478625
0.489950
0.506639
0.551939
0.535846
0.501871
0.466704
0.449419
0.304580
0.350475
0.435710
0.463724
0.473857
0.460744
0.394583
0.330806
0.592470
0.541806
0.553727
0.342727
0.462532
0.452995
0.522733
0.480413
0.567436
0.419617
0.513792
0.588894
0.514984
0.666976
0.403523
0.576973
0.462532
0.615716
0.585914
0.540614
0.555515
0.642538
0.447631
0.461936
0.415444
0.578761
0.478625
0.544786
0.437498
0.543594
0.559688
0.524521
0.422597
0.647902
0.546575
0.724792
0.579953
0.727773
0.824928
0.638962
0.605583
0.567436
0.566840
0.659823
0.689626
0.704527
0.677705
0.825524
0.772476
0.746846
0.893474
0.878572
1.029968
0.924468
1.008511
1.026988
1.050830
1.112819
1.211762
1.133680
1.222491
1.194477
1.360774
1.482964
1.759529
4.438758
14.670491
58.967471
130.977631
289.942622
447.864532
654.472709
811.534524
928.160548
923.180580
797.795653
646.510720
429.020524
282.987952
146.080852
##END
