##TITLE=BS_C5_R3
##FORMAT=SPECTACLE-ASCII V-1.2
##DATA TYPE=ULTRAVIOLET SPECTRUM
##SECOND TYPE=ULTRAVIOLET SPECTRUM
##DATE=05/28/18
##TIME=11:37:43
##SPECTROMETER/DATA SYSTEM=SPECTACLE
##XUNITS=NM EM
##YUNITS=ENERGY
##YFACTOR=1
##FIRSTX=220
##LASTX=410
##NPOINTS=96
##3DDATA=Equidistant
##ZUNITS=NM EX
##FIRSTZ=210
##LASTZ=400
##ZPOINTS=39
##XYDATA=(Y..Y)
##ZVALUE=210
48.486590
48.146844
34.485459
29.125810
27.280450
23.767948
20.696521
18.170476
13.385415
10.806918
9.404421
7.695556
7.746816
7.872581
8.444786
7.801652
8.448958
8.918643
10.186434
10.463595
11.453629
13.307929
14.279485
15.100837
17.855763
19.176602
22.843480
25.270581
24.818778
27.585626
28.968453
30.162930
28.651953
31.525493
32.848716
33.015609
31.812787
33.174753
32.921433
32.347441
32.180548
31.640530
30.811429
30.838847
32.540560
31.371713
31.114817
30.681491
30.788779
31.733513
30.847788
32.283664
30.290484
30.656457
29.983521
30.126572
30.184984
30.910969
30.244589
30.210614
30.018687
28.753877
30.354857
30.158758
32.904744
35.835505
40.843487
46.449900
52.938461
61.800480
67.566633
81.411004
87.082982
93.181729
97.242594
91.756582
90.822577
84.903836
76.705813
67.023635
59.199929
45.417547
40.886998
32.779574
30.499697
25.359988
24.874806
26.118755
28.871894
33.926964
47.218800
66.817999
85.199475
111.420751
139.562488
178.436637
##ZVALUE=215
164.706707
154.944658
124.337673
85.572004
63.102841
48.071742
40.509701
34.257770
31.912923
29.066801
22.932887
18.061996
13.744831
10.899901
9.406805
8.228421
7.906556
8.224845
9.848475
9.843707
10.208488
10.530949
12.387633
13.783574
16.470551
17.192960
17.664433
20.156503
23.975968
25.372505
24.863482
26.549697
27.224422
28.846860
30.085444
28.730631
28.051734
29.327869
29.867887
32.050610
31.285882
29.478669
30.173659
28.933883
28.166771
28.746724
28.743744
29.135942
29.355884
30.118823
28.583407
30.483603
30.777454
28.422475
28.598905
27.040839
28.302670
27.926564
29.640794
28.072596
28.698444
27.166605
26.652813
28.634667
30.590892
30.449629
33.987761
36.556721
41.638613
45.133829
51.596761
55.463910
59.388876
61.965585
60.960650
63.354969
59.192777
52.616596
48.949718
42.087436
37.899613
32.716990
28.404593
25.279522
23.517609
21.630526
21.538734
19.129515
19.521713
19.468665
19.369721
18.508434
21.864772
24.750829
31.216741
48.957467
##ZVALUE=220
360.977650
358.012915
336.333513
266.757607
217.350721
151.973963
106.853843
75.145960
59.917569
51.726699
45.640469
44.016838
37.270784
29.953718
23.338795
17.234683
13.393760
10.357499
8.603930
8.033514
8.288622
7.635951
9.913445
10.727644
10.909438
12.624860
14.261603
14.983416
17.885566
17.365813
19.772649
19.721985
22.413731
21.844506
22.512674
24.903417
24.099946
24.556518
26.774406
27.058721
27.458668
28.753877
27.804971
26.564598
26.461482
28.035641
28.153658
26.979446
28.116703
28.408766
28.424859
29.315948
28.021932
29.351711
27.621984
27.769804
26.909709
28.338432
27.280450
27.470589
25.983453
27.025938
26.824474
26.640892
27.042627
27.326941
28.288960
32.386780
35.614967
37.250519
41.966438
47.353506
52.701831
51.639676
50.523877
49.060583
47.517419
45.090914
37.681460
35.247803
30.890703
28.799772
25.476813
22.509694
19.929409
18.349886
19.105673
18.431544
17.718673
17.370582
17.024875
16.176701
17.661452
16.233921
17.525554
16.296506
##ZVALUE=225
432.559848
454.034805
518.871546
562.142730
544.475913
478.422642
393.775702
268.408656
190.975666
130.644441
85.315704
72.574615
65.345764
63.579679
59.609413
50.344467
39.892793
29.679537
23.360848
15.452504
13.086796
9.865761
9.608865
9.550452
10.689497
10.552406
11.105537
12.502670
12.670755
13.137460
15.542507
16.103983
18.176436
19.010901
18.002987
19.738674
21.684766
21.759868
23.083687
24.559498
26.365519
25.540590
25.590658
25.070906
25.462508
26.795864
26.948452
26.726723
27.272701
26.784539
26.763678
28.566718
27.958751
26.908517
26.347637
28.017759
28.724670
27.891994
27.011633
25.627613
26.519895
26.579499
25.927424
24.883747
26.455522
26.147962
27.627945
31.087995
33.163428
36.153793
40.464997
41.170716
43.412447
43.445826
45.569539
40.573478
37.814975
36.168694
33.063889
28.280616
25.393963
23.725629
21.292567
20.191669
18.996596
17.097592
16.469955
15.444756
16.380548
15.975833
15.048981
14.968514
14.888644
14.476776
14.707446
15.203953
##ZVALUE=230
238.439441
259.475708
386.701822
576.286912
697.190762
776.893497
780.025721
711.103678
591.518879
471.618772
290.519595
189.593434
116.668940
93.069673
85.452795
86.296797
83.097816
75.160861
66.358447
49.714446
37.326813
23.408532
17.793775
12.702942
10.410547
9.901524
9.553432
9.649992
10.219812
10.542870
11.932850
12.468696
13.448596
13.862848
15.207529
16.468763
17.441511
18.546581
18.755794
20.901561
21.446943
22.042990
22.764802
23.105741
22.366643
22.357702
22.579432
23.609996
22.751689
23.245811
22.862554
23.164749
24.009943
23.088455
23.965836
23.282766
23.121834
24.171472
22.631884
22.477508
21.540523
22.926927
22.879839
22.978783
21.681786
22.699833
24.315715
24.994612
27.515888
29.045939
30.753613
33.144951
33.970475
34.506917
33.820868
32.640696
30.498505
27.320981
26.008487
22.933483
21.260977
18.780828
17.017722
15.337467
16.064644
14.585853
14.611483
14.325976
14.449954
13.761520
13.724566
13.343692
13.469458
14.095902
13.871789
13.507605
##ZVALUE=235
50.229430
56.909919
123.702884
280.590653
443.076491
669.976473
843.153596
1011.006832
1015.870571
1001.242995
832.685828
660.528541
427.491665
288.343430
172.662735
122.856498
100.209713
99.771619
101.800561
99.975467
88.446736
71.891546
57.029724
39.010644
26.137829
17.189980
12.918711
10.078549
8.886456
9.465814
9.568930
9.670854
11.577606
12.016892
12.648702
12.796521
13.346672
14.662743
15.434623
15.748739
16.392469
18.186569
17.494559
17.986894
17.555952
18.540621
18.072724
18.669963
18.755794
18.880963
18.056631
18.933415
19.813776
19.170642
18.165708
19.009709
19.068718
18.776655
18.133521
18.617511
18.379688
18.664598
18.998981
17.938614
18.982887
18.543601
20.310879
21.215677
22.967458
24.552941
25.472641
26.221871
29.386878
29.140711
28.972626
26.581883
24.504662
23.301840
21.706820
20.211935
17.368793
16.297698
14.187694
14.172792
14.111996
14.130473
13.124943
13.047457
12.727976
12.830496
13.287663
12.266636
13.086796
11.581779
12.584925
12.184978
##ZVALUE=240
2.842546
3.924966
9.928942
47.052503
106.664896
246.386528
410.466790
695.508718
920.004845
1015.870571
1015.870571
1015.870571
1015.870571
871.274471
609.247684
414.596796
232.103467
154.984593
110.919476
104.643703
108.762980
113.855600
108.238459
90.166926
77.475905
56.286454
41.094422
27.785897
19.460917
14.125705
10.883808
10.079741
10.083914
11.189580
10.792613
10.815859
10.976791
12.237430
12.922883
12.730956
13.636947
13.722777
14.003515
14.211535
14.519691
15.022755
14.926791
14.457703
15.054941
14.331937
14.531612
14.427900
14.881492
13.687611
14.516711
13.728738
14.491677
14.151931
14.462471
14.064908
14.407635
14.370680
14.216900
14.635921
14.725924
14.808774
16.081929
17.012954
18.694997
20.742416
21.266937
23.208857
23.106933
23.497939
22.960901
21.642447
21.506548
19.997954
17.882586
15.340447
14.661551
13.437867
13.361573
12.595654
11.589527
11.582971
11.054873
11.517406
11.292696
11.370778
11.332631
10.641813
10.939837
11.417866
10.330677
10.725856
##ZVALUE=245
2.323985
2.295971
2.397895
2.740622
5.535483
25.038719
69.582462
196.111798
353.466868
631.498694
886.553526
1015.871763
1015.871763
1015.871763
1015.871763
1015.871763
866.794586
576.739907
388.072729
206.658840
136.224627
107.250810
104.125738
115.582943
118.353963
114.268661
98.605752
84.026456
59.783459
45.950413
30.162930
22.252798
15.509725
12.248755
10.915995
10.380745
10.493994
10.929704
11.369586
12.057424
11.550784
11.980534
11.957884
11.948943
12.566447
11.749864
12.272000
11.826754
12.076497
12.285709
12.715459
11.655688
11.945963
12.274981
11.724830
11.952519
11.669993
11.115670
11.338592
11.572838
10.719895
11.310577
11.214614
11.558533
11.929870
12.574792
12.577772
13.585687
14.555454
16.783476
16.487837
18.545985
19.141436
18.460751
18.065572
17.881989
16.474724
15.379786
14.702678
12.559891
11.734962
11.761785
11.487603
10.086894
9.876490
9.811521
9.797812
9.429455
9.050965
9.312630
9.084940
9.072423
9.146929
9.033680
9.247661
9.812713
##ZVALUE=250
1.931787
2.132654
1.927614
2.096891
2.184510
2.275705
3.543496
11.879802
54.290891
124.967694
315.775871
529.132485
789.213777
1015.866995
1015.866995
1015.866995
1015.866995
1015.866995
1015.866995
775.668025
524.371862
327.701569
164.361000
104.722977
94.818473
103.724599
117.615461
120.442510
115.165710
103.967786
83.916783
67.694783
50.432682
32.777786
23.396611
15.132427
13.030767
11.385679
11.506677
11.102557
11.618733
11.881590
11.488795
11.692643
11.065602
11.579990
11.351705
11.520982
11.392832
11.413693
10.776520
10.841489
11.142492
10.785460
11.073947
10.923743
10.510683
10.571480
9.881854
10.002851
10.439754
10.428429
9.552836
10.014772
10.173917
10.768771
11.201501
11.966825
12.457967
13.629794
14.280677
15.102625
15.259981
15.382767
14.976859
14.452934
13.115406
12.096763
11.731982
10.470748
9.751916
9.346604
9.206533
7.922649
8.483529
8.067489
7.887483
7.659793
7.563829
8.042455
7.691979
7.708669
7.905960
8.227825
7.705688
7.920861
##ZVALUE=255
1.885891
1.598597
1.683831
2.048612
1.796484
1.974702
2.216697
2.408624
2.645850
4.833937
28.390884
80.051422
227.466822
399.183631
712.675452
989.398956
1015.870571
1015.870571
1015.870571
1015.870571
1015.870571
985.558033
699.403882
378.455520
217.643976
111.152530
85.863471
90.105534
106.201768
118.878484
122.701526
120.291710
109.444857
87.260604
70.844889
49.860477
36.006570
22.756457
16.823411
14.154911
12.550950
11.893511
12.208819
12.321472
12.266636
12.946725
11.765957
11.530519
11.907816
11.821985
11.432767
11.634827
11.576414
11.523962
11.185408
10.847449
10.497570
10.590553
9.947419
9.548664
10.053515
10.016561
9.761453
9.679794
9.713769
9.855628
10.017753
10.664463
10.877848
12.252927
12.614727
13.353825
13.476610
13.332963
13.160706
12.347698
11.635423
10.669827
9.220839
8.957982
8.726716
8.356571
7.336736
7.487535
7.400513
7.424951
7.154942
7.351637
6.796718
6.857514
6.806850
7.229447
6.806850
6.688833
6.642938
6.898642
##ZVALUE=260
1.827478
1.778603
1.933575
1.697540
1.968741
1.970530
2.158880
2.011657
2.483726
2.498627
2.585649
3.688931
11.115670
51.971674
125.992894
320.163965
546.472669
930.248499
1016.056538
1016.056538
1016.056538
1016.056538
1016.056538
1016.056538
913.081765
618.695617
338.801742
192.402005
96.920729
76.091886
85.054636
106.417537
119.249821
130.115747
127.676725
112.126470
98.663568
72.723627
56.854486
38.672686
29.238462
20.296574
17.045736
15.428662
14.875531
14.593601
14.281869
14.087558
14.096498
14.288425
14.214516
13.834834
13.084412
13.003945
13.102889
12.276769
12.309551
12.470484
12.388825
11.839867
11.896491
11.183619
10.980964
10.875463
10.939837
10.768771
11.171699
11.529922
11.817813
12.571812
12.890697
13.229847
12.575984
13.200641
13.055801
11.983514
11.360645
10.492802
9.874701
9.039640
8.692741
8.209944
7.468462
7.469654
7.405877
6.903410
6.682873
6.712675
6.548762
6.943941
6.994605
6.671548
6.371737
6.493926
6.451607
6.713867
##ZVALUE=265
1.491904
1.444817
1.667738
1.667738
1.633763
1.653433
1.644492
1.860857
1.871586
2.197623
2.193451
2.247691
2.519488
2.803802
6.940961
26.336908
101.776719
215.374827
412.963033
794.534683
1015.870571
1015.870571
1015.870571
1015.870571
1015.870571
1015.870571
1015.870571
820.091963
530.066490
261.666775
143.798590
74.380636
69.363713
91.528893
107.687712
125.863552
131.504536
127.618909
117.972493
96.282959
79.193711
56.906939
43.316483
29.962659
24.229884
18.943548
17.653704
17.176867
16.879439
16.796589
16.510487
16.182661
16.179681
15.540719
15.630722
14.902949
14.525652
13.830662
14.117956
13.350844
13.377666
12.510419
12.729764
12.189746
12.552738
11.858940
11.918545
12.564659
12.583733
12.881756
12.775660
13.898611
13.678670
12.899637
12.711883
11.547804
11.372566
10.268688
9.777546
8.741617
8.481741
8.072853
7.424951
7.401705
6.862879
7.012486
6.667972
6.546974
6.072521
6.501675
6.394982
6.413460
6.287694
6.352663
6.062984
6.277561
##ZVALUE=270
1.452565
1.551509
1.512766
1.478791
1.662970
1.680851
1.774430
1.887679
1.806617
1.940727
1.813769
1.977682
2.147555
2.386570
2.304912
2.946854
3.318787
13.413429
43.432713
153.185725
320.037603
581.386685
1007.744670
1015.945673
1015.945673
1015.945673
1015.945673
1015.945673
1015.945673
1015.945673
846.570730
445.270538
242.801905
97.863674
61.526895
70.046782
87.837577
111.437440
126.136541
133.792758
131.942630
119.411945
104.780793
81.016421
64.080954
44.806600
34.230947
25.957823
22.748709
20.954609
18.822551
18.404722
17.859936
17.872453
17.290711
17.253757
16.365647
15.621781
15.228987
15.352964
14.847517
14.600754
13.591647
13.310909
13.409853
13.284683
12.608767
12.859702
13.306737
13.826489
13.405681
13.258457
13.465881
13.621449
12.879968
11.806488
11.239648
10.533929
9.855628
8.497834
8.236766
8.101463
7.681847
7.160902
6.952882
6.742477
6.464720
6.507635
6.425977
6.581545
6.302595
6.022453
6.232858
6.064773
6.097555
5.728602
##ZVALUE=275
1.377463
1.386404
1.364946
1.371503
1.384616
1.400709
1.571774
1.475811
1.450777
1.598597
1.633763
1.643896
1.791716
1.746416
1.949668
2.135634
2.467632
2.662539
2.969503
6.347895
24.611950
76.754689
243.652463
474.608541
925.841928
1015.870571
1015.870571
1015.870571
1015.870571
1015.870571
1015.870571
1015.870571
1012.264490
585.943460
331.611633
134.992003
69.680810
53.661466
66.503882
89.941621
106.788874
125.049949
132.288933
129.345655
121.491551
100.951791
83.992481
62.243938
48.507452
33.763647
27.103424
21.523833
18.902421
17.726421
17.080903
16.197562
15.669465
15.522838
15.016794
14.570951
13.866425
13.931990
13.618469
12.663603
12.865663
12.392998
11.964440
12.315512
12.859702
13.085604
12.954473
12.596846
12.951493
12.429953
12.007952
11.455417
10.487437
9.563565
9.115934
8.314848
8.283854
8.052588
7.418990
6.911755
7.031560
6.554723
6.465912
6.133914
6.162524
6.095767
6.103516
5.823970
5.851984
5.692840
5.751848
5.359650
##ZVALUE=280
1.130700
1.225471
1.372695
1.245737
1.352429
1.349449
1.352429
1.417994
1.562834
1.447797
1.502633
1.555681
1.550913
1.611710
1.816750
1.786947
1.883507
2.120733
2.026558
2.524853
2.810955
3.329515
14.879704
53.925514
188.384652
359.622836
714.982748
1015.870571
1015.870571
1015.870571
1015.870571
1015.870571
1015.870571
1015.870571
1015.870571
747.720599
443.278551
189.285874
91.080666
45.518875
47.497749
66.656470
83.799958
105.371475
119.248629
127.295852
125.604868
115.013719
101.217628
78.443885
62.132478
42.598844
32.702684
22.500753
18.050671
14.950633
13.715625
13.499856
13.235807
12.535453
12.631416
11.984706
12.202859
11.877418
11.647940
11.263490
11.526942
11.423826
11.642575
11.301637
11.680722
11.907816
11.427999
10.943413
10.668635
10.451674
9.426475
9.070635
8.373857
7.997751
7.679462
7.433891
6.970763
6.769896
6.892681
6.434917
6.224513
6.193519
5.998611
6.004572
5.769730
5.686879
5.808473
5.527735
5.469918
5.846620
##ZVALUE=285
1.141429
1.265407
1.192689
1.189709
1.197457
1.311898
1.307726
1.203418
1.240969
1.345873
1.378655
1.436472
1.368523
1.526475
1.637936
1.749992
1.859665
1.684427
1.926422
2.095699
2.232790
2.081990
2.796650
3.223419
6.969571
24.988651
98.576546
217.890739
501.503944
830.454826
1015.870571
1015.870571
1015.870571
1015.870571
1015.870571
1015.870571
1015.870571
978.026986
636.979938
296.185613
147.253871
52.106977
33.857822
42.312741
56.911707
79.072714
94.880462
111.536980
119.127631
120.171905
112.512708
95.512867
79.646707
57.635903
43.116808
27.344823
20.239949
14.806986
12.802482
11.202693
10.961890
10.356903
10.684729
10.189414
10.584593
10.159612
10.246634
10.209680
10.418892
10.752678
10.836720
10.865927
10.558963
10.453463
10.025501
9.353757
8.751750
8.530617
8.119941
7.872581
7.129908
6.857514
7.150769
6.641746
6.265640
6.623864
6.177425
6.296635
6.064773
5.913973
5.711913
5.785823
5.622506
5.762577
5.491972
5.629659
##ZVALUE=290
1.026988
1.348853
1.180768
1.160502
1.238585
1.199841
1.136661
1.219511
1.362562
1.259446
1.499653
1.272559
1.476407
1.434684
1.583695
1.422763
1.550913
1.579523
1.756549
1.870990
1.838803
1.923442
2.231598
2.304912
2.650619
2.972484
3.957748
9.690523
51.020980
130.729675
272.192955
618.966818
978.162885
1015.896797
1015.896797
1015.896797
1015.896797
1015.896797
1015.896797
1015.896797
875.440836
441.955924
228.836536
78.225732
33.430457
27.031898
35.589933
51.332712
66.027641
87.900758
100.904703
112.450719
114.217997
105.785728
93.484521
73.148608
56.368709
37.901998
27.066469
17.278790
13.264418
10.387897
9.527802
8.798838
8.559823
8.533597
8.771420
8.997917
9.210706
9.500980
9.964705
9.316802
9.929538
9.541512
9.212494
8.825660
8.235574
7.841587
7.709861
7.384419
6.935596
6.494522
6.648898
6.525517
6.224513
6.264448
6.117821
5.836487
5.965829
5.871654
5.617738
5.726814
5.758405
5.630851
5.614758
5.555749
##ZVALUE=295
1.063943
1.174808
1.060963
1.008511
1.103878
1.176596
1.168847
1.211762
1.230836
1.185536
1.221895
1.197457
1.271963
1.289845
1.336932
1.418591
1.535416
1.407862
1.483560
1.558661
1.474619
1.746416
1.684427
2.011657
2.058744
2.277493
2.439618
2.695918
3.213882
4.668832
22.270679
72.352886
183.808804
482.845902
823.341608
1015.871763
1015.871763
1015.871763
1015.871763
1015.871763
1015.871763
1015.871763
1015.871763
592.044592
324.081779
116.703510
46.985745
20.050406
21.461844
32.173991
44.161677
62.815547
78.231692
95.197558
105.077624
107.372999
101.080537
85.664988
71.352720
51.603913
38.563609
24.443865
17.529726
11.605620
9.039640
7.832646
7.582903
7.896423
7.823706
8.340478
8.525848
8.987784
8.697510
8.697510
8.086562
7.978678
7.536411
7.031560
7.186532
6.731749
6.618500
6.425977
6.204844
6.015897
5.993843
6.109476
5.887747
5.762577
5.726814
5.574822
5.642772
5.722642
5.592704
5.645752
5.444884
5.603433
##ZVALUE=300
0.909567
1.001954
0.984669
0.968575
1.069903
1.209974
1.213551
1.073480
0.979900
0.991821
1.083612
1.258850
1.200438
1.288652
1.191497
1.208782
1.423955
1.386404
1.321435
1.335740
1.532435
1.565814
1.638532
1.600981
1.761913
1.854897
2.066493
2.203584
2.444983
2.524853
2.969503
3.366470
6.563663
40.654540
115.649700
332.993865
609.284043
1015.871763
1015.871763
1015.871763
1015.871763
1015.871763
1015.871763
1015.871763
1015.871763
810.673833
490.374565
216.339827
96.056461
26.171803
15.503764
19.780993
26.533604
40.782690
54.687858
74.844956
88.315606
98.804832
101.276636
96.336603
86.584687
68.773627
54.033995
36.833882
25.931597
16.270876
11.699796
9.003878
8.054972
8.006692
7.934570
8.174777
8.128881
7.878542
7.466674
7.229447
6.795526
6.740689
6.411672
6.264448
6.102920
6.098747
6.103516
5.765557
6.037951
5.844831
5.577803
5.745888
5.608797
5.328655
5.522966
5.307794
5.390644
5.599856
5.407929
5.308986
##ZVALUE=305
1.056790
1.018643
0.957847
0.850558
0.989437
1.098514
1.040697
1.185536
1.127720
1.005530
1.117587
1.114607
1.238585
0.990629
1.187921
1.214743
1.166463
1.158714
1.140833
1.563430
1.250505
1.310706
1.501441
1.367927
1.603961
1.707673
1.888871
1.962781
1.918674
2.143979
2.343655
2.666712
2.737641
3.133416
4.580617
22.542477
72.552562
242.910981
470.061898
929.080844
1015.870571
1015.870571
1015.870571
1015.870571
1015.870571
1015.870571
1015.870571
1015.870571
696.004629
315.165520
148.143768
42.588711
16.929507
13.924837
17.610788
26.971698
37.790537
53.603649
67.043900
83.991885
92.224479
95.709562
92.147589
81.025958
67.922473
50.630569
37.049651
23.799539
16.796589
11.395812
9.346604
8.444786
8.044839
7.488728
7.260442
6.714463
6.350875
6.249547
5.927682
6.076694
5.893707
5.838871
5.773902
5.623698
5.689859
5.698800
5.539656
5.650520
5.564690
5.644560
5.495548
5.526543
5.291700
5.270839
5.168915
5.194545
##ZVALUE=310
0.877976
0.937581
0.965595
0.950694
1.023412
0.881553
1.104474
0.942945
1.071692
0.970960
1.204610
1.256466
1.055598
1.133680
1.160502
1.188517
1.124740
1.172423
1.157522
1.192689
1.215935
1.262426
1.406670
1.472831
1.433492
1.541972
1.483560
1.742840
1.678467
1.670718
1.990795
1.938939
2.256632
2.399683
2.682805
2.922416
3.324747
9.307861
33.076406
131.299496
286.826491
659.936666
1005.761027
1015.870571
1015.870571
1015.870571
1015.870571
1015.870571
1015.870571
1015.870571
963.573456
497.098565
260.378718
85.441470
29.222965
11.537671
12.078881
16.264915
21.588802
34.290552
45.384765
62.366724
74.477792
86.428523
89.896917
87.359548
80.172420
65.112710
51.636696
35.805702
25.815964
17.112494
12.413859
8.888841
7.748604
6.643534
6.349683
5.999804
5.774498
5.831718
5.402565
5.381703
5.570650
5.411506
5.259514
5.431771
5.153418
5.184412
5.393624
5.214810
5.322695
5.026460
5.269647
5.251765
5.120635
5.184412
##ZVALUE=315
0.903606
0.877976
0.945926
0.944734
0.967979
0.871420
1.063943
0.959635
1.031756
0.804663
0.937581
1.122952
1.017451
0.890493
1.017451
1.126528
1.108646
1.106858
1.315475
1.056790
1.198649
1.155734
1.289845
1.342893
1.210570
1.333952
1.485944
1.476407
1.403689
1.541972
1.548529
1.794696
1.840591
1.943707
2.052784
2.350807
2.469420
2.664924
2.924800
4.629493
14.555454
73.623657
182.961822
470.404625
823.359489
1015.872955
1015.872955
1015.872955
1015.872955
1015.872955
1015.872955
1015.872955
1015.872955
688.033700
377.417803
132.277608
47.676563
13.237000
9.953976
11.308789
14.113784
21.029711
29.130578
43.198466
55.016875
71.100593
79.211593
85.353851
84.515810
74.539781
63.936710
49.637556
36.653876
23.431778
16.425848
10.423660
7.611513
6.279945
5.722642
5.266666
5.223751
5.130768
5.049706
5.033612
5.062819
4.986525
5.049706
4.983544
4.908442
4.993677
5.010962
5.115867
5.052686
5.091429
5.236864
5.064607
##ZVALUE=320
0.899434
0.840425
0.823736
1.007915
0.824928
0.889897
0.932813
0.896454
0.959635
0.950694
0.811815
0.857711
1.109838
0.983477
0.983477
1.076460
1.020432
1.066923
1.113415
1.107454
1.134872
1.235604
1.161695
1.032948
1.155734
1.134872
1.008511
1.397729
1.401901
1.323819
1.479983
1.491904
1.596808
1.576543
1.819730
1.722574
1.991987
2.213717
2.139807
2.636909
2.807975
3.340840
6.652474
37.887692
110.498667
331.634879
593.829751
1013.388634
1015.880704
1015.880704
1015.880704
1015.880704
1015.880704
1015.880704
1015.880704
885.478854
522.221923
221.958756
92.920661
22.263527
10.159612
9.288788
9.984970
12.974739
17.318726
27.637482
37.995577
51.923990
64.600706
76.350570
80.776811
78.819990
72.833896
59.367418
47.464967
32.627583
23.195744
14.326572
10.318756
6.850958
5.713701
5.182624
4.917979
4.806519
4.742742
4.795790
4.569888
4.602671
4.754663
4.672408
4.734993
4.874468
4.811883
4.928708
4.816651
5.050898
##ZVALUE=325
0.904799
0.826716
0.833869
0.873804
0.885725
0.850558
0.804663
0.713468
0.870824
0.905991
0.933409
0.996590
0.798702
1.011491
1.008511
1.072884
0.933409
1.009703
1.013875
1.082420
1.082420
1.101494
0.962615
1.282692
1.226664
1.321435
1.130700
1.218915
1.238585
1.299977
1.444817
1.356602
1.386404
1.419783
1.615882
1.796484
1.597404
1.857877
1.887679
2.049804
2.067685
2.357960
2.623796
2.892613
4.220605
23.543835
69.927573
213.292837
420.754552
869.709849
1015.869975
1015.869975
1015.869975
1015.869975
1015.869975
1015.869975
1015.869975
1006.928682
668.120980
298.516750
138.471723
36.069751
12.752414
8.127689
8.012652
9.249449
11.647940
17.373562
24.990439
38.419962
48.688650
62.243938
70.276856
75.753927
74.155927
65.195560
55.553913
41.788816
31.344891
19.851923
13.513565
8.571744
6.466508
5.227923
4.894733
4.736781
4.624724
4.385710
4.361868
4.341602
4.642606
4.622936
4.669428
4.785657
4.682541
4.774928
##ZVALUE=330
0.785589
0.743866
0.835657
0.727773
0.842810
0.800490
0.824928
0.851750
0.766516
0.733733
0.718832
0.970960
0.874996
0.893474
0.867844
0.876784
0.983477
0.813603
0.926852
0.953674
1.071692
0.804663
0.983477
1.025796
1.002550
1.066923
1.148582
1.119971
1.277924
1.192689
1.194477
1.316667
1.396537
1.404881
1.419783
1.438856
1.360774
1.524687
1.549721
1.768470
1.825690
1.882911
1.871586
2.241731
2.499819
2.840757
3.174543
9.333491
33.237934
134.161711
286.542773
638.568997
983.303785
1015.853882
1015.853882
1015.853882
1015.853882
1015.853882
1015.853882
1015.853882
864.658952
416.838527
209.554434
66.536665
21.229982
8.108616
7.639527
7.855892
8.453727
11.792779
15.994906
24.244785
33.280849
46.963692
56.564808
66.232681
69.326758
67.582726
62.472820
50.511956
40.148497
27.599931
20.167828
13.310909
9.512901
6.298423
5.367994
4.694462
4.441738
4.307628
4.246831
4.472733
4.461408
4.686713
4.663467
4.707575
##ZVALUE=335
0.794530
0.840425
0.756979
0.809431
0.865459
0.840425
0.785589
0.811815
0.731945
0.842810
0.920892
0.801682
0.910759
0.837445
0.841618
0.913739
0.876784
0.801682
0.978708
0.912547
0.910759
1.033545
0.913739
0.958443
0.872612
0.997782
0.952482
1.023412
0.959635
1.039505
1.208782
1.212955
1.138449
1.138449
1.228452
1.244545
1.261830
1.673698
1.482964
1.486540
1.485944
1.648664
1.587868
1.850724
2.000928
2.127886
2.424717
2.650619
2.763867
4.780889
15.736818
75.266957
179.554820
453.475714
786.944032
1015.868783
1015.868783
1015.868783
1015.868783
1015.868783
1015.868783
1015.868783
1004.401445
571.788549
302.225947
98.885894
34.489632
10.285974
7.740855
7.305741
7.604957
8.846521
10.550618
15.760660
21.584630
32.390952
41.138530
52.499771
60.302615
64.700842
63.495636
56.098700
49.328804
38.811564
29.844642
20.062923
14.155507
8.894801
6.909966
5.105734
4.701614
4.722476
4.582405
4.525781
4.356503
4.634857
##ZVALUE=340
0.777841
0.665784
0.729561
0.871420
0.755787
0.736713
0.827909
0.849962
0.698566
0.765920
0.777841
0.938773
0.938773
0.849962
0.693798
0.895858
0.852942
0.873804
0.966787
0.882745
0.776649
0.929832
1.005530
0.939965
0.932813
0.924468
1.088977
1.153946
1.069903
1.051426
0.929832
1.176596
1.134872
1.190901
1.077652
1.077652
1.107454
1.336932
1.356602
1.330972
1.256466
1.295805
1.406670
1.519918
1.704693
1.718998
2.019405
2.092719
2.192855
2.319813
2.563000
3.091693
7.628798
44.192672
122.646689
347.845554
631.218553
1015.868783
1015.868783
1015.868783
1015.868783
1015.868783
1015.868783
1015.868783
1015.868783
715.250969
396.072865
145.121813
52.905679
13.025999
8.296967
7.504821
7.137656
6.978512
7.566810
9.890795
13.535619
20.585656
28.492808
39.982796
48.497915
57.041645
59.779882
58.947802
55.050850
46.294928
37.940741
27.623773
20.540953
13.735890
9.732842
6.705523
5.850792
5.055666
5.026460
4.659891
##ZVALUE=345
0.607967
0.754595
0.666976
0.789762
0.814795
0.680685
0.684857
0.687838
0.657439
0.775456
0.886917
0.839829
0.760555
0.773668
0.763535
0.873804
0.816584
0.820756
0.958443
0.792742
0.904799
0.906587
1.153946
0.949502
0.778437
1.028776
0.954866
1.055598
0.948906
1.081824
1.001954
0.979900
0.982881
1.199841
1.155734
1.103878
1.035929
1.280904
1.271963
1.233816
1.308918
1.345873
1.455545
1.448989
1.385808
1.597404
1.695752
1.628995
1.730919
1.828671
2.089739
2.321601
2.467632
3.028512
4.908442
17.924905
88.148713
203.360915
485.119820
1015.865803
1015.865803
1015.865803
1015.865803
1015.865803
1015.865803
1015.865803
1015.865803
598.350763
500.474572
212.665796
87.945461
14.814734
9.052753
7.887483
7.091761
6.455779
6.552935
6.659627
10.897517
12.171865
20.793676
26.498437
34.233928
44.175982
50.671697
56.181550
55.497885
48.688650
46.193600
31.719804
27.969480
20.149946
14.736652
9.892583
7.563829
5.947948
##ZVALUE=350
0.791550
0.712872
0.677705
0.731945
0.681877
0.887513
0.767708
0.818968
0.691414
0.725985
0.906587
0.849962
0.756979
0.914931
0.738502
0.820756
0.834465
0.899434
0.803471
0.827909
0.757575
0.997782
0.861883
0.986457
0.864863
0.890493
0.976920
1.014471
1.015663
0.993609
0.877976
1.017451
0.902414
1.026988
1.232624
1.081824
1.056790
1.303554
1.247525
1.245737
1.213551
1.164675
1.214743
1.321435
1.405478
1.559854
1.473427
1.523495
1.517534
1.601577
1.665950
1.916885
1.885891
2.115965
2.171993
2.681613
3.160834
11.083484
38.681626
144.746900
305.383801
679.125786
1010.146737
1015.870571
1015.870571
1015.870571
1015.870571
1015.870571
1015.870571
988.198519
658.532977
311.738849
138.617754
32.265782
11.349916
7.126927
6.446838
5.647540
5.326867
5.508661
5.975962
8.109808
10.986924
17.112494
22.776723
31.955838
38.099885
45.537949
50.083995
52.122474
49.397945
43.151975
36.476851
27.064681
20.895600
14.417768
##ZVALUE=355
0.677705
0.877976
0.665784
0.718832
0.740886
0.631809
0.858903
0.775456
0.785589
0.671744
0.904799
0.818968
0.861883
0.704527
0.964999
0.846982
0.917912
0.864863
0.818968
0.930429
0.887513
0.814795
0.961423
0.938773
0.856519
1.033545
0.979900
0.956655
0.943542
1.066923
0.951886
0.947714
0.917912
1.012683
0.936985
1.255870
1.111627
1.049638
1.293421
1.138449
1.197457
1.134872
1.154542
1.244545
1.338720
1.373887
1.469851
1.512766
1.443624
1.577735
1.654625
1.670718
1.768470
1.710653
2.169609
2.311468
2.428889
2.647638
2.884865
5.463958
19.478798
91.503859
210.268497
495.407581
841.153860
1015.870571
1015.870571
1015.870571
1015.870571
1015.870571
1015.870571
1015.870571
824.216604
380.986929
182.027817
49.955845
15.505552
6.949902
6.197691
5.650520
5.347729
4.962683
5.095601
5.589724
7.101893
9.945631
13.522506
20.174980
26.219487
34.778714
40.973425
46.438575
47.930479
46.548843
42.517781
34.750700
##ZVALUE=360
0.833869
0.865459
0.858903
0.785589
0.705719
0.660419
0.743866
0.956655
0.821948
0.801682
0.881553
0.954866
0.905991
0.857711
0.754595
0.915527
0.839829
0.959635
0.856519
0.931621
0.952482
0.873804
0.975728
0.800490
0.922680
0.990629
0.953674
0.919700
0.856519
1.056790
0.985861
1.037717
1.038909
1.124740
1.101494
1.037717
1.143813
1.239777
1.104474
1.213551
1.216531
1.124740
1.177788
1.273751
1.198649
1.366735
1.346469
1.272559
1.404881
1.430511
1.648664
1.539588
1.725554
1.944900
1.842976
1.860857
2.079606
2.205968
2.361536
2.534986
2.869964
3.632903
8.422732
43.799877
118.540525
330.873728
614.233613
1015.870571
1015.870571
1015.870571
1015.870571
1015.870571
1015.870571
1015.870571
977.511406
518.233776
274.595022
95.495582
31.788945
8.297563
6.285906
5.730987
5.428791
5.016923
4.875660
4.619956
5.053878
6.301999
7.904768
11.976957
16.483665
24.086833
29.827952
37.099719
41.151643
43.708682
##ZVALUE=365
0.674725
0.805855
0.738502
0.740886
0.585914
0.644922
0.738502
0.766516
0.855923
0.817776
0.629425
0.729561
0.941753
0.753999
0.923872
0.908971
0.933409
0.922680
0.964999
0.900626
0.899434
0.769496
0.793934
0.862479
0.925660
0.981688
0.914931
0.961423
0.853539
0.922680
1.057982
0.933409
1.065731
0.884533
1.209974
1.106858
1.108646
1.093745
1.154542
1.095533
1.165867
1.123548
1.142621
1.183748
1.195669
1.281500
1.313686
1.264811
1.337528
1.300573
1.302958
1.511574
1.473427
1.605749
1.641512
1.674891
1.848936
2.059937
1.949668
2.166629
2.225637
2.699494
2.804995
3.261566
4.462600
22.183657
69.458485
217.464566
443.146825
907.998681
1015.870571
1015.870571
1015.870571
1015.870571
1015.870571
1015.870571
1015.870571
703.578591
390.060544
139.866471
50.630569
10.720491
6.197691
5.468726
5.118847
4.834533
4.712939
4.529953
4.393458
4.772544
5.872846
7.910728
10.297894
15.106797
19.639730
26.635528
##ZVALUE=370
0.822544
0.768900
0.846982
0.725985
0.733733
0.663996
0.820756
0.656843
0.660419
0.715852
0.671744
0.789762
0.590682
0.841618
0.635982
0.851750
0.857711
0.839829
0.789762
0.862479
0.890493
0.764728
0.858903
0.819564
0.813603
0.836849
1.004934
0.928640
0.878572
0.960827
1.002550
1.019835
0.851750
1.043677
1.024604
0.901818
1.064539
0.941753
1.025796
0.932813
1.027584
1.085997
1.072884
1.168847
1.107454
1.168847
1.079440
1.111627
1.161695
1.130700
1.157522
1.380444
1.361966
1.385808
1.408458
1.429915
1.344681
1.579523
1.575947
1.616478
1.807809
1.842976
2.273917
2.280474
2.371669
2.794862
3.484488
11.301637
41.106939
153.588653
323.392749
691.949725
1015.020609
1015.870571
1015.870571
1015.870571
1015.870571
1015.870571
1015.870571
856.565833
505.431890
204.610825
87.148547
20.919442
7.746816
5.343556
4.935861
4.791617
4.622936
4.648566
4.579425
4.762411
5.502701
6.135702
7.546544
9.825826
##ZVALUE=375
0.733733
0.715852
0.795722
0.670552
0.583529
0.692606
0.724792
0.748634
0.582933
0.652671
0.676513
0.792742
0.574589
0.716448
0.867844
0.728965
0.761747
0.703931
0.862479
0.694990
0.843406
0.677705
0.731945
0.907779
0.821948
0.716448
0.897646
0.941753
0.800490
0.949502
0.893474
0.910759
0.905991
0.844598
0.883937
1.005530
0.956655
1.088977
0.892878
0.979900
1.054406
1.023412
1.096725
0.935793
0.952482
1.021624
0.955462
0.960827
1.070499
1.070499
0.969768
1.116991
1.173615
1.270771
0.989437
1.304746
1.374483
1.243949
1.279712
1.414418
1.300573
1.560450
1.622438
1.760721
1.893640
2.006888
2.090931
2.631545
2.901554
5.917549
19.197464
82.573891
202.126503
508.811474
854.438543
1015.871763
1015.871763
1015.871763
1015.871763
1015.871763
1015.871763
994.989872
684.036613
348.801613
173.905492
50.095916
15.665889
5.593896
5.115867
5.096793
5.169511
5.438924
5.284548
5.580783
5.489588
5.651712
##ZVALUE=380
0.802875
0.669956
0.700951
0.685453
0.673532
0.730753
0.620484
0.655651
0.672936
0.508428
0.691414
0.616908
0.681877
0.641942
0.692606
0.559688
0.669956
0.598431
0.675917
0.616908
0.807643
0.656843
0.776649
0.642538
0.779629
0.723600
0.798702
0.847578
0.922680
0.978708
0.806451
0.950694
0.850558
0.928640
0.859499
0.983477
1.023412
0.878572
0.941753
0.958443
0.997782
0.912547
0.890493
0.906587
0.966787
1.009703
0.968575
0.962615
0.897646
1.119971
1.046658
1.083612
0.994802
0.969768
1.267791
1.226664
1.136661
1.354814
1.122952
1.190901
1.378655
1.559854
1.428723
1.535416
1.607537
1.842976
1.859665
2.265573
2.526641
2.827644
3.062487
3.811717
9.991527
55.218935
147.199631
394.689441
687.813759
1015.870571
1015.870571
1015.870571
1015.870571
1015.870571
1015.870571
1015.870571
917.931795
475.770831
250.448585
84.569454
29.727817
8.092523
5.926490
5.567670
5.715489
5.805492
5.694628
5.601645
##ZVALUE=385
0.653863
0.654459
0.475645
0.678897
0.693798
0.568628
0.616908
0.577569
0.618696
0.701547
0.806451
0.634789
0.557899
0.585914
0.811815
0.751615
0.689626
0.696778
0.622869
0.687838
0.803471
0.635982
0.765920
0.703931
0.853539
0.846982
0.800490
0.854731
0.806451
0.964999
0.892878
0.913739
0.857711
0.947714
1.012683
0.853539
1.009703
0.966787
1.087785
0.935793
1.020432
0.859499
1.077652
1.011491
0.975728
0.950694
1.062751
0.964999
1.065731
1.011491
1.042485
1.007915
0.946522
1.050830
1.078844
1.049638
0.958443
1.140833
1.073480
1.252890
1.109838
1.254678
1.348853
1.286864
1.506805
1.582503
1.802444
2.050996
2.159476
2.465844
2.333522
2.553463
2.520680
2.789497
4.937649
28.640628
87.069869
258.110762
498.330593
956.850648
1015.870571
1015.870571
1015.870571
1015.870571
1015.870571
1015.870571
1015.870571
695.471764
408.883691
168.726444
65.752864
14.116764
6.788969
5.794764
5.594492
5.543828
##ZVALUE=390
0.611544
0.614524
0.702739
0.580549
0.641942
0.575781
0.670552
0.551939
0.475645
0.682473
0.575781
0.662804
0.464916
0.515580
0.643730
0.725985
0.626445
0.630617
0.674725
0.688434
0.556707
0.616908
0.597835
0.665784
0.811815
0.838637
0.629425
0.780821
0.798702
0.861883
1.075864
0.874996
0.896454
0.878572
0.814795
0.985861
1.032948
0.976920
1.023412
0.857711
1.075864
1.070499
1.145601
0.958443
1.117587
0.890493
1.026988
1.020432
0.980496
1.038909
0.995994
0.953674
1.104474
1.062751
1.032948
0.968575
1.078844
1.083612
1.151562
1.079440
1.274943
1.231432
1.218915
1.312494
1.418591
1.537800
1.699924
2.011657
1.975894
2.154708
2.151728
2.163649
2.228618
2.351999
2.366900
2.526641
3.173947
14.263988
53.329468
190.005898
393.459797
813.304782
1015.862823
1015.862823
1015.862823
1015.862823
1015.862823
1015.862823
1015.862823
956.194401
589.326620
252.428651
117.184520
32.577515
10.508895
6.066561
##ZVALUE=395
0.697970
0.547767
0.655651
0.687838
0.692606
0.567436
0.572801
0.586510
0.641942
0.552535
0.620484
0.505447
0.610948
0.472665
0.532866
0.722408
0.686646
0.597835
0.656843
0.730753
0.699759
0.693798
0.757575
0.614524
0.892878
0.725985
0.706911
0.758767
0.891685
0.869632
0.926852
0.952482
0.895858
0.925660
0.992417
1.049638
1.063943
1.033545
1.130700
1.077652
1.036525
1.067519
1.103878
0.977516
0.897646
1.073480
1.006722
1.159906
0.967979
1.082420
1.129508
1.168847
1.071692
0.999570
1.027584
1.110435
1.145601
1.055598
1.127720
1.109838
1.304746
1.220703
1.209974
1.248717
1.355410
1.549721
1.706481
1.800656
2.035499
2.082586
1.946688
1.946688
1.942515
1.885891
1.959801
2.011657
2.188683
2.327561
2.673864
7.036924
30.148625
136.934519
298.449993
652.951002
976.435542
1015.871763
1015.871763
1015.871763
1015.871763
1015.871763
1015.871763
1015.871763
777.618885
389.730930
191.648006
59.701800
##ZVALUE=400
0.759959
0.723600
0.717640
0.647902
0.598431
0.645518
0.627637
0.618696
0.610948
0.632405
0.663996
0.724792
0.800490
0.693798
0.821948
0.666976
0.644922
0.642538
0.721812
0.719428
0.653863
0.623465
0.734925
0.860691
0.708699
0.817776
0.760555
0.799894
0.814795
0.929832
0.784993
0.899434
0.846982
0.953674
1.012683
1.008511
0.893474
0.933409
0.958443
1.093745
1.196861
1.100898
1.086593
0.990629
1.054406
1.147985
1.031756
0.977516
1.036525
1.003742
1.076460
0.958443
1.084805
0.979900
1.120567
1.195669
1.119971
1.132488
1.052618
1.150966
0.984669
1.305938
1.365542
1.296997
1.508594
1.563430
1.635551
1.832843
1.878738
1.924634
1.816750
1.854897
1.818538
1.660585
1.799464
1.620650
1.903772
1.910925
2.064705
2.314448
2.639890
4.210472
14.716983
72.151423
183.614492
470.568538
795.674920
1015.870571
1015.870571
1015.870571
1015.870571
1015.870571
1015.870571
1015.870571
973.812938
545.803905
##END
