##TITLE=BS_C5_R4
##FORMAT=SPECTACLE-ASCII V-1.2
##DATA TYPE=ULTRAVIOLET SPECTRUM
##SECOND TYPE=ULTRAVIOLET SPECTRUM
##DATE=05/28/18
##TIME=11:40:49
##SPECTROMETER/DATA SYSTEM=SPECTACLE
##XUNITS=NM EM
##YUNITS=ENERGY
##YFACTOR=1
##FIRSTX=220
##LASTX=410
##NPOINTS=96
##3DDATA=Equidistant
##ZUNITS=NM EX
##FIRSTZ=210
##LASTZ=400
##ZPOINTS=39
##XYDATA=(Y..Y)
##ZVALUE=210
64.355731
63.636899
43.009520
33.597946
29.404759
24.914742
20.697713
16.949773
15.205741
11.812449
10.293722
9.812713
9.283423
9.698868
10.633469
11.522770
11.039972
13.249516
12.401938
13.870597
15.077591
15.862584
17.874837
19.691586
22.476912
25.044680
24.970770
28.181672
31.119585
31.910539
32.509565
35.260916
35.716891
37.085414
36.159754
40.048957
38.047433
38.286448
39.881468
37.755966
37.351847
38.087964
38.296580
36.984682
35.013556
36.608577
38.680434
36.072731
38.938522
39.793849
39.977431
38.107634
37.922859
38.157701
37.361979
40.205717
38.725734
39.817691
36.786795
36.579967
38.436651
38.628578
39.566755
40.896535
45.430660
45.824647
54.059625
61.503649
75.089931
82.924962
98.156929
107.819438
116.702914
124.256611
133.195519
132.198930
127.925873
120.236874
105.797648
94.561577
78.363419
69.326758
57.795644
49.405694
41.223764
38.143992
35.481453
34.744740
40.979981
47.880411
68.642497
93.533993
136.830807
176.329613
239.284635
275.432467
##ZVALUE=215
273.064971
260.552764
197.785497
124.222636
86.452961
58.238506
44.180751
36.785603
36.345720
31.069517
25.203824
20.796657
15.029907
14.902949
12.918711
11.503696
11.607409
12.513995
12.129545
14.706850
12.995601
15.862584
18.279552
19.360781
19.753575
23.704767
26.549697
28.006434
29.255748
32.130480
32.016635
35.635829
36.238432
37.724972
38.337708
38.426518
39.528608
39.723516
41.040778
40.302873
40.598512
39.101839
40.080547
38.909912
42.257905
40.658712
40.454865
42.155981
40.483475
40.333867
39.574504
42.659640
40.838718
40.611625
42.841434
40.405989
41.067600
41.170716
41.518807
41.357875
42.395592
40.607452
41.919947
41.242838
42.600632
45.584440
49.661994
60.716867
65.552592
76.441765
86.563826
95.460415
101.165771
110.823512
109.296441
109.619498
107.030869
97.716451
91.101527
79.454780
71.439743
57.753921
53.588748
46.085715
41.516423
37.652850
34.042597
33.297539
33.641458
33.373833
31.358600
31.356812
33.824444
42.767525
54.768920
88.429451
##ZVALUE=220
645.219684
643.288493
604.242682
483.675003
389.496684
256.038904
176.279545
101.955533
73.020458
55.308938
52.540898
48.471689
39.372444
32.842755
27.013421
21.232963
15.654564
13.288856
12.597442
12.955666
13.226867
13.594627
15.497804
16.231537
17.584562
19.472837
20.269752
21.123886
23.662448
25.872588
28.415918
30.434728
30.292869
31.885505
34.096837
33.187866
34.466982
34.425855
36.571622
37.178993
37.646890
37.976503
39.183497
38.515925
39.184690
38.001537
40.220618
39.766431
41.073561
40.569901
38.710833
41.188598
41.760802
41.748881
40.675998
41.732788
43.018460
40.159822
40.270686
39.880872
39.936900
41.033626
40.284991
40.099621
41.061640
43.471456
48.364997
49.681664
57.651997
67.454576
75.261593
81.139803
85.771680
90.499520
89.379549
88.997483
83.497763
79.488754
71.474910
64.015985
55.605769
51.674843
45.056939
39.856434
36.334991
33.651590
30.793548
28.566718
26.448965
28.245449
28.430820
28.681755
27.817488
26.086569
25.742650
26.303530
##ZVALUE=225
771.943927
808.867812
927.167535
993.853807
949.831009
816.131830
654.397011
432.921648
284.792781
185.863972
105.520487
78.564882
69.418550
67.646503
63.534975
55.547953
42.026639
33.396482
24.587512
20.652413
16.363859
16.011596
14.891624
14.998913
15.631914
16.810894
18.193722
18.820763
19.642711
20.712614
22.466779
22.812486
25.715828
27.167797
28.519630
29.301643
31.065941
33.272505
33.356547
34.828782
35.748482
35.859942
36.386847
37.841797
37.054420
36.800504
38.072467
37.389994
39.826632
39.400458
41.538477
39.576888
39.834976
41.135550
40.598512
39.850473
38.218498
39.854646
39.075613
40.409565
41.157603
39.148927
39.768815
40.124655
41.232705
41.251779
45.815706
49.035549
53.793788
61.053634
68.165660
72.144866
73.510408
77.705979
75.389743
74.059963
72.452426
66.639781
59.510469
53.486824
47.225952
41.089654
36.871433
34.839511
31.703711
30.213594
29.419661
28.306842
26.585460
26.462674
27.658939
26.226640
26.123524
24.487972
25.312901
24.878979
##ZVALUE=230
447.535515
488.946438
741.680861
1015.870571
1015.870571
1015.870571
1015.870571
1015.870571
1015.870571
862.520933
504.104495
301.592946
158.387423
111.882687
93.325973
92.096925
86.964965
78.299642
70.167780
53.185821
42.823553
28.629899
22.797585
17.473698
15.769601
15.995502
16.370416
16.359687
16.390681
18.433928
19.013882
20.946860
20.571947
22.098422
22.615790
25.664568
26.010871
28.357506
27.923584
29.626489
30.843616
33.720732
32.823682
33.152699
33.814907
33.413768
33.717752
32.146573
34.266710
34.866929
33.309460
33.949614
35.181642
36.698580
34.459829
35.350919
34.616590
35.345554
35.205483
35.720468
34.772754
34.257770
35.338998
36.097765
37.118793
37.036538
39.330721
44.270754
49.032569
54.355860
58.120489
62.210560
67.159534
70.005655
68.582892
68.021417
60.384870
56.234598
50.707459
46.100616
41.613579
34.092665
32.869577
28.292537
28.164983
25.664568
25.324821
23.662448
24.596453
23.884773
24.238825
23.825765
23.274422
21.119714
22.825599
21.564960
##ZVALUE=235
88.066459
107.094646
229.506493
531.767607
841.741562
1015.870571
1015.870571
1015.870571
1015.870571
1015.870571
1015.870571
1015.870571
748.807788
482.213497
266.374946
163.491964
114.171505
104.442835
107.582808
103.479624
96.220970
76.138973
61.927438
43.563843
32.597780
23.498535
20.082593
16.389489
15.959740
16.214848
16.174912
18.153787
17.717481
18.388629
19.819736
20.498633
21.319985
22.752881
23.646951
23.542643
24.697781
25.712848
25.291443
27.668476
27.910471
26.891828
27.534962
27.772784
28.246641
27.999878
28.842688
28.257966
28.377771
28.496981
29.274821
29.074550
27.977824
30.359626
28.444529
29.024482
28.303862
28.777719
28.289557
29.355884
29.049516
30.793548
32.465458
35.320520
40.946603
44.033527
48.352480
52.848458
55.727959
56.856871
56.493878
54.198503
50.919652
47.828555
40.783882
37.689805
32.128692
29.424429
26.961565
24.614930
23.848414
23.481846
21.694899
21.067858
20.276904
21.372437
20.237565
19.649863
19.723773
20.920634
19.368529
19.371510
##ZVALUE=240
4.690886
4.923940
22.627711
67.543983
211.230516
408.808589
848.937631
1015.881896
1015.881896
1015.881896
1015.881896
1015.881896
1015.881896
1015.881896
1015.881896
682.031512
431.708694
223.372579
145.631433
113.390684
116.284490
119.736791
112.757683
99.175572
77.683926
64.319968
46.602488
34.776926
25.528669
21.037459
17.266870
15.742779
15.661716
17.287731
16.474724
17.562509
17.935634
18.422604
18.457770
18.820763
19.746423
19.751787
20.186901
20.776987
21.159649
21.877885
21.257997
22.199750
22.980571
22.682548
21.871924
21.672845
21.780729
21.545887
22.297502
21.992922
21.470785
22.259951
21.342635
21.854639
21.807551
21.269917
21.474957
22.405982
23.183823
24.727583
25.911927
29.037595
31.761527
35.533905
39.291978
41.664839
44.505000
45.930743
45.922995
42.079687
41.501522
38.258433
34.032464
30.137897
27.423501
25.564432
23.494959
20.573735
19.746423
18.987656
18.363595
18.699765
17.986894
18.539429
17.769933
17.695427
17.466545
16.469955
16.495585
16.251802
##ZVALUE=245
2.997518
2.962947
3.631711
3.982782
12.526512
42.410493
161.304474
351.024866
796.968937
1015.870571
1015.870571
1015.870571
1015.870571
1015.870571
1015.870571
1015.870571
1015.870571
981.706977
650.426745
318.321586
182.548761
119.820833
111.605525
118.342638
122.649670
117.579699
104.609728
88.823438
67.202449
51.826835
39.087534
27.033687
21.568537
17.660856
16.020536
16.963482
16.547441
16.779900
16.526580
16.507506
17.293692
17.314553
18.013716
17.879605
18.261671
18.291473
17.855763
18.495917
18.377900
18.445849
18.414855
19.010901
18.626451
18.245578
18.230677
17.835498
18.030405
18.593669
18.418431
18.280745
18.147826
18.822551
18.872619
19.148588
18.613935
19.213557
20.872951
24.021864
26.021600
29.086471
31.191707
34.171939
34.960508
36.622882
36.178827
34.111738
32.696724
29.089451
26.415586
23.353696
21.382570
19.733906
17.913580
17.255545
16.499758
15.561581
15.444756
15.137792
15.038848
14.312863
15.177727
14.716983
14.259815
14.936924
14.481544
14.706850
##ZVALUE=250
2.991557
2.807975
3.162622
3.169775
3.290772
4.089475
6.695986
24.429560
122.058392
276.199579
683.636665
1015.871763
1015.871763
1015.871763
1015.871763
1015.871763
1015.871763
1015.871763
1015.871763
1015.871763
949.674845
573.513508
253.114700
137.447715
104.272962
111.491680
122.024417
126.478672
121.443868
109.988451
93.867779
72.227716
54.669976
37.433505
27.951598
21.091700
17.027855
16.042590
16.456842
15.528798
16.262531
16.455650
16.317964
16.904473
16.604662
16.658902
16.694665
16.748905
16.545653
16.960502
16.463995
16.293526
16.672611
15.849471
16.818643
16.751885
16.381741
16.319752
16.249418
16.059875
16.046762
16.096830
16.053915
15.583634
16.148686
17.864704
18.125772
21.050572
22.293925
24.699569
27.414560
28.871894
29.515624
29.476881
29.031634
27.412772
26.202798
23.960471
21.613836
19.610524
17.076731
15.249848
15.232563
13.815761
13.685822
13.347864
12.386441
12.360811
13.293624
12.101531
12.351871
12.540817
11.762977
12.061000
11.852980
12.286901
##ZVALUE=255
2.326965
2.338886
2.640486
2.891421
2.649426
2.984405
3.290772
3.769994
4.427433
9.491444
60.855746
174.266100
487.653017
853.046775
1015.870571
1015.870571
1015.870571
1015.870571
1015.870571
1015.870571
1015.870571
1015.870571
1015.870571
731.288791
395.484567
170.726776
107.863545
97.758770
109.674931
124.269724
130.167603
123.209953
114.575624
93.326569
76.340437
55.583715
40.917993
27.839541
22.056699
18.626451
17.101765
16.822815
16.429424
16.790628
16.976595
17.115474
16.818643
17.127991
16.782880
17.262697
16.514659
16.214848
16.636848
15.728474
15.728474
15.507936
15.689731
15.134811
14.928579
14.217496
15.495420
14.588833
15.570521
14.981627
15.277863
14.912486
16.846657
17.333627
18.497705
21.283627
22.850633
24.856925
24.816990
25.058985
24.671555
23.441911
21.740794
19.565821
18.155575
15.627742
14.864802
13.458729
12.718439
12.079477
11.851788
11.410713
11.280775
10.637641
10.493994
10.786653
10.854602
10.736585
10.392666
10.744929
10.008812
10.863543
##ZVALUE=260
2.116561
2.251863
2.385974
2.622604
2.477765
2.742410
2.930760
3.080964
3.254414
3.623962
4.227757
6.786585
24.404526
114.869475
266.795754
679.218769
1015.870571
1015.870571
1015.870571
1015.870571
1015.870571
1015.870571
1015.870571
1015.870571
1015.870571
1015.870571
590.472817
309.039950
126.838684
87.248683
93.836784
109.448433
124.610662
134.069920
131.843686
116.898417
100.255609
78.171492
60.969591
42.829514
32.066703
24.691820
20.779967
18.844604
18.452406
18.242598
18.527508
18.349886
17.792583
17.889738
17.374754
17.914772
17.001629
17.183423
17.346740
16.267896
16.344786
16.118884
15.644431
15.993714
14.905930
15.268922
15.169978
15.144944
14.679432
15.383959
15.822649
16.807914
17.540455
19.598603
20.045638
21.489859
22.020936
22.116899
20.910501
20.053983
19.258857
17.476678
16.079545
13.984442
13.029575
12.448430
11.822581
11.282563
10.727644
10.303855
10.184646
10.145903
9.536743
9.644628
9.647608
9.126663
9.309649
9.531975
9.453893
9.290576
##ZVALUE=265
2.193451
2.166629
2.188683
2.337694
2.249479
2.284646
2.617836
2.765656
2.767444
2.941489
3.153682
3.507733
3.859997
4.712939
10.655522
64.250827
173.837543
478.143692
889.080763
1015.870571
1015.870571
1015.870571
1015.870571
1015.870571
1015.870571
1015.870571
1015.870571
1015.870571
848.502517
462.476611
232.712626
95.205903
76.651573
96.619725
112.640858
130.093694
136.282444
131.760836
121.808648
102.004409
84.200501
61.052442
47.353506
34.221411
27.536750
22.881627
21.493435
20.163655
20.557642
20.158887
20.046830
19.731522
19.326806
18.767715
18.758774
17.729998
17.483830
17.416477
17.385483
16.855597
16.845465
16.059875
16.059875
15.625954
15.764832
16.030669
16.456842
17.197728
17.907619
19.398928
20.343661
21.389723
22.108555
21.931529
20.785928
19.362569
18.337965
16.374588
14.982820
13.503432
12.410879
11.428595
10.692477
10.723472
9.569526
10.060668
9.705424
9.415746
9.185672
9.116530
9.006858
9.130836
9.033680
8.594990
8.292794
8.450747
##ZVALUE=270
1.977682
1.900792
2.080798
2.041459
2.201796
2.333522
2.545714
2.537966
2.653599
2.643466
2.812743
3.092885
3.253818
3.672838
3.757477
4.681945
5.784631
25.427938
87.480545
323.965549
686.602592
1015.870571
1015.870571
1015.870571
1015.870571
1015.870571
1015.870571
1015.870571
1015.870571
1015.870571
1015.870571
731.797814
376.467705
132.330656
74.629784
76.467991
93.496442
117.529631
129.361749
139.335990
136.565566
124.110579
109.510422
85.735917
67.666769
47.077537
38.080812
29.498935
25.161505
22.743940
21.777749
21.958947
21.202564
21.158457
20.116568
19.914508
18.862486
19.022822
18.796921
18.145442
18.050671
17.113686
17.189980
16.749501
16.664863
16.744733
17.036796
17.657876
18.720627
19.358993
20.147562
21.112561
20.945668
21.670461
20.496845
18.824935
17.661452
15.894771
14.516711
13.264418
12.488961
11.282563
10.575652
10.361671
9.794831
9.516478
9.334683
9.353757
9.191632
9.043813
8.942485
8.640885
8.628964
8.335710
8.373857
8.301735
##ZVALUE=275
1.911521
1.906753
1.835823
1.938939
2.038479
2.187490
2.035499
2.439618
2.413988
2.122521
2.436638
2.570748
2.662539
2.881885
3.160834
3.418922
3.589988
4.178882
4.963875
11.089444
47.186017
152.472854
503.300428
952.416658
1015.871763
1015.871763
1015.871763
1015.871763
1015.871763
1015.871763
1015.871763
1015.871763
1015.871763
945.958495
531.641841
202.458501
93.663931
60.737729
73.043704
95.004439
112.237930
130.331516
136.361718
133.706927
124.661922
106.204748
88.610649
67.448616
51.689744
37.862659
30.908585
25.001764
22.924542
21.924973
20.926595
19.953847
19.424558
19.088984
18.973947
18.358827
18.205643
17.402768
17.580986
17.014742
16.536713
17.233491
17.069578
17.938614
18.534660
19.537807
19.976497
21.450520
21.425486
21.228790
20.572543
18.945932
17.689466
15.781522
14.552474
13.018847
12.163520
11.299849
10.818839
10.165572
9.979606
9.813905
9.094477
9.164810
9.068847
9.132624
9.117723
8.429885
8.375645
8.044839
8.124709
8.249879
##ZVALUE=280
1.825690
1.880527
1.707673
1.992583
2.046824
1.954436
1.982450
2.094507
2.039671
2.087951
2.307892
2.409816
2.622604
2.630949
2.922416
3.101826
3.312826
3.410578
3.998876
4.466772
4.719496
6.965995
27.274489
157.287717
396.669507
944.491029
1015.870571
1015.870571
1015.870571
1015.870571
1015.870571
1015.870571
1015.870571
1015.870571
1015.870571
1015.870571
770.216584
300.316811
137.681961
58.547854
55.357814
73.821545
89.887977
112.563968
124.861002
132.872462
131.575465
119.766593
105.907917
84.607601
67.077875
48.344731
36.530495
26.742816
22.940636
19.918680
18.561482
18.458962
17.865896
17.857552
17.257929
17.040968
16.687512
16.530752
16.141534
16.447902
16.415715
17.428994
17.437935
18.763542
19.085407
19.178987
19.692779
18.981695
18.982887
17.071962
15.766621
14.390945
13.696551
12.886524
11.566877
11.060834
10.685921
10.215640
9.484887
9.765625
9.019971
9.158850
9.223819
8.913875
8.830428
8.428693
8.386970
8.234978
8.009672
7.992983
##ZVALUE=285
1.803637
1.811981
1.816750
1.945496
1.800656
1.861453
1.788735
1.978874
2.088547
2.049804
2.152920
2.299547
2.464652
2.510548
2.485514
2.636909
2.798438
3.274679
3.287792
3.546476
3.734827
4.351735
5.009770
5.552769
15.062690
62.488914
272.112489
622.337461
1015.866995
1015.866995
1015.866995
1015.866995
1015.866995
1015.866995
1015.866995
1015.866995
1015.866995
1015.866995
1015.866995
564.324856
258.629918
78.662634
43.064952
50.186515
62.828660
84.057450
99.970698
116.595626
124.094486
124.559999
117.644668
100.621581
84.127784
63.302517
47.519803
32.801628
25.266409
19.138455
16.986728
16.264915
15.704632
15.247464
15.020967
14.939904
15.131831
15.095472
15.244484
15.908480
16.549826
17.216802
17.626882
17.790794
18.005967
17.596483
16.643405
16.227961
14.789701
13.496876
12.698770
11.533499
11.036992
10.654926
10.250807
9.629726
9.616613
9.704828
9.239912
8.868575
8.469820
8.545518
8.581877
8.059740
8.251667
7.955432
8.074641
7.870793
##ZVALUE=290
1.539588
1.761913
1.550913
1.707673
1.729727
1.827478
1.802444
1.854897
1.940727
2.052784
2.086759
2.248883
2.073646
2.315640
2.242923
2.421737
2.607703
2.811551
2.853870
3.135800
3.216863
3.684759
3.916621
3.980994
4.798770
6.117821
6.913543
32.673478
109.925866
376.435518
753.432512
1015.870571
1015.870571
1015.870571
1015.870571
1015.870571
1015.870571
1015.870571
1015.870571
1015.870571
1015.870571
896.796584
446.957946
141.937733
51.578879
33.656955
41.223764
57.643652
72.410703
92.674494
105.984807
117.011666
118.600726
110.549927
96.917748
76.932907
60.499907
41.926503
31.511784
21.670461
17.239451
14.494658
13.012886
12.991428
13.022423
13.118982
13.308525
14.035702
14.802814
15.474558
15.923977
16.589761
16.372800
15.968680
15.472770
14.008880
13.306737
12.071729
11.651516
10.557771
10.348558
9.708405
9.380579
9.224415
8.972883
8.783937
8.291602
8.508563
8.468628
7.982850
8.130670
7.755756
7.807612
7.741451
7.804632
7.736683
##ZVALUE=295
1.478791
1.581907
1.548529
1.557469
1.618862
1.619458
1.669526
1.685619
1.669526
1.776814
1.861453
1.945496
2.143979
1.879930
2.064705
2.101660
2.303720
2.293587
2.580881
2.581477
2.645850
2.816916
3.263950
3.562570
3.869534
4.012585
4.657507
5.088449
6.321669
9.198785
55.232644
188.315511
474.762917
1015.851498
1015.851498
1015.851498
1015.851498
1015.851498
1015.851498
1015.851498
1015.851498
1015.851498
1015.851498
1011.897922
606.268644
209.961534
80.607533
28.307438
27.347803
37.853718
49.325824
68.174601
82.945824
99.903941
109.223723
111.489892
105.726719
89.594722
75.355768
55.406690
42.548776
28.080940
21.157861
15.219450
13.380647
12.122989
11.825562
12.337565
12.828708
13.741851
13.978481
14.730692
14.909506
13.929605
13.945699
12.536645
12.056828
11.022687
10.515451
9.843707
9.429455
9.056926
9.120703
8.875728
8.660555
8.618832
8.122921
8.139610
7.836819
7.852912
7.801652
7.871985
7.706881
7.411838
7.269979
7.435679
##ZVALUE=300
1.499653
1.436472
1.519918
1.507998
1.691580
1.532435
1.602769
1.713634
1.770854
1.623631
1.860857
1.885891
1.809597
1.838803
1.952648
2.011657
2.146959
1.999736
2.317429
2.359748
2.357960
2.560616
2.627969
3.025532
3.077984
3.470778
3.653765
4.070997
4.284978
4.939437
5.157590
6.620884
15.525818
107.185841
301.909447
844.233632
1015.870571
1015.870571
1015.870571
1015.870571
1015.870571
1015.870571
1015.870571
1015.870571
1015.870571
1015.870571
942.486525
402.646661
169.369578
42.860508
22.150874
25.607944
32.174587
45.708418
59.373975
78.978539
92.233419
102.109909
104.471445
99.490881
89.028478
71.820617
57.238936
40.361881
29.983521
19.772649
15.322566
13.513565
12.658834
13.157725
13.561845
13.881922
13.834834
13.293624
12.682676
11.722445
10.939837
10.150671
10.049939
9.173751
9.241700
8.405447
8.580685
8.339882
7.942915
8.267760
7.977486
7.926822
7.701516
7.569790
7.557869
7.622838
7.517934
7.389784
7.159710
7.237792
##ZVALUE=305
1.520514
1.551509
1.474619
1.429915
1.501441
1.529455
1.610518
1.650453
1.808405
1.733899
1.631975
1.733899
1.713634
1.824498
1.908541
1.928806
1.895428
2.027750
2.179742
2.286434
2.224445
2.504587
2.702475
2.839565
2.817512
2.988577
3.291965
3.570914
3.616810
4.078746
4.247427
5.034804
5.648732
6.373525
9.546876
62.307715
209.689736
681.630969
1015.870571
1015.870571
1015.870571
1015.870571
1015.870571
1015.870571
1015.870571
1015.870571
1015.870571
1015.870571
1015.870571
631.968975
285.076499
76.173544
27.361512
19.926429
23.269653
32.640696
42.853951
58.735609
72.969794
88.290572
96.728802
99.730492
96.102953
84.452629
71.700811
53.522587
40.599704
27.806759
21.597743
17.231703
15.047789
14.162660
13.797879
12.877584
12.152791
11.263490
10.495782
9.715557
9.044409
8.517504
8.670688
8.469820
8.202791
8.054972
7.996559
8.116961
7.850528
7.746816
7.607937
7.467866
7.433891
7.127523
7.367730
7.233620
7.152557
7.034540
##ZVALUE=310
1.413822
1.487732
1.387596
1.493692
1.338720
1.401901
1.548529
1.568794
1.558661
1.484752
1.602769
1.567602
1.798868
1.889467
1.833439
1.813769
1.930594
1.972914
2.127886
2.110600
2.166629
2.277493
2.302527
2.565980
2.542734
2.666712
3.082752
3.131628
3.250837
3.371835
3.608465
4.020929
4.428625
4.722476
5.029440
6.077886
7.030964
21.589398
82.793832
351.133943
773.218870
1015.861034
1015.861034
1015.861034
1015.861034
1015.861034
1015.861034
1015.861034
1015.861034
1015.861034
1015.861034
985.162854
545.119643
169.070959
54.487586
18.511415
18.148422
21.647811
27.221441
38.742423
49.854517
67.114830
78.310966
89.871883
93.901753
91.120601
83.765984
69.929957
56.907535
41.180849
31.320453
22.653937
17.564893
13.821721
12.291670
10.597706
10.032654
9.001493
8.570552
8.078814
7.969737
7.973909
7.901788
7.872581
7.687807
7.548928
7.389784
7.414818
7.162690
7.300973
7.351637
7.115602
7.140636
7.187724
7.123947
6.994605
##ZVALUE=315
1.313686
1.505613
1.416802
1.372695
1.521707
1.450777
1.543760
1.540780
1.455545
1.579523
1.507998
1.650453
1.569986
1.808405
1.680851
1.879930
1.771450
1.797676
1.874566
2.029538
1.993775
2.163649
2.116561
2.451539
2.507567
2.591610
2.632737
2.660751
2.905726
2.808571
3.173947
3.509521
3.679991
3.841519
4.202724
4.678965
5.139709
5.731583
6.285906
10.268688
36.251545
187.725425
469.765663
1015.870571
1015.870571
1015.870571
1015.870571
1015.870571
1015.870571
1015.870571
1015.870571
1015.870571
1015.870571
1015.870571
834.829807
278.813839
93.820691
22.564530
16.025901
16.599894
18.917918
26.194453
33.551455
47.350526
59.543848
74.920654
84.217787
89.972615
88.384748
80.181956
69.308877
54.564476
41.992664
28.456450
20.904541
14.144778
11.341572
9.205937
8.670688
8.095503
7.680655
7.482767
7.170439
7.162690
7.098913
7.178783
7.030964
7.069707
7.135868
7.114410
6.995797
6.948709
6.905794
6.909966
6.833673
6.917715
##ZVALUE=320
1.274943
1.262426
1.339912
1.283884
1.350641
1.355410
1.428723
1.329780
1.456738
1.508594
1.609921
1.575947
1.507998
1.591444
1.809597
1.606941
1.634955
1.844764
1.842976
1.847744
1.826882
1.930594
2.116561
2.215505
2.248883
2.202988
2.182722
2.380610
2.685785
2.641678
2.933741
2.910495
3.104806
3.249645
3.345609
3.817677
3.900528
4.150867
4.741549
5.301833
5.903840
7.080436
17.050505
106.928945
301.780701
870.320797
1015.870571
1015.870571
1015.870571
1015.870571
1015.870571
1015.870571
1015.870571
1015.870571
1015.870571
1015.870571
1015.870571
481.633544
195.977688
42.593479
17.329454
14.381409
14.632940
17.292500
21.656752
31.443834
41.632652
56.932569
68.175793
80.958605
85.505843
84.143877
77.801943
64.355731
51.649809
36.254525
26.563406
17.312765
12.720823
9.442568
8.197427
7.631779
7.203817
7.169843
6.808639
6.819963
6.737709
6.647706
6.838441
6.584525
6.483793
6.670952
6.912947
6.621480
6.843805
6.655455
##ZVALUE=325
1.302958
1.098514
1.306534
1.321435
1.232624
1.211762
1.265407
1.463890
1.399517
1.339912
1.486540
1.408458
1.376867
1.568794
1.673698
1.386404
1.369715
1.662970
1.561642
1.714826
1.835823
1.843572
1.877546
1.871586
1.870990
2.071857
1.970530
2.252460
2.367496
2.394915
2.490878
2.511740
2.619624
2.785921
2.909899
3.091693
3.287792
3.525615
3.868937
4.072785
4.515648
5.043745
5.540848
6.333590
9.791851
63.110590
192.567706
574.327707
1011.958718
1015.870571
1015.870571
1015.870571
1015.870571
1015.870571
1015.870571
1015.870571
1015.870571
1015.870571
1015.870571
677.262545
302.611589
72.736740
22.829771
13.910532
13.286471
14.020801
16.282797
22.228956
29.636621
43.296814
54.180622
67.411661
75.801611
80.285668
77.641606
68.854690
58.267713
44.615865
33.735633
22.017956
15.981793
10.737777
8.766651
7.266998
6.919503
6.663799
6.439686
6.457567
6.399751
6.336570
6.317496
6.217957
6.311536
6.370544
6.370544
6.496906
##ZVALUE=330
1.230836
1.313686
1.101494
1.247525
1.275539
1.117587
1.119971
1.284480
1.308918
1.182556
1.263618
1.356602
1.318455
1.354814
1.261830
1.419783
1.393557
1.526475
1.358986
1.557469
1.450777
1.567602
1.488924
1.547933
1.665950
1.682639
1.810789
1.860857
1.886487
2.035499
2.133846
2.147555
2.077818
2.266765
2.372861
2.707839
2.744794
2.684593
2.862811
3.271699
3.507733
3.672838
4.087687
4.596710
5.088449
5.813837
6.732941
22.949576
87.078810
350.602865
749.935508
1015.871763
1015.871763
1015.871763
1015.871763
1015.871763
1015.871763
1015.871763
1015.871763
1015.871763
1015.871763
912.249684
448.046923
134.629607
39.909482
13.570786
12.711883
12.403727
13.560653
16.671419
20.712614
29.320717
37.990808
50.989985
60.453415
69.025755
71.873665
70.152879
64.609647
52.454472
42.353868
29.555559
22.030473
15.414953
11.294484
8.241534
7.129908
6.366968
6.107688
6.262660
6.177425
6.223917
6.232858
6.229877
6.164908
6.267428
##ZVALUE=335
1.216531
1.149774
1.057982
1.143813
1.148582
1.048446
1.109838
1.208782
1.285672
1.107454
1.151562
1.241565
1.223683
1.313686
1.352429
1.350641
1.245737
1.150966
1.373887
1.407862
1.537800
1.441836
1.635551
1.487732
1.584888
1.663566
1.839995
1.736879
1.758933
2.004504
1.896620
2.095699
1.968741
2.233982
2.105832
2.318621
2.300739
2.499819
2.633929
2.641678
2.954602
3.219843
3.360510
3.510714
3.841519
4.415512
4.744530
5.257726
5.990863
10.765791
42.038560
211.405754
497.362614
1015.864015
1015.864015
1015.864015
1015.864015
1015.864015
1015.864015
1015.864015
1015.864015
1015.864015
1015.864015
1015.863419
696.265697
223.577619
74.703693
18.235445
13.310909
12.781620
12.828708
13.554692
15.359521
19.955635
25.559664
35.532713
45.065880
55.789948
62.872767
66.910982
65.550804
58.706999
51.188469
40.257573
31.380653
21.674633
15.988946
10.665655
8.520484
6.983876
6.504655
6.292462
6.180406
6.162524
6.329417
6.204844
##ZVALUE=340
1.056790
1.172423
1.099706
1.183748
1.127720
1.207590
1.141429
1.107454
1.081824
1.226664
1.172423
1.155734
1.366735
1.057982
1.126528
1.209974
1.183748
1.202822
1.285672
1.350641
1.518726
1.480579
1.323819
1.391768
1.547933
1.509786
1.490712
1.575947
1.581907
1.684427
1.726747
1.630783
1.716614
1.864433
1.867414
2.037883
2.065897
1.998544
2.346635
2.409816
2.371669
2.599955
2.761483
2.870560
3.032684
3.385544
3.532767
3.860593
4.267693
4.754663
5.391836
6.495714
16.685724
102.862716
301.654935
889.567733
1015.870571
1015.870571
1015.870571
1015.870571
1015.870571
1015.870571
1015.870571
1015.870571
1015.870571
1015.870571
840.453506
318.910480
110.979676
22.517443
14.193654
12.959838
12.536645
11.741519
11.798739
13.456941
16.607642
23.260713
31.076670
42.406917
51.012635
59.121847
62.193871
61.577559
57.276487
48.226714
40.134788
29.361844
22.342801
15.316606
11.244416
8.355975
7.393956
6.363988
6.342530
6.357431
##ZVALUE=345
1.010895
1.200438
1.003742
1.057982
1.070499
1.138449
1.072884
1.220703
1.011491
1.069903
1.210570
1.112819
1.188517
1.225471
1.132488
1.197457
1.185536
1.306534
1.199841
1.228452
1.283884
1.309514
1.384616
1.415610
1.361966
1.357794
1.331568
1.587868
1.576543
1.490712
1.694560
1.675487
1.728535
1.668930
1.823902
1.832843
1.915693
1.946688
1.986623
2.082586
2.189875
2.227426
2.413988
2.658963
2.590418
2.835989
2.892613
3.174543
3.444552
3.535748
3.958941
4.463792
5.027652
5.822778
9.333491
59.197545
187.588930
567.958951
1015.870571
1015.870571
1015.870571
1015.870571
1015.870571
1015.870571
1015.870571
1015.870571
1015.870571
1015.870571
1015.870571
444.701910
183.505416
44.020414
17.965436
13.833642
12.534857
10.792613
9.928942
9.781718
10.931492
15.244484
20.384789
29.794574
37.539601
46.419501
52.867532
57.149529
57.471991
53.264499
47.928691
38.212538
30.861497
21.384954
16.266704
11.616945
9.322762
7.686615
##ZVALUE=350
1.104474
1.122952
1.155734
1.160502
1.124740
1.390576
1.227856
1.285672
1.156926
1.281500
1.294613
1.195669
1.227856
1.412630
1.221895
1.391768
1.308918
1.357794
1.403689
1.410842
1.447797
1.510978
1.481771
1.331568
1.496673
1.490712
1.537800
1.551509
1.658797
1.633763
1.625419
1.647472
1.680851
1.655817
1.917481
1.893640
2.039671
1.939535
1.962781
2.132654
2.168417
2.137423
2.232790
2.358556
2.357960
2.597570
2.831817
2.881885
3.153682
3.142953
3.481507
3.849864
4.101992
4.388690
4.807711
5.540848
6.953478
18.353462
102.739930
273.927450
803.673863
1015.892029
1015.892029
1015.892029
1015.892029
1015.892029
1015.892029
1015.892029
1015.892029
1015.892029
1015.892029
687.179565
244.010687
80.319643
18.308759
12.849569
10.829568
9.536743
8.280873
8.252859
9.026527
10.429621
13.922453
17.784834
25.527477
32.535791
41.500926
47.205687
52.877665
53.864717
50.550699
45.614839
36.974549
29.950738
21.832585
16.950965
##ZVALUE=355
1.147985
1.238585
1.085997
1.043677
1.317859
1.222491
1.309514
1.251698
1.360774
1.298785
1.153946
1.431704
1.176000
1.311898
1.440644
1.282692
1.376867
1.475811
1.337528
1.458526
1.361966
1.491904
1.497865
1.378655
1.599789
1.572967
1.633763
1.660585
1.716614
1.699924
1.602769
1.693964
1.623631
1.835823
1.759529
1.835823
1.839995
1.900792
1.981854
2.062917
2.109408
2.219677
2.192855
2.411604
2.351999
2.358556
2.499819
2.711415
2.932549
2.921820
3.149509
3.277659
3.616810
3.902912
3.997684
4.457831
4.950762
5.316734
6.213784
9.380579
50.348639
163.086653
532.049537
981.490016
1015.870571
1015.870571
1015.870571
1015.870571
1015.870571
1015.870571
1015.870571
1015.870571
1015.870571
942.978859
357.205868
134.439468
28.616786
12.611747
10.371804
9.379983
8.545518
8.170605
7.974505
8.399487
9.725690
11.734962
16.631484
21.617413
29.513836
36.649704
43.775439
47.993660
50.090551
48.347712
42.609572
37.287474
##ZVALUE=360
1.230836
1.204610
1.242757
1.132488
1.182556
1.211762
1.183748
1.257658
1.318455
1.319647
1.330972
1.440644
1.385808
1.429915
1.265407
1.442432
1.392961
1.440644
1.405478
1.495481
1.601577
1.521707
1.406670
1.685619
1.503825
1.673698
1.539588
1.515746
1.623631
1.633763
1.790524
1.789927
1.836419
1.664758
1.905560
1.945496
1.926422
1.940727
1.996756
1.971722
2.112985
1.986623
2.158880
2.318621
2.377629
2.459884
2.565980
2.582669
2.656579
2.699494
2.750754
3.064871
3.128648
3.558993
3.485680
3.700852
3.925562
4.345775
4.680753
5.362630
6.000996
7.784963
18.029809
92.563629
258.294940
749.306679
1015.870571
1015.870571
1015.870571
1015.870571
1015.870571
1015.870571
1015.870571
1015.870571
1015.870571
1015.871167
620.204806
205.704570
62.405467
14.213920
10.606647
9.437799
8.600950
8.116961
7.780790
7.602572
7.684827
8.589625
10.017753
13.895631
18.359423
25.736690
32.018423
39.331913
43.285489
45.902729
##ZVALUE=365
1.227856
1.099706
1.193881
1.174808
1.044869
1.092553
1.166463
1.056790
1.220703
1.232624
1.433492
1.225471
1.341701
1.351833
1.322627
1.282692
1.376867
1.249909
1.248717
1.407862
1.403689
1.310706
1.306534
1.384616
1.398921
1.608729
1.533628
1.584888
1.620650
1.607537
1.669526
1.687407
1.710653
1.719594
1.737475
1.696944
1.767874
1.910925
1.830459
2.097487
1.963973
2.019405
2.031922
1.992583
2.060533
2.099872
2.101660
2.371669
2.340674
2.597570
2.377629
2.508759
2.736449
2.941489
2.971888
3.170967
3.374815
3.596544
3.670454
4.427433
4.581809
5.266666
5.842447
6.781816
9.633899
50.318837
158.265829
500.950813
966.349840
1015.872955
1015.872955
1015.872955
1015.872955
1015.872955
1015.872955
1015.872955
1015.872955
1015.872955
919.165611
320.861936
109.956861
19.791722
10.686517
9.140968
8.369684
7.755756
7.265806
6.931424
6.770492
6.971955
7.654428
9.746552
12.142658
17.349720
21.891594
28.686523
##ZVALUE=370
1.131892
1.069903
1.096725
1.143813
1.150966
0.989437
1.173615
1.267791
1.228452
1.174808
1.235604
1.149774
1.074672
1.248717
1.281500
1.312494
1.280904
1.091957
1.242757
1.290441
1.245737
1.238585
1.325607
1.235604
1.452565
1.483560
1.229644
1.446605
1.410842
1.412630
1.421571
1.592636
1.517534
1.670718
1.519918
1.454949
1.634955
1.628995
1.865625
1.779795
1.717806
1.824498
1.716614
1.929998
1.879930
1.822710
1.905560
2.027750
2.006888
2.121925
2.007484
2.148747
2.391934
2.517700
2.601743
2.573729
2.870560
3.015995
2.807975
3.186464
3.446937
3.769994
4.091859
4.662871
5.083680
5.729795
6.952882
24.311543
94.169974
372.489691
765.790939
1015.870571
1015.870571
1015.870571
1015.870571
1015.870571
1015.870571
1015.870571
1015.870571
1015.870571
1015.870571
467.340946
198.017955
48.847795
14.786720
8.842945
8.164644
7.458925
7.281899
6.853938
6.580949
6.740689
7.157922
7.859468
8.999705
11.361837
##ZVALUE=375
1.072884
0.980496
0.931621
0.934601
1.065731
1.094937
1.066923
1.008511
1.045465
1.032948
0.965595
0.911951
0.954866
1.017451
1.209974
0.900626
1.063943
1.116991
1.082420
1.136661
1.164675
1.021624
1.255870
1.177788
1.173615
1.144409
1.159906
1.235604
1.278520
1.437664
1.249909
1.460910
1.572967
1.520514
1.378655
1.296997
1.449585
1.585484
1.595616
1.503825
1.607537
1.572967
1.521707
1.597404
1.623631
1.788735
1.739860
1.870990
1.795888
1.806617
1.989603
1.937747
1.946688
1.951456
1.988411
2.195835
2.189875
2.255440
2.466440
2.591610
2.676845
2.806783
2.963543
3.393888
3.552437
4.193783
4.638433
5.479455
6.316900
12.722611
44.462681
194.867849
473.966599
1015.866995
1015.866995
1015.866995
1015.866995
1015.866995
1015.866995
1015.866995
1015.866995
1015.866995
1015.866995
807.904601
392.167568
109.595656
30.836463
9.544492
8.465648
7.688999
7.642508
7.311702
7.286668
7.378459
7.210970
7.205606
##ZVALUE=380
0.847578
0.840425
0.874996
0.956655
0.892878
0.959635
0.961423
0.855923
0.924468
0.807643
0.966787
0.970960
0.998974
1.075864
0.959635
0.983477
0.991821
1.043677
0.912547
1.046658
0.890493
1.042485
1.008511
1.098514
1.106858
1.177788
1.113415
1.162887
1.261830
1.209974
1.289845
1.232624
1.289845
1.163483
1.499653
1.460910
1.301765
1.402497
1.229644
1.471639
1.435876
1.384616
1.421571
1.517534
1.431704
1.403689
1.487732
1.660585
1.643896
1.676679
1.660585
1.690984
1.742840
1.775622
1.970530
1.883507
2.003908
1.967549
2.028942
2.255440
2.302527
2.384782
2.505779
2.809763
2.925992
3.480911
3.926754
4.489422
5.184412
5.893707
6.593466
8.459687
24.460554
138.772726
359.726548
925.955772
1015.870571
1015.870571
1015.870571
1015.870571
1015.870571
1015.870571
1015.870571
1015.870571
1015.870571
1015.870571
617.587566
201.634765
66.271424
14.375448
9.029508
8.304715
8.099675
7.798672
7.603765
7.350445
##ZVALUE=385
0.710487
0.714660
0.669956
0.703931
0.720620
0.458956
0.604987
0.749826
0.629425
0.711679
0.722408
0.677705
0.519753
0.724792
0.725985
0.680685
0.823736
0.840425
0.723600
0.837445
0.790954
0.776649
0.924468
0.909567
0.872612
0.867844
0.949502
0.874996
1.010895
0.976920
1.126528
1.114607
1.083612
1.199841
1.106858
1.334548
1.376867
1.277924
1.194477
1.258850
1.260638
1.250505
1.147985
1.401901
1.291633
1.420975
1.406670
1.308918
1.450777
1.470447
1.393557
1.481771
1.610518
1.659989
1.654625
1.763701
1.752973
1.744628
1.746416
1.748800
1.879930
2.136827
2.180934
2.355576
2.611876
2.997518
3.449917
4.008412
4.098415
4.704595
5.037785
5.338788
5.417466
6.217957
11.260509
75.643659
233.339667
671.021938
1015.704870
1015.704870
1015.704870
1015.704870
1015.704870
1015.704870
1015.704870
1015.704870
1015.704870
1015.704870
984.273553
430.958867
159.300566
27.719736
10.770559
8.564591
8.312464
7.900596
##ZVALUE=390
0.852942
0.860691
0.952482
0.789762
0.881553
0.971556
0.852942
0.863671
0.996590
0.935793
0.778437
0.851750
0.686646
0.893474
0.880957
0.916719
0.910759
0.821948
1.022816
0.976920
0.932813
0.925660
1.142621
1.124740
1.245737
0.976920
1.224875
1.178980
1.051426
1.190901
1.285672
1.198649
1.302958
1.458526
1.399517
1.418591
1.456738
1.423955
1.502633
1.564622
1.460910
1.651645
1.610518
1.597404
1.531839
1.561642
1.590848
1.724958
1.760721
1.680851
1.666546
1.776814
1.852512
1.855493
1.866817
1.933575
1.795888
1.887679
2.078414
2.089739
2.190471
2.342463
2.568960
2.612472
2.938509
3.202558
3.454685
4.102588
4.311800
4.740953
5.030632
5.087852
5.140901
5.139709
5.460978
5.788803
7.578731
38.119555
145.578384
543.686748
1012.930870
1015.870571
1015.870571
1015.870571
1015.870571
1015.870571
1015.870571
1015.870571
1015.870571
1015.870571
1015.870571
659.762621
291.386843
64.977407
18.511415
9.920597
##ZVALUE=395
0.956655
0.837445
0.910759
0.969768
0.847578
0.832677
0.864863
0.880957
0.952482
0.981688
0.820756
0.995994
0.788569
0.959635
1.025796
0.956655
1.024604
0.952482
0.991821
0.917912
1.113415
0.969768
0.984669
1.076460
1.147985
1.152754
1.212955
1.135468
1.150966
1.218915
1.142621
1.352429
1.430511
1.411438
1.379848
1.573563
1.438856
1.526475
1.523495
1.593828
1.573563
1.674891
1.762509
1.526475
1.665950
1.731515
1.824498
1.626611
1.694560
1.619458
1.652837
1.855493
1.871586
1.737475
1.682639
1.919866
2.009869
1.962781
2.054572
2.055764
2.222657
2.320409
2.361536
2.421737
2.855659
3.266931
3.382564
3.712773
4.046559
4.417896
4.546642
4.618764
4.490614
4.516840
4.591942
4.763603
5.034804
5.634427
6.678700
22.679567
97.146630
407.107472
860.537887
1015.875936
1015.875936
1015.875936
1015.875936
1015.875936
1015.875936
1015.875936
1015.875936
1015.875936
1015.875936
979.618430
521.665812
156.256557
##ZVALUE=400
1.017451
1.079440
0.878572
0.929832
0.872612
0.865459
0.935793
0.849962
0.885725
0.945926
0.860691
0.999570
1.127720
1.130700
0.904799
0.896454
1.046658
1.033545
1.139641
0.829697
1.071692
0.948906
1.048446
0.982881
1.059771
1.167655
1.201630
1.181960
1.275539
1.266599
1.357794
1.404881
1.382828
1.431704
1.446605
1.442432
1.560450
1.511574
1.586676
1.559854
1.593828
1.585484
1.610518
1.711845
1.694560
1.666546
1.698732
1.705885
1.613498
1.733899
1.696944
1.741648
1.811981
1.791716
2.030730
1.970530
1.930594
1.981854
1.927614
2.002716
2.042651
2.214909
2.304912
2.581477
2.934933
3.254414
3.588796
3.854632
3.888607
4.176497
4.280806
3.910661
3.860593
3.803968
4.123449
3.870726
4.268885
4.691482
5.050898
5.831718
6.559491
12.261868
45.638680
221.145749
547.981858
1015.877724
1015.877724
1015.877724
1015.877724
1015.877724
1015.877724
1015.877724
1015.877724
1015.877724
1015.877724
1015.877724
##END
