##TITLE=BS_C5_R2
##FORMAT=SPECTACLE-ASCII V-1.2
##DATA TYPE=ULTRAVIOLET SPECTRUM
##SECOND TYPE=ULTRAVIOLET SPECTRUM
##DATE=05/28/18
##TIME=11:34:23
##SPECTROMETER/DATA SYSTEM=SPECTACLE
##XUNITS=NM EM
##YUNITS=ENERGY
##YFACTOR=1
##FIRSTX=220
##LASTX=410
##NPOINTS=96
##3DDATA=Equidistant
##ZUNITS=NM EX
##FIRSTZ=210
##LASTZ=400
##ZPOINTS=39
##XYDATA=(Y..Y)
##ZVALUE=210
58.170557
58.462620
39.157867
32.508969
27.885437
23.460984
20.188689
16.076565
14.499426
11.680722
9.188652
9.094477
8.369684
8.020997
8.225441
9.297729
9.244680
11.009574
11.354685
10.492802
12.321472
14.986992
15.724897
17.724633
21.104813
21.352768
24.883747
27.087927
28.200746
31.223893
31.420588
32.618642
33.422709
32.856464
34.634471
32.759905
36.831498
34.638643
30.827522
35.128593
34.408569
34.267902
34.841895
34.245849
33.044815
34.532547
34.116507
33.486485
33.204556
35.933852
33.278465
35.916567
36.267638
35.459995
33.853650
31.361580
33.241510
35.026670
33.230782
34.310818
34.644604
34.068823
36.685467
35.492778
37.647486
40.314794
47.899485
52.223802
64.615607
77.870488
86.393952
98.285675
110.632777
115.636587
117.935538
117.923617
111.033916
103.074908
99.569559
85.446835
72.516799
63.501000
53.823590
43.528676
37.750602
36.179423
30.869842
33.769608
36.523938
42.454600
55.551529
77.193975
113.570690
145.559907
189.230442
221.049786
##ZVALUE=215
209.301710
200.476646
157.596469
101.802945
73.920488
53.371787
41.214824
36.886930
33.241510
28.193593
25.530457
20.323992
14.857650
12.682676
10.190606
8.874536
8.912683
9.815693
10.546446
11.120439
12.559891
13.805628
14.756918
17.473698
17.955899
20.275712
22.865534
26.211739
26.729703
29.305816
29.434562
31.829476
31.048656
31.226873
33.535957
34.486651
34.924746
35.998821
34.679770
35.938621
33.950806
33.485889
32.959580
32.367706
32.137632
33.675432
32.970905
32.381415
35.332441
33.163428
33.798814
34.216642
34.342408
34.119487
33.752918
35.636425
33.585429
37.080646
37.225485
34.534931
33.272505
34.743547
32.938719
34.092665
36.180615
37.388802
40.286779
46.942830
51.964521
61.618686
67.823529
76.231956
81.289411
84.609985
88.728666
84.914565
81.834793
78.686476
72.609782
63.884854
57.577491
46.582818
42.953491
34.419894
33.169985
27.833581
29.600859
28.229952
24.729967
25.474429
24.924874
24.841428
28.109550
31.114817
45.513511
63.283443
##ZVALUE=220
430.788994
429.809690
403.625965
320.866704
259.046555
174.764991
129.316449
79.732537
61.690807
52.918792
50.058961
44.213533
39.355755
33.040643
24.621487
19.433498
14.499426
12.392998
9.784698
9.674430
11.180639
10.885596
12.581944
13.203621
14.252663
14.957786
17.681718
17.842650
20.502806
20.037889
22.295713
22.300482
22.802949
24.867654
24.960637
25.699735
27.779937
26.972890
28.813481
28.258562
29.253960
28.683543
27.870536
29.321909
29.103756
31.729937
29.444695
28.434992
30.379891
31.415820
29.495955
30.221939
30.408502
31.551719
30.532479
29.036999
29.653907
30.049682
29.997826
28.717518
27.853847
28.765798
30.134916
29.501915
29.052496
33.231974
35.106540
38.435459
41.054487
48.057437
53.331852
59.271455
62.630773
64.260960
66.342950
62.075853
60.396791
55.502653
50.318837
44.043660
39.549470
35.694838
32.871962
26.008487
25.216937
22.669435
23.627877
20.310879
19.876957
19.439459
18.917918
19.377470
18.772483
18.494725
19.624829
17.952919
##ZVALUE=225
456.591845
482.162833
549.670458
598.571897
567.685962
488.654971
400.128961
267.990828
186.290741
128.336549
83.884597
73.372722
64.717531
62.804818
58.477521
50.637722
39.210916
31.048656
22.579432
17.995834
13.876557
10.600686
10.362864
11.060834
10.894537
10.874867
11.540651
12.998581
14.047623
13.672709
15.094876
16.578436
17.704964
18.311739
19.461513
20.700693
22.106767
23.437738
23.500919
24.185777
24.104714
24.799705
25.004745
24.823546
25.370717
25.743842
25.761724
25.647879
25.676489
25.861859
27.805567
27.769804
27.637482
26.074648
27.764440
27.368665
26.572943
27.436614
27.252436
27.372837
26.237965
24.944544
26.277900
26.933551
26.048422
27.979612
29.400587
32.074451
35.422444
37.803650
39.894581
44.854879
44.549704
48.545599
49.634576
47.220588
42.976737
41.103959
36.487579
33.068657
29.227734
26.720762
23.264885
20.627975
19.820929
18.382668
16.778708
16.549826
17.667413
16.446710
15.883446
16.566515
16.011000
16.484857
16.655922
14.682412
##ZVALUE=230
260.289907
279.849768
416.725874
616.233945
742.667913
834.235549
843.459964
755.473971
627.975464
481.914878
290.871859
188.704729
114.897490
90.263486
86.880922
86.688995
82.716942
76.301694
66.366792
49.168468
36.852956
24.807453
17.841458
12.722611
10.665655
9.891987
10.304451
10.540485
11.004806
12.233853
12.051463
11.850595
13.582706
13.507605
15.632510
16.563535
17.067790
18.297434
18.422604
19.482970
20.262599
21.300912
22.417903
22.450686
22.263527
21.444559
22.803545
22.020936
21.692514
22.775531
22.567511
23.644567
22.420883
21.757483
23.670793
22.890568
23.634434
21.732450
21.996498
21.836758
21.578670
21.005869
21.885633
21.079779
22.165775
21.858811
25.328994
24.839640
29.796958
30.189753
32.031536
35.668612
37.735701
38.263798
38.103461
34.676790
33.872724
31.365752
28.720498
24.237633
22.218823
20.439625
18.543601
17.663836
15.744567
15.680790
15.043616
15.129447
13.670921
14.764667
14.279485
13.609529
13.946891
14.162660
13.208985
13.686419
##ZVALUE=235
46.758652
55.908561
120.586753
273.227692
430.228710
670.389533
837.282538
1004.931927
1015.870571
1007.449627
839.476585
649.233460
418.124795
285.740495
171.852708
120.029449
96.466541
99.234581
100.526810
98.984838
88.635683
70.893764
55.945516
37.490726
26.719570
17.341971
12.973547
10.681748
9.901524
9.498000
9.891987
9.579659
10.850430
11.285543
12.355447
12.788773
12.816787
14.352798
15.125871
15.190840
15.834570
15.552640
16.632676
16.974807
17.373562
17.318726
17.516613
17.683506
17.467737
16.790628
17.269850
17.409921
17.386675
18.078685
17.512441
16.980767
16.880631
17.258525
17.818809
17.225742
16.584992
17.002821
16.606450
16.685724
17.677546
18.986464
18.579960
20.391941
21.992922
25.611520
27.117729
28.022528
29.494762
29.176474
28.834939
28.016567
25.906563
24.372935
22.019744
19.232631
17.806888
16.178489
16.523600
15.002489
14.020801
14.262795
13.252497
13.651848
13.084412
12.568831
12.781620
12.286901
12.750626
12.016892
12.506843
11.834502
##ZVALUE=240
2.910495
3.275871
13.191700
40.120482
115.320683
220.531821
433.849692
651.055574
952.192545
1015.870571
1015.870571
1015.870571
1015.870571
839.825869
634.958744
377.022624
249.767900
148.267746
114.363432
104.513764
109.529495
114.742517
106.996894
93.537569
72.645545
57.749748
41.323900
29.620528
18.910766
14.353991
11.670589
10.057688
10.183454
10.353923
10.784864
10.948777
11.305809
12.028813
12.003779
12.045503
13.116598
13.621449
12.822747
13.958812
14.333725
13.622642
14.265776
14.748573
13.882518
14.080405
14.552474
14.449954
14.098883
13.765693
14.470816
13.358593
13.648868
13.736486
13.633966
13.024807
12.634993
13.737679
13.225675
14.720559
14.386773
14.382601
15.716553
17.633438
17.713904
19.679666
21.272898
23.750663
24.091601
25.067925
23.615956
23.311973
20.982623
19.334555
18.221736
16.544461
14.215708
13.692975
13.168454
12.272596
12.551546
11.883974
11.247993
11.362433
11.075735
10.896921
10.561943
10.772943
10.776520
10.578632
10.295510
11.206865
##ZVALUE=245
2.021790
2.412796
2.205968
2.835989
6.815791
22.504926
79.862475
172.093511
390.350819
609.152913
954.543948
1015.929580
1015.929580
1015.929580
1015.929580
1015.929580
834.357738
539.691448
351.067781
185.509920
123.608708
99.981427
105.873942
115.945935
117.136836
112.971663
100.256801
84.977746
61.763525
46.711564
34.846663
21.250844
15.210509
11.653900
10.335445
10.378957
10.885000
10.624528
10.910630
11.427999
10.846853
11.217594
11.712909
11.866689
12.155771
11.996627
11.317730
11.996627
12.240410
11.439919
11.490583
11.447668
11.625886
10.644794
11.205673
11.255741
11.560917
11.127591
11.378527
11.129975
10.683537
10.782480
10.858774
12.114644
11.249781
11.551976
13.285875
13.087988
14.340878
16.328692
17.353892
18.399954
17.938614
18.546581
18.333793
17.190576
16.121864
14.608502
14.593601
13.144612
11.614561
10.894537
10.870695
10.084510
9.998679
9.383559
9.493828
9.500980
9.080768
8.837581
9.278655
9.054542
8.941889
8.389950
8.716583
8.807778
##ZVALUE=250
1.925826
1.965761
2.050996
2.161860
2.450943
2.285838
3.589988
14.074445
46.803951
109.701753
290.556550
511.190891
863.644481
1015.870571
1015.870571
1015.870571
1015.870571
1015.870571
1015.912890
771.288872
510.139465
259.983540
156.093836
97.629428
91.470480
107.663870
117.453933
120.180845
116.475821
100.737810
86.712837
65.450668
49.827695
32.140613
22.930503
15.837550
12.848973
11.468530
10.988712
10.824800
10.868907
10.510683
10.674596
11.557937
11.590719
11.754632
11.441708
11.014938
11.319518
11.243820
10.661483
11.324883
10.323524
10.510683
9.816885
10.390878
9.910464
10.133982
9.726882
9.967685
9.502769
9.183884
9.843707
9.682775
9.569526
9.916425
10.595918
11.281967
12.406707
13.300776
14.528632
14.654994
15.744567
15.554428
15.030503
14.475584
13.558865
12.707710
11.003613
10.704994
9.347796
8.924603
8.519888
8.234978
7.955432
8.178949
7.737875
7.997751
7.431507
7.668734
7.645488
7.841587
7.500648
7.629991
7.882714
7.451773
##ZVALUE=255
1.923442
1.525879
1.823902
1.892447
1.934767
2.178550
2.179742
2.262592
2.970695
6.107688
34.693480
91.494918
199.150443
447.102785
708.736777
1015.870571
1015.870571
1015.870571
1015.870571
1015.870571
1015.870571
1015.870571
671.688914
410.943627
194.564462
120.006800
84.506869
88.092685
106.322765
116.479993
123.896599
120.023489
110.482574
91.265440
71.861744
50.310493
36.311746
24.052858
17.265677
13.837814
12.247562
11.797547
12.090802
12.168884
11.470914
12.015700
11.390448
10.985732
11.582971
11.190772
11.418462
11.281967
10.916591
10.600686
10.623932
10.470748
9.699464
9.796619
9.669662
9.375811
9.344816
9.233952
9.705424
9.092689
9.267926
9.516478
9.931922
10.368824
11.778474
12.010932
12.422800
13.206601
13.560653
13.364553
12.947917
12.536645
12.144446
10.315776
10.117888
9.030700
8.578897
7.963777
7.669926
7.439852
7.404685
6.885529
6.922483
7.054806
6.911755
6.896853
6.925464
6.411672
6.657839
6.258488
6.410480
6.650686
##ZVALUE=260
1.731515
1.655817
1.612902
1.694560
1.711845
1.946688
1.844764
2.274513
2.221465
2.472997
2.631545
3.475547
16.331673
48.840642
150.520802
308.628678
646.836758
963.291526
1015.870571
1015.870571
1015.870571
1015.870571
1015.870571
1015.870571
1006.346941
617.244840
388.644934
189.007521
109.162927
77.951550
85.398555
107.920766
119.001865
128.219724
125.314593
113.947988
97.749829
72.015524
56.150556
37.174821
27.682781
18.787980
15.495420
13.293624
13.139844
13.227463
12.973547
12.295842
12.169480
12.559891
12.026429
12.261868
11.941791
11.332631
11.236668
10.996461
10.669827
10.004640
10.339618
10.518432
9.941459
9.479523
9.528995
9.379983
9.337664
9.736419
9.760857
10.025501
10.649562
11.572838
11.550784
12.178421
12.473464
12.364984
11.791587
11.033416
9.983778
9.447932
8.639693
7.863641
7.542968
6.955862
6.970763
6.834865
7.040501
5.947948
6.132722
6.168485
5.876422
6.065965
5.853772
5.630851
5.996823
6.025434
6.154776
5.983710
##ZVALUE=265
1.527667
1.696944
1.573563
1.578927
1.801848
1.636744
1.785755
1.912713
1.864433
2.237558
2.206564
2.429485
2.757907
3.152490
5.831718
34.935474
93.020797
248.285532
453.674793
867.137909
1015.935540
1015.935540
1015.935540
1015.935540
1015.935540
1015.935540
1015.935540
895.578861
499.402881
285.655856
154.583454
75.313449
68.320632
88.606477
106.762648
123.665929
130.916834
126.210451
115.647912
95.375776
78.130960
55.652857
42.201877
28.117895
20.926595
16.484857
15.574694
14.687777
14.239550
14.247894
13.949871
13.969541
13.227463
13.070703
12.574792
12.259483
11.700988
11.890531
11.514425
10.799766
10.622740
10.165572
9.970665
9.888411
9.633899
9.810925
9.921789
10.439754
10.684729
10.911822
11.351705
11.280775
11.812449
11.730790
10.989904
10.654926
10.144711
8.897781
8.417964
7.580519
6.923676
6.547570
6.307960
6.399751
6.309748
6.220937
6.097555
5.772710
5.818605
5.580783
5.723834
5.669594
5.489588
5.925894
5.954504
5.837679
##ZVALUE=270
1.424551
1.276731
1.361966
1.417994
1.512766
1.444817
1.552701
1.697540
1.740456
1.632571
1.723766
1.927614
2.107620
2.061725
2.263784
2.691746
3.301501
13.426542
46.855807
166.108012
340.635777
612.683892
1015.870571
1015.870571
1015.870571
1015.870571
1015.870571
1015.870571
1015.870571
1015.870571
789.669752
409.480929
217.562914
87.959766
58.544874
67.983866
85.778832
107.920766
120.612979
130.416751
129.842758
117.416978
103.109479
79.137683
61.643720
40.892959
31.420588
23.148656
19.142628
16.742945
15.992522
15.770793
15.081763
14.511943
14.348626
13.809800
13.641715
12.773871
12.440681
12.026429
11.584759
11.804700
11.006594
10.610819
10.434985
10.249615
10.554790
9.991527
10.708570
11.211634
11.463761
11.579990
11.459589
11.162758
10.818839
10.113716
9.744763
8.756518
7.958412
7.426739
6.894469
6.908774
6.436706
6.242990
6.092787
5.856752
6.011724
5.774498
5.459785
5.428791
5.522966
5.551577
5.413890
5.532503
5.289912
5.392432
##ZVALUE=275
1.182556
1.369715
1.290441
1.296997
1.504421
1.236796
1.448989
1.519918
1.544952
1.407862
1.586676
1.669526
1.648664
1.846552
1.988411
2.136827
2.347827
2.583861
2.772808
6.100535
24.557710
79.858899
254.780650
494.166613
954.626799
1015.870571
1015.870571
1015.870571
1015.870571
1015.870571
1015.870571
1015.870571
989.159942
552.556515
313.934684
124.228001
64.647794
50.752759
63.206553
86.723566
104.143620
121.349692
129.996538
127.889514
119.477510
97.257495
81.303716
60.367584
46.177506
31.349659
24.827719
18.624663
16.796589
15.033484
14.891624
14.439821
13.938546
13.551712
13.032556
12.519956
12.087822
12.071729
11.835694
11.306405
11.091828
10.552406
10.423660
10.755658
10.967851
11.246800
11.284947
11.433959
11.465549
11.328459
10.885000
10.142922
9.231567
8.491874
8.103848
7.499456
6.932616
6.822944
6.436706
6.243587
6.254911
5.725622
5.815625
5.393624
5.633831
5.503893
5.500913
5.413890
5.261898
5.207658
5.292892
5.096793
##ZVALUE=280
1.208782
1.281500
1.285672
1.171827
1.362562
1.169443
1.351833
1.424551
1.373887
1.515746
1.402497
1.536608
1.479983
1.570582
1.714826
1.880527
1.890659
2.000928
2.131462
2.482533
2.651811
3.124475
13.992786
53.989887
192.294717
374.341607
733.819604
1015.870571
1015.870571
1015.870571
1015.870571
1015.870571
1015.870571
1015.870571
1015.870571
716.853738
428.969860
183.014870
86.820722
43.308735
45.608878
64.307451
81.956983
105.491877
117.900968
126.591921
124.251842
112.899542
99.138618
77.645779
60.533881
41.112900
30.662417
21.385550
17.398000
14.129877
13.325810
12.328625
12.237430
11.884570
11.413693
11.260509
11.112690
10.758638
10.442734
10.011792
10.229945
10.143518
10.465980
10.601878
10.471940
10.623932
10.830760
10.048747
9.698868
9.143949
8.709431
8.426905
8.003712
7.552505
6.421804
6.647706
6.490946
6.434917
5.902648
5.892515
5.841851
5.686879
5.582571
5.586743
5.526543
5.292892
5.393624
5.368590
5.487800
5.411506
##ZVALUE=285
1.173615
1.103878
1.199841
1.274943
1.156926
1.237988
1.087785
1.276731
1.230836
1.344681
1.330972
1.353621
1.403689
1.428723
1.823902
1.496673
1.664758
1.802444
1.883507
1.947880
1.984835
2.428889
2.658963
3.000498
6.396770
23.226738
93.889832
218.505859
512.790680
833.337903
1015.870571
1015.870571
1015.870571
1015.870571
1015.870571
1015.870571
1015.870571
971.174836
632.456541
295.229554
144.552588
50.602555
32.915473
41.602850
55.564642
78.059435
93.775988
109.809637
117.259622
118.848681
111.329556
95.077753
79.581738
56.666732
41.477680
27.275681
19.668937
13.863444
11.971593
10.837913
10.481477
9.525418
9.843707
9.818673
9.505749
9.716749
9.339452
9.705424
9.820461
10.107756
10.099411
10.144711
10.207891
9.574890
9.312630
8.740425
8.531809
7.820725
7.515550
7.081628
6.706715
6.470680
6.461740
6.341934
6.041527
5.725622
6.044507
5.869865
5.691648
5.380511
5.590916
5.398989
5.211830
5.323887
5.256534
5.208850
##ZVALUE=290
1.096725
1.180768
1.222491
1.250505
1.088977
1.232624
1.186728
1.136661
1.283884
1.354814
1.273751
1.396537
1.297593
1.278520
1.352429
1.598597
1.592636
1.544952
1.610518
1.675487
1.854897
1.965761
1.962781
2.315640
2.316833
2.826452
3.632903
9.153485
47.695637
123.618841
326.432586
601.399541
966.816545
1015.871763
1015.871763
1015.871763
1015.871763
1015.871763
1015.871763
1015.871763
884.788632
453.485847
229.576826
72.847605
31.838417
26.652813
34.490824
51.614642
65.527558
87.205768
100.508928
112.120509
114.085674
106.431842
94.175935
72.826743
55.386424
36.836863
26.331544
16.617775
12.623668
9.652972
8.745790
8.338690
8.198619
8.261800
8.139610
8.479953
8.628964
9.081960
9.099841
9.200573
9.202957
9.108782
8.234978
7.925630
7.729530
7.363558
7.053614
6.732941
6.616712
6.242990
6.005764
5.825758
5.609989
5.611777
5.906820
5.720854
5.658865
5.347729
5.149841
5.253553
5.357862
5.053878
5.333424
5.128980
##ZVALUE=295
1.073480
1.013875
0.901818
1.048446
1.159906
1.062751
1.063943
1.090765
1.190901
1.113415
1.243949
1.131892
1.268983
1.239777
1.310706
1.424551
1.413822
1.348853
1.492500
1.514554
1.507998
1.651645
1.789927
1.972914
2.124906
2.150536
2.490878
2.701879
3.024936
4.326701
14.043450
70.028901
179.216862
471.074581
809.652805
1015.870571
1015.870571
1015.870571
1015.870571
1015.870571
1015.870571
1015.870571
1015.870571
622.487664
343.010426
116.855502
46.805739
20.051599
21.202564
31.840801
43.569803
63.668489
77.824593
95.214844
103.758574
105.911493
99.867582
86.303949
71.117878
51.605701
37.941933
23.855567
16.978979
11.063814
8.673668
7.466674
7.304549
7.234812
7.245541
7.513762
8.019805
8.324981
8.340478
7.898808
7.778406
7.276535
6.996989
6.539822
6.315708
6.151795
6.093979
6.158948
5.656481
5.437732
5.516410
5.374551
5.641580
5.210638
5.483627
5.064607
4.991889
5.003810
5.268455
5.075932
5.265474
5.255938
##ZVALUE=300
0.931621
0.950694
1.110435
0.919700
1.016855
0.996590
1.105666
0.970960
1.004934
1.107454
1.091957
1.073480
1.100898
1.096725
1.193881
1.102686
1.233816
1.212955
1.293421
1.463890
1.429915
1.368523
1.522899
1.705885
1.723766
1.909733
2.083778
1.871586
2.172589
2.595782
2.803802
3.152490
7.898808
31.990409
130.951405
282.290578
640.483499
992.521644
1015.871763
1015.871763
1015.871763
1015.871763
1015.871763
1015.871763
1015.871763
899.073482
465.427637
244.325399
79.301596
29.090643
15.252829
18.212795
27.912855
38.278699
56.863427
70.602894
88.717937
96.738935
100.559592
96.722841
83.814859
70.764422
51.182508
38.459897
24.535656
16.749501
11.059642
8.692741
7.316470
7.371902
7.465482
7.444620
7.544756
7.642508
7.016659
6.812811
6.630421
6.196499
5.804896
5.920529
5.698800
5.836487
5.531907
5.346537
5.440712
5.282760
5.230904
5.279779
5.237460
5.126595
5.178452
5.066991
4.801750
4.756451
5.154610
4.818439
##ZVALUE=305
0.919700
1.077652
0.942945
0.992417
0.994802
0.957847
0.930429
1.020432
0.841618
1.089573
1.236796
1.087785
1.131892
1.124740
1.213551
1.241565
1.052618
1.204610
1.170635
1.289845
1.311898
1.430511
1.482964
1.373887
1.603961
1.641512
1.631975
1.853704
1.892447
2.071857
2.198815
2.531409
2.605915
2.945662
4.756451
17.391443
81.696510
197.591782
494.382977
822.093487
1015.870571
1015.870571
1015.870571
1015.870571
1015.870571
1015.870571
1015.870571
1015.870571
603.359938
337.420702
126.801729
49.520731
14.883876
12.800694
18.070936
24.709702
39.194822
50.825477
68.947673
81.135631
92.703700
95.946789
90.817809
82.420707
65.182447
51.787496
35.364628
25.072694
15.452504
11.134744
8.585453
7.789731
7.244945
6.946921
6.737709
6.314516
6.073713
5.857944
5.640984
5.732775
5.517602
5.467534
5.382895
5.291700
5.380511
5.537868
5.253553
4.958510
5.044937
5.257726
5.032420
4.854798
5.005598
5.055666
4.841685
5.057454
##ZVALUE=310
0.873804
0.824928
0.898838
0.885725
0.842810
0.887513
0.945926
0.895858
0.891685
1.018643
0.948906
0.924468
0.925660
1.117587
1.056790
1.149774
1.086593
1.081824
1.170635
1.237988
1.209974
1.297593
1.233816
1.391768
1.562834
1.487732
1.464486
1.619458
1.767874
1.660585
1.841784
1.895428
2.071857
2.297759
2.384782
2.788901
3.132820
8.833408
31.969547
127.097964
277.606845
639.429688
988.250971
1015.870571
1015.870571
1015.870571
1015.870571
1015.870571
1015.870571
1015.870571
929.762721
470.997691
249.715447
83.789825
27.929544
11.152625
11.650920
15.794635
21.532774
33.739805
45.092702
62.105656
73.817968
85.402727
89.136958
87.160468
79.626441
65.000653
51.018596
35.573840
25.835633
16.792417
11.928678
8.412600
6.925464
6.239414
5.827546
5.526543
5.295873
4.963875
5.070567
5.126595
5.098581
5.018711
4.891753
4.805923
5.077720
4.959702
5.035996
4.672408
4.914999
4.824996
5.016923
4.786849
4.833937
4.571676
##ZVALUE=315
0.953674
0.783801
0.994802
0.826716
0.842810
0.959635
0.906587
0.929832
0.812411
1.005530
0.859499
1.068711
1.150966
1.010895
0.886917
0.935793
0.982881
1.063943
1.076460
1.240969
1.074672
0.970960
1.244545
1.269579
1.368523
1.218915
1.446605
1.385808
1.372695
1.582503
1.559854
1.698732
1.806617
1.876950
1.981854
2.170801
2.464652
2.552867
2.920628
4.422665
14.250875
72.333813
180.726647
463.821888
796.432495
1015.870571
1015.870571
1015.870571
1015.870571
1015.870571
1015.870571
1015.870571
1015.870571
644.711852
351.819992
126.026869
45.170784
12.555718
9.525418
10.962486
13.617873
20.874739
28.778911
42.687654
55.253506
70.705414
79.471469
84.881783
83.669424
73.890686
63.513517
46.867728
35.169721
22.129416
15.798807
10.259748
7.505417
5.876422
5.212426
5.157590
4.756451
4.632473
4.760623
4.683733
4.530549
4.654527
4.597902
4.523993
4.439950
4.527569
4.738569
4.684925
4.524589
4.599690
4.813671
4.642606
##ZVALUE=320
0.866652
0.804663
0.882745
0.823736
0.647902
0.778437
0.906587
0.920892
0.932813
0.912547
0.861883
0.928640
0.852942
0.865459
0.860691
1.165867
1.033545
1.015663
1.009703
0.996590
1.085997
1.162887
1.171827
1.135468
1.174808
1.295805
1.311898
1.462698
1.407862
1.400709
1.424551
1.501441
1.478791
1.705885
1.767874
1.889467
1.832843
2.040863
2.176762
2.439618
2.736449
3.511906
6.395578
36.652684
106.773973
320.218801
576.448441
998.085737
1015.879512
1015.879512
1015.879512
1015.879512
1015.879512
1015.879512
1015.880108
839.030743
489.720702
206.200480
87.649822
21.515489
9.845495
8.713603
9.350777
12.605786
17.310977
27.322769
37.161708
51.845908
63.642859
75.840950
79.230666
78.408718
73.041916
58.527589
47.215819
31.808615
22.773743
14.243722
9.609461
6.644726
5.329847
4.696846
4.569888
4.340410
4.443526
4.407763
4.370809
4.322529
4.363656
4.547834
4.403591
4.234910
4.542470
4.524589
4.583597
4.646778
##ZVALUE=325
0.735521
0.761747
0.807643
0.692606
0.690818
0.802875
0.829697
0.770688
0.870824
0.940561
0.802875
0.928640
0.848770
0.949502
0.893474
0.916719
0.961423
0.917912
1.007915
0.912547
1.078844
1.046658
1.052618
0.927448
1.190901
1.148582
1.132488
1.200438
1.302958
1.165867
1.301765
1.477599
1.462698
1.466870
1.518726
1.654625
1.617670
1.546741
1.970530
1.950860
2.073646
2.262592
2.569556
2.801418
4.228950
22.903681
68.730712
207.859874
405.358672
837.119818
1015.871763
1015.871763
1015.871763
1015.871763
1015.871763
1015.871763
1015.871763
985.617638
638.378859
285.273790
132.755637
35.412908
12.423992
8.111000
7.927418
9.221435
11.526942
17.158985
24.775863
37.632585
48.764944
61.099529
69.830418
75.501800
73.946714
64.685941
55.249929
41.138530
30.841827
19.718409
13.003945
8.356571
6.250739
5.048513
4.718900
4.458427
4.079938
4.123449
4.180670
4.210472
4.134774
4.283786
4.240870
4.535913
4.351735
4.356503
##ZVALUE=330
0.680685
0.685453
0.763535
0.874996
0.824928
0.665784
0.798702
0.742674
0.754595
0.976920
0.850558
0.836849
0.827909
0.797510
0.932813
0.909567
0.931621
0.859499
1.010895
0.937581
0.876784
1.039505
1.045465
0.981688
1.073480
1.031756
1.046658
1.158714
1.249909
1.217723
1.356602
1.187921
1.366735
1.180768
1.313686
1.370907
1.501441
1.589656
1.620650
1.701713
1.895428
1.786947
1.839995
2.068877
2.256632
2.733469
3.220439
6.769896
38.745403
112.000704
317.255855
571.188927
1007.515788
1015.871763
1015.871763
1015.871763
1015.871763
1015.871763
1015.871763
1015.871763
780.280828
453.898907
183.616877
76.051950
17.312765
8.512735
7.522702
7.651448
8.941889
11.414886
17.131567
23.579597
34.614801
45.022964
56.978464
64.402819
68.526864
67.793727
60.850978
51.866770
37.943721
29.066801
19.465685
13.723969
8.801818
6.456971
5.000830
4.333854
4.243851
4.163980
4.142523
4.151464
4.082918
4.329681
4.260540
4.270673
##ZVALUE=335
0.806451
0.801682
0.845790
0.763535
0.770688
0.618696
0.651479
0.910759
0.789762
0.780821
0.723600
0.600815
0.833869
0.820756
0.848770
0.938773
0.887513
0.971556
0.905991
0.854731
0.907779
0.959635
0.988841
0.812411
0.885725
0.858903
1.105666
1.198649
1.227856
1.176596
1.110435
0.935793
1.166463
1.100898
1.197457
1.222491
1.200438
1.423955
1.293421
1.513958
1.431704
1.538992
1.644492
1.746416
1.903772
2.016425
2.284646
2.521873
2.849698
4.616976
15.130639
75.004697
179.327726
448.784828
782.967806
1015.877724
1015.877724
1015.877724
1015.877724
1015.877724
1015.877724
1015.877724
996.327400
559.391975
300.894976
104.222894
34.960508
9.403825
7.730722
7.175803
7.364750
8.567572
10.431409
15.486479
21.304488
32.238960
41.101575
52.632689
59.360862
64.367652
63.264966
56.255460
48.654675
37.245750
29.401779
19.230843
13.578534
8.910894
6.691813
5.209446
4.697442
4.516840
4.358888
4.337430
4.355907
4.279613
##ZVALUE=340
0.599623
0.618696
0.769496
0.755787
0.899434
0.679493
0.747442
0.730753
0.658631
0.819564
0.896454
0.894666
0.751615
0.620484
0.628829
0.787973
0.805855
0.857711
0.851750
0.750422
0.729561
0.809431
1.013875
1.036525
0.939965
0.960827
0.989437
1.007915
0.892878
0.964999
1.079440
0.964999
0.953674
1.130700
1.148582
1.200438
1.250505
1.252890
1.225471
1.287460
1.455545
1.391768
1.453757
1.597404
1.599789
1.631975
1.906753
2.027750
2.173781
2.323985
2.504587
3.287792
7.600784
43.812990
123.063922
351.786017
638.520718
1015.870571
1015.870571
1015.870571
1015.870571
1015.870571
1015.870571
1015.870571
1015.870571
680.107474
385.764837
151.551962
54.487586
12.205839
8.135438
7.361770
7.294416
7.100701
7.592440
9.897947
13.480783
20.623803
28.158426
40.147901
49.335957
56.867599
59.540868
58.791637
54.979920
45.918822
37.653446
27.363896
20.177960
13.539791
9.360909
6.694794
5.294681
4.628897
4.549623
4.531741
##ZVALUE=345
0.742674
0.662804
0.759959
0.649691
0.731945
0.793934
0.625849
0.655651
0.723600
0.758767
0.688434
0.795722
0.737906
0.812411
0.770688
0.760555
0.828505
0.767708
0.785589
0.704527
0.791550
1.014471
0.872612
0.788569
0.807643
0.863671
0.900626
0.963807
0.817776
0.946522
0.972748
1.032948
0.930429
1.084805
1.090765
1.155734
1.084805
1.230836
1.208782
1.024604
1.184940
1.272559
1.425743
1.439452
1.467466
1.521707
1.521707
1.763701
1.803637
1.905560
1.972914
2.094507
2.307892
2.746582
4.036427
22.172928
71.612000
223.475695
440.078974
879.731774
1015.868783
1015.868783
1015.868783
1015.868783
1015.868783
1015.868783
1015.868783
874.499083
509.580970
200.257897
85.482597
22.399426
9.680986
7.503629
6.866455
6.443858
6.188750
6.578565
7.935762
12.163520
17.379522
26.976466
35.017729
44.502616
50.668716
55.549741
55.269599
51.208735
45.518875
36.168694
28.637648
19.532442
14.306903
9.798408
7.555485
5.937815
##ZVALUE=350
0.702739
0.656843
0.764728
0.949502
0.660419
0.765920
0.883937
0.760555
0.836849
0.760555
0.613928
0.831485
0.733733
0.889897
0.848770
0.683665
0.778437
0.678897
0.856519
0.863671
0.834465
0.914931
0.887513
0.836849
0.879765
0.840425
0.883937
0.851750
0.936985
0.822544
1.027584
0.915527
0.958443
0.910759
1.105666
1.068711
1.170635
1.104474
1.071692
1.103878
1.104474
1.289845
1.234412
1.345873
1.347661
1.380444
1.472831
1.653433
1.513958
1.731515
1.656413
1.868606
1.900792
2.000928
2.159476
2.558827
3.099442
10.777712
38.168430
140.826702
297.674537
666.241646
993.696451
1015.870571
1015.870571
1015.870571
1015.870571
1015.870571
1015.870571
978.170633
625.320673
273.634791
120.355487
28.960705
10.850430
7.080436
6.114841
5.712509
5.165935
5.251765
5.940795
8.087754
10.791421
15.848875
21.497607
31.083822
37.639737
45.833588
49.844980
51.120520
48.798919
42.216778
35.840869
26.704669
20.684600
14.465451
##ZVALUE=355
0.692606
0.624657
0.696778
0.771880
0.783801
0.814795
0.894666
0.580549
0.592470
0.682473
0.917912
0.602603
0.793934
0.729561
0.844598
0.787973
0.731945
0.744462
0.789762
0.829697
0.729561
0.905991
0.924468
0.816584
0.990629
1.020432
0.942945
0.773668
0.952482
0.969768
1.084805
0.971556
1.046658
1.017451
1.071692
0.962615
1.065731
0.976920
1.157522
1.116991
1.100898
1.141429
1.160502
1.180768
1.268983
1.298785
1.398921
1.410842
1.421571
1.471639
1.621842
1.640916
1.646876
1.905560
1.926422
2.172589
2.330542
2.521873
2.712607
5.283952
18.451810
87.355971
202.748775
482.989550
824.028850
1015.839577
1015.839577
1015.839577
1015.839577
1015.839577
1015.839577
1015.839577
801.228881
367.875695
173.833966
47.897696
14.983416
6.921887
6.034970
5.455613
5.103946
4.804730
4.861951
5.578995
6.787777
9.752512
13.218522
20.098686
26.139617
34.646988
40.971637
45.669675
47.523975
45.811534
41.872859
34.677982
##ZVALUE=360
0.792742
0.840425
0.752807
0.747442
0.835657
0.624657
0.621676
0.818968
0.713468
0.673532
0.796914
0.911951
0.760555
0.784993
0.903606
1.060963
0.826716
0.923872
0.914931
0.716448
0.887513
1.007915
0.871420
0.958443
0.862479
0.801682
0.902414
0.914931
1.026988
1.054406
0.931621
0.925660
1.081824
1.030564
1.065731
1.035929
1.036525
1.109838
1.126528
1.077652
1.078844
1.174808
1.345873
1.323819
1.433492
1.341701
1.364946
1.386404
1.426935
1.418591
1.546741
1.577735
1.678467
1.628995
1.834631
2.017617
2.061725
2.191663
2.361536
2.495646
2.826452
3.748536
8.274913
42.235851
115.438700
328.396559
606.676936
1015.870571
1015.870571
1015.870571
1015.870571
1015.870571
1015.870571
1015.870571
964.794755
501.086712
262.950659
90.414882
30.020475
7.837415
5.724430
5.519986
5.014539
4.729629
4.725456
4.852414
4.997849
5.913973
7.854700
14.450550
16.587973
28.308630
33.159852
36.480427
42.871833
43.485761
##ZVALUE=365
0.691414
0.759959
0.587702
0.728965
0.742674
0.882745
0.817776
0.693798
0.698566
0.818968
0.760555
0.682473
0.765920
0.929832
0.905991
0.835657
0.888705
0.892878
0.935793
0.779629
0.809431
0.813603
0.800490
0.803471
0.890493
0.927448
0.882745
0.924468
0.831485
0.994802
0.929832
1.036525
0.989437
1.107454
0.875592
1.121759
0.941753
1.099706
1.128912
0.918508
1.121759
1.037717
0.996590
1.258850
1.091957
1.160502
1.246929
1.149774
1.287460
1.129508
1.288652
1.412630
1.543760
1.593828
1.646876
1.705885
1.775622
1.908541
1.954436
2.077818
2.277493
2.424717
2.920628
3.327727
4.970431
15.917420
76.016784
189.725161
504.503846
868.007541
1015.871763
1015.871763
1015.871763
1015.871763
1015.871763
1015.871763
1015.871763
754.997730
344.261527
160.150528
41.685700
13.543963
6.319880
5.186796
5.075932
4.865527
4.529953
4.590750
4.226565
4.653931
5.704761
7.277727
10.759830
14.316440
20.513535
25.743842
##ZVALUE=370
0.578761
0.767708
0.732541
0.786781
0.754595
0.714660
0.712872
0.705719
0.758767
0.585914
0.827909
0.820756
0.657439
0.681877
0.769496
0.779629
0.838637
0.767708
0.704527
0.822544
0.836849
0.851750
0.822544
0.863671
0.802875
0.965595
0.844598
0.739694
0.818968
0.897646
0.804663
0.994802
0.855923
0.927448
0.843406
1.068711
0.976920
1.043677
0.990629
1.010895
0.952482
1.076460
1.115799
1.125932
1.055598
0.982881
1.137853
1.054406
0.993609
1.154542
1.271963
1.166463
1.324415
1.418591
1.352429
1.388788
1.454949
1.515746
1.521707
1.685619
1.734495
1.909733
1.968741
2.265573
2.441406
2.765656
3.237724
10.301471
37.425756
142.158866
302.641988
657.606721
992.165804
1015.870571
1015.870571
1015.870571
1015.870571
1015.870571
1015.870571
844.077468
503.400564
201.887488
85.575581
20.351410
7.655621
5.333424
4.935861
4.430413
4.464984
4.560947
4.550815
4.679561
5.028844
5.911589
7.136464
9.241700
##ZVALUE=375
0.656843
0.699759
0.572801
0.615716
0.708699
0.675917
0.689626
0.732541
0.826716
0.650883
0.748634
0.820756
0.714660
0.714660
0.700951
0.601411
0.626445
0.806451
0.761747
0.749826
0.839829
0.752807
0.880957
0.778437
0.717640
0.889897
0.781417
0.895858
0.790954
0.714660
0.911951
0.973940
0.837445
1.024604
0.813603
0.838637
0.919700
0.956655
0.817776
0.878572
0.932813
0.934601
1.143813
0.976920
1.085997
0.930429
0.933409
1.049638
1.030564
0.942945
1.176000
1.072884
1.130700
1.112819
1.109838
1.137853
1.141429
1.237988
1.355410
1.373887
1.400709
1.361966
1.579523
1.761913
1.921654
1.886487
2.295971
2.558827
2.981424
5.032420
24.204850
69.683790
214.281678
426.985621
859.460831
1015.870571
1015.870571
1015.870571
1015.870571
1015.870571
1015.870571
1015.870571
660.423636
383.397937
151.816607
60.147643
12.748837
6.066561
5.046725
5.037785
4.885793
4.879832
5.158782
5.132556
5.111694
5.272627
##ZVALUE=380
0.670552
0.525713
0.525713
0.719428
0.826716
0.565648
0.612736
0.624657
0.599623
0.555515
0.575781
0.595450
0.732541
0.726581
0.709891
0.713468
0.779629
0.618696
0.706911
0.734925
0.768900
0.630617
0.665784
0.723600
0.707507
0.840425
0.819564
0.868440
0.948906
0.860691
0.941753
0.911951
0.857711
0.977516
0.763535
0.905991
0.898838
0.822544
0.786781
1.042485
0.975728
0.890493
0.898838
1.077652
0.946522
1.002550
1.044869
0.992417
1.017451
1.001954
0.909567
1.039505
1.142621
0.995994
1.007915
1.209974
1.263618
1.223683
1.296997
1.300573
1.324415
1.391768
1.424551
1.624823
1.469851
1.718998
2.009869
2.179742
2.534986
2.964735
3.066659
3.884435
9.499788
51.231980
137.716532
378.904939
675.973892
1015.871763
1015.871763
1015.871763
1015.871763
1015.871763
1015.871763
1015.871763
939.111710
488.064885
256.764889
87.148547
30.269623
7.963777
5.533695
5.584955
5.410910
5.500913
5.457997
5.120635
##ZVALUE=385
0.613928
0.666976
0.696778
0.598431
0.609756
0.650883
0.751615
0.568628
0.755787
0.718832
0.661612
0.643730
0.621676
0.596642
0.710487
0.663996
0.707507
0.716448
0.664592
0.752807
0.651479
0.807643
0.742674
0.768900
0.906587
0.910759
0.931621
0.879765
1.002550
0.952482
0.901818
0.826716
0.933409
1.047850
1.023412
1.144409
1.074672
0.928640
1.030564
1.066923
0.926852
0.958443
1.064539
1.073480
1.021624
1.038909
1.167655
1.070499
0.992417
1.163483
0.982881
1.044869
1.103878
1.245737
1.206994
1.019835
1.024604
1.099706
1.017451
1.313686
1.196861
1.205802
1.338720
1.367927
1.486540
1.654625
1.757741
2.108812
2.320409
2.214909
2.447963
2.499819
2.653599
2.881885
4.737973
25.834441
77.617764
232.647657
449.248552
889.200568
1015.947461
1015.947461
1015.947461
1015.947461
1015.947461
1015.947461
1015.947461
684.558749
405.217409
171.135664
66.874623
14.157891
6.554723
5.608797
5.672574
5.329847
##ZVALUE=390
0.569820
0.555515
0.676513
0.828505
0.612736
0.676513
0.643730
0.467896
0.692606
0.578761
0.696778
0.635982
0.598431
0.467896
0.552535
0.662804
0.645518
0.604987
0.598431
0.752807
0.547767
0.670552
0.736713
0.744462
0.716448
0.648499
0.791550
0.827909
0.767708
0.905991
0.882745
0.826716
0.936985
0.913739
0.973940
0.946522
1.015663
1.009703
0.938773
0.939965
0.952482
0.912547
0.880957
0.898838
1.004934
0.855923
1.007915
1.096725
1.125932
0.975728
1.071692
0.947714
1.021624
1.073480
1.066923
1.069903
0.923872
1.066923
1.086593
1.025796
1.130700
1.086593
1.227856
1.187921
1.389980
1.585484
1.572967
1.903772
2.029538
2.065897
2.280474
2.145767
2.229810
2.169609
2.210736
2.397895
2.941489
12.437701
43.888688
162.208676
342.519879
735.530853
1015.870571
1015.870571
1015.870571
1015.870571
1015.870571
1015.870571
1015.870571
931.359529
568.127632
244.991779
114.337802
31.882524
10.191798
5.858541
##ZVALUE=395
0.685453
0.499487
0.615716
0.659823
0.617504
0.647902
0.733733
0.562668
0.550747
0.570416
0.615716
0.651479
0.565648
0.626445
0.629425
0.600815
0.646710
0.693798
0.642538
0.674725
0.695586
0.547767
0.647902
0.773668
0.654459
0.769496
0.769496
0.677705
0.787973
0.810623
0.855923
0.901818
0.864863
0.735521
0.992417
0.941753
1.038909
1.014471
0.960827
1.005530
1.029968
1.112819
1.043677
1.016855
1.051426
1.058578
0.873804
0.904799
0.882745
1.070499
0.991821
1.020432
1.023412
1.031756
1.180768
1.070499
1.056790
0.952482
1.141429
1.024604
1.157522
1.340508
1.150966
1.466870
1.371503
1.540780
1.652837
1.801848
1.962781
1.945496
2.064705
2.176762
1.805425
1.718998
2.000928
2.143979
2.356768
2.336502
2.654791
6.945729
27.439594
118.055940
252.685547
546.837449
882.755518
1015.870571
1015.870571
1015.870571
1015.870571
1015.870571
1015.870571
1015.870571
777.339935
362.443924
178.566575
55.129528
##ZVALUE=400
0.641942
0.730753
0.626445
0.498891
0.675917
0.633597
0.520945
0.522733
0.605583
0.663996
0.721812
0.621676
0.599623
0.655651
0.667572
0.716448
0.724792
0.693798
0.883937
0.750422
0.848770
0.752807
0.733733
0.668764
0.729561
0.894666
0.893474
0.752807
0.843406
0.824928
0.856519
0.899434
0.857711
1.020432
1.040697
0.967979
0.911951
1.063943
1.093745
1.087785
1.033545
1.112819
1.029968
0.895858
1.193881
1.003742
1.055598
1.002550
1.053810
0.958443
1.092553
1.018643
1.059771
0.872612
1.149774
1.042485
1.109838
1.038909
1.071692
1.047850
1.058578
1.141429
1.155734
1.324415
1.372695
1.448989
1.602769
1.664758
1.731515
1.822710
1.686811
1.466870
1.406670
1.721978
1.658797
1.712441
1.736879
1.878738
2.043843
2.107620
2.570748
4.071593
12.946725
57.569742
144.645572
376.399755
661.821961
1015.870571
1015.870571
1015.870571
1015.870571
1015.870571
1015.870571
1015.870571
938.753486
511.187911
##END
