##TITLE=BS_C0_R2
##FORMAT=SPECTACLE-ASCII V-1.2
##DATA TYPE=ULTRAVIOLET SPECTRUM
##SECOND TYPE=ULTRAVIOLET SPECTRUM
##DATE=05/28/18
##TIME=11:24:32
##SPECTROMETER/DATA SYSTEM=SPECTACLE
##XUNITS=NM EM
##YUNITS=ENERGY
##YFACTOR=1
##FIRSTX=220
##LASTX=410
##NPOINTS=96
##3DDATA=Equidistant
##ZUNITS=NM EX
##FIRSTZ=210
##LASTZ=400
##ZPOINTS=39
##XYDATA=(Y..Y)
##ZVALUE=210
38.130879
38.106441
31.230450
27.016997
22.881627
22.802949
17.276406
14.811754
11.738539
9.898543
8.301735
6.425977
5.686879
5.864501
5.795956
6.329417
5.647540
6.267428
6.250739
7.219911
6.986856
8.320808
9.992719
11.156797
13.130903
16.214848
16.486645
17.853975
19.726753
21.260977
24.657845
26.030540
24.452806
24.574995
25.705695
25.272965
24.613738
24.157763
24.971962
25.028586
23.568869
24.555922
22.528768
20.411611
21.990538
22.393465
21.753907
19.611716
19.909739
20.596981
20.448565
19.469857
19.442439
19.197464
19.371510
18.160939
17.570853
18.082857
18.820763
18.163919
17.927885
16.008615
17.548800
17.985702
20.341873
19.781590
22.579432
26.762486
25.153756
30.396581
33.566952
37.953854
39.455891
45.624971
47.722459
46.920776
46.941638
43.798685
38.826466
34.640431
30.389428
25.297999
20.528436
17.696619
15.138984
14.142990
14.339685
16.257763
15.715957
21.759868
30.972958
43.210983
58.883429
79.851747
99.682808
123.075843
##ZVALUE=215
108.702779
105.837584
80.490708
56.643486
49.429536
40.199757
37.229657
33.555627
31.828880
28.835535
20.634532
16.731620
11.958480
9.336472
7.183552
6.362796
6.370544
6.549954
6.147623
6.688833
6.700754
7.104874
8.325577
9.784698
11.410713
14.189482
14.983416
17.901659
19.061565
22.427440
21.467805
20.903945
22.890568
22.794604
23.317933
23.921728
24.243593
25.203824
23.854971
22.223592
22.084713
22.400618
24.114847
22.401810
23.121834
22.122860
22.297502
19.915700
21.655560
21.774769
20.682812
22.094846
21.418929
22.888780
20.933747
20.982623
20.333529
19.695759
19.480586
18.864870
19.058585
19.014478
17.789602
16.699433
19.708872
19.597411
20.033717
21.139979
24.397969
25.387406
27.039647
30.343533
30.389428
33.748746
33.138990
33.008456
32.160878
29.144883
29.513836
24.416447
24.783611
20.096898
18.151999
15.433431
16.312599
14.290810
12.851954
12.655854
12.975931
11.704564
11.786819
11.428595
14.127493
17.038584
22.473931
35.919547
##ZVALUE=220
234.259963
239.639878
215.867758
172.024965
136.089921
95.025897
75.080991
57.442784
51.314831
46.948791
46.271682
42.561889
36.275983
29.042959
21.861792
16.043782
10.665655
7.811785
8.074641
6.624460
5.912781
6.259680
7.278919
7.794499
8.237958
9.506941
10.618567
12.140870
13.962984
15.420914
16.214848
16.990900
17.010570
18.048882
18.392801
18.386841
19.994974
19.477606
19.795895
19.021630
20.409822
20.941496
21.436810
20.679832
19.233823
20.323992
19.218922
19.450784
20.777583
20.163655
21.302700
20.799637
21.226406
21.925569
19.486547
20.002723
20.143986
18.159747
19.503832
20.759702
17.767549
17.994642
17.605424
18.355846
18.373728
17.954707
16.086698
20.323992
20.753741
22.407770
24.423599
25.270581
26.792884
27.746558
27.460456
26.783943
24.905801
22.754669
23.534894
19.996762
16.909838
16.051531
14.020801
12.623668
12.532473
11.883974
11.276603
9.553432
9.917617
9.986758
9.537935
9.480715
10.022521
10.039806
8.910894
9.995699
##ZVALUE=225
275.427699
280.355811
322.617888
339.077711
320.719481
277.241468
233.175755
158.067942
119.520426
81.312656
66.756606
61.407685
62.263608
61.012506
52.887797
49.068928
34.410954
27.933717
19.322634
13.046861
7.930994
6.305575
5.855560
6.258488
6.614923
7.073879
7.468462
8.546710
8.725524
8.754730
9.503961
10.208488
11.482835
12.331605
12.347698
13.663769
15.095472
14.946461
16.230941
17.334819
17.388463
16.942620
17.496943
16.961694
17.247796
17.413497
18.725991
18.447638
18.384457
19.498467
18.922687
20.504594
18.263459
19.103885
18.317699
20.070672
18.612742
18.785596
19.215941
17.696619
16.337633
17.444491
16.365647
16.421676
16.016960
16.093850
16.203523
16.638637
17.433763
19.446611
20.496845
20.292997
20.876527
22.981763
21.588802
20.653605
19.757748
16.869903
15.898943
15.270710
13.428926
12.213588
11.286736
11.044741
10.535717
9.173751
8.998513
9.076595
8.958578
8.620620
7.995963
8.586645
8.742809
8.417964
8.414984
7.524490
##ZVALUE=230
149.329901
160.169601
233.500004
337.427855
404.718518
451.900959
454.334617
396.648645
332.679749
260.230899
167.812705
121.693611
87.198615
79.392791
78.737736
79.554915
76.748729
73.089600
58.340430
45.296550
33.862591
21.966696
14.341474
9.231567
6.938577
6.616712
6.444454
6.920695
6.349683
7.419586
7.444620
7.613897
8.528829
8.788705
10.115504
10.878444
11.409521
12.651682
13.760924
14.734864
15.005469
15.517473
15.924573
16.967654
15.773773
16.236901
16.785860
16.625524
16.075969
17.056465
16.391873
16.951561
16.228557
16.531944
16.822815
16.490817
16.216636
16.281605
15.264750
15.403628
15.691519
14.566779
15.294552
15.671849
14.962554
15.383959
15.396476
15.756488
17.351508
16.639829
18.024445
19.271970
19.481778
20.371675
20.399690
18.132925
18.622875
15.935898
15.257597
13.734698
12.977719
11.989474
11.114478
9.582639
9.724498
9.511709
9.900928
8.663535
8.455515
9.839535
9.207726
9.217858
8.392930
8.402467
7.521510
8.300543
##ZVALUE=235
31.153560
38.513541
78.008771
170.511007
267.457962
393.383503
491.032004
580.748916
590.830445
539.572835
451.752543
348.181725
221.937895
157.098770
107.449889
92.137456
90.100765
94.679594
99.265575
95.989704
81.875920
70.028901
48.799515
37.483573
21.801591
14.220476
10.420680
7.486939
7.119775
6.640553
6.553531
7.239580
7.860661
8.295774
8.981824
8.506775
9.577870
10.189414
10.730624
11.673570
12.674928
12.158751
13.556480
13.015866
13.273954
13.811588
13.820529
13.795495
13.513565
14.251471
13.717413
13.805628
13.395548
14.082789
13.852715
12.785792
14.150739
14.006495
12.700558
12.797713
12.895465
13.207793
12.070537
12.311935
12.597442
12.961626
12.125969
13.022423
15.730858
14.636517
15.892982
16.856790
16.283989
16.197562
16.613603
15.720725
15.542507
14.576912
13.401508
12.805462
11.790991
11.017919
10.190606
9.714961
9.463429
9.611845
8.170605
9.002686
8.418560
8.447766
8.639693
8.668900
8.115768
7.726550
7.388592
7.753968
##ZVALUE=240
2.320409
2.372861
8.347631
23.495555
72.689652
133.425593
259.604454
384.851694
546.949506
633.571744
684.873462
651.950836
569.311976
434.467793
318.818688
192.001462
136.126876
97.385645
89.869499
97.486973
106.723905
108.766556
104.750991
92.484951
70.481896
55.360794
36.734939
25.589466
15.492439
11.025667
8.951426
7.166862
7.568598
7.606745
7.598996
8.372664
8.091927
8.482933
8.565784
9.707808
9.815693
10.073781
11.309981
10.684729
9.897947
11.056662
10.853410
10.801554
11.407733
10.711551
10.914803
10.301471
10.731816
10.484457
10.259748
10.225773
10.599494
10.174513
9.940863
10.263920
10.077953
9.932518
10.074973
9.786487
10.517836
9.636879
10.905862
10.600686
11.364818
12.369752
12.081861
12.613535
13.058782
13.124943
13.735890
12.519956
12.401938
10.724664
10.678768
9.755492
9.090900
8.822680
8.499622
7.728934
7.938743
7.552505
7.703900
6.776452
7.803440
7.192492
7.178783
7.296801
6.956458
6.685853
7.025599
6.358624
##ZVALUE=245
1.715422
1.722574
1.819730
1.900792
4.740953
13.205409
45.229793
95.742941
212.079883
327.029824
506.341457
627.183914
700.868964
724.225640
665.680766
525.710583
410.768986
263.713598
176.857710
108.605623
86.743832
85.633993
99.488497
108.603835
113.699436
107.300878
94.033480
78.838468
58.688521
42.287707
30.840635
18.765926
13.118982
9.245872
8.462667
8.026958
8.182526
7.931590
7.932782
8.348823
8.949637
9.211898
8.657575
9.120703
9.370446
9.189844
9.432435
9.528995
9.758472
9.210706
9.128451
8.795857
9.017587
8.638501
8.863807
8.675456
8.584857
8.848906
8.430481
8.180737
8.173585
8.112788
8.139610
7.511973
8.339882
8.378625
8.153915
8.353591
9.044409
9.529591
10.184646
10.125637
10.740757
10.800958
10.381937
10.182858
9.921789
8.780956
8.514524
7.884502
7.254481
6.871819
6.655455
6.745458
6.459951
6.421804
6.578565
6.234646
6.062984
6.571412
5.661845
6.695986
6.126761
5.845428
5.797744
6.188750
##ZVALUE=250
1.372695
1.484752
1.528859
1.561642
1.652837
1.998544
2.597570
7.425547
30.556917
68.965554
171.457529
284.897685
420.913696
601.835847
718.285441
780.088902
761.196613
647.338033
532.105565
345.927477
228.838921
146.555901
88.058710
76.402426
88.483691
100.575686
113.464594
117.043853
108.967423
99.871755
85.286498
64.431429
46.207905
29.159784
20.790696
12.963414
10.307431
8.421540
8.730888
8.366704
8.660555
8.957982
9.077787
9.372830
9.006858
9.166598
9.320974
9.332895
8.826852
9.063482
8.528829
8.832812
8.871555
8.596778
8.355975
7.820725
8.017421
7.417798
7.326603
7.162690
7.040501
7.077456
6.749630
6.950498
6.458759
7.250905
7.305741
7.077456
7.585883
8.518696
8.482933
8.934736
9.028912
8.641481
8.268952
7.583499
7.453561
7.317662
7.022619
6.599426
6.417632
5.869865
5.111694
5.436540
5.418658
5.430579
5.224943
5.195737
5.091429
4.938841
5.122423
4.984736
5.340576
5.565882
5.068779
5.130768
##ZVALUE=255
1.517534
1.501441
1.329780
1.315475
1.566410
1.502633
1.719594
1.827478
2.054572
3.887415
19.421577
49.285889
105.302930
235.462785
369.365811
575.083494
711.624622
829.770565
850.762725
771.493912
648.298860
499.352813
301.328897
189.478993
101.722479
76.120496
72.456002
81.664920
101.605654
113.471746
120.634437
117.606521
107.197762
85.980892
68.290830
47.165751
33.462644
20.610690
14.984608
11.341572
10.508895
9.651780
9.788871
10.039806
10.443926
9.910464
9.509921
9.875894
9.768605
9.654760
9.763837
9.370446
9.225607
8.865595
8.405447
8.056760
8.008480
7.601976
7.620454
7.128716
6.960630
6.894469
6.326437
6.597638
6.613731
6.619692
6.531477
6.758571
7.180572
7.387996
7.301569
8.251667
7.840991
7.545948
6.857514
7.059574
6.618500
6.179810
6.374717
5.379915
5.267859
5.178452
4.761815
4.612803
4.697442
4.593730
4.562736
4.737973
4.442930
4.260540
4.621744
4.402995
4.328489
4.613996
4.598498
4.685521
##ZVALUE=260
1.258850
1.112819
1.252890
1.189709
1.444817
1.440644
1.247525
1.496673
1.493692
1.589656
1.891851
2.471805
7.479787
31.407475
71.529746
176.405907
299.868584
501.769781
666.613579
855.082870
919.459462
902.550817
778.103471
620.397925
399.318933
267.356634
149.769783
94.096661
64.180493
66.321492
83.689690
99.804997
114.801526
123.309493
120.967627
109.660625
93.467832
70.034862
53.888559
35.465956
25.246739
17.344952
14.009476
11.867881
11.520982
11.510849
11.194944
11.282563
11.108518
10.933876
10.832548
10.679960
10.639429
9.438992
9.412766
9.131432
8.605719
8.064508
7.891655
7.876754
7.409453
7.580519
7.158518
6.812811
6.702542
7.176995
6.573796
6.771684
6.675720
6.810427
7.074475
6.960630
6.827712
6.899834
6.647706
6.295443
5.842447
5.705953
5.076528
4.795790
5.150437
4.738569
4.403591
4.272461
4.399419
4.469752
4.242659
4.192591
4.117489
4.102588
4.096627
4.036427
4.119873
4.155636
4.318953
4.264712
##ZVALUE=265
1.119971
1.004934
1.115799
1.129508
1.212955
1.243949
1.212955
1.297593
1.565814
1.403689
1.547933
1.692772
1.636744
1.890659
3.541708
17.929673
46.535730
129.271746
238.123536
455.070734
647.291541
825.550556
979.672670
996.685028
884.642601
744.974613
534.056425
366.926789
200.815797
123.027563
77.374578
54.318905
62.997937
86.119771
103.046894
119.964480
124.857426
121.966600
111.906528
92.664957
75.362921
53.598881
39.106607
25.765896
19.996762
15.104413
14.319420
13.206601
13.121963
12.569427
12.438893
11.974573
11.645555
11.260509
10.757446
10.166764
10.116696
9.510517
9.086728
8.628964
8.350611
8.285642
7.596612
7.286668
7.457733
7.079840
7.362962
6.968975
7.255673
7.021427
6.874800
7.204413
7.068515
6.894469
6.840825
6.173849
5.734563
5.497932
5.092621
4.908442
4.210472
4.780889
4.353523
4.125834
4.137754
4.148483
3.836751
4.012585
3.814697
3.605485
4.068613
3.923774
3.959537
4.235506
3.896952
3.966689
##ZVALUE=270
0.963807
1.148582
1.104474
1.176000
1.223683
1.150966
1.202822
1.215935
1.254678
1.141429
1.364946
1.426935
1.331568
1.539588
1.569986
1.757741
2.106428
7.831454
24.933815
86.413622
184.892416
337.304473
600.113869
805.704594
1005.496979
1015.874743
1011.434793
899.892449
676.033497
499.009490
347.243547
178.843737
102.079511
52.785873
48.608780
64.495802
82.422495
105.292797
117.595792
127.431750
125.474930
113.751888
98.624825
76.041818
58.647990
38.896799
29.710531
21.243691
17.759800
15.035868
14.544725
14.016628
13.345480
12.684464
12.793541
11.549592
11.420846
10.834932
10.237694
10.208488
9.523630
8.876920
8.525848
8.115768
8.021593
7.556677
7.550716
7.458925
7.399917
7.070899
7.189512
7.027984
7.015467
6.999969
6.705523
6.092787
5.739927
5.358458
5.440712
4.504919
4.533529
4.250407
4.376769
4.257560
3.971457
3.964901
3.932714
3.719926
4.047751
3.904700
3.641844
3.704429
3.876686
3.728867
3.757477
3.863573
##ZVALUE=275
1.078844
1.176000
1.036525
0.889897
1.043677
1.235604
1.060963
1.040697
1.091957
1.233816
1.216531
1.190901
1.204610
1.517534
1.429915
1.396537
1.576543
1.665950
1.815557
3.585815
13.174415
41.585565
138.168931
274.701715
530.634522
726.117492
951.896906
1015.870571
1015.870571
1009.645462
879.557729
634.580851
445.186496
239.693522
137.270689
63.703656
43.055415
46.336651
59.815645
83.772540
101.208687
119.668841
125.571489
124.710798
115.696788
95.127821
79.668760
58.080554
43.482780
29.926896
22.425652
17.021894
14.568567
13.732910
12.784600
11.718869
11.686683
11.245608
10.584593
10.490417
10.088682
9.412766
9.287596
8.380413
8.364916
7.703900
7.584691
7.654428
7.497668
7.495880
7.098913
7.269979
6.797910
6.869435
6.491542
6.086826
5.845428
5.531907
5.252957
4.526973
4.677773
4.487634
4.339814
4.226565
4.092455
4.169941
3.916621
3.832579
3.832579
3.820658
3.761649
3.809929
3.661513
3.880858
3.691912
3.752708
##ZVALUE=280
0.947714
0.964999
0.968575
1.041889
0.880957
0.957847
0.935793
1.156926
1.023412
1.218915
0.997782
1.127720
1.060963
1.136661
1.183748
1.329780
1.436472
1.367927
1.362562
1.585484
1.702905
2.114773
9.083748
30.478835
103.160739
207.279921
360.236764
623.886585
824.306607
1015.870571
1015.870571
1015.870571
957.234502
722.576976
537.111759
312.333703
186.931491
84.875822
47.753453
35.297871
42.706728
62.252879
79.168677
101.904869
113.914609
122.552514
120.482445
109.625459
97.142458
74.977875
58.291554
39.071441
29.013753
19.027591
15.552640
12.033582
10.596514
10.281801
9.988546
9.603500
9.241700
8.668900
8.407831
7.846951
7.905960
7.606745
7.436872
7.010698
7.235408
7.043481
7.004738
6.788969
6.223917
6.299615
6.216764
5.516410
5.404949
5.219579
5.074739
4.508495
4.544854
4.580617
4.433990
4.042983
3.953576
4.014969
3.977418
3.907681
3.900528
3.811717
3.950596
3.892779
3.625751
3.575683
3.705621
3.884435
##ZVALUE=285
0.869632
1.005530
0.954866
0.878572
1.017451
0.927448
0.938773
1.013875
0.966787
0.926852
1.120567
1.034737
1.092553
0.994802
1.073480
1.248717
1.063943
1.151562
1.274943
1.305938
1.457930
1.461506
1.719594
1.768470
3.900528
12.596846
48.248768
108.468533
256.753564
428.711772
628.764629
895.933509
1015.870571
1015.870571
1015.870571
853.143930
671.420693
420.565009
268.502831
129.109621
67.906976
31.702518
27.842522
38.522482
52.436590
75.099468
90.917945
106.550455
114.984512
115.260482
107.937455
92.287660
76.516867
54.949522
40.010810
24.609566
17.084479
11.483431
9.377599
8.105636
7.450581
7.402897
7.192492
6.541610
6.710887
6.578565
6.658435
6.406903
6.238818
6.528497
6.216764
6.114841
5.941987
5.753636
5.483627
5.464554
4.946589
4.934669
4.634857
4.435778
4.301667
4.255772
3.983974
4.190803
3.997684
3.717542
3.901720
3.840923
3.728867
3.662705
3.629923
3.851652
3.797412
3.757477
3.547668
3.438592
##ZVALUE=290
0.985861
0.798702
0.875592
0.945926
0.899434
0.884533
0.863671
0.869632
0.957847
0.940561
0.936985
0.906587
0.936985
0.995994
1.060963
1.067519
1.058578
1.057982
1.154542
1.215935
1.203418
1.171827
1.271963
1.329780
1.781583
1.810789
2.124906
5.028844
25.004745
62.642694
164.675713
300.805569
484.786630
766.345859
943.129659
1015.862823
1015.862823
948.219895
782.546997
535.400510
361.711979
184.789896
99.819899
38.630962
21.608472
22.910833
32.120943
47.842860
62.856674
83.764791
97.344518
107.960701
110.264421
102.013946
89.144707
69.491863
52.075982
35.017729
24.533868
14.526844
10.221601
7.383823
6.132722
5.591512
5.639791
5.311966
5.444884
5.153418
5.649924
5.524755
5.681515
5.427599
5.500913
5.285740
4.939437
4.746914
4.650950
4.474521
4.499555
4.176497
4.217625
3.987551
3.953576
3.863573
3.907681
3.814697
3.751516
3.862977
3.635883
3.764629
3.693700
3.759861
3.719926
3.634691
3.618598
3.755689
##ZVALUE=295
0.857711
0.867844
0.899434
0.864863
0.851750
0.969768
0.812411
0.710487
0.824928
0.872612
1.077652
1.016855
0.887513
0.912547
1.034737
1.101494
1.090765
1.016855
1.171827
1.037717
1.202822
1.142621
1.265407
1.367927
1.448989
1.375675
1.569986
1.603961
1.877546
3.011823
8.636713
40.845871
94.663501
234.750509
386.430621
638.308525
825.852752
1005.945802
1015.870571
1000.644565
872.073770
640.068650
455.111861
249.330997
140.450597
54.574609
24.952888
15.628934
19.040704
29.389858
41.759610
60.355663
75.072646
92.097521
101.052523
102.434754
97.390413
82.730651
68.961978
48.723817
35.523772
21.563768
14.457703
8.742809
6.558895
5.138516
4.811883
4.841685
4.613996
4.668832
4.755855
4.643798
4.788637
4.902482
4.632473
4.475713
4.350543
4.234910
4.065633
3.864765
3.665686
3.719926
3.858805
3.629923
3.703833
3.884435
3.989935
3.661513
3.779531
3.549457
3.720522
3.658533
3.659725
3.770590
3.597736
3.756881
##ZVALUE=300
0.736713
0.854731
0.775456
0.804663
0.849962
0.821948
0.905991
0.746846
0.910759
0.926852
0.657439
0.881553
0.796914
0.884533
0.811815
0.912547
0.899434
0.872612
0.971556
1.058578
0.874996
0.982881
1.007915
1.215935
1.068711
1.231432
1.283884
1.409650
1.431704
1.347661
1.621842
1.767874
4.584789
16.701818
64.063668
135.178566
299.839973
475.209951
732.050538
894.668698
1015.870571
1015.870571
940.476656
792.121887
544.992685
368.121862
192.725658
104.014874
39.296746
16.797781
12.523532
15.916824
25.544763
36.109686
53.362846
68.616867
85.810423
93.969703
97.489953
93.769431
80.622435
67.414641
49.601793
35.954714
22.018552
14.404655
8.712411
5.870461
4.814863
4.430413
4.428625
4.480481
4.288554
4.194975
4.189610
4.051924
3.889799
3.930926
3.775954
3.610849
3.757477
3.659725
3.857613
3.521442
3.732443
3.659725
3.456473
3.535748
3.498793
3.591776
3.483891
3.416538
3.544688
3.490448
3.666878
3.529787
##ZVALUE=305
0.783801
0.711679
0.830889
0.800490
0.747442
0.974536
0.820756
0.804663
0.646710
0.793934
0.883937
0.732541
0.816584
0.816584
0.808835
0.720620
1.128912
0.923872
0.911951
0.904799
0.804663
0.992417
0.931621
0.902414
1.107454
1.123548
1.147985
1.140833
1.249909
1.323819
1.510978
1.424551
1.652837
1.779795
2.394915
10.771751
32.703876
105.841756
203.412771
402.269959
587.282777
832.448006
976.434946
1015.884876
1005.895734
833.557844
666.430593
436.517000
280.910730
132.475495
66.108704
21.796823
10.693669
10.960698
14.753938
24.030805
34.043789
50.943494
64.273477
80.567598
88.543892
92.219710
87.812543
76.935887
64.166784
46.164989
33.702850
20.983815
13.655424
7.948875
5.972981
4.922748
4.290938
3.993511
3.887415
3.749728
3.590584
3.445745
3.427863
3.535748
3.376603
3.623962
3.561974
3.463626
3.526807
3.450513
3.302693
3.552437
3.570914
3.548861
3.403425
3.634691
3.731847
3.437996
3.326535
3.491640
##ZVALUE=310
0.689626
0.596642
0.621676
0.667572
0.808835
0.751615
0.654459
0.721812
0.695586
0.663996
0.814795
0.795722
0.793934
0.825524
0.909567
0.833869
0.785589
0.925660
0.779629
0.865459
1.064539
0.754595
0.915527
0.967979
1.102686
0.900626
1.208782
1.092553
1.068711
0.987649
1.132488
1.246929
1.337528
1.399517
1.414418
1.523495
1.803637
4.485846
16.339421
61.757565
131.124854
287.702680
459.779501
715.439916
879.998803
1015.870571
1015.870571
947.829485
804.693699
566.141605
389.574766
201.860666
110.196471
39.498806
15.601516
8.065701
9.105802
13.564825
19.687414
31.172633
42.048693
58.649778
71.816444
82.798004
87.023973
84.353685
76.504946
62.068701
48.751831
32.170415
22.939444
14.095902
8.952618
5.861521
4.573464
3.814697
3.515482
3.453493
3.325939
3.259778
3.264546
3.304482
3.098845
3.169775
3.340840
3.367662
3.331900
3.304482
3.427863
3.487468
3.455877
3.315806
3.203750
3.467798
3.307462
3.531575
##ZVALUE=315
0.613928
0.593662
0.589490
0.670552
0.576973
0.694990
0.596642
0.619888
0.691414
0.679493
0.839829
0.728965
0.693798
0.749826
0.733733
0.789762
0.953674
0.804663
0.645518
0.880957
0.852942
0.786781
0.683665
0.734925
0.929832
0.738502
0.825524
0.799894
0.926852
1.076460
1.213551
0.871420
0.988841
1.250505
1.219511
1.231432
1.495481
1.524687
1.668930
2.684593
9.167790
42.892694
96.560717
226.100683
376.246572
624.018908
791.994929
969.426632
1015.851498
1002.619863
888.282657
669.952631
491.857529
275.135636
153.469443
57.204962
23.512840
8.483529
6.880760
8.487701
11.361837
18.647909
26.387572
39.689541
52.306652
67.813993
77.065825
81.692934
80.624819
70.146918
59.870481
45.509934
33.579469
20.414591
13.420582
7.696748
5.686879
4.058480
3.525615
3.364682
3.232956
3.313422
2.846718
3.105998
3.043413
3.068447
3.102422
3.122687
3.071427
3.136992
3.152490
3.218651
3.358722
3.215671
3.479719
3.242493
##ZVALUE=320
0.665784
0.775456
0.714660
0.509620
0.804663
0.692606
0.697970
0.790954
0.642538
0.761747
0.727773
0.640750
0.600815
0.577569
0.694990
0.756979
0.809431
0.900626
0.770688
0.821948
0.804663
0.835657
0.710487
0.897646
0.955462
0.877976
1.069903
0.834465
0.907779
0.979900
0.882745
1.013875
1.056790
0.814795
1.033545
1.101494
1.170635
1.377463
1.337528
1.493692
1.421571
1.841784
3.909469
22.804737
61.663985
164.935589
279.893875
480.611920
656.826496
873.336792
984.539986
1015.851498
957.975984
772.370696
589.702725
351.284742
208.534002
90.941787
40.147901
12.123585
6.777644
6.342530
7.492900
10.322928
14.947653
24.822950
34.829974
49.420595
60.716867
72.687864
76.537728
75.531602
69.801807
55.621862
43.945909
29.728413
20.950437
12.445450
8.098483
4.908442
3.896952
3.333688
3.158450
3.135800
3.193617
2.914667
2.983809
3.073812
3.160834
3.135800
3.236532
3.375411
3.183484
3.184676
3.236532
3.321767
##ZVALUE=325
0.635982
0.729561
0.673532
0.679493
0.686646
0.677705
0.657439
0.672936
0.736713
0.725985
0.849962
0.844598
0.777841
0.871420
0.770688
0.797510
0.888705
0.903606
0.752807
0.971556
0.865459
0.821948
0.835657
0.785589
0.816584
0.937581
0.874996
1.001954
0.948906
1.019835
1.014471
0.985861
0.967979
1.186728
1.117587
1.178980
1.297593
1.246929
1.172423
1.334548
1.389980
1.530647
1.561642
1.549721
2.487898
13.960600
40.070415
113.722682
208.877921
400.065780
572.130680
797.847509
932.364464
1015.913486
991.366506
829.954743
659.464002
425.335765
267.489552
122.801661
59.156418
17.841458
7.851720
5.924702
5.987883
7.224679
9.516478
15.352964
22.591949
35.632849
46.166778
59.185624
67.322850
72.607994
71.445704
62.244534
52.738786
39.677620
29.542446
18.186569
11.978745
6.870627
5.209446
3.957748
3.368855
3.279448
3.250837
3.176928
3.035665
3.183484
3.086925
3.102422
3.193617
3.331900
3.158450
3.391504
##ZVALUE=330
0.724792
0.613928
0.607967
0.547767
0.722408
0.597835
0.650883
0.602603
0.606775
0.760555
0.705719
0.648499
0.589490
0.631809
0.752807
0.574589
0.658631
0.637770
0.661612
0.793934
0.793934
0.776649
0.736713
0.718832
0.732541
0.692606
0.774860
0.756979
0.841618
0.835657
0.822544
0.862479
0.855923
0.903606
0.875592
0.807643
0.897646
0.916719
0.973940
1.119971
1.158714
1.193881
1.231432
1.318455
1.358986
1.365542
1.637936
5.582571
20.309687
74.217916
148.716569
311.149955
471.621752
709.180832
871.761441
1001.999974
1008.874774
894.740820
751.425624
520.419478
346.997976
167.209506
86.230636
30.132532
11.639595
5.652905
5.366802
5.658865
6.565452
9.357929
13.559461
22.059679
30.951500
44.900775
53.806901
63.427687
67.209601
65.013766
60.133934
48.637986
38.725734
26.113987
18.469691
11.461973
8.060932
5.238652
4.045963
3.522635
3.255606
2.977848
3.008842
2.982616
3.158450
3.040433
3.326535
3.194809
##ZVALUE=335
0.692606
0.590682
0.494719
0.594854
0.752807
0.611544
0.590682
0.465512
0.670552
0.642538
0.670552
0.595450
0.660419
0.654459
0.486970
0.772476
0.694990
0.633597
0.828505
0.678897
0.726581
0.632405
0.690818
0.722408
0.621676
0.616908
0.726581
0.758767
0.762939
0.799894
0.883937
0.626445
0.807643
0.738502
0.838637
0.833869
0.827909
0.924468
0.854731
0.843406
0.928640
1.115799
1.048446
1.039505
1.191497
1.198649
1.245737
1.465678
1.595616
2.507567
8.867979
43.674707
99.738836
240.408778
401.290655
657.711625
843.415856
1003.004909
1015.870571
956.596732
828.349590
594.012737
421.013832
229.828954
124.055743
43.271780
17.125607
6.659627
5.451441
5.096793
5.295873
6.441474
8.429885
13.369918
19.475818
30.375719
39.304495
50.502419
58.042407
62.844753
61.077476
54.755807
47.638416
37.081838
27.895570
18.566847
12.921691
8.037686
5.641580
4.220605
3.565550
3.225803
3.286600
3.271699
3.162622
3.318787
##ZVALUE=340
0.646710
0.507832
0.586510
0.595450
0.599623
0.629425
0.640750
0.671744
0.625849
0.686646
0.677705
0.742674
0.677705
0.553727
0.666976
0.712872
0.730753
0.677705
0.546575
0.501871
0.755787
0.627637
0.715852
0.731945
0.618696
0.641942
0.648499
0.728965
0.730753
0.762939
0.683665
0.834465
0.734925
0.743866
0.687838
0.747442
0.785589
0.870824
0.845790
0.873804
0.940561
0.937581
0.931621
0.969768
0.979900
1.073480
1.099706
1.234412
1.256466
1.187921
1.364946
1.795888
4.289746
24.636984
69.478750
196.802616
350.583792
598.670840
788.474679
979.650021
1015.870571
1001.943946
891.886950
680.677891
497.702956
275.028944
156.787634
64.197779
24.644732
7.269979
5.668998
5.149841
4.959702
5.083680
5.913973
8.405447
12.067556
19.289851
26.949644
38.330555
47.184825
55.051446
58.041811
57.223439
53.401589
44.398904
36.514997
26.004910
19.276738
12.275577
8.474588
5.653501
4.457831
3.725886
3.586411
3.420711
##ZVALUE=345
0.532866
0.702739
0.675917
0.548959
0.670552
0.689626
0.705719
0.571609
0.550747
0.804663
0.560880
0.607967
0.644922
0.671744
0.592470
0.702739
0.521541
0.772476
0.768900
0.499487
0.613928
0.674725
0.664592
0.802875
0.655651
0.684857
0.623465
0.750422
0.758767
0.744462
0.827909
0.718832
0.795722
0.830889
0.662804
0.679493
0.936985
0.787973
0.986457
0.835657
0.853539
0.924468
0.898838
1.078844
1.025796
1.060963
1.076460
1.110435
1.154542
1.197457
1.316667
1.340508
1.366735
1.452565
2.622604
10.359883
53.033829
123.637915
289.474726
464.881659
737.384558
913.903713
1015.871763
1015.871763
952.674747
803.306699
567.619801
387.485623
188.845992
95.039606
30.704737
12.485981
6.057620
5.365610
4.814863
4.664660
4.397631
5.298853
7.527471
10.663867
18.060803
24.893880
33.946633
41.406751
49.999952
52.970648
53.412914
50.552487
43.079853
36.060810
26.633739
19.728541
12.690425
9.240508
6.276965
5.317926
##ZVALUE=350
0.591874
0.584722
0.635982
0.690818
0.507832
0.584722
0.626445
0.568628
0.734925
0.616908
0.527501
0.519753
0.552535
0.705719
0.675917
0.647902
0.807643
0.651479
0.563860
0.634789
0.688434
0.620484
0.777841
0.748634
0.620484
0.677705
0.713468
0.749826
0.815988
0.718832
0.764728
0.761747
0.789762
0.699759
0.699759
0.710487
0.785589
0.800490
0.839829
0.687838
0.810623
0.854731
0.883937
0.955462
0.746846
0.859499
0.899434
0.959635
1.025796
1.102686
0.934601
0.977516
1.134872
1.184940
1.339912
1.354814
1.568794
5.803704
22.143722
86.582899
185.113549
402.894616
604.833961
859.746933
1003.777981
1015.876532
1014.517546
858.152509
673.427582
423.022509
268.647671
126.991868
58.344603
15.633702
6.773472
4.951954
4.539490
4.159808
3.866553
4.119873
4.680753
6.835461
9.391904
14.972687
20.811558
29.857755
36.792755
44.590831
48.321486
49.830675
47.676563
40.632486
34.855604
25.196671
19.270778
13.134480
##ZVALUE=355
0.545979
0.605583
0.596642
0.650883
0.602603
0.593662
0.591874
0.554919
0.517964
0.575781
0.578761
0.679493
0.682473
0.635982
0.669956
0.691414
0.563860
0.593662
0.487566
0.756979
0.681877
0.545979
0.633597
0.654459
0.545979
0.696778
0.578761
0.696778
0.666976
0.607967
0.703931
0.662804
0.662804
0.660419
0.671744
0.893474
0.664592
0.806451
0.786781
0.812411
0.751615
0.764728
0.721812
0.854731
0.802875
0.767708
0.834465
0.915527
1.091957
0.989437
1.035929
0.811815
1.140833
1.137853
1.182556
1.234412
1.433492
1.370907
1.402497
2.899766
10.257959
51.384568
124.727488
300.098658
492.882729
774.676800
961.617827
1015.873551
1015.873551
916.654468
750.275850
510.123968
335.648656
157.185793
76.896548
22.748709
8.744597
4.802942
4.252791
3.963709
3.927946
3.812909
3.807545
4.425645
5.662441
8.775592
12.454987
19.013882
25.059581
32.905936
39.174557
44.427514
45.107603
43.641925
39.599538
32.614470
##ZVALUE=360
0.553727
0.643730
0.650883
0.520945
0.585914
0.692606
0.514984
0.696778
0.676513
0.626445
0.547767
0.634789
0.567436
0.593662
0.646710
0.715852
0.672936
0.629425
0.620484
0.648499
0.701547
0.769496
0.656843
0.708699
0.769496
0.705719
0.649691
0.733733
0.714660
0.731945
0.670552
0.760555
0.725985
0.695586
0.883937
0.907779
0.777841
0.819564
0.889897
0.854731
0.942945
0.867844
0.908971
0.810623
0.914931
0.865459
0.896454
0.887513
0.913739
0.921488
1.017451
1.045465
0.969768
1.053810
1.207590
1.237988
1.069903
1.411438
1.303554
1.533628
1.530647
2.005696
4.487634
23.272634
70.192814
211.652517
377.816558
650.493503
870.335698
1015.870571
1015.870571
1002.975702
857.887864
601.076484
414.474607
213.992596
114.904642
41.935444
15.315413
5.410910
4.458427
4.102588
3.921986
3.689528
3.552437
3.544688
3.874898
4.880428
6.582737
10.294914
14.540553
21.879673
27.295947
34.968853
39.008856
41.602850
##ZVALUE=365
0.568628
0.613928
0.564456
0.677705
0.485778
0.587702
0.751615
0.651479
0.640750
0.587702
0.619888
0.640750
0.518560
0.435710
0.538826
0.789762
0.686646
0.635982
0.547767
0.602603
0.673532
0.556707
0.668764
0.706911
0.749826
0.732541
0.639558
0.634789
0.740886
0.684857
0.810623
0.734925
0.644922
0.749826
0.702739
0.666976
0.758767
0.811815
0.791550
0.824928
0.758767
0.878572
0.787973
0.775456
0.885725
0.912547
0.834465
0.744462
0.906587
0.998974
0.946522
0.877976
0.919700
1.031756
0.971556
0.948906
1.084805
1.094937
1.253486
1.069903
1.344681
1.364946
1.632571
1.873970
2.463460
10.480881
37.314892
133.656859
271.652937
530.526638
744.822621
972.985029
1015.870571
1015.870571
910.812020
681.425929
498.870611
286.255479
162.989497
62.695742
24.786592
6.813407
4.466772
3.934503
3.677607
3.491640
3.486872
3.178716
3.164411
3.323555
4.016757
6.010532
8.339882
12.779832
17.191768
23.894906
##ZVALUE=370
0.562668
0.468493
0.611544
0.544786
0.466704
0.522733
0.726581
0.555515
0.597835
0.615716
0.612736
0.595450
0.606775
0.590682
0.591874
0.575781
0.592470
0.614524
0.655651
0.709891
0.522733
0.607967
0.583529
0.791550
0.591874
0.651479
0.679493
0.701547
0.675917
0.696778
0.675917
0.505447
0.618696
0.776649
0.660419
0.663996
0.794530
0.716448
0.652671
0.563860
0.772476
0.702739
0.695586
0.688434
0.808835
0.650883
0.753999
0.789762
0.758767
0.808835
0.842810
0.786781
0.922680
0.823736
0.891685
0.900626
0.914931
0.989437
0.988841
1.058578
1.142621
1.140833
1.337528
1.393557
1.493692
1.577735
2.061725
5.403757
20.416975
88.907480
197.145939
425.034761
645.483732
910.657644
1015.871763
1015.871763
971.939564
761.486888
574.437976
339.246988
200.121999
82.257986
37.338734
11.994839
5.274415
3.665686
3.436804
3.278852
3.286600
2.976656
3.078580
2.959967
3.155470
3.988743
5.097985
7.519722
##ZVALUE=375
0.610948
0.563860
0.567436
0.599623
0.572801
0.573993
0.607967
0.635982
0.474453
0.633597
0.599623
0.662804
0.666976
0.542998
0.626445
0.617504
0.423789
0.668764
0.701547
0.576973
0.525713
0.563860
0.830889
0.785589
0.666976
0.820756
0.739694
0.582933
0.676513
0.627637
0.828505
0.704527
0.675917
0.695586
0.666976
0.786781
0.761747
0.750422
0.751615
0.843406
0.690818
0.755787
0.660419
0.845790
0.723600
0.763535
0.634789
0.852942
0.851750
0.810623
0.740886
0.757575
0.697970
0.805855
0.885725
0.889897
0.729561
0.796914
0.809431
0.908971
0.942945
1.008511
0.844598
1.021624
1.227856
1.240969
1.274943
1.480579
1.736879
3.209710
9.200573
44.200420
117.628574
305.978656
503.883958
786.709785
951.638818
1015.880704
1009.447575
842.599869
662.972927
421.254039
277.300477
140.635967
71.936846
22.441745
8.097887
3.759861
3.517866
3.114939
3.067851
3.044605
2.827644
2.893806
2.839565
2.858639
##ZVALUE=380
0.569820
0.525713
0.274777
0.473857
0.451803
0.412464
0.426769
0.459552
0.537634
0.396967
0.517964
0.536442
0.578761
0.500679
0.531673
0.523925
0.553727
0.553727
0.464916
0.636578
0.544786
0.605583
0.643730
0.671744
0.516772
0.664592
0.555515
0.534654
0.697970
0.761747
0.646710
0.616908
0.631809
0.796914
0.689626
0.643730
0.718832
0.645518
0.732541
0.705719
0.699759
0.638962
0.825524
0.809431
0.605583
0.820756
0.708699
0.666976
0.620484
0.638962
0.713468
0.691414
0.753999
0.599623
0.785589
0.737906
0.699759
0.753999
0.805855
0.791550
0.889897
0.796914
0.858903
0.848770
0.898838
0.964999
1.028776
1.142621
1.393557
1.599789
1.620650
2.081990
5.291700
30.851960
84.491968
223.276615
395.329595
679.503679
874.173641
1015.833020
1015.833020
904.858708
753.743649
537.768602
372.497439
193.718672
103.629827
36.855936
14.115572
4.530549
3.548861
3.260970
2.905726
2.889633
2.944469
2.728701
##ZVALUE=385
0.482798
0.558496
0.507832
0.671744
0.480413
0.553727
0.421405
0.592470
0.629425
0.539422
0.504851
0.585914
0.620484
0.486970
0.545979
0.702739
0.492930
0.442863
0.642538
0.500679
0.494719
0.685453
0.644922
0.561476
0.515580
0.660419
0.668764
0.698566
0.730753
0.737906
0.607967
0.644922
0.808835
0.695586
0.800490
0.674725
0.849962
0.667572
0.871420
0.712872
0.739694
0.740886
0.763535
0.719428
0.646710
0.737906
0.702739
0.631809
0.729561
0.707507
0.828505
0.682473
0.785589
0.730753
0.803471
0.815988
0.764728
0.802875
0.830889
0.753999
0.784993
0.741482
0.928640
0.927448
1.003742
0.953674
1.129508
1.289845
1.204610
1.298785
1.334548
1.534820
1.494884
1.610518
2.599955
13.318658
44.626594
143.944621
287.234783
553.174615
764.257908
972.066522
1015.871763
986.706614
875.248909
655.163527
477.683544
275.283456
163.860917
69.733858
28.380752
7.108450
3.688931
3.184676
3.256798
3.009439
##ZVALUE=390
0.479817
0.463724
0.451803
0.477433
0.483990
0.522733
0.372529
0.325441
0.561476
0.497699
0.420809
0.533462
0.476837
0.553727
0.592470
0.424981
0.496507
0.555515
0.429749
0.631809
0.584722
0.616908
0.721812
0.655651
0.595450
0.542998
0.599623
0.764728
0.705719
0.623465
0.697970
0.722408
0.817776
0.889897
0.788569
0.836849
0.853539
0.890493
0.771880
0.690818
0.816584
0.655651
0.614524
0.841618
0.838637
0.689626
0.779629
0.768900
0.655651
0.756979
0.657439
0.819564
0.863671
0.686646
0.803471
0.689626
0.745654
0.756979
0.861883
0.828505
0.743866
0.749826
0.867844
0.884533
0.863671
0.941753
1.135468
1.163483
1.169443
1.126528
1.320839
1.345873
1.334548
1.393557
1.375675
1.519918
1.797676
6.181598
24.205446
99.967718
216.806531
454.832911
651.715994
880.596638
1002.283692
1015.865803
973.720551
785.482526
609.865785
384.680629
233.529806
100.605488
47.084689
12.927651
5.085468
3.502965
##ZVALUE=395
0.629425
0.579953
0.696778
0.642538
0.630617
0.636578
0.623465
0.773668
0.625849
0.635982
0.651479
0.750422
0.558496
0.648499
0.625849
0.538826
0.521541
0.661612
0.613928
0.459552
0.653863
0.648499
0.682473
0.569820
0.700951
0.851750
0.715852
0.768900
0.816584
0.851750
0.838637
0.710487
0.899434
0.970960
0.752807
0.827909
1.009703
0.898838
0.810623
0.898838
0.853539
0.956655
0.804663
0.891685
0.942945
0.805855
0.972748
0.872612
0.921488
0.966787
0.904799
0.899434
0.788569
0.839829
0.698566
0.792742
0.882745
0.871420
0.848770
0.854731
0.728965
0.876784
0.802875
0.925660
0.998974
0.999570
1.017451
1.034737
1.183748
1.307726
1.292825
1.189709
1.317859
1.253486
1.209974
1.276731
1.292825
1.578927
1.625419
3.760457
13.747811
66.520572
148.314834
323.725939
514.003634
796.039701
967.606902
1015.957594
1015.957594
920.702815
736.115575
476.850867
309.387445
144.422650
71.519613
24.000406
##ZVALUE=400
0.714660
0.602603
0.483990
0.538826
0.614524
0.520945
0.391603
0.602603
0.519753
0.511408
0.552535
0.525713
0.575781
0.401735
0.419617
0.684857
0.663996
0.543594
0.599623
0.543594
0.352859
0.506639
0.549555
0.533462
0.596642
0.661612
0.582933
0.652671
0.628829
0.788569
0.664592
0.800490
0.694990
0.821948
0.705719
0.876784
0.836849
0.759959
0.839829
0.752807
0.836849
0.788569
0.710487
0.902414
0.875592
0.655651
0.814795
0.797510
0.825524
0.763535
0.793934
0.775456
0.795722
0.886917
0.813603
0.835657
0.822544
0.747442
0.751615
0.878572
0.818968
0.824928
0.922680
0.821948
0.950694
0.927448
1.012683
0.916719
1.079440
0.967979
1.085997
1.054406
1.152754
1.145601
1.165867
1.089573
1.061559
1.056790
1.121759
1.324415
1.467466
2.124906
6.362796
30.810833
83.550811
227.291584
398.857594
671.387911
870.248675
1015.870571
1015.870571
981.417894
826.494694
569.077730
388.610959
206.265450
##END
