##TITLE=BS_C5_R5
##FORMAT=SPECTACLE-ASCII V-1.2
##DATA TYPE=ULTRAVIOLET SPECTRUM
##SECOND TYPE=ULTRAVIOLET SPECTRUM
##DATE=05/28/18
##TIME=11:43:56
##SPECTROMETER/DATA SYSTEM=SPECTACLE
##XUNITS=NM EM
##YUNITS=ENERGY
##YFACTOR=1
##FIRSTX=220
##LASTX=410
##NPOINTS=96
##3DDATA=Equidistant
##ZUNITS=NM EX
##FIRSTZ=210
##LASTZ=400
##ZPOINTS=39
##XYDATA=(Y..Y)
##ZVALUE=210
55.505633
55.800676
40.263534
32.780766
25.260448
25.462508
20.280480
19.118786
13.657808
11.469722
8.815527
8.936524
9.823442
9.592772
8.931756
9.236932
10.814667
10.028481
10.347962
11.301637
12.263656
14.122725
16.436577
17.232895
20.122528
24.064779
23.144484
26.669502
28.582811
29.141903
30.354857
32.716990
31.510592
31.713843
34.601688
34.861565
35.927892
34.210682
37.000775
35.974979
36.496520
35.189986
37.634969
34.671426
36.082864
35.220981
36.473870
35.205483
35.859942
35.272837
36.394000
37.150979
37.529469
37.083626
34.426451
34.234524
35.091639
33.822656
36.186576
34.433603
36.338568
35.809875
36.105514
35.947561
38.845539
41.332841
44.388771
52.151680
63.462853
71.790814
78.055859
91.300607
94.397664
101.481676
105.315447
108.398795
106.706619
102.023482
92.163682
82.846880
71.151853
60.106516
49.351454
44.525862
36.488771
32.223463
31.283498
30.644536
32.739639
37.417412
52.347779
73.098540
101.709962
129.445791
171.211958
200.923681
##ZVALUE=215
201.437473
192.521811
140.613914
103.976727
72.868466
53.764582
42.910576
36.609769
32.732487
28.032660
22.564530
18.633604
15.902519
12.702942
9.892583
8.927584
8.538961
10.314584
9.724498
11.628866
10.543466
12.131929
15.356541
14.632940
17.046928
19.153953
19.837618
24.171472
25.533438
26.896596
28.898716
29.674768
32.446980
32.620430
32.338500
34.426451
32.940507
35.289526
33.994913
34.408569
33.606887
35.598874
35.405755
35.175681
35.480857
34.205914
34.736991
35.281777
34.210682
35.774708
33.058524
34.287572
35.056472
35.537481
32.357574
35.720468
33.826828
34.946799
35.298467
33.956766
35.575628
32.415986
35.317540
33.257604
34.223795
36.242604
40.172935
41.981936
51.884651
54.668784
58.717728
67.820549
72.424412
71.218610
76.697469
74.763894
73.594451
67.988634
61.267614
52.506924
51.319599
44.754744
37.845969
31.815767
27.060509
28.339624
24.074912
24.440885
24.921894
24.023652
23.014545
23.082495
26.254654
28.389692
44.195652
55.076480
##ZVALUE=220
422.919989
425.269604
394.125581
326.200724
258.329511
170.407891
126.148462
81.360936
61.355829
51.961541
47.573447
45.785904
37.303567
31.541586
24.577975
20.175576
14.588833
11.653900
10.761619
10.014772
9.852648
10.789633
11.174679
12.668967
13.054609
15.325546
16.776919
17.913580
18.514991
21.400452
22.589564
23.705959
24.656653
27.094483
28.003454
31.685829
32.412410
32.225847
34.139752
35.075545
34.009814
33.976436
34.839511
33.381581
36.166906
34.677982
35.475492
34.465790
33.192635
35.381913
35.705566
34.862757
36.716461
34.815669
34.921765
36.167502
35.730600
34.083724
34.625530
34.412742
33.899546
35.251975
33.819675
35.495758
31.961799
34.420490
37.369728
38.981438
42.323470
48.091412
51.920414
56.251884
57.655573
57.312846
58.623552
58.021545
54.389834
48.539639
44.779778
40.040612
37.093759
32.017827
27.503967
24.990439
23.846626
22.434592
21.440983
20.257831
21.544695
20.369887
19.843578
17.285943
19.374490
17.997622
18.952489
16.827583
##ZVALUE=225
484.025478
498.892665
587.874651
630.496740
601.480603
517.678857
425.332785
290.242434
202.856660
136.673450
87.232590
70.412755
67.806840
63.808560
57.996511
50.803423
40.287971
31.809807
23.525953
15.145540
12.032986
10.508895
9.830594
10.536909
11.044741
12.361407
11.765957
13.340712
14.121532
14.863610
16.684532
18.047690
19.882917
22.113919
24.012923
26.930571
26.383996
27.994514
30.729771
29.968619
32.276511
31.778812
32.007694
32.575727
31.958818
32.292604
33.534765
32.812953
33.749938
33.524632
33.191442
35.141706
32.493472
33.287406
33.842921
34.698844
32.992959
32.553673
32.888651
32.982826
32.855868
32.507777
31.588674
30.533671
32.433867
36.335588
35.815835
36.770701
37.965775
41.997433
42.824745
45.341849
47.487617
48.821568
47.277808
44.968724
39.908886
38.308501
36.071539
31.390786
28.788447
25.237799
23.088455
22.185445
20.135641
19.515753
19.671917
18.049479
18.753409
17.786622
17.188787
16.209483
16.829967
16.644597
16.574860
16.947985
##ZVALUE=230
273.551941
298.443437
444.846749
664.870739
811.644793
910.421014
924.736857
824.104548
689.159036
531.314611
319.816470
205.496550
121.446848
96.141696
86.579919
83.742738
80.963969
77.066422
67.045689
49.452782
38.067698
24.664998
18.860698
13.564825
11.677742
11.101961
10.401607
11.041760
11.260509
13.808608
13.225675
14.319420
16.684532
18.008947
18.861890
21.014810
22.378564
24.375916
25.789738
25.944710
28.182864
27.627945
27.910471
29.731989
29.028654
28.613806
28.304458
28.674603
29.534698
28.853416
29.538870
30.938983
29.364824
30.751824
30.860901
29.297471
30.868649
30.944943
31.561852
29.636621
30.151606
28.567910
28.389692
28.102994
29.201508
29.994845
30.907989
32.168627
34.796596
36.148429
38.250685
39.704442
41.130781
40.944815
40.911436
40.139556
36.304593
33.397675
30.208826
27.273893
24.548769
23.336411
21.803975
19.812584
19.258857
17.544627
17.683506
17.141700
16.362667
16.929507
17.026663
15.688539
16.830564
15.304685
15.257597
15.833974
##ZVALUE=235
54.844618
65.190792
141.196847
318.459868
508.095026
780.289769
986.653566
1015.870571
1015.870571
1015.870571
972.352028
756.602883
477.286577
316.303968
184.417963
124.494433
103.339553
100.901723
102.710724
101.748705
87.381601
73.650479
53.531528
39.978623
25.021434
18.705726
15.128851
12.155771
11.093616
10.734797
11.270642
12.204647
12.798905
13.963580
14.680624
16.166568
17.494559
18.213987
18.485785
19.588470
20.909905
21.017790
21.860600
21.534562
22.101998
22.564530
22.812486
22.761822
22.955537
23.648739
22.408962
24.184585
23.112893
22.849441
23.826957
23.078918
23.448467
23.648739
23.534894
23.843646
24.163723
22.492409
22.914410
22.525787
22.235513
22.799969
25.716424
25.600791
28.165579
32.533407
33.123493
34.886599
36.102533
34.760833
34.034848
32.637715
29.973984
27.052760
26.262999
24.239421
21.069646
19.178987
18.691421
17.899871
17.175674
15.682578
16.394854
15.319586
15.332699
15.238523
14.382601
14.400482
14.636517
14.664531
14.785528
14.488697
##ZVALUE=240
3.234744
3.715754
12.607574
55.239797
126.119852
292.164683
489.337444
835.545659
1015.870571
1015.870571
1015.870571
1015.870571
1015.870571
1005.078554
714.811683
476.550460
263.562799
171.226859
117.408633
107.430816
109.750628
116.882920
110.154748
93.320608
75.930953
56.435466
43.291450
28.838515
21.475554
15.216470
12.286901
12.188554
11.389852
12.140870
13.329983
13.573766
13.641715
13.936758
15.046597
16.140938
15.752912
15.919805
15.564561
16.718507
16.832948
17.295480
17.089844
17.035604
17.627478
17.235875
17.324686
18.078685
17.215610
17.479658
17.445683
16.956925
17.961860
16.708970
17.910600
17.287731
17.624497
16.751885
17.110705
17.014742
17.577410
18.993616
20.190477
20.933747
22.819638
24.486780
26.206970
26.752949
27.878881
29.289722
28.110743
26.008487
25.288463
22.615790
21.525621
19.089580
17.447472
16.128421
16.528964
14.402866
14.451742
14.297962
13.955832
14.056563
14.329553
13.762712
13.784766
13.582706
13.185740
12.877584
13.014674
13.095737
##ZVALUE=245
2.427697
2.272725
2.677441
2.849698
8.281469
26.425719
95.749497
208.988786
473.510623
741.210580
1015.870571
1015.870571
1015.870571
1015.870571
1015.870571
1015.870571
1001.184583
662.856698
435.308814
227.661729
141.043663
105.580688
106.811523
114.056468
118.309855
113.737583
100.185871
84.898472
63.090920
47.053695
35.052896
23.066998
16.211867
13.482571
11.187792
12.136698
12.613535
13.230443
13.057590
12.603998
13.376474
13.923645
13.701916
14.673471
14.782548
14.484525
14.015436
14.107823
14.752746
14.850497
14.247894
14.688969
15.157461
13.926625
14.351606
14.053583
14.478564
14.794469
15.311837
13.525486
14.686584
14.416575
14.391541
14.413595
14.459491
16.080737
16.282797
16.608834
18.684864
19.826889
21.721721
23.181438
23.044944
23.528934
23.360848
21.409988
19.958615
18.368959
17.188787
15.281439
15.960932
14.061928
12.572408
12.627840
12.599826
12.218952
11.527538
11.709929
11.040568
10.971427
11.711717
11.764765
11.998415
11.818409
11.261702
11.472702
##ZVALUE=250
2.059937
1.889467
2.245903
2.235770
2.418756
2.834797
4.562736
14.675856
68.745613
156.949759
396.203995
666.279793
971.289873
1015.870571
1015.870571
1015.870571
1015.870571
1015.870571
1015.870571
918.174982
603.442788
364.948511
174.521804
109.801888
95.101595
105.865598
117.618442
123.405457
117.020607
104.939938
91.541409
68.803430
51.720738
33.665895
25.231838
16.677976
14.408827
13.203621
12.845993
13.034940
14.158487
13.793707
13.807416
14.439821
14.438629
14.494658
14.416575
13.795495
14.306903
13.620853
13.875961
14.144778
13.774633
13.889670
13.398528
13.538599
12.953877
13.475418
13.237000
13.483763
13.224483
12.653470
12.501478
13.777614
13.489723
13.436675
14.457703
15.234947
16.422868
17.977953
18.668771
19.389987
19.604564
20.104647
18.944740
18.419623
17.598867
15.998483
15.005469
14.059544
13.065934
11.568666
11.377931
10.771751
10.312796
10.464787
10.144711
10.269880
9.438992
9.879470
9.320974
9.893775
9.928942
9.869933
9.488463
9.629726
##ZVALUE=255
2.122521
2.029538
1.971722
2.075434
2.344847
2.392530
2.331734
2.677441
2.929568
8.981824
34.152865
124.490857
260.313749
574.885011
879.879594
1015.870571
1015.870571
1015.870571
1015.870571
1015.870571
1015.870571
1015.870571
779.507756
483.886003
229.461789
129.874945
91.395974
91.173649
103.912950
120.512843
124.191642
122.915506
109.743476
92.251897
74.961782
52.676797
38.692951
25.779605
20.053983
15.853643
15.127659
15.387535
15.077591
15.441775
14.957786
15.226603
14.747977
14.778972
14.546514
14.978647
14.997721
14.403462
14.411807
13.919473
13.650656
13.555884
13.912916
13.287663
13.525486
13.057590
12.931824
12.791753
12.832880
13.142824
12.690425
13.515949
13.335943
14.451742
14.988780
16.457438
16.467571
17.341971
17.508864
17.150640
17.220974
15.801787
15.560985
14.197826
13.225675
12.120605
11.640787
10.354519
9.981990
9.685755
9.283423
8.698702
8.923411
8.868575
8.765459
8.629560
8.468628
8.343458
8.767843
8.952618
8.385777
8.297563
##ZVALUE=260
1.806617
1.626611
1.755953
1.765490
1.946688
2.008677
2.207756
2.371669
2.315640
2.715588
2.705455
4.409552
14.938712
68.239570
166.362524
341.577530
725.747943
1015.870571
1015.870571
1015.870571
1015.870571
1015.870571
1015.870571
1015.870571
1015.870571
730.759501
446.649790
201.555490
113.949776
79.193711
87.521672
108.991861
120.915771
128.557682
127.128959
113.260746
100.075603
75.203776
59.537888
42.125583
30.316710
23.124814
19.999743
17.929673
17.411709
17.462969
16.710758
16.763806
16.925931
16.737580
16.623735
16.856790
15.784502
15.820861
15.525818
14.761686
14.595985
14.670491
14.875531
14.205575
14.199615
13.674498
13.810992
13.681650
13.736486
13.979673
13.910532
14.569759
14.814734
15.555620
16.296506
16.740561
16.674995
16.394854
16.286969
14.874935
14.097691
13.146996
12.315512
11.385679
10.646582
9.735823
9.470582
9.051561
9.353757
8.819699
8.422732
8.695722
8.312464
8.684993
8.354783
8.170605
8.141994
7.874966
7.718801
8.417964
##ZVALUE=265
1.570582
1.833439
1.604557
1.688600
1.704693
1.746416
1.824498
2.004504
2.142787
2.303720
2.240539
2.566576
2.841949
3.200769
6.766915
39.285421
106.035471
290.962458
535.000563
994.913578
1015.794873
1015.794873
1015.794873
1015.794873
1015.794873
1015.794873
1015.794873
1012.793779
590.641499
335.826874
175.734758
81.578493
71.691871
92.548728
109.323859
128.196478
133.389831
131.202936
119.607449
100.413561
82.636476
60.018897
45.650601
32.877922
26.719570
21.597743
20.709634
19.507408
18.994808
19.144416
18.491745
18.172860
18.293858
18.045902
17.914772
17.088652
16.765594
16.359687
16.317964
15.507936
15.171766
15.288591
14.731884
14.603734
14.289618
14.794469
14.696717
15.119910
15.355945
16.021729
16.424656
17.135739
16.779900
16.290545
15.481710
14.607906
13.443828
13.271570
12.403727
10.916591
9.874701
9.848475
9.237528
8.516908
8.763671
8.449554
8.010864
8.188486
8.050799
7.704496
7.352829
7.859468
7.816553
7.623434
7.786751
7.549524
##ZVALUE=270
1.493692
1.374483
1.681447
1.597404
1.726747
1.689792
1.711845
1.825690
1.905560
1.994967
2.109408
2.322793
2.485514
2.513528
2.843738
3.198981
4.391670
13.137460
43.939948
168.458819
365.766883
818.267465
1015.870571
1015.870571
1015.870571
1015.870571
1015.870571
1015.870571
1015.870571
1015.870571
949.202776
480.044484
257.108808
101.056695
65.635443
72.250962
89.524984
113.323927
128.443837
137.370825
135.946870
122.035742
108.650923
84.296465
67.960620
47.490597
37.207603
28.560758
24.655461
22.471547
21.693707
21.123886
20.262599
19.963980
19.406676
19.177794
18.890500
18.248558
17.449856
17.398596
16.872883
16.812682
15.954971
15.952587
15.654564
15.366673
15.226603
15.191436
15.979409
16.324520
16.670823
16.825795
16.613603
16.559958
15.708804
14.650822
13.777614
12.743473
11.835694
10.574460
10.591745
9.593964
9.380579
9.041429
8.958578
8.059740
8.042455
8.358955
7.656813
7.762909
7.682443
7.428527
7.399917
7.181764
7.536411
7.364750
##ZVALUE=275
1.411438
1.494884
1.532435
1.586676
1.409650
1.505613
1.783967
1.749992
1.546741
1.763701
1.991987
2.017617
2.005696
2.214909
2.400875
2.516508
2.446771
3.051758
3.374815
6.974936
28.064847
90.246797
289.349556
571.864843
1015.871763
1015.871763
1015.871763
1015.871763
1015.871763
1015.871763
1015.871763
1015.871763
1015.871763
703.058839
392.746925
151.339769
76.197982
56.993961
70.572495
93.650818
110.098720
128.766894
135.466456
136.266947
125.880837
104.565620
87.906718
67.142844
51.859617
37.846565
29.815435
24.322867
22.556782
21.179914
20.210743
19.695759
18.875599
19.181967
18.973947
17.450452
17.695427
17.035604
16.744733
16.686916
16.381741
15.597939
15.826821
15.719533
15.962720
16.683936
16.774535
16.634464
16.710758
16.163588
16.120672
14.791489
13.991594
12.088418
11.532903
10.846853
10.672808
9.628534
9.653568
8.853674
8.656979
8.550882
8.235574
7.803440
7.982850
8.050799
7.526875
7.677674
7.446408
7.260442
7.095933
7.283688
##ZVALUE=280
1.255870
1.320839
1.356602
1.503825
1.309514
1.321435
1.362562
1.476407
1.805425
1.662970
1.798868
1.718998
1.858473
1.871586
2.012849
2.142787
2.180934
2.469420
2.412796
2.951622
3.368855
3.928542
16.910434
62.367916
220.141411
430.874825
1015.868783
1015.868783
1015.868783
1015.868783
1015.868783
1015.868783
1015.868783
1015.868783
1015.868783
977.236032
502.695441
254.494548
93.207955
53.091645
50.993562
69.905519
87.585449
109.513998
122.665763
132.665634
129.580498
118.018985
104.146600
82.559586
65.032840
50.722957
35.327673
27.805567
21.611452
19.413829
18.301606
17.547607
17.419457
17.135739
16.850829
16.448498
16.041994
15.704632
15.496612
15.396476
15.517473
15.591979
15.568733
15.538931
15.500784
15.849471
15.406609
15.031695
14.430881
13.739467
12.931824
12.409687
11.062622
10.752678
10.077953
9.959936
9.358525
9.080768
8.816719
8.908510
8.257627
8.100867
8.282661
7.668734
7.518530
7.547736
7.205606
7.101893
7.156730
7.321835
##ZVALUE=285
1.182556
1.272559
1.192689
1.250505
1.400709
1.278520
1.320839
1.583695
1.355410
1.402497
1.530647
1.388788
1.482964
1.757741
1.688600
1.875758
1.960993
1.935959
2.136827
2.498627
2.596974
2.694726
3.055930
3.623962
8.133650
29.711723
115.629435
263.384581
615.858436
974.444747
1015.871763
1015.871763
1015.871763
1015.871763
1015.871763
1015.871763
1015.871763
1015.871763
789.394975
368.360877
178.044438
61.131716
37.585497
46.078563
60.008764
81.796646
98.413825
113.154650
120.489001
122.596622
116.015673
98.109841
82.917809
61.002970
46.058893
31.427741
23.865700
17.943978
16.065836
14.933944
14.309883
14.130473
14.104843
13.961792
13.636947
13.548732
13.920665
13.975501
13.913512
13.756752
14.438629
14.417768
14.199615
13.799667
13.283491
12.780428
12.075901
11.551976
10.476708
10.089874
9.740591
9.354949
9.196997
8.806586
8.685589
8.088946
8.485913
8.290410
8.008480
7.769465
7.626414
7.552505
7.133484
7.237792
7.277727
7.234812
##ZVALUE=290
1.227856
1.342893
1.321435
1.262426
1.356602
1.406670
1.339912
1.320839
1.388788
1.532435
1.396537
1.384616
1.410842
1.420975
1.708865
1.756549
1.543760
1.899600
1.777411
2.022982
2.070665
2.251863
2.594590
2.686977
2.930760
3.120899
4.431605
11.104941
59.892535
158.096552
335.216522
755.437016
1015.870571
1015.870571
1015.870571
1015.870571
1015.870571
1015.870571
1015.870571
1015.870571
1005.187035
537.795424
276.277661
92.040896
37.621856
28.940439
37.948489
53.140521
68.421960
89.607835
103.520751
114.882588
116.499662
108.723640
96.108913
75.715780
59.181452
40.232539
29.611588
20.353794
15.822649
12.823939
12.321472
11.699796
11.483431
11.363626
12.059808
12.043715
12.193918
12.336969
12.855530
12.822747
12.931824
12.249947
11.787415
11.498928
11.031628
10.053515
9.769797
9.201765
9.105802
8.898973
8.488894
8.434653
8.178949
7.907748
8.010864
7.839799
7.796884
7.448792
7.381439
7.486939
7.304549
7.140636
7.205606
7.038713
##ZVALUE=295
1.064539
1.048446
1.112819
1.170635
1.124740
1.204610
1.238585
1.424551
1.345873
1.318455
1.253486
1.223683
1.284480
1.429915
1.424551
1.613498
1.730919
1.574755
1.771450
1.821518
1.846552
1.876950
2.146959
2.208948
2.231598
2.597570
2.867579
3.143549
3.832579
5.485415
28.688908
91.736913
229.053497
591.752529
967.419744
1015.870571
1015.870571
1015.870571
1015.870571
1015.870571
1015.870571
1015.870571
1015.870571
733.504891
403.221846
142.265558
55.449605
22.138953
23.050904
34.266710
45.684576
65.573454
80.010891
97.429752
106.609464
109.725595
102.483630
88.437796
73.558688
54.442883
40.688515
26.696920
19.403696
13.790727
11.404753
10.096431
9.846687
9.977818
10.472536
10.946989
11.063814
10.866523
11.114478
10.518432
10.777712
10.059476
9.275675
8.957982
8.621812
8.372664
8.084774
8.045435
7.945895
8.009672
7.593632
7.503629
7.322431
7.422566
7.316470
7.148981
6.944537
7.205606
7.205606
7.167459
7.210970
7.409453
##ZVALUE=300
1.169443
1.161695
1.062751
1.121759
1.131892
1.113415
1.144409
1.146793
1.345873
1.112819
1.249909
1.246929
1.208782
1.378655
1.301765
1.344681
1.360774
1.428723
1.498461
1.691580
1.655817
1.924634
1.814961
1.950860
1.910925
2.291799
2.416968
2.434850
2.758503
2.974868
3.275871
3.795624
10.829568
44.350624
175.904632
371.521711
808.991790
1015.871763
1015.871763
1015.871763
1015.871763
1015.871763
1015.871763
1015.871763
1015.871763
963.498950
597.714782
263.386965
111.199617
38.679838
17.108917
19.616485
29.006600
40.145516
58.673620
73.433518
90.400577
99.885464
103.397965
98.424554
86.343884
72.942972
54.331422
40.901899
26.285648
18.942952
13.235807
10.744929
9.523630
9.859800
9.832978
9.958744
9.725690
9.702444
9.370446
8.831620
8.640885
8.248687
7.911921
7.684827
7.687807
7.384419
7.154942
7.359982
7.198453
6.978512
6.879568
7.148981
6.896853
6.904602
6.909966
6.932616
6.923676
6.924868
6.990433
7.312894
##ZVALUE=305
1.035929
1.108646
1.083612
0.952482
1.125932
1.003742
1.083612
1.226664
1.147985
1.142621
1.344681
1.112819
1.196861
1.283884
1.365542
1.310706
1.340508
1.282692
1.421571
1.466870
1.546741
1.679659
1.732707
1.643896
1.773834
1.720786
2.016425
2.191663
2.344847
2.437830
2.497435
2.904534
3.126860
3.706813
4.973412
27.823448
89.949965
294.427872
564.188957
1015.870571
1015.870571
1015.870571
1015.870571
1015.870571
1015.870571
1015.870571
1015.870571
1015.870571
854.605436
384.027958
179.306865
49.693584
18.767715
15.310645
18.845797
28.526783
38.674474
55.176616
68.765879
84.769726
93.552470
97.631812
93.671679
81.785917
69.337487
51.704645
38.673878
25.162697
18.113852
12.700558
11.018515
9.785891
9.720922
8.712411
8.738637
7.979870
7.898808
7.473826
7.288456
7.293820
7.056594
6.930828
7.006526
6.831884
6.911755
6.936789
6.612539
6.825924
6.745458
6.794930
6.828904
6.758571
7.114410
6.829500
6.978512
6.969571
##ZVALUE=310
0.923872
1.137853
1.039505
1.014471
0.989437
0.974536
1.130700
1.116991
1.054406
1.104474
1.024604
1.103878
1.034737
1.187921
1.176596
1.351833
1.286864
1.347661
1.274943
1.415610
1.389980
1.413822
1.545548
1.641512
1.658797
1.742840
1.782775
1.857877
1.921654
1.960993
2.128482
2.368689
2.447963
2.760887
2.971888
3.167987
3.754497
11.222959
40.956736
166.979432
361.905694
816.901922
1015.870571
1015.870571
1015.870571
1015.870571
1015.870571
1015.870571
1015.870571
1015.870571
1015.870571
609.148741
321.263671
104.215741
34.358501
12.555718
13.378859
17.399788
23.466945
34.983754
46.374798
64.315796
75.780749
87.007880
92.121959
89.229941
81.484914
66.760778
53.354502
36.885738
27.651787
18.488765
13.748407
10.118484
8.931756
8.140802
7.576942
7.106662
6.830692
6.604791
6.526709
6.640553
6.486773
6.534457
6.463528
6.788969
6.787777
6.424785
6.727576
6.667972
6.846786
6.724000
6.531477
6.933808
6.797910
6.571412
##ZVALUE=315
0.844598
1.065731
0.979900
0.894666
0.918508
1.084805
1.047850
0.924468
1.108646
1.123548
0.956655
0.997782
1.225471
1.261830
1.201630
0.946522
1.032948
1.113415
1.210570
1.298785
1.424551
1.313686
1.433492
1.428723
1.440644
1.539588
1.646876
1.829863
1.847744
1.904964
1.925826
2.042651
2.130866
2.273917
2.373457
2.606511
2.843738
3.271699
3.488660
5.457997
19.239783
97.678900
240.540504
607.225895
991.243720
1015.874743
1015.874743
1015.874743
1015.874743
1015.874743
1015.874743
1015.874743
1015.874743
829.082727
453.303456
159.936547
57.120919
15.244484
11.355877
12.337565
14.946461
22.207499
30.220747
43.972731
57.029724
72.934628
81.704855
85.929632
84.798932
75.326562
65.256953
50.070882
38.175583
24.979711
17.675757
11.471510
8.922815
7.363558
6.479621
6.251931
6.191730
6.143451
6.180406
6.060600
6.097555
6.022453
6.173849
5.972981
6.247759
6.205440
6.182790
6.360412
6.671548
6.690621
6.944537
6.929636
##ZVALUE=320
0.920892
0.845790
0.909567
0.820756
1.035929
0.963807
1.092553
1.073480
1.014471
0.925660
1.007915
1.181960
1.116991
1.142621
1.069903
1.208782
1.151562
1.054406
1.158714
1.035929
1.209974
1.284480
1.113415
1.352429
1.329780
1.370907
1.546741
1.444817
1.577735
1.600981
1.879930
1.700521
1.755953
1.867414
2.170801
2.266765
2.254844
2.480745
2.540946
2.963543
3.208518
4.067421
8.543730
51.397681
148.162842
441.010594
784.497857
1015.871763
1015.871763
1015.871763
1015.871763
1015.871763
1015.871763
1015.871763
1015.871763
992.428064
621.400476
260.399580
109.150410
25.256872
11.477470
10.293722
10.907650
14.028549
18.544793
28.855801
38.709641
53.594708
65.193772
77.197552
81.725717
80.301762
74.382424
60.202479
48.649907
32.711625
23.942590
15.196800
10.906458
7.838607
6.841421
6.308556
5.732775
5.772710
5.776882
5.553961
5.702972
5.695820
6.037951
5.974770
6.095767
6.263852
6.533861
6.756783
6.948709
6.699562
##ZVALUE=325
1.032948
0.896454
0.784993
0.952482
0.896454
0.941753
0.878572
0.845790
0.907779
0.922680
0.887513
1.041889
1.038909
1.120567
1.102686
1.130700
1.213551
1.229644
1.167655
1.164675
1.315475
1.174808
1.250505
1.187921
1.235604
1.329780
1.513958
1.396537
1.383424
1.439452
1.657605
1.491904
1.744628
1.689792
1.900792
1.903772
2.023578
2.107620
2.142787
2.348423
2.518892
2.857447
3.155470
3.443956
5.200505
29.540658
90.549588
284.840465
555.994511
1015.874743
1015.874743
1015.874743
1015.874743
1015.874743
1015.874743
1015.874743
1015.874743
1015.874743
811.298490
358.752608
165.151954
42.144656
14.303923
9.324551
9.367466
10.411739
12.748837
18.746853
25.949478
39.554834
50.551891
63.568950
71.682930
76.765418
75.141788
66.154599
56.767464
43.071508
32.103658
20.278692
14.086962
9.295940
7.189512
6.389618
5.803704
5.526543
5.500913
5.461574
5.574822
5.760789
5.965829
6.159544
6.421804
6.427765
6.546974
6.664991
##ZVALUE=330
0.815988
0.843406
1.023412
0.914931
0.940561
0.876784
1.023412
0.925660
0.946522
1.121759
0.965595
0.968575
0.957847
0.992417
1.002550
1.128912
0.895858
1.072884
1.014471
1.076460
1.230836
1.083612
1.222491
1.237988
1.384616
1.248717
1.292825
1.349449
1.356602
1.357794
1.459718
1.616478
1.690984
1.646876
1.690984
1.734495
1.600981
1.872778
1.972914
2.206564
2.092719
2.425909
2.590418
2.807975
2.832413
3.387928
3.889799
11.440516
42.003989
170.944929
368.150473
835.498571
1015.870571
1015.870571
1015.870571
1015.870571
1015.870571
1015.870571
1015.870571
1015.870571
1010.271907
513.821840
257.138014
80.703497
24.990439
9.396672
8.887649
8.814931
9.642839
12.987852
17.032623
25.397539
34.342408
47.805905
57.541728
67.026615
70.638657
68.923831
63.222647
51.367879
40.830970
28.740764
21.056533
14.040470
10.245442
7.392764
6.196499
5.694628
5.599856
5.523562
5.839467
6.197691
6.296635
6.664991
6.610751
6.676912
##ZVALUE=335
0.922680
0.798702
0.783801
0.888705
0.999570
0.728965
0.988841
0.967979
0.777841
0.846982
0.971556
1.048446
0.919700
1.016855
1.023412
0.878572
1.063943
0.945926
0.954866
1.051426
0.994802
1.012683
1.293421
1.074672
1.085997
1.174808
1.188517
1.202822
1.147985
1.343489
1.450777
1.403689
1.407862
1.440644
1.465678
1.567602
1.614690
1.576543
1.674891
1.721978
1.960993
1.998544
2.004504
2.116561
2.418756
2.689958
2.811551
3.215671
3.551841
5.874634
19.884706
97.625852
234.227777
599.636436
990.502834
1015.870571
1015.870571
1015.870571
1015.870571
1015.870571
1015.870571
1015.870571
1015.870571
733.865499
382.654667
123.178959
42.022467
11.818409
8.956790
8.630753
8.753538
9.830594
11.371970
16.462803
22.683740
33.593774
42.603612
53.489804
61.055422
65.546632
64.352751
57.758689
49.833655
39.522648
30.546784
20.921826
14.934540
10.186434
7.874966
6.640553
6.212592
6.127954
6.104708
6.502867
6.503463
6.594658
##ZVALUE=340
0.683665
0.809431
0.858903
0.875592
0.761747
0.698566
0.785589
0.752807
0.934601
0.776649
0.818968
0.964999
0.852942
0.820756
0.861883
0.851750
1.017451
0.882745
1.072884
1.066923
1.058578
1.029968
0.926852
1.044869
1.047850
1.172423
1.235604
1.156926
1.163483
1.276731
1.346469
1.271963
1.265407
1.207590
1.406670
1.513958
1.386404
1.554489
1.649857
1.524687
1.651645
1.767874
1.841784
1.943707
2.041459
2.118945
2.328753
2.568960
2.709627
3.054738
3.236532
3.960729
9.745955
57.805777
161.538720
462.654829
837.197900
1015.864015
1015.864015
1015.864015
1015.864015
1015.864015
1015.864015
1015.864015
1015.863419
901.939869
502.526760
194.251537
68.830848
14.585853
9.598732
8.801818
8.691549
8.304715
8.745790
10.806918
14.246702
21.492839
29.331446
40.678978
49.654841
57.886839
60.545802
60.239434
55.849552
46.950579
38.941503
28.712749
21.299720
14.753938
10.960698
7.855892
7.184744
6.824732
6.550550
6.551743
##ZVALUE=345
0.873804
0.907779
0.821948
0.771880
0.915527
0.775456
0.777841
0.957847
0.797510
0.840425
0.793934
0.738502
0.840425
0.935793
0.923872
0.970960
0.841618
0.927448
0.860691
0.830889
0.880957
1.030564
1.003742
1.004934
1.113415
0.920892
1.076460
1.106858
1.087785
1.168847
1.170635
1.134872
1.243949
1.294613
1.265407
1.246929
1.388788
1.254678
1.435876
1.440644
1.506805
1.545548
1.676679
1.766682
1.744628
1.880527
2.086759
1.984835
2.047420
2.184510
2.337694
2.864599
3.077984
3.500581
5.095601
29.464960
98.694563
312.195420
588.961840
1015.866995
1015.866995
1015.866995
1015.866995
1015.866995
1015.866995
1015.866995
1015.866995
1015.866995
687.480569
270.116925
112.281442
27.289987
11.649728
9.161830
8.403659
7.344484
7.135868
7.466674
9.106994
13.380647
18.863678
28.423667
36.087632
44.777989
50.768852
55.952668
56.918859
52.575469
47.054887
37.484765
29.870868
20.716786
15.512705
11.062622
8.827448
7.336736
##ZVALUE=350
0.826716
0.831485
0.788569
0.782609
0.745654
0.905991
0.982881
0.901818
0.867844
0.837445
0.944734
0.988841
0.851750
0.851750
0.872612
0.904799
0.922680
1.036525
1.004934
1.000762
0.929832
1.062751
1.014471
1.117587
1.070499
1.031756
0.915527
1.034737
1.185536
1.093745
1.204610
1.163483
1.062751
1.114607
1.247525
1.317859
1.355410
1.351833
1.297593
1.467466
1.427531
1.431704
1.441836
1.452565
1.647472
1.741648
1.702905
1.886487
1.911521
2.034903
2.142787
2.197623
2.387762
2.642870
2.873540
3.284812
3.921986
13.706684
50.797462
191.518068
401.729941
892.131925
1015.862823
1015.862823
1015.862823
1015.862823
1015.862823
1015.862823
1015.862823
1015.862823
852.757692
397.074819
174.295902
39.293766
12.997985
8.101463
7.301569
6.572604
5.993843
5.961657
6.491542
9.018779
11.411905
16.928911
22.525787
32.201409
39.154887
46.805739
50.848722
52.442551
49.756765
43.439865
37.447810
28.541684
22.523999
15.840530
##ZVALUE=355
0.874996
0.897646
0.908971
0.862479
0.931621
0.830889
0.923872
0.949502
1.037717
1.014471
0.847578
0.868440
0.937581
0.821948
0.927448
0.848770
0.869632
1.019835
0.768900
1.005530
1.040697
0.997782
0.935793
1.065731
1.162887
1.119971
1.008511
1.108646
1.223683
0.953674
1.133680
1.289845
1.217723
1.133680
1.337528
1.374483
1.294613
1.246929
1.374483
1.307726
1.413822
1.447797
1.584888
1.478791
1.649857
1.657605
1.529455
1.659989
1.860857
1.908541
2.057552
2.121925
2.266765
2.313852
2.338886
2.722740
2.921820
3.171563
3.524423
6.627440
24.804473
120.211840
274.869800
636.953712
1002.525687
1015.870571
1015.870571
1015.870571
1015.870571
1015.870571
1015.870571
1015.870571
990.187526
481.327772
227.389932
60.454607
18.531680
8.086562
7.273555
6.568432
6.077886
5.687475
6.049871
6.357431
7.296801
10.895729
14.359951
20.460486
26.668906
36.303997
42.342544
47.594905
49.095750
47.049522
43.109655
35.864711
##ZVALUE=360
0.796914
0.895858
0.934601
0.955462
0.844598
0.887513
0.819564
0.922680
0.906587
0.938773
0.945926
0.941753
0.926852
0.907779
1.015663
1.008511
0.987649
0.944734
1.052618
0.983477
0.983477
1.018643
1.152754
1.084805
0.996590
1.037717
1.255870
1.164675
1.129508
1.109838
1.001954
1.039505
1.285672
1.339912
1.246929
1.362562
1.098514
1.348853
1.398921
1.328588
1.258850
1.521707
1.519918
1.493692
1.515746
1.582503
1.740456
1.783967
1.649857
1.746416
1.900792
1.936555
1.977682
2.124906
2.380610
2.425909
2.406836
2.576709
2.916455
3.337860
3.590584
4.769564
10.559559
56.072474
159.240961
452.628732
809.752941
1015.869975
1015.869975
1015.869975
1015.869975
1015.869975
1015.869975
1015.869975
1015.869975
658.486485
344.936848
117.266774
37.215948
9.351969
7.138848
6.397963
6.072521
5.610585
5.548596
5.424619
5.553961
6.877780
8.631945
12.714863
17.377734
24.877787
30.905604
38.065910
42.134523
45.005679
##ZVALUE=365
0.899434
0.805855
1.007915
0.925660
0.890493
0.877976
0.877976
0.887513
0.924468
0.954866
0.866652
0.877976
0.944734
0.837445
0.882745
0.860691
0.937581
1.143813
1.084805
1.033545
0.985861
0.848770
1.030564
1.060963
1.143813
1.227856
1.158714
1.228452
1.265407
1.098514
1.146793
1.263618
1.203418
1.084805
1.341701
1.194477
1.436472
1.208782
1.311898
1.495481
1.465678
1.354814
1.314878
1.425743
1.629591
1.396537
1.385808
1.508594
1.623631
1.783967
1.650453
1.555681
1.798868
2.047420
1.963973
2.167821
2.139807
2.362728
2.401471
2.564788
2.849698
3.122687
3.477931
4.060864
5.598664
27.667880
87.797046
281.383991
573.263764
1015.870571
1015.870571
1015.870571
1015.870571
1015.870571
1015.870571
1015.870571
1015.870571
901.941657
497.931838
175.806880
62.018633
12.604594
7.520914
6.291866
6.016493
5.442500
5.429983
5.178452
5.206466
5.560517
6.258488
8.831620
11.440516
16.560555
21.096468
27.924776
##ZVALUE=370
0.809431
0.895858
0.800490
0.882745
0.883937
0.829697
0.950694
0.911951
0.799894
0.878572
0.863671
0.788569
0.844598
0.976920
0.955462
0.788569
0.803471
0.909567
1.085997
0.842810
0.947714
0.998974
0.920892
0.929832
1.044869
1.002550
0.975728
0.981688
1.025796
0.960827
1.016855
1.049638
0.948906
1.252890
1.193881
1.232624
1.058578
1.134872
1.210570
1.267791
1.246929
1.130700
1.159906
1.300573
1.305938
1.159906
1.191497
1.477599
1.318455
1.338720
1.561642
1.454949
1.538992
1.532435
1.597404
1.805425
1.651645
1.664758
1.946688
2.060533
2.199411
2.335906
2.530813
2.722740
3.026724
3.419518
4.163980
13.924837
52.472949
204.814672
426.955819
907.894969
1015.870571
1015.870571
1015.870571
1015.870571
1015.870571
1015.870571
1015.870571
999.104977
624.390841
248.437524
107.175708
27.941465
9.328723
6.049871
5.904436
5.457997
5.356669
5.497932
5.619526
5.803704
6.131530
7.217526
8.417964
10.684729
##ZVALUE=375
0.616908
0.833869
0.885725
0.648499
0.863671
0.689626
0.588894
0.911951
0.938773
0.811815
0.866652
0.652671
0.761747
0.809431
0.728965
0.875592
0.859499
0.918508
0.951886
0.822544
0.808835
0.882745
0.830889
0.911951
0.921488
0.832677
0.860691
0.794530
1.071692
1.009703
0.981688
0.884533
1.047850
0.975728
1.083612
1.021624
1.091957
1.121759
1.142621
1.114607
1.140833
1.158714
1.098514
1.229644
1.034737
1.219511
1.288652
1.234412
1.200438
1.126528
1.101494
1.184940
1.423955
1.400709
1.201630
1.385808
1.520514
1.491904
1.479983
1.605749
1.751781
1.911521
1.959801
2.046824
2.315640
2.603531
2.923608
3.220439
3.899932
7.739663
25.817752
109.556913
268.288851
673.095584
1015.877724
1015.877724
1015.877724
1015.877724
1015.877724
1015.877724
1015.877724
1015.877724
873.835683
441.783667
219.349861
61.625838
18.225908
6.676912
6.052852
5.803704
6.127954
6.244779
6.393790
6.652474
6.645918
6.789565
##ZVALUE=380
0.729561
0.733733
0.796914
0.781417
0.668764
0.857711
0.716448
0.742674
0.749826
0.730753
0.779629
0.723600
0.567436
0.754595
0.686646
0.788569
0.776649
0.764728
0.543594
0.788569
0.835657
0.798702
0.857711
0.750422
0.863671
0.923872
0.897646
0.814795
0.920892
0.936985
0.899434
0.977516
0.919700
0.997782
1.039505
0.934601
1.049638
1.150966
1.223683
1.260638
1.208782
1.242757
1.141429
1.068711
1.153946
0.997782
1.364946
1.001954
1.112819
1.073480
1.096725
1.262426
1.274943
1.408458
1.280904
1.330972
1.423955
1.402497
1.488924
1.525879
1.545548
1.644492
1.849532
1.991987
1.921654
2.104640
2.356768
2.749562
3.106594
3.290772
3.735423
4.956722
13.885498
75.416565
195.562840
518.899560
903.100967
1015.870571
1015.870571
1015.870571
1015.870571
1015.870571
1015.870571
1015.870571
1015.870571
594.519973
320.369005
119.769573
40.491819
9.009838
6.706715
6.768703
6.856918
7.043481
6.891489
6.517768
##ZVALUE=385
0.617504
0.634789
0.662804
0.732541
0.597835
0.775456
0.769496
0.792742
0.723600
0.725985
0.651479
0.793934
0.835657
0.722408
0.692606
0.856519
0.818968
0.847578
0.763535
0.864863
0.642538
0.687838
0.884533
0.828505
0.822544
0.981688
0.883937
0.889897
0.937581
0.964999
1.011491
0.888705
0.983477
1.027584
1.013875
1.049638
1.007915
1.090765
1.044869
1.075864
1.128912
1.262426
1.126528
1.231432
1.028776
1.143813
1.269579
1.059771
1.117587
1.101494
1.128912
1.222491
1.127720
1.214743
1.206994
1.348853
1.290441
1.370907
1.332760
1.415610
1.490712
1.486540
1.541972
1.727939
1.911521
1.972914
2.123713
2.366900
2.668500
2.999902
3.009439
3.170967
3.170967
3.595948
6.103516
36.630630
112.380981
330.520868
643.056035
1015.883684
1015.883684
1015.883684
1015.883684
1015.883684
1015.883684
1015.883684
1015.883684
891.417861
525.558591
218.764544
84.520578
17.397404
8.182526
6.838441
6.994605
6.690621
##ZVALUE=390
0.710487
0.681877
0.642538
0.624657
0.684857
0.730753
0.715852
0.563860
0.676513
0.656843
0.819564
0.824928
0.655651
0.701547
0.638962
0.664592
0.649691
0.641942
0.754595
0.651479
0.832677
0.756979
0.801682
0.884533
0.827909
0.852942
0.855923
0.894666
1.027584
1.058578
0.997782
1.111627
1.125932
1.007915
1.111627
1.056790
0.984669
1.117587
1.176000
1.166463
1.295805
1.135468
1.146793
1.161695
1.264811
1.238585
1.198649
1.240969
1.057982
1.194477
1.287460
1.214743
1.253486
1.224875
1.237988
1.116991
1.408458
1.315475
1.324415
1.374483
1.462698
1.514554
1.519918
1.538992
1.828671
1.923442
2.070665
2.350807
2.414584
2.670884
2.646446
2.727509
2.864599
2.830625
2.928972
3.110766
3.790855
16.334653
60.663819
227.748752
478.898883
976.529717
1015.870571
1015.870571
1015.870571
1015.870571
1015.870571
1015.870571
1015.870571
1015.870571
772.584677
328.374505
151.861906
41.235685
12.872815
7.206798
##ZVALUE=395
0.774860
0.737906
0.726581
0.710487
0.617504
0.683665
0.767708
0.652671
0.775456
0.821948
0.742674
0.697970
0.514984
0.711679
0.659823
0.611544
0.629425
0.706911
0.610948
0.783801
0.664592
0.829697
0.841618
0.829697
0.805855
0.767708
0.942945
0.898838
0.870824
1.141429
0.955462
0.998974
0.931621
1.190901
1.093745
1.075864
1.062751
1.080632
1.212955
1.163483
1.138449
1.115799
1.188517
1.358986
1.247525
1.276731
1.198649
1.378655
1.121759
1.184940
1.384616
1.208782
1.275539
1.156926
1.330972
1.231432
1.297593
1.187921
1.310706
1.403689
1.491904
1.390576
1.401901
1.566410
1.715422
2.033710
1.917481
2.201796
2.497435
2.446771
2.478957
2.529621
2.496839
2.412796
2.425909
2.427697
2.680421
3.051758
3.192425
8.848906
35.832524
158.291459
340.710878
729.754567
1015.871763
1015.871763
1015.871763
1015.871763
1015.871763
1015.871763
1015.871763
1015.871763
969.289541
470.879674
228.724480
70.431828
##ZVALUE=400
0.867844
0.779629
0.545979
0.730753
0.631809
0.666976
0.818968
0.646710
0.765920
0.663996
0.659823
0.635982
0.685453
0.639558
0.545979
0.715852
0.660419
0.658631
0.772476
0.707507
0.695586
0.702739
0.900626
0.758767
0.884533
0.918508
0.876784
0.779629
0.924468
0.957847
1.083612
1.016855
1.023412
1.079440
1.134872
1.333952
1.075864
1.256466
1.196861
1.162887
1.231432
1.258850
1.121759
1.163483
1.262426
1.136661
1.192689
1.168847
1.170635
1.232624
1.283884
1.339912
1.200438
1.264811
1.171827
1.215935
1.141429
1.315475
1.315475
1.394749
1.365542
1.383424
1.388788
1.573563
1.686811
1.842976
2.031922
2.109408
2.317429
2.291799
2.271533
2.227426
2.278686
2.024770
1.955628
2.219677
2.454519
2.367496
2.597570
2.750754
3.102422
5.074739
16.378760
75.595975
194.175839
514.349937
902.057886
1015.870571
1015.870571
1015.870571
1015.870571
1015.870571
1015.870571
1015.870571
1015.870571
680.980682
##END
