##TITLE=BS_C0_R3
##FORMAT=SPECTACLE-ASCII V-1.2
##DATA TYPE=ULTRAVIOLET SPECTRUM
##SECOND TYPE=ULTRAVIOLET SPECTRUM
##DATE=05/28/18
##TIME=11:27:59
##SPECTROMETER/DATA SYSTEM=SPECTACLE
##XUNITS=NM EM
##YUNITS=ENERGY
##YFACTOR=1
##FIRSTX=220
##LASTX=410
##NPOINTS=96
##3DDATA=Equidistant
##ZUNITS=NM EX
##FIRSTZ=210
##LASTZ=400
##ZPOINTS=39
##XYDATA=(Y..Y)
##ZVALUE=210
38.563609
36.273599
30.519962
26.085973
24.578571
19.123554
19.304752
14.018416
11.782646
10.019541
6.953478
5.682707
5.317926
5.091429
5.077720
5.768538
6.225705
5.761981
6.172657
7.180572
7.270575
6.438494
9.832978
10.883808
12.576580
16.002655
18.063784
18.704534
22.896528
21.717548
23.395419
24.478436
25.575757
26.389956
25.739670
26.970506
25.391579
25.640726
24.667978
22.497773
23.434758
23.204684
22.552609
23.511648
21.492839
21.904707
21.309853
20.719767
22.750497
21.087527
20.085573
21.346807
20.332932
20.635724
19.906759
20.319819
19.899607
18.304586
19.251704
18.729568
18.490553
18.002987
18.646717
18.319488
18.469691
19.904971
22.694468
25.380850
29.796958
33.148527
36.264658
39.693713
44.067502
46.061873
45.061707
47.720671
46.973825
44.480562
42.024851
36.428571
33.134818
29.041767
23.387671
19.849539
18.802881
17.249584
15.261769
15.949607
18.602610
22.470951
28.261542
42.832494
50.656796
72.862506
89.523792
111.468434
##ZVALUE=215
112.035871
105.202794
87.351799
61.588883
51.800609
41.983724
38.184524
34.700632
29.948950
27.667880
21.468997
17.347932
11.835694
10.061860
6.120801
6.068945
5.806684
6.313920
6.355643
6.993413
7.704496
7.850528
9.005666
10.426641
12.418628
15.379786
16.565919
20.173788
19.702911
23.414493
23.365617
24.437904
25.337934
25.839806
27.945638
26.060939
26.769638
26.250482
24.523735
24.610758
25.088787
25.490522
24.736524
23.258924
23.557544
23.437738
24.658442
24.335980
23.414493
22.439957
22.196770
21.182895
21.818876
22.043586
22.618771
22.130609
22.311807
22.935867
22.785664
20.545721
19.363761
20.320415
21.161437
20.570755
19.963980
20.139813
22.481680
23.363829
26.214719
29.736757
32.740831
36.122799
36.630630
39.202571
41.892529
40.402412
36.660433
32.372475
32.399893
30.996799
27.742982
21.516681
22.394657
18.231869
16.668439
15.353560
15.857816
14.383793
12.951493
13.714433
13.402700
14.128685
14.771819
18.239617
23.142695
36.252737
##ZVALUE=220
245.905519
240.826607
228.361487
184.963942
148.918629
104.930997
79.635978
59.446692
50.245523
48.253536
46.635866
43.381453
35.502911
28.291941
22.850633
17.151833
11.764765
9.011626
7.120967
6.758571
7.326603
7.013679
8.621812
8.194447
10.596514
11.017919
12.894869
13.650656
15.158653
16.314983
16.937852
17.109513
17.952919
19.486547
20.315647
20.885468
21.422505
22.861958
22.771955
22.317767
22.091866
22.803545
23.398995
23.299456
22.635460
23.423433
22.302866
22.535920
22.899508
23.916960
22.948980
22.171736
23.014545
20.793676
22.439957
22.035837
21.806955
21.312833
20.338893
21.740794
19.681454
20.987988
20.016432
19.400716
20.260811
19.832850
22.066832
21.227598
22.306442
25.760531
28.717518
29.321909
31.685829
33.401847
29.640794
28.961897
28.172731
27.388930
25.428534
22.478700
22.463799
17.759800
17.342567
15.489459
15.109777
14.572740
13.577938
12.001991
12.589693
10.720491
11.147857
11.448860
10.570884
12.809634
11.711717
11.649728
##ZVALUE=225
295.397639
294.512510
351.753831
368.184447
348.436832
302.643776
249.186754
169.530511
122.924447
86.009502
69.685578
63.381791
62.742829
61.107874
55.651665
45.938492
37.941933
28.241873
20.658970
12.042522
10.079741
7.432699
7.832646
6.377697
7.465482
8.189678
8.469820
9.487867
9.932518
10.146499
12.074709
12.141466
12.992620
14.317632
14.388561
16.566515
16.582608
16.811490
17.653704
19.140840
19.930601
19.909739
21.104813
19.844770
21.739602
20.045638
20.424724
22.299886
22.777915
21.588802
22.208691
21.263957
21.516681
21.390915
20.457506
21.683574
20.111799
20.652413
20.997524
19.689798
19.951463
19.148588
18.391609
18.146634
18.469691
19.304752
20.478964
19.896626
21.194816
21.870732
24.268627
25.696754
25.758743
27.079582
25.419593
24.371743
23.560524
21.068454
20.018816
18.015504
17.343760
14.622808
13.221502
12.972951
12.506843
11.572838
12.014508
11.288524
10.628700
10.679960
10.404587
10.394454
10.284781
10.003448
9.397864
10.683537
##ZVALUE=230
169.592500
189.185739
275.431871
394.506454
470.724702
522.041917
519.515872
460.719466
386.025906
293.988585
187.254548
128.234625
90.865493
82.385540
77.762604
81.797838
77.582598
74.340701
63.159466
47.133565
35.550594
21.565557
14.936924
9.737611
7.066727
7.469654
6.998777
7.384419
8.352995
7.596612
8.483529
8.475780
8.936524
9.290576
10.899901
12.378693
13.127923
14.597774
14.712811
16.409755
16.078949
17.768741
17.811656
18.783808
18.651485
18.097758
19.375682
18.527508
18.513799
18.842816
19.882917
18.004775
18.450618
18.798709
18.811822
18.874407
17.255545
16.435981
17.820597
17.534494
16.598701
17.221570
16.499758
15.689731
16.120672
17.046928
17.357469
17.569661
18.747449
21.082759
21.105409
22.857785
21.766424
22.014976
22.116899
21.521449
20.338893
19.263625
19.097924
15.956759
14.616847
14.097691
12.262464
12.091994
12.370944
11.602640
10.436773
11.166930
10.020733
10.399818
11.601448
9.715557
9.738803
9.837747
9.701848
9.563565
##ZVALUE=235
33.884645
39.672852
99.684000
179.270506
319.954753
440.339446
588.907003
677.274466
694.456697
652.365685
521.810651
410.112739
299.703479
183.005929
128.723979
96.173882
93.126893
95.957518
98.678470
95.640421
85.388422
72.293878
51.231980
38.142800
22.749901
15.567541
10.640621
9.058714
7.230639
7.062554
7.042885
7.697940
8.521676
8.987784
9.276867
10.770559
10.671616
11.669993
12.944937
13.861656
13.529658
13.731718
15.130639
15.327930
15.251637
16.237497
15.469790
16.091466
15.671849
15.461445
15.913844
15.421510
15.815496
15.962720
15.002489
15.117526
14.625788
15.284419
14.540553
14.140606
14.254451
13.919473
13.570786
14.122725
14.011860
15.059710
14.108419
15.820861
16.822815
17.906427
18.679500
19.034743
20.510554
21.289587
20.972490
18.878579
18.689632
16.645789
15.444756
13.136864
13.150573
12.776852
12.026429
11.157990
10.981560
10.277629
9.572506
10.147691
9.653568
10.069609
10.232925
9.751916
9.130836
10.311604
10.124445
9.786487
##ZVALUE=240
2.475977
2.589822
10.260940
28.125644
82.905889
158.700943
313.602686
460.857749
666.573644
770.022869
845.467448
812.429786
723.730922
548.758507
407.098532
247.223973
167.267919
110.226870
96.045732
99.427700
106.540918
110.993981
103.969574
90.662837
71.952939
55.941939
37.933588
27.873516
16.334653
11.286736
9.267926
8.107424
8.226633
8.401871
8.305907
8.644462
9.218454
9.606481
10.399818
10.317564
11.116862
11.868477
12.304783
12.091994
12.534857
12.523532
13.222694
12.480617
13.120770
12.278557
12.777448
12.400746
12.153983
12.532473
12.268424
11.793971
12.735724
11.702776
11.645555
11.455417
11.318922
11.524558
11.637807
11.411905
12.191534
11.856556
12.280941
12.732744
13.774633
14.978647
15.218854
16.720891
17.385483
17.187595
16.887784
16.193986
15.545487
15.071630
13.765693
12.349486
11.749864
11.318922
10.433793
10.113716
9.681582
9.140968
8.817911
8.935928
9.430647
9.157658
8.806586
9.282827
9.493828
9.118915
9.407997
8.306503
##ZVALUE=245
1.798868
2.023578
1.930594
2.150536
5.381703
17.241836
58.868527
125.380754
284.114480
431.983471
668.406487
826.243758
920.816660
949.607491
880.802870
710.923672
557.767749
361.668468
238.946676
135.967731
99.401474
91.717839
101.217628
113.045573
114.820600
111.148953
96.723437
82.444549
59.617758
43.498874
32.479763
19.770861
14.136434
9.758472
9.555817
9.513497
9.194613
8.917451
9.886622
9.872913
10.365844
9.994507
11.163950
10.675788
10.825992
11.030436
10.818839
10.782480
11.054873
10.947585
11.358857
9.997487
10.790825
10.852814
11.093616
9.782910
9.970665
10.099411
10.247827
9.819865
9.615421
9.570718
10.015965
9.925961
9.720922
10.066628
10.731816
11.085868
11.303425
12.203455
13.345480
13.539791
13.954639
14.281869
13.819933
13.507605
12.277961
12.021661
11.140704
10.292530
9.551644
9.053946
9.189844
8.561611
8.072853
8.508563
7.909536
8.502603
7.877946
7.791519
7.863641
7.693768
7.692575
8.478761
7.959604
7.487535
##ZVALUE=250
1.593828
1.580715
1.900792
1.890659
1.762509
1.957417
3.177524
8.808970
40.839911
94.125867
230.795741
387.029648
568.662882
811.221004
965.851545
1015.870571
1015.870571
903.673768
742.701888
496.340990
322.474837
202.023983
109.116435
86.729527
89.408755
101.193786
114.065409
117.745996
111.792684
102.130771
82.431436
64.549446
48.504472
30.773878
21.944642
14.345646
11.440516
10.099411
9.909868
10.169744
10.298491
10.397434
10.699630
11.278987
10.591745
10.722876
11.187792
10.500550
10.790825
10.546446
10.239482
10.074973
10.525584
9.842515
10.476708
10.049939
10.214448
9.238720
9.576678
9.245872
9.317994
9.312630
9.606481
8.508563
9.153485
9.764433
9.347796
10.348558
10.568500
11.569858
11.838675
12.366772
12.194514
12.199879
12.410879
11.474490
11.604428
10.876656
10.024905
9.106994
8.835793
8.331537
7.672906
7.738471
7.276535
7.427931
7.276535
6.757975
7.221699
7.181764
7.151961
6.850958
6.962419
6.647706
7.121563
7.378459
##ZVALUE=255
1.396537
1.492500
1.422763
1.578927
1.437664
1.721978
1.749992
1.927614
2.216697
3.816485
21.324754
59.673786
165.473819
289.177895
515.783429
734.140873
993.830562
1015.870571
1015.870571
1015.870571
951.049924
670.594573
466.862917
252.067447
144.979954
85.597634
75.511932
88.436604
102.190971
115.385652
120.951533
117.323995
107.117891
88.042617
68.912506
48.936605
35.274625
22.726655
16.636848
12.720823
11.723638
11.989474
11.673570
11.905432
11.693835
11.556745
12.061596
11.572838
11.787415
11.565685
11.352897
10.798573
11.000633
10.607839
10.903478
10.165572
10.254979
9.574890
9.364486
9.501576
9.361506
8.936524
9.249449
8.440614
8.716583
9.015799
9.181499
9.415746
9.922981
10.123849
10.528564
11.045933
11.060834
11.018515
10.811687
10.330677
9.801984
9.235740
8.274913
8.200407
7.793903
7.287860
6.990433
7.042885
6.905794
6.833673
6.960630
6.545782
6.539822
6.329417
6.318688
6.064773
6.252527
6.321669
6.945729
6.448627
##ZVALUE=260
1.405478
1.334548
1.473427
1.571774
1.511574
1.459718
1.623631
1.685619
1.751781
1.983643
2.205968
2.787709
8.649826
38.484931
90.899467
231.414437
389.670730
667.392015
897.140503
1015.939713
1015.939713
1015.939713
1015.939713
907.859802
588.519573
390.758514
209.314823
122.313499
73.192716
68.885684
85.334778
102.224946
116.986632
126.541853
122.659802
110.753775
96.080899
71.934462
55.431724
37.605762
27.263761
19.671917
16.070604
14.061928
14.004707
13.419986
13.660789
13.405681
13.432503
12.395978
12.788773
12.384653
12.610555
11.904836
11.420846
11.378527
10.889769
10.581613
10.545850
10.132790
9.697676
9.239912
9.405613
9.044409
9.018779
9.284616
9.066463
8.972883
9.599924
9.652972
9.957552
9.854436
10.401607
9.725690
9.336472
9.283423
8.660555
8.321404
7.798672
7.483959
6.979704
6.690621
6.246567
6.353855
6.226897
6.197691
6.071925
6.237626
6.040931
6.001592
5.758405
5.790591
5.639791
5.753636
5.892515
5.829930
##ZVALUE=265
1.160502
1.225471
1.316667
1.358986
1.241565
1.526475
1.408458
1.374483
1.436472
1.626611
1.532435
1.837611
1.928806
2.103448
4.527569
23.971796
62.191486
165.274739
303.907990
579.471588
828.807950
1015.870571
1015.870571
1015.870571
1015.870571
1015.681624
763.269663
540.030599
295.808911
172.359943
99.110603
61.968565
65.190792
87.554455
104.352832
123.306513
128.209591
125.207901
115.516782
94.944835
77.173710
55.338740
41.536689
28.885603
22.533536
18.129945
16.717911
15.681982
15.382767
15.277863
14.848709
14.896989
14.018416
13.434887
13.298988
12.971759
12.468696
11.891723
11.549592
10.647774
10.790825
10.438561
10.242462
9.704828
9.457469
9.230971
9.452701
9.522438
9.237528
9.683967
9.959936
9.951591
9.845495
9.669662
9.672642
8.829832
8.241534
7.506609
7.286668
6.968975
6.403923
6.437898
5.975962
5.947948
5.930662
5.820990
5.346537
5.519986
5.561709
5.456805
5.321503
5.340576
5.392432
5.347729
5.453825
5.352497
##ZVALUE=270
1.163483
1.126528
1.156926
1.189709
1.285672
1.177788
1.241565
1.395941
1.498461
1.394749
1.507998
1.538992
1.514554
1.756549
1.855493
2.142787
2.582669
10.204911
32.358766
110.553503
224.164724
467.048883
728.511810
985.254645
1015.871763
1015.871763
1015.871763
1015.871763
969.239473
730.435848
438.968539
267.729759
122.700930
69.360733
52.531958
63.903928
87.019801
104.622841
123.118758
129.620433
128.155947
119.180679
99.244714
83.114505
60.145855
45.059919
32.080412
25.316477
19.883513
18.325448
16.843677
16.738772
15.996695
15.771985
14.846921
14.472604
13.619661
13.230443
12.396574
12.260675
11.757612
11.277795
10.867715
10.192990
10.266900
10.000467
9.911656
9.738803
9.545684
9.639859
9.642839
9.962916
10.108948
9.705424
9.199977
8.846521
8.196831
7.845759
7.280707
7.208586
6.441474
6.170869
6.152987
5.783439
5.778670
5.761981
5.511642
5.428791
5.104542
5.499721
5.276799
5.316734
5.019903
5.363822
5.229712
5.249977
##ZVALUE=275
1.061559
1.071692
1.128912
1.143813
1.124740
1.027584
1.302958
1.172423
1.330972
1.282692
1.340508
1.441836
1.397729
1.572967
1.582503
1.772642
1.905560
2.056956
2.249479
4.214644
16.431808
51.969886
165.840983
325.331688
637.801886
890.450478
1015.870571
1015.870571
1015.870571
1015.870571
1015.870571
925.638080
657.799840
349.818468
199.327469
86.552501
52.900910
49.262643
63.635707
86.554885
103.596449
122.117996
129.497647
127.144456
119.527578
99.667907
82.518458
62.367916
47.639608
33.109784
25.611520
19.912720
17.843843
16.374588
15.176535
14.815927
14.300942
13.438463
13.246536
12.559891
12.024641
11.641979
11.264682
10.885596
10.730624
10.082722
10.215640
9.711981
9.684563
9.910464
9.693503
9.791851
9.488463
9.520650
9.085536
8.613467
8.360744
7.795691
7.134676
6.584525
6.784797
6.272793
5.979538
6.164908
5.700588
5.677938
5.659461
5.663633
5.612969
5.256534
5.246997
5.207658
5.208850
4.902482
5.184412
5.087852
##ZVALUE=280
1.159906
1.015663
0.982881
1.033545
1.184940
1.049638
0.957847
1.245737
1.173615
1.348853
1.146793
1.305938
1.233816
1.203418
1.259446
1.438856
1.482964
1.655817
1.548529
2.008677
2.235770
2.512932
9.346604
35.108924
124.431849
240.851641
480.083823
722.642541
1015.870571
1015.870571
1015.870571
1015.870571
1015.870571
1015.557647
789.767504
453.292727
269.433856
118.106604
62.354803
39.493442
45.529604
64.547658
81.604719
103.186965
118.079782
126.213431
125.172734
114.046931
100.364685
77.630877
61.814785
42.221546
32.276511
22.131801
17.155409
14.406443
13.397932
12.923479
12.338758
12.061596
11.490583
11.090636
10.887980
10.545850
9.893775
9.877682
9.844899
9.585619
9.761453
9.368658
9.375811
9.002686
9.350777
8.942485
8.320808
8.278489
7.741451
7.462502
7.183552
6.780624
6.653666
6.398559
5.966425
6.098747
5.818605
5.647540
5.885959
5.734563
5.651712
5.330443
5.199909
5.229712
5.481839
5.247593
5.308986
5.327463
##ZVALUE=285
0.917912
0.782609
0.987649
0.919700
0.845790
1.042485
0.946522
1.017451
1.134872
1.016855
0.924468
1.036525
1.114607
0.981688
1.206994
1.287460
1.264811
1.357794
1.594424
1.449585
1.570582
1.642704
2.040863
1.976490
4.399419
15.419722
62.312484
139.099956
319.573879
536.539555
792.173743
1015.824676
1015.824676
1015.824676
1015.824676
1015.824676
986.251831
633.657575
401.201844
188.369751
95.440745
40.160418
30.064583
40.613413
54.446459
77.783465
92.532635
108.701587
116.310716
117.555857
111.661553
94.040632
79.050660
57.782531
42.628646
27.205944
19.167662
13.547540
11.436939
10.699630
9.848475
9.310842
9.499788
9.087920
8.794665
8.910894
8.750558
8.643866
8.980632
8.910894
8.912683
8.886456
8.912683
8.427501
8.255839
7.819533
7.496476
7.093549
6.858706
6.620884
6.120801
6.483793
6.059408
6.006956
5.937815
5.755424
5.643964
5.605817
5.852580
5.496740
5.449653
5.410910
5.309582
5.370975
5.726814
5.494952
##ZVALUE=290
1.035929
0.925660
0.841618
1.033545
1.003742
0.936985
1.070499
0.891685
1.076460
1.048446
0.917912
0.949502
0.972748
1.129508
1.213551
1.203418
1.443624
1.350641
1.373887
1.362562
1.463890
1.484752
1.636744
1.782775
1.721978
2.002716
2.443790
6.422997
32.185912
81.832409
171.218514
392.878652
645.843744
1005.479693
1015.870571
1015.870571
1015.870571
1015.870571
1015.870571
820.626616
547.164679
274.232626
143.131614
51.920414
26.101470
25.237799
33.927560
49.009919
64.541698
85.399747
98.545551
109.387636
111.617446
104.333758
91.925859
71.070790
55.023432
37.245750
25.940537
16.318560
11.837482
9.260774
8.268952
7.618666
7.640719
7.552505
7.350445
7.767677
7.711649
8.027554
7.920861
8.208752
7.987618
8.111000
7.668734
7.231832
6.938577
7.032752
6.702542
6.503463
6.478429
6.331801
6.183982
6.113648
5.963445
6.092787
5.753636
5.868673
5.681515
5.762577
5.701780
5.373955
5.531907
5.252957
5.380511
5.338788
##ZVALUE=295
0.926852
0.947714
0.805855
0.985861
0.867844
0.802875
0.997782
0.987649
1.009703
1.012683
0.870824
1.061559
1.037717
1.080632
0.975728
1.143813
1.073480
1.201630
1.123548
1.148582
1.392961
1.309514
1.546741
1.655817
1.702905
1.590848
1.861453
1.948476
2.259612
3.049970
13.969541
45.278668
113.979578
301.136971
520.911813
891.957879
1015.870571
1015.870571
1015.870571
1015.870571
1015.870571
980.704427
700.338483
367.640853
202.994943
74.594617
32.879710
17.044544
19.447803
30.877590
42.831898
60.579777
75.871944
93.915462
102.053881
104.002953
98.195672
83.843470
70.068836
50.706863
37.142634
23.071766
15.903711
10.400414
8.409619
7.075667
6.800890
6.731749
6.728768
7.101893
7.238984
7.284880
7.227659
7.200837
7.254481
6.927848
6.720424
6.614923
6.266832
6.263852
6.109476
5.858541
5.938411
5.989671
5.878806
5.742908
5.838871
5.814433
5.808473
5.789995
5.743504
5.605817
5.616546
5.375743
5.312562
5.479455
##ZVALUE=300
0.872612
0.800490
1.025796
0.790954
0.813603
0.854731
0.800490
0.879765
0.842810
0.833869
1.030564
0.983477
0.890493
0.937581
1.054406
0.947714
0.986457
1.024604
1.079440
1.008511
1.011491
1.259446
1.237988
1.295805
1.483560
1.525879
1.522899
1.625419
1.757741
1.913905
2.186894
2.384782
4.456639
25.130510
70.806742
205.864906
380.318761
720.828772
990.647674
1015.871763
1015.871763
1015.871763
1015.871763
1015.871763
887.601972
503.550768
302.809477
135.318637
61.099529
19.255877
13.279915
17.656684
24.596453
39.075613
52.475929
72.279572
85.356832
96.125603
98.200440
94.148517
84.718466
66.554546
52.577853
35.936832
25.342703
14.940500
10.808706
7.720590
6.921887
6.756783
6.724000
6.898642
6.890893
6.897449
6.714463
6.411672
6.392598
6.283522
6.246567
5.981922
5.993843
6.139874
5.964637
5.753636
6.007552
5.810857
5.641580
5.867481
5.659461
5.772710
5.361438
5.710721
5.664825
5.507469
5.700588
5.522966
##ZVALUE=305
0.844598
0.908971
0.684857
0.607967
0.895858
0.960827
0.792742
0.911951
0.957847
0.922680
0.823736
0.948906
0.978708
0.916719
0.876784
1.037717
1.046658
0.921488
1.169443
1.199841
1.162887
0.919700
0.947714
1.254678
1.121759
1.239777
1.361966
1.414418
1.559854
1.676679
1.894832
1.890659
1.874566
2.275705
2.935529
13.659596
42.820573
140.556693
277.469754
564.413667
846.005678
1015.870571
1015.870571
1015.870571
1015.870571
1015.870571
1013.190746
686.302781
434.548855
195.649862
94.918609
28.971434
12.819767
11.849999
15.491843
24.901628
35.298467
51.611662
65.310597
81.322789
88.894963
93.757510
89.371800
78.587532
66.879988
48.140883
35.789609
23.425817
15.894771
10.198951
8.426905
7.140636
6.933808
6.545782
6.375909
6.408691
5.949736
5.936623
5.774498
5.939603
5.921721
6.023645
6.017685
5.772710
5.865693
5.767941
5.925894
5.763769
5.799532
5.563498
5.440712
5.573630
5.386472
5.451441
5.448461
5.340576
##ZVALUE=310
0.794530
0.842810
0.632405
0.893474
0.838637
0.844598
0.884533
0.766516
0.800490
0.951886
0.752807
0.790954
0.868440
0.878572
0.667572
0.953674
0.823736
0.856519
1.028776
0.912547
1.037717
0.975728
1.019835
1.059771
1.172423
1.127720
1.265407
1.237988
1.241565
1.171827
1.394749
1.476407
1.522899
1.661777
1.717806
2.175570
2.208948
5.483627
19.709468
77.313781
170.198679
395.249724
643.128753
998.584628
1015.870571
1015.870571
1015.870571
1015.870571
1015.870571
883.807540
602.418780
304.551721
162.041783
54.733753
20.179749
9.276867
10.265708
14.387965
20.026565
32.016635
43.109655
60.285926
72.233677
84.441900
88.096857
85.522532
77.866912
64.364672
50.847530
34.659505
25.127530
16.289949
11.784434
8.229613
6.724000
6.362796
6.160736
5.725622
5.642772
5.691648
5.672574
5.659461
5.660653
5.611777
5.784631
5.593896
5.596876
5.686879
5.349517
5.550981
5.560517
5.416870
5.261898
5.220771
5.210638
5.177855
##ZVALUE=315
0.661612
0.748634
0.872612
0.705719
0.777841
0.800490
0.788569
0.808835
0.825524
0.634789
0.817776
0.895858
0.843406
0.853539
1.014471
0.954866
0.986457
0.788569
0.861883
1.053810
0.976920
0.964999
0.988841
0.940561
0.933409
0.924468
1.125932
1.122952
1.079440
1.317859
1.249909
1.411438
1.228452
1.521707
1.488924
1.840591
1.701713
1.923442
2.185702
3.088713
9.143949
44.404864
110.411644
283.111930
500.535965
893.909931
1015.868783
1015.868783
1015.868783
1015.868783
1015.868783
1015.868783
785.074830
427.634716
232.988596
83.791614
32.340884
10.301471
8.355975
9.513497
12.376904
19.448996
27.517676
41.001439
53.758621
68.917871
78.025460
83.031654
82.389712
73.194504
63.393712
48.247576
36.105514
22.948980
15.910864
10.189414
7.649660
6.333590
5.865693
5.657673
5.443692
5.352497
5.380511
5.348921
5.421638
5.427599
5.475879
5.406737
5.473495
5.394816
5.253553
5.320907
5.297661
5.347729
5.327463
5.211830
##ZVALUE=320
0.718832
0.716448
0.731945
0.798702
0.631809
0.717640
0.765920
0.929832
0.846982
0.726581
0.750422
0.856519
0.714660
0.856519
0.841618
0.851750
0.857711
0.859499
0.721812
0.669956
0.806451
0.906587
0.949502
0.908971
1.038909
0.905991
1.025796
1.085997
1.039505
1.135468
1.251698
1.163483
1.257658
1.287460
1.294613
1.432896
1.348853
1.622438
1.540780
1.926422
2.088547
2.357960
4.419684
22.507906
66.033602
199.524760
362.655520
667.157769
956.230760
1015.870571
1015.870571
1015.870571
1015.870571
1015.870571
951.353908
550.238490
321.202874
134.375691
57.445765
15.812516
8.172989
7.528663
8.644462
11.416674
16.145706
26.455522
36.424994
50.601959
62.750578
74.825883
78.392625
77.674985
71.612597
58.701634
46.894550
31.858683
23.220778
14.557838
10.334849
7.173419
6.041527
5.535483
5.332828
5.058646
5.141497
5.087852
5.243421
5.155802
4.980564
4.911423
4.993677
4.779696
5.000830
5.198717
5.136728
5.236864
##ZVALUE=325
0.732541
0.595450
0.666976
0.727773
0.787973
0.863671
0.693798
0.904799
0.796914
0.788569
0.689626
0.902414
0.731945
0.696778
0.658631
0.806451
0.733733
0.906587
0.836849
0.820756
0.907779
0.877976
0.981688
1.002550
0.919700
1.084805
1.004934
1.013875
1.035929
1.029968
1.141429
1.225471
1.160502
1.266599
1.414418
1.387596
1.274943
1.489520
1.416802
1.661777
1.691580
1.731515
2.037883
2.073646
2.728701
13.939738
41.476488
129.205585
258.388519
543.981791
819.456577
1015.918851
1015.918851
1015.918851
1015.918851
1015.918851
1015.918851
682.038665
425.339937
189.718008
89.594722
24.354458
9.811521
7.046461
7.119775
8.470416
10.888577
16.475916
23.749471
36.934614
47.729611
60.760975
69.027543
74.059963
72.672963
64.002872
54.946542
41.844845
31.246543
19.978881
13.929605
8.814931
7.072687
5.648732
5.376935
4.948974
4.868507
4.695654
4.883409
4.780889
4.782677
4.818439
4.949570
4.877448
4.947782
4.646778
##ZVALUE=330
0.636578
0.744462
0.685453
0.675917
0.693798
0.631809
0.579953
0.690818
0.644922
0.740886
0.599623
0.729561
0.820756
0.788569
0.814795
0.629425
0.706911
0.768900
0.836849
0.857711
0.801682
0.765920
0.889897
0.974536
0.857711
0.825524
0.907779
0.900626
0.936985
0.989437
0.888705
1.041889
1.063943
1.014471
0.972748
1.019835
1.152754
1.176000
1.169443
1.340508
1.386404
1.382828
1.552701
1.636744
1.775622
1.980662
2.236962
5.770922
19.762516
80.172420
172.922611
396.749973
637.143850
997.234583
1015.871763
1015.871763
1015.871763
1015.871763
1015.871763
846.977830
563.506484
267.815590
134.809613
44.550896
15.592575
6.973743
6.472468
6.687641
7.579923
10.994673
14.838576
23.174882
32.191873
45.806766
55.447817
65.168738
68.599582
67.102909
61.638951
50.165653
40.187836
27.645826
20.604730
13.461709
9.872913
6.791949
5.636811
4.951954
4.732609
4.629493
4.520416
4.576445
4.675984
4.653931
4.427433
4.506707
##ZVALUE=335
0.566840
0.720620
0.566840
0.602603
0.579953
0.660419
0.465512
0.786781
0.690818
0.722408
0.757575
0.658631
0.595450
0.624657
0.654459
0.660419
0.759959
0.662804
0.607967
0.757575
0.831485
0.720620
0.753999
0.814795
0.708699
0.836849
0.813603
0.898838
0.850558
0.800490
0.885725
0.839829
0.877976
1.139641
0.919700
1.030564
0.999570
1.028776
1.092553
1.048446
1.352429
1.272559
1.238585
1.360774
1.548529
1.556873
1.653433
1.860857
1.946688
3.269911
9.836555
45.669675
109.329820
280.303955
493.551493
871.261954
1015.870571
1015.870571
1015.870571
1015.870571
1015.870571
973.473787
693.306923
372.474790
196.783543
65.378547
24.351478
8.320808
6.664991
6.378889
6.571412
7.643700
9.465814
14.772415
20.729899
31.218529
40.748715
51.765442
59.311986
63.957572
62.624812
56.066513
48.773885
38.303733
29.692650
19.890666
14.134645
9.349585
7.117987
5.401969
4.592538
4.283786
4.271865
4.376769
4.255772
4.296899
##ZVALUE=340
0.644922
0.600815
0.593662
0.548959
0.432730
0.586510
0.650883
0.792742
0.673532
0.563860
0.673532
0.603795
0.731945
0.583529
0.575781
0.626445
0.601411
0.772476
0.719428
0.815988
0.834465
0.723600
0.714660
0.768900
0.807643
0.922680
0.847578
0.756979
0.935793
0.787973
0.793934
0.799894
1.046658
0.973940
0.806451
0.886917
1.028776
0.954866
0.890493
0.923872
1.083612
1.051426
1.056790
1.144409
1.164675
1.377463
1.307726
1.530647
1.609921
1.775622
1.841784
2.306700
4.666448
25.701523
72.034001
209.946632
387.376547
709.599853
982.491970
1015.874743
1015.874743
1015.874743
1015.874743
1015.874743
826.951861
455.190539
256.628990
101.689696
37.852526
9.725690
6.568432
6.361604
6.052852
6.122589
6.896853
9.178519
13.047457
19.842982
28.011799
39.386749
47.790408
55.967569
58.881640
58.686733
54.879785
46.327710
38.110614
27.639866
20.568967
13.579726
9.669662
6.734729
5.368590
4.740953
4.395843
4.540682
##ZVALUE=345
0.654459
0.708699
0.581741
0.482798
0.608563
0.577569
0.623465
0.682473
0.664592
0.579953
0.750422
0.643730
0.726581
0.623465
0.637770
0.655651
0.653863
0.572801
0.738502
0.686646
0.751615
0.670552
0.731945
0.653863
0.730753
0.657439
0.684857
0.819564
0.790954
0.679493
0.874996
0.873804
0.763535
0.806451
0.863671
0.947714
0.839829
0.963807
0.942945
0.889897
1.042485
1.022816
1.003742
1.115799
1.051426
1.197457
1.200438
1.270771
1.210570
1.503825
1.469851
1.638532
1.698732
2.064705
2.773404
14.072657
44.447780
138.148665
274.226069
556.574464
829.175711
1015.866995
1015.866995
1015.866995
1015.866995
1015.866995
976.606607
603.674650
350.865722
140.859485
60.387850
17.051697
7.877946
6.227493
5.766749
5.512834
5.433559
5.948544
7.722974
12.267828
17.516613
27.253628
34.058690
43.646693
49.447417
54.876804
55.039525
51.261783
45.515895
36.099553
28.287768
19.180775
14.214516
9.577870
7.302761
5.407929
##ZVALUE=350
0.658631
0.667572
0.510812
0.575781
0.672936
0.528693
0.709891
0.706911
0.794530
0.751615
0.691414
0.506639
0.730753
0.578761
0.588894
0.671744
0.779629
0.725985
0.582933
0.708699
0.702739
1.004934
0.652671
0.684857
0.800490
0.723600
0.739694
0.686646
0.549555
0.785589
0.812411
0.897646
0.839829
0.823736
0.927448
0.928640
0.915527
0.809431
0.927448
1.057982
0.853539
0.985861
0.981688
1.026988
1.034737
1.103878
1.070499
1.205802
1.188517
1.107454
1.340508
1.321435
1.405478
1.582503
1.682639
1.765490
2.248883
5.266666
27.123690
71.275830
204.859972
378.387570
704.556704
978.545547
1015.870571
1015.870571
1015.870571
1015.870571
1001.265645
729.233027
383.758545
214.165449
80.321431
28.857589
8.354783
6.119609
5.483627
4.816651
4.812479
4.712939
5.524755
7.176995
10.848641
14.895797
22.630692
29.281974
38.424730
44.169426
49.609542
50.964952
47.924519
43.124557
34.394860
27.338862
19.335747
14.470816
##ZVALUE=355
0.559688
0.771880
0.665784
0.741482
0.712872
0.631809
0.693798
0.695586
0.641942
0.631809
0.469685
0.710487
0.781417
0.650883
0.649691
0.619888
0.847578
0.629425
0.738502
0.682473
0.734925
0.694990
0.638962
0.751615
0.812411
0.908971
0.779629
0.678897
0.835657
0.715852
0.687838
0.801682
0.863671
0.914931
0.893474
0.934601
0.817776
0.903606
0.942945
0.868440
0.812411
0.988841
1.026988
1.070499
1.002550
1.060963
1.236796
1.049638
1.145601
1.158714
1.265407
1.382828
1.344681
1.451969
1.428723
1.546741
1.681447
1.853704
1.958609
3.496408
11.959672
54.490566
126.307607
304.199457
525.538921
900.224447
1015.872955
1015.872955
1015.872955
1015.872955
1015.872955
841.338634
552.525520
256.866813
123.359561
35.338998
11.917949
5.819798
5.174875
4.807711
4.541874
4.397631
4.632473
5.259514
6.226897
9.395480
12.829900
19.715428
25.677681
33.973455
39.992929
45.003891
46.520829
44.685602
40.518641
33.838749
##ZVALUE=360
0.654459
0.657439
0.547767
0.611544
0.831485
0.752807
0.558496
0.588894
0.765920
0.677705
0.700951
0.700951
0.541806
0.726581
0.625849
0.587702
0.667572
0.533462
0.621676
0.787973
0.639558
0.692606
0.617504
0.720620
0.672936
0.717640
0.752807
0.836849
0.850558
0.845790
0.728965
1.019835
0.732541
0.873804
0.895858
0.894666
0.736713
0.887513
0.940561
0.918508
0.854731
1.004934
0.946522
0.903606
1.006722
1.061559
1.048446
1.035929
0.985861
1.133680
1.228452
1.196861
1.317859
1.386404
1.390576
1.253486
1.362562
1.572967
1.579523
1.971722
1.990795
2.532601
5.277991
25.423765
70.438981
205.761790
378.435850
696.336031
982.766747
1015.886664
1015.886664
1015.886664
1015.886664
982.201695
695.631504
357.660651
189.689994
67.019463
23.242831
6.514788
5.244613
5.052686
4.576445
4.218817
4.168749
4.309416
4.355907
5.794764
7.474422
11.154413
15.750527
22.715926
28.474927
35.674572
39.480925
42.685866
##ZVALUE=365
0.530481
0.678897
0.558496
0.741482
0.466704
0.600815
0.554919
0.781417
0.575781
0.782609
0.574589
0.725985
0.860691
0.628829
0.680685
0.716448
0.716448
0.553727
0.746846
0.799894
0.619888
0.717640
0.720620
0.707507
0.709891
0.671744
0.667572
0.552535
0.665784
0.662804
0.666976
0.841618
0.807643
0.808835
0.773668
0.873804
0.815988
0.800490
0.827909
0.963807
0.794530
0.873804
0.886917
0.919700
0.972748
0.991821
0.954866
1.009703
1.061559
1.009703
0.996590
1.027584
1.102686
1.065731
1.148582
1.229644
1.337528
1.407862
1.514554
1.509786
1.539588
1.787543
1.972914
2.228618
2.960563
12.458563
40.884614
135.896802
275.235772
555.589795
827.094913
1015.870571
1015.870571
1015.870571
1015.870571
1015.870571
818.624496
475.089550
270.051956
102.576613
39.509535
9.206533
5.349517
4.789829
4.547834
4.178882
4.111528
3.842711
3.852844
4.182458
5.065799
6.974936
9.406805
13.722777
18.431544
25.202632
##ZVALUE=370
0.615716
0.558496
0.692606
0.632405
0.660419
0.715852
0.682473
0.644922
0.592470
0.602603
0.720620
0.677705
0.735521
0.685453
0.605583
0.645518
0.568628
0.702739
0.590682
0.737906
0.787973
0.693798
0.650883
0.723600
0.709891
0.807643
0.759959
0.770688
0.729561
0.733733
0.867844
0.811815
0.808835
0.818968
0.812411
0.823736
0.803471
0.702739
0.842810
0.778437
0.878572
0.865459
0.946522
0.782609
0.869632
0.914931
0.935793
0.935793
0.831485
0.890493
0.887513
0.977516
1.019835
1.074672
1.051426
1.147985
1.143813
1.184940
1.246929
1.329780
1.351833
1.386404
1.489520
1.683831
1.692772
1.934767
2.357960
6.686449
23.738742
92.892647
195.539594
425.188541
684.741735
1015.871763
1015.871763
1015.871763
1015.871763
1015.871763
949.675441
571.286678
338.092446
139.524937
63.505769
18.576980
6.725788
4.568696
4.182458
3.971457
3.862977
3.632903
3.867745
3.660917
4.187822
4.997849
6.050467
8.596778
##ZVALUE=375
0.666976
0.615716
0.595450
0.671744
0.542998
0.593662
0.511408
0.563860
0.666976
0.660419
0.650883
0.646710
0.594854
0.643730
0.689626
0.757575
0.721812
0.695586
0.709891
0.694990
0.765920
0.564456
0.606775
0.726581
0.741482
0.528693
0.803471
0.746846
0.749826
0.874996
0.525713
0.731945
0.710487
0.838637
0.760555
0.857711
0.803471
0.901818
0.926852
0.919700
0.815988
0.832677
0.863671
1.117587
0.868440
0.707507
0.798702
0.694990
0.942945
0.822544
1.012683
0.901818
0.992417
0.890493
0.947714
1.128912
1.005530
0.999570
1.058578
1.160502
1.089573
1.224875
1.373887
1.237988
1.398921
1.600981
1.620650
1.950860
2.147555
3.913641
11.654496
49.256682
121.134520
313.788652
532.840490
893.892646
1015.897989
1015.897989
1015.897989
1015.897989
1015.897393
706.411600
470.925570
242.895484
125.481486
38.463473
12.397766
4.721880
4.092455
4.120469
3.917813
3.909469
3.881454
3.831983
3.898740
4.076958
##ZVALUE=380
0.650883
0.598431
0.583529
0.572801
0.614524
0.689626
0.473857
0.667572
0.547767
0.675917
0.654459
0.651479
0.623465
0.676513
0.661612
0.621676
0.683665
0.621676
0.590682
0.500679
0.768900
0.591874
0.627637
0.562668
0.705719
0.819564
0.734925
0.838637
0.852942
0.824928
0.795722
0.768900
0.808835
0.816584
0.817776
0.863671
0.792742
0.817776
0.805855
0.807643
0.869632
0.812411
0.841618
0.725985
0.766516
0.812411
0.840425
0.929832
0.703931
0.748634
0.818968
0.993609
0.977516
0.957847
0.856519
0.930429
0.922680
0.924468
0.974536
0.979900
1.050830
1.142621
1.052618
1.160502
1.235604
1.341701
1.370907
1.644492
1.701713
2.017617
2.217889
2.701879
16.399622
28.662682
94.088912
196.690559
431.516767
693.859458
1014.418006
1015.905738
1015.905738
1015.905738
1015.905738
905.469656
574.882627
360.267758
161.617994
74.948668
18.725991
6.374717
4.279613
4.119873
4.107952
4.030466
4.024506
4.028678
##ZVALUE=385
0.658631
0.603795
0.657439
0.699759
0.496507
0.448823
0.626445
0.407696
0.496507
0.522733
0.289679
0.603795
0.590682
0.555515
0.420809
0.559688
0.680685
0.576973
0.649691
0.537634
0.496507
0.568628
0.624657
0.559688
0.579953
0.609756
0.814795
0.644922
0.702739
0.809431
0.780821
0.797510
0.750422
1.001954
0.898838
0.845790
0.785589
0.874996
0.847578
0.851750
0.818968
0.826716
0.830889
0.752807
0.846982
0.808835
0.858903
0.816584
0.858903
0.718832
0.779629
0.803471
0.898838
0.859499
0.959635
0.999570
0.915527
0.942945
0.818968
0.875592
0.947714
1.134872
0.952482
1.022816
1.138449
1.317859
1.229644
1.494884
1.568794
1.677871
1.806617
1.882911
1.885891
2.061725
3.134608
16.373992
50.115585
153.038502
307.226777
616.961718
896.561742
1015.871763
1015.871763
1015.871763
1015.871763
1015.871763
810.238719
480.661988
288.026929
123.931766
49.787760
10.644794
4.878640
4.253983
3.938675
4.016757
##ZVALUE=390
0.535846
0.493526
0.454783
0.491738
0.529885
0.487566
0.538826
0.623465
0.551939
0.616908
0.622869
0.634789
0.527501
0.533462
0.425577
0.586510
0.561476
0.460744
0.491738
0.417829
0.605583
0.501871
0.582933
0.670552
0.647902
0.613928
0.578761
0.611544
0.715852
0.649691
0.720620
0.730753
0.784993
0.800490
0.738502
0.948906
0.853539
0.949502
0.898838
0.897646
0.781417
0.765920
0.950694
0.778437
1.036525
0.976920
0.834465
0.893474
0.855923
0.896454
0.742674
0.774860
0.840425
0.900626
0.844598
0.845790
0.843406
0.791550
0.905991
0.832677
0.992417
0.896454
1.089573
1.115799
1.204610
1.312494
1.312494
1.384616
1.451969
1.592636
1.619458
1.540780
1.648664
1.522899
1.695752
1.883507
2.053976
7.992983
28.822422
108.487606
232.379436
497.426391
737.302899
1015.318036
1015.870571
1015.870571
1015.870571
1015.870571
980.028510
649.513602
404.715538
178.732872
85.305572
24.099946
7.961988
4.411936
##ZVALUE=395
0.577569
0.685453
0.524521
0.523925
0.480413
0.538826
0.624657
0.541806
0.593662
0.547767
0.452995
0.485778
0.567436
0.539422
0.519753
0.415444
0.619888
0.396967
0.528693
0.537634
0.508428
0.638962
0.599623
0.613928
0.589490
0.732541
0.650883
0.583529
0.719428
0.551939
0.771880
0.922680
0.791550
0.799894
0.835657
0.849962
0.753999
0.932813
0.774860
0.802875
0.935793
0.851750
0.834465
0.995994
0.850558
0.934601
0.881553
0.947714
0.983477
0.809431
0.911951
0.731945
0.768900
0.747442
0.789762
0.865459
0.810623
0.894666
0.799894
0.934601
0.930429
0.958443
0.876784
1.049638
1.071692
0.952482
1.220703
1.385808
1.328588
1.479983
1.565814
1.497865
1.402497
1.435876
1.319647
1.433492
1.583695
1.560450
1.860857
3.620982
20.493865
59.461594
166.811943
315.201879
604.391694
867.135525
1015.858650
1015.858650
1015.858650
1015.858650
1015.858650
824.252963
481.677651
277.273655
109.842420
46.774745
##ZVALUE=400
0.699759
0.591874
0.651479
0.493526
0.532866
0.450611
0.429749
0.409484
0.493526
0.516772
0.669956
0.508428
0.579953
0.581741
0.477433
0.538826
0.552535
0.485778
0.544786
0.603795
0.574589
0.646710
0.614524
0.698566
0.665784
0.673532
0.762939
0.805855
0.647902
0.816584
0.749826
0.835657
0.717640
0.855923
0.980496
0.966787
0.894666
0.906587
0.865459
1.015663
0.803471
0.857711
0.886917
0.857711
0.874996
0.823736
1.096725
0.910759
0.964999
0.947714
0.938773
0.865459
0.833869
0.891685
0.825524
0.883937
0.775456
0.775456
0.965595
0.867844
0.824928
0.961423
1.108646
1.142621
1.074672
1.149774
1.223683
1.309514
1.400709
1.285672
1.224875
1.601577
1.497865
1.329780
1.242757
1.176596
1.404881
1.492500
1.508594
1.703501
1.814961
2.391934
9.730458
30.906796
107.486844
220.191479
467.199683
707.736611
1015.870571
1015.870571
1015.870571
1015.870571
1015.870571
954.352617
605.666637
387.651920
##END
