##TITLE=C102_R5
##FORMAT=SPECTACLE-ASCII V-1.2
##DATA TYPE=ULTRAVIOLET SPECTRUM
##SECOND TYPE=ULTRAVIOLET SPECTRUM
##DATE=05/28/18
##TIME=12:36:44
##SPECTROMETER/DATA SYSTEM=SPECTACLE
##XUNITS=NM EM
##YUNITS=ENERGY
##YFACTOR=1
##FIRSTX=220
##LASTX=410
##NPOINTS=96
##3DDATA=Equidistant
##ZUNITS=NM EX
##FIRSTZ=210
##LASTZ=400
##ZPOINTS=39
##XYDATA=(Y..Y)
##ZVALUE=210
45.438409
44.596791
34.694672
27.760863
24.470687
22.038817
18.827915
16.131997
13.421774
11.172891
7.776618
7.101893
6.645918
6.066561
7.193685
7.243752
7.506609
7.763505
7.956624
8.443594
9.564757
9.926558
11.612773
13.600588
16.591549
18.594861
21.973848
24.439692
24.160743
26.844740
29.153824
31.285882
31.978488
31.296611
30.685663
31.960607
33.605695
32.721758
33.524632
31.986833
30.352473
33.188462
31.793714
31.650662
31.583905
31.288862
29.670000
30.171871
28.858781
29.250979
29.588938
29.700994
28.691888
28.612614
28.014779
27.742982
27.528405
28.904676
26.763678
25.828481
26.794672
25.788546
25.592446
26.750565
28.222799
29.383898
34.800768
38.320422
46.493411
49.527884
60.769916
67.077875
69.672465
75.393915
74.172616
79.655647
69.605708
65.877438
60.739517
51.254630
40.391684
37.788749
32.635927
26.735663
24.665594
22.979975
22.131801
22.952557
25.702715
28.567910
40.528774
53.851604
77.432990
98.269582
136.385560
162.831545
##ZVALUE=215
173.436999
169.466734
132.000446
90.022683
67.671537
52.879453
43.448806
36.526918
31.412840
30.346513
23.292899
19.249916
14.664531
11.620522
7.920861
8.321404
8.231997
9.407997
8.968711
9.022951
9.509921
11.528730
12.247562
14.772415
16.972423
18.268824
22.889972
23.876429
26.207566
27.652979
30.361414
31.869411
31.390786
34.734607
34.138560
36.082864
34.799576
36.259890
36.684871
37.811995
35.315752
36.434531
36.465526
35.618544
32.935739
34.484863
34.907460
34.709573
34.178495
34.134984
34.577847
35.424829
33.043623
31.941533
32.147765
34.323931
34.265518
31.674504
30.550957
31.156540
30.426979
29.325485
29.895902
29.332638
32.777786
32.338500
37.898421
42.031407
43.440461
50.932765
55.309534
62.021613
66.456795
63.742995
70.148706
67.075491
62.944889
57.968497
51.574707
44.951439
40.901899
35.435557
29.090643
26.862621
26.809573
23.072958
21.581650
18.929839
19.403696
18.915534
18.328428
19.656420
20.857453
25.351644
34.833550
52.195787
##ZVALUE=220
384.473801
385.613441
353.599787
295.616984
232.757926
162.851810
119.490623
79.488754
59.799552
52.829981
48.036575
43.043494
37.684441
32.349825
24.109483
18.112659
13.540983
11.064410
9.721518
9.632707
8.856654
10.840893
10.668635
12.121797
12.921691
14.152527
17.074943
19.094944
19.703507
20.814538
23.124814
25.187731
27.793646
27.992725
29.796958
30.849576
30.742884
31.469464
33.968687
35.663843
34.758449
33.571720
33.147931
35.008788
33.739805
36.135912
33.654571
34.589767
34.626722
34.214854
35.350919
37.371516
34.176707
34.998655
34.655929
33.772588
31.350851
33.410788
33.308864
31.822920
31.060576
32.217503
31.471848
31.344891
30.668974
31.032562
33.435822
35.946965
41.343570
45.708418
47.300458
52.870512
52.908659
54.810643
58.261752
59.191585
52.900910
47.912598
41.448474
39.628744
34.003854
29.907823
27.400851
23.611784
22.097826
20.516515
20.737648
18.953681
17.640591
19.044876
18.782616
17.580986
18.044710
17.461777
16.648769
17.643571
##ZVALUE=225
439.562798
451.284647
535.197854
587.268472
556.903481
482.884645
403.415561
281.182528
198.531747
135.239959
87.259412
75.827837
66.200495
65.610409
60.897470
50.250888
39.850473
30.655861
22.401810
16.394854
12.356639
10.044575
8.923411
9.955764
9.907484
11.354685
11.726618
14.067888
15.131831
15.710592
16.093850
18.983483
18.960834
20.400882
23.848414
26.987791
27.336478
30.250549
30.523539
32.272935
33.486485
33.099651
33.117533
35.616755
34.557581
35.730600
35.353899
36.001801
36.698580
35.130978
34.889579
35.129786
33.615828
35.114884
34.205914
34.377575
33.320785
33.474565
33.528805
33.451915
31.674504
30.187964
31.646490
30.692816
31.891465
29.957891
32.368898
33.548474
37.747622
41.188002
44.965744
45.540929
48.032999
50.010681
49.125552
46.350956
43.817759
39.241910
35.124421
32.299757
30.180812
26.856661
22.239685
21.735430
19.936562
19.284487
18.737912
18.750429
18.410683
17.494559
17.839670
16.096830
16.225576
15.766621
16.160607
15.611649
##ZVALUE=230
234.953761
262.508988
386.378765
575.301647
705.752969
804.785490
819.022655
734.787583
617.687702
481.702685
310.008526
201.918483
124.399662
99.902749
89.378953
87.081790
83.106756
75.567961
68.576932
51.205754
38.060546
25.647879
18.908978
12.993813
10.338426
10.889769
9.989738
10.114908
11.510849
11.986494
12.545586
13.364553
14.825463
16.923547
18.974543
19.814968
21.847486
25.599599
25.721788
27.297735
27.766824
28.878450
29.798746
30.454993
30.443668
29.931664
29.872656
30.836463
30.175447
30.836463
29.731989
29.780865
29.395819
29.456615
30.495524
28.492808
27.804971
27.252436
29.033422
28.439760
27.409792
27.418733
26.844740
25.706887
26.871562
27.646422
30.788779
30.886531
30.986667
34.227967
35.675764
38.970709
39.223433
39.532781
38.689971
38.941503
34.889579
32.245517
30.209422
26.370883
24.364591
21.172762
20.145774
18.822551
18.116832
17.494559
17.387867
15.271902
15.613437
16.016960
15.415549
15.245676
14.292598
14.621615
14.680624
14.313459
##ZVALUE=235
48.663616
57.784915
121.177435
276.609659
437.893867
683.638453
859.787464
1015.870571
1015.870571
1015.870571
907.248855
713.508725
454.514623
315.249562
192.309618
132.816434
101.335645
99.670887
105.278492
102.835894
91.526508
74.011683
56.489706
38.385987
26.863813
17.629862
14.333725
10.630488
10.167956
10.264516
10.740757
11.957884
12.670755
13.485551
15.168786
15.138984
18.077493
18.069744
19.361973
21.705627
22.795796
22.793412
23.776889
24.688840
25.637746
24.442673
24.776459
24.335980
25.561452
23.696423
23.793578
24.729967
24.533868
24.571419
24.172664
23.670793
22.791624
22.667646
23.309588
22.310615
21.805763
23.115873
22.140741
21.792650
22.705793
22.665858
24.784803
25.689602
28.288960
29.856563
31.968951
32.959580
35.188794
35.455823
34.352541
32.127500
31.905770
28.019547
25.345683
23.934841
21.799803
18.429756
17.865896
17.121434
15.574694
15.566945
15.323758
13.936758
14.946461
14.210939
14.110804
13.862848
13.575554
13.033748
13.020635
12.774467
##ZVALUE=240
2.705455
3.339648
13.404489
40.423870
119.481683
224.706531
450.818539
674.552917
994.880795
1015.870571
1015.870571
1015.870571
1015.870571
959.559679
727.350712
450.955629
300.090909
172.797441
123.189688
107.423663
111.060739
116.619468
108.471513
96.238852
75.566769
58.576465
41.657686
31.065941
19.852519
15.596747
12.198687
11.952519
11.241436
12.569427
12.175441
13.520718
14.550686
14.726520
14.567971
17.037988
16.225576
17.223954
17.583966
18.358827
18.630624
19.158721
19.018650
18.971562
18.929839
18.154979
19.389987
18.737912
18.615723
17.929673
18.675923
18.517971
17.969608
18.460751
18.375516
18.190742
17.675757
18.014908
17.389655
18.295646
17.593503
18.961430
19.476414
20.990968
23.800731
24.662614
27.011633
27.623773
29.707551
28.934479
27.962923
26.456714
26.194453
24.589896
22.299886
20.439625
18.122792
16.693473
15.543699
14.510751
13.651848
13.320446
12.880564
13.107657
12.882948
13.272762
12.502670
12.749434
12.622476
12.331605
12.886524
12.035966
##ZVALUE=245
2.231598
2.370477
2.411604
2.510548
7.474422
22.679567
83.467960
183.351636
420.137644
657.894611
998.127460
1015.870571
1015.870571
1015.870571
1015.870571
1015.870571
1001.247764
684.520602
466.820002
248.034000
151.671767
107.591748
106.872916
117.423534
119.662881
112.979412
100.740790
84.514618
65.154433
48.509836
36.137700
23.095608
17.569661
13.648868
12.440681
13.355613
12.797713
13.558865
13.764501
14.424920
14.282465
15.004873
15.584826
15.716553
16.419888
15.845895
16.464591
16.289949
16.024709
15.794635
15.644431
16.361475
16.331673
15.778542
15.626550
15.012622
15.040636
15.657544
15.078783
14.808774
15.352964
14.827847
15.392900
14.559627
15.169978
15.389919
16.172528
18.499494
19.467473
21.239519
22.669435
23.386478
23.631454
24.559498
24.396777
22.300482
21.917820
18.991828
17.598867
15.623569
14.714599
14.189482
12.530684
12.294650
12.197495
11.450648
11.112690
11.230707
11.160970
10.664463
10.349751
10.844469
10.651946
9.748936
10.065436
10.446906
##ZVALUE=250
1.685619
2.168417
1.895428
2.123713
2.513528
2.598763
3.662705
14.244914
65.234900
146.895647
365.530849
603.633523
888.805985
1015.870571
1015.870571
1015.870571
1015.870571
1015.870571
1015.870571
870.962739
583.904982
357.990861
173.849463
110.224485
95.008612
107.854009
119.050741
121.142864
118.834972
106.020570
90.674758
70.382953
53.068995
35.069585
24.964809
17.780662
14.341474
13.812780
14.531612
13.876557
14.236569
14.726520
14.486909
14.767647
14.948845
14.612675
14.817715
14.265776
14.737844
14.188886
14.605522
14.322996
14.294982
15.262961
13.512969
13.894439
13.684630
13.494492
13.440847
13.125539
13.657808
12.478828
12.985468
12.992620
12.819767
13.808608
13.910532
15.262961
15.926957
17.975569
18.484592
18.728971
18.974543
19.676685
19.953847
18.715858
17.129779
15.546679
14.203787
13.194680
12.168884
11.158586
10.894537
9.628534
10.131598
9.199977
9.380579
9.445548
8.921623
9.052753
9.125471
8.958578
8.842945
9.315610
8.852482
9.305477
##ZVALUE=255
1.859665
1.966953
2.105832
2.023578
2.147555
2.093911
2.336502
2.493858
3.156662
10.755658
43.299794
153.270960
305.079818
615.986586
909.387469
1015.870571
1015.870571
1015.870571
1015.870571
1015.870571
1015.870571
1015.870571
723.800659
451.290607
285.500884
128.419995
92.191696
92.998743
106.470585
122.059584
126.253963
122.914910
112.933517
92.518926
75.558424
52.123666
39.350986
26.663542
20.654798
16.990900
15.963912
15.956759
15.869737
15.741587
15.708804
15.681982
15.621781
15.662909
15.663505
15.649796
15.370846
14.727712
14.153719
14.544725
14.033914
13.831854
13.423562
13.507605
13.052821
12.967587
13.229847
13.018847
12.752414
12.640953
12.579560
12.912750
13.002753
14.047623
14.717579
15.874505
16.884804
17.785430
17.370582
17.519593
16.699433
15.740991
15.077591
13.352633
12.341738
11.058450
10.936856
9.956956
9.389520
8.881688
9.052753
8.478761
8.094907
8.026958
8.022785
7.943511
7.838607
7.474422
7.839799
7.619858
7.571578
7.866621
##ZVALUE=260
1.760721
1.703501
1.702905
1.562834
1.780987
2.171993
2.109408
2.066493
2.509952
2.633929
2.702475
4.610419
19.105673
98.775625
226.665735
517.306924
824.692845
1015.870571
1015.870571
1015.870571
1015.870571
1015.870571
1015.870571
1015.870571
986.673832
686.742067
371.136665
207.836628
104.237795
80.473423
86.986423
109.180808
123.297572
132.344961
129.815936
117.635727
100.487471
77.939630
61.197877
41.990876
32.190681
23.939610
20.587444
18.988848
18.672943
18.312931
18.541813
17.795563
17.698407
17.507672
17.558932
17.030835
16.285777
16.039610
15.996695
15.080571
15.054941
14.976859
14.321804
14.488697
13.797879
13.863444
12.807846
13.535619
13.029575
13.548732
13.613701
13.913512
14.319420
15.780926
16.190410
16.445518
17.239451
17.164946
16.113520
15.075803
14.140606
12.951493
11.805892
10.499954
10.085702
9.604692
9.034872
8.496642
8.743405
8.187890
8.140802
7.966757
7.926822
7.616878
7.242560
7.661581
7.369518
7.433891
7.508993
7.355809
##ZVALUE=265
1.652837
1.708865
1.525879
1.845956
1.763701
1.665950
1.900792
2.150536
2.024770
2.229810
2.188683
2.685785
2.724528
3.239512
7.293820
52.329898
148.077607
384.973884
679.729581
1015.870571
1015.870571
1015.870571
1015.870571
1015.870571
1015.870571
1015.870571
1015.870571
963.748693
532.287955
301.131010
162.161589
78.679919
72.276592
94.643831
112.205744
131.253600
136.445761
131.754875
123.583674
102.910995
84.984899
62.809587
48.416853
35.836697
28.181672
24.203658
22.650957
21.931529
21.342635
20.498633
20.678639
20.653605
20.037889
19.591451
18.669963
18.007755
17.480850
16.838908
16.766787
15.911460
15.411973
15.192628
14.830828
14.713407
14.975667
14.886856
15.319586
15.540719
16.101599
16.584992
17.276406
17.534494
17.664433
16.708970
16.007423
14.841557
14.349818
12.432933
11.587739
10.679960
10.064840
9.114742
8.782744
8.422732
8.096695
8.124709
8.196831
7.831454
7.565618
7.137656
7.284880
7.118583
7.031560
6.929636
6.985664
6.953478
##ZVALUE=270
1.486540
1.517534
1.590848
1.443624
1.624823
1.512766
1.774430
1.860857
1.885891
1.828671
1.995564
2.100468
2.171993
2.569556
2.559423
2.854466
3.588796
16.575456
58.788657
226.727724
457.627773
795.101523
1015.870571
1015.870571
1015.870571
1015.870571
1015.870571
1015.870571
1015.870571
1015.870571
777.500868
460.763574
243.389010
96.278787
64.005852
73.774457
92.670918
117.339492
131.315589
140.078664
139.334798
127.807856
110.961795
87.789893
69.938898
50.397515
40.130615
31.495690
27.378798
24.570823
23.101568
22.825599
22.419691
21.661520
21.099448
20.254850
19.400716
18.703938
18.348694
17.941594
17.083883
16.484857
15.993714
16.011596
15.203953
15.283823
15.438795
15.692711
15.675426
16.288757
16.441941
16.608834
16.530752
15.735626
15.399456
13.678670
13.193488
12.230873
11.059642
10.392666
10.065436
9.121895
8.614659
8.287430
8.432865
7.973909
7.966757
7.627606
7.743835
7.415414
7.161498
7.084608
6.903410
7.003546
6.752610
6.871819
##ZVALUE=275
1.423955
1.461506
1.483560
1.397729
1.421571
1.546741
1.321435
1.772642
1.681447
1.765490
1.784563
1.760721
1.812577
2.080798
2.115965
2.464652
2.681613
2.913475
3.067851
6.550550
27.816892
93.685985
330.830812
653.164983
1015.865803
1015.865803
1015.865803
1015.865803
1015.865803
1015.865803
1015.865803
1015.865803
1015.865803
607.085824
338.484645
135.641694
72.196722
57.828426
71.399808
95.743537
114.656687
132.704973
139.294863
140.536427
129.289627
108.452439
91.971755
69.578886
55.246949
40.342808
32.541752
26.306510
24.141669
22.300482
21.590590
21.302700
20.562410
19.554496
18.874407
18.202662
18.230677
17.428994
16.439557
16.370416
15.808940
15.624762
15.847683
15.401840
15.644431
16.312599
16.403794
16.567707
16.087890
16.059875
14.889836
14.069676
13.353825
12.369752
11.019707
10.296702
9.677410
9.458661
9.033680
8.426905
8.338690
7.960796
7.970929
7.564425
7.703900
7.176995
6.828904
7.052422
6.965995
6.488562
6.684661
6.721616
##ZVALUE=280
1.319647
1.214743
1.384616
1.424551
1.338720
1.501441
1.385808
1.427531
1.503825
1.655817
1.493692
1.489520
1.525879
1.667738
2.025962
2.057552
2.038479
2.348423
2.376437
2.694726
2.867579
4.269481
12.991428
71.750879
196.807384
508.820415
854.516625
1015.870571
1015.870571
1015.870571
1015.870571
1015.870571
1015.870571
1015.870571
1015.870571
822.693706
480.929613
199.837685
97.708702
50.820708
53.223968
73.157549
90.254545
112.203956
126.998425
135.628581
133.405924
122.458935
107.910633
85.100532
69.038868
49.219728
37.463903
27.752519
23.364425
19.686818
18.730760
18.346906
17.674565
17.210841
16.589761
16.688704
15.864968
15.311837
15.237927
14.849901
14.893413
14.889836
15.193820
15.567541
15.384555
15.046597
15.320778
14.298558
13.631582
12.646914
12.135506
11.537671
11.072755
9.938478
9.783506
9.449720
9.032488
8.608699
8.503795
8.135438
7.923841
7.542968
7.087588
7.270575
7.080436
7.112622
6.809831
6.802678
6.688833
6.591678
##ZVALUE=285
1.206994
1.202822
1.090765
1.254678
1.146793
1.242757
1.368523
1.421571
1.215935
1.514554
1.269579
1.477599
1.275539
1.640916
1.577735
1.673698
1.938939
1.775622
2.016425
2.232790
2.293587
2.371669
2.937913
3.325939
7.395744
26.713610
108.447671
254.315734
597.131848
962.713957
1015.870571
1015.870571
1015.870571
1015.870571
1015.870571
1015.870571
1015.870571
1015.871167
713.580847
330.059528
159.946680
58.179498
38.274527
47.341585
61.542988
83.506703
98.932981
115.232468
123.475790
123.617649
117.097497
100.498796
84.984899
62.285662
47.407746
31.885505
23.912787
18.372536
15.725493
14.874935
14.779568
14.098883
14.016628
13.425946
13.498664
13.295412
13.266802
13.296604
13.659000
13.674498
13.598800
13.282895
13.110638
12.795925
12.408495
11.663437
10.951757
10.564923
10.137558
9.474754
8.819699
8.797646
8.313656
8.192658
7.927418
7.760525
7.876754
7.395744
7.146597
7.126927
7.202625
6.997585
6.906986
6.650686
6.567836
6.275773
##ZVALUE=290
1.155734
1.085997
1.083612
1.074672
1.114607
1.127720
1.182556
1.276731
1.219511
1.342893
1.437664
1.324415
1.554489
1.400709
1.564622
1.440644
1.543760
1.606941
1.872778
1.685619
1.875758
1.991987
2.324581
2.504587
2.674460
2.856851
3.778934
10.106564
53.042769
138.450861
359.353423
648.269653
1015.880704
1015.880704
1015.880704
1015.880704
1015.880704
1015.880704
1015.880704
1015.880704
911.281705
544.207692
225.030780
97.646713
32.452941
27.483702
38.109422
50.345659
71.084499
87.353587
106.355548
114.377737
116.601586
110.203624
95.007420
78.432560
56.234598
42.474866
27.982593
21.037459
15.213490
12.665987
11.561513
10.852814
10.973811
10.762811
11.159778
11.140704
11.472702
11.859536
12.004972
11.962652
11.835694
11.338592
11.303425
10.917783
9.985566
9.479523
9.055734
8.665919
8.135438
8.038878
7.652640
8.051991
7.448792
7.472634
7.133484
7.122755
7.070899
6.929636
6.787777
6.483793
6.636977
6.563663
6.459951
6.415844
##ZVALUE=295
1.031756
1.033545
1.062751
1.152754
0.971556
1.016855
1.023412
1.147985
1.154542
1.107454
1.157522
1.421571
1.277924
1.251698
1.378655
1.440644
1.395941
1.368523
1.362562
1.598597
1.655817
1.736879
1.897812
2.051592
2.229810
2.330542
2.464652
2.838969
3.183484
4.892945
15.585423
79.614520
201.478601
525.387526
898.317695
1015.869975
1015.869975
1015.869975
1015.869975
1015.869975
1015.869975
1015.869975
1015.869975
694.962740
376.699567
128.314495
51.186681
21.130443
22.571683
33.424497
45.418739
64.677000
79.469681
97.299814
106.480718
108.495951
102.718472
88.688731
74.425936
54.084659
40.214658
26.420951
18.442869
12.812614
10.657907
9.307861
9.210706
9.191632
9.545684
9.963512
9.896755
9.749532
10.027885
9.994507
9.824634
8.757710
8.747578
8.394718
8.141994
7.768869
7.477999
7.696748
7.240772
7.133484
6.973743
6.965995
6.729960
6.601810
6.484985
6.295443
6.453991
6.169677
6.410480
6.206632
6.334782
6.006956
##ZVALUE=300
0.962615
1.054406
0.938773
1.184940
1.085997
0.975728
1.094937
1.020432
1.225471
1.028776
1.263618
1.165867
1.191497
1.019835
1.224875
1.184940
1.183748
1.318455
1.402497
1.418591
1.417994
1.752973
1.737475
1.814961
1.701713
1.849532
2.253652
2.345443
2.104640
2.516508
2.904534
3.305674
9.720922
36.330819
148.404837
317.341685
721.047521
1015.871763
1015.871763
1015.871763
1015.871763
1015.871763
1015.871763
1015.871763
1015.871763
978.106856
516.423583
273.122787
90.807676
31.819940
16.204715
20.038486
29.169917
39.872527
57.369471
73.162913
92.126727
99.047422
102.705956
98.904967
86.373687
73.404908
54.326653
40.782690
25.874972
18.482804
12.564659
10.041595
9.133816
8.837581
8.923411
8.968711
9.128451
8.836985
8.332729
8.198619
7.789731
7.330775
7.015467
7.071495
6.933808
6.650686
6.589890
6.653666
6.616712
6.559491
6.349683
6.413460
6.249547
6.213784
6.100535
6.237626
6.136894
6.100535
6.084442
5.685687
##ZVALUE=305
0.952482
0.979900
1.031756
0.941753
1.054406
0.896454
0.999570
0.979900
0.978708
1.038909
1.138449
1.070499
1.099706
1.112819
1.136661
1.276731
1.091957
1.267791
1.257658
1.348853
1.317859
1.474619
1.562834
1.482964
1.404881
1.766682
1.700521
2.007484
2.276897
2.257824
2.376437
2.598763
2.827644
3.117919
4.678965
23.608804
75.747967
254.160762
495.915413
968.281031
1015.870571
1015.870571
1015.870571
1015.870571
1015.870571
1015.870571
1015.870571
1015.870571
757.626891
353.291631
169.485807
47.999620
17.928481
14.364719
18.192530
27.502775
38.386583
54.982901
68.400502
84.843636
93.771815
97.466707
94.224811
82.232952
69.811940
51.946640
38.017631
24.663806
17.688870
12.288690
10.213852
8.869767
8.791685
8.392930
7.807612
7.592440
7.180572
6.933808
6.695986
6.459951
6.500483
6.416440
6.422997
6.188750
6.217957
6.118417
6.090999
6.060600
5.988479
5.930662
5.832911
5.622506
5.715489
5.848408
5.665421
5.517602
##ZVALUE=310
0.598431
0.549555
0.680685
0.548959
0.605583
0.707507
0.759959
0.754595
0.915527
0.644922
0.704527
1.008511
0.574589
1.019835
0.982881
0.923872
0.826716
0.935793
0.863671
1.007915
1.056790
1.045465
1.143813
1.005530
1.195669
1.264811
1.350641
1.490712
1.571774
1.585484
1.633763
1.918674
1.898408
2.186894
2.473593
2.847910
3.149509
9.156466
34.485459
139.667392
304.360986
702.477694
1015.645862
1015.645862
1015.645862
1015.645862
1015.645862
1015.645862
1015.645862
1015.645862
1013.941765
557.703972
294.057727
97.124577
32.233596
11.790991
12.271404
16.386509
22.187829
34.129620
45.551658
63.217878
75.215697
87.237954
92.360973
88.602901
81.332922
66.117644
53.029656
36.110878
26.800632
17.487407
12.863874
8.931756
7.861853
6.684661
6.422997
6.182790
5.865693
5.631447
5.635619
5.415678
5.254745
5.371571
5.305409
5.402565
5.382895
5.461574
5.442500
5.170703
5.079508
5.141497
5.143881
5.229712
5.178452
5.003810
##ZVALUE=315
0.761747
0.809431
0.935793
0.927448
0.757575
0.979900
0.864863
0.900626
0.820756
0.925660
0.868440
1.042485
0.903606
0.869632
1.063943
0.983477
0.979900
0.933409
1.056790
1.071692
1.152754
1.224875
1.255870
1.195669
1.342893
1.320839
1.434684
1.355410
1.599789
1.703501
1.742840
1.703501
1.666546
2.089739
2.224445
2.338886
2.643466
2.846718
3.090501
4.746914
16.106963
81.298947
202.170014
515.974760
903.045535
1015.870571
1015.870571
1015.870571
1015.870571
1015.870571
1015.870571
1015.870571
1015.870571
761.423707
416.472554
147.835612
54.126978
14.298558
10.616779
11.685491
14.735460
21.787882
29.903650
43.904781
56.285858
72.244406
80.930591
86.168647
85.585713
75.635910
65.859556
50.021410
37.785769
24.086833
16.895533
10.769963
8.386970
6.646514
5.882978
5.663633
5.547404
5.248785
5.061626
5.120635
5.155802
5.172491
5.269647
5.157590
5.268455
5.106926
5.219579
5.173683
5.202889
5.337000
5.280972
5.140901
##ZVALUE=320
0.812411
0.763535
0.811815
0.719428
0.905991
0.772476
0.862479
0.893474
0.932813
0.965595
0.930429
0.871420
0.845790
0.901818
0.967979
0.988841
1.018643
1.041889
1.136661
0.908971
1.118779
1.148582
1.107454
1.217723
1.252890
1.239777
1.298785
1.280904
1.319647
1.323819
1.402497
1.583695
1.754761
1.634955
1.677871
1.976490
2.092719
2.353787
2.403855
2.709627
2.861619
3.557801
6.838441
41.131973
122.579932
367.254615
654.436946
1015.871763
1015.871763
1015.871763
1015.871763
1015.871763
1015.871763
1015.871763
1015.871763
943.132639
559.038520
234.658718
98.279715
23.002625
10.554790
9.438992
10.334849
13.217926
17.596483
28.250813
37.983656
53.134561
65.090656
76.819658
81.501603
80.713630
74.153543
60.611963
48.339963
33.038855
23.618937
14.826655
10.106564
7.279515
5.851984
5.259514
4.975796
5.036592
4.736781
4.710555
4.571676
4.851818
4.759431
4.740953
4.625916
4.890561
4.909635
4.897714
4.803538
5.016923
##ZVALUE=325
0.840425
0.800490
0.809431
0.761747
0.930429
0.938773
0.868440
0.836849
0.729561
0.790954
0.796914
0.655651
0.863671
0.872612
0.814795
0.946522
0.930429
0.980496
0.946522
0.983477
0.998974
0.991821
1.113415
0.988841
1.026988
1.091957
1.128912
1.328588
1.261830
1.290441
1.401901
1.485944
1.567602
1.547933
1.658797
1.648664
1.777411
1.866817
2.057552
2.032518
2.211928
2.441406
2.609491
3.347993
4.472733
24.428964
74.859858
234.007835
458.592772
943.737626
1015.870571
1015.870571
1015.870571
1015.870571
1015.870571
1015.870571
1015.870571
1015.870571
736.793876
329.383016
151.814818
38.909912
13.244748
8.666515
8.730888
9.667873
12.106895
18.100739
25.309920
38.898587
49.683452
62.763691
70.916414
76.211691
74.843764
65.289736
56.593418
42.729974
31.464696
19.723773
13.506413
8.497834
6.536841
5.504489
4.888773
4.515648
4.577637
4.412532
4.285574
4.393458
4.289746
4.461408
4.597902
4.666448
4.499555
4.773736
##ZVALUE=330
0.784993
0.904799
0.795722
0.731945
0.766516
0.822544
0.844598
0.832677
0.856519
0.752807
0.858903
0.778437
0.652671
0.865459
0.887513
0.861883
0.816584
0.856519
0.909567
0.958443
0.893474
1.127720
1.068711
0.990629
1.127720
0.985861
1.240969
1.080632
1.209974
1.207590
1.231432
1.280904
1.383424
1.367927
1.474619
1.385808
1.273751
1.529455
1.575947
1.783967
1.795888
1.973510
2.114773
2.381802
2.522469
2.842546
3.323555
10.160804
36.929846
147.417784
314.514041
704.223514
1015.870571
1015.870571
1015.870571
1015.870571
1015.870571
1015.870571
1015.870571
1015.870571
944.226980
453.592539
229.535699
73.469877
22.553802
8.502603
8.000731
8.062720
9.100437
12.232661
16.412735
24.635792
33.869743
47.686696
57.275891
66.656470
69.755912
68.606734
63.076615
51.126480
40.317774
27.654767
20.130873
13.222694
9.489655
6.359816
5.330443
4.593730
4.261732
4.258752
4.362464
4.274845
4.237890
4.509687
4.476905
4.398823
##ZVALUE=335
0.829697
0.653863
0.737906
0.854731
0.783801
0.739694
0.821948
0.654459
0.965595
0.772476
0.651479
0.962615
0.749826
0.696778
0.809431
0.703931
0.823736
0.915527
0.857711
0.857711
0.897646
0.939965
1.011491
0.886917
1.048446
0.968575
1.056790
1.143813
1.178980
1.150966
1.029968
1.238585
1.400709
1.263618
1.295805
1.439452
1.453757
1.449585
1.426935
1.581907
1.758933
1.706481
1.741648
1.950860
2.052784
2.147555
2.477765
2.612472
3.002882
4.898906
17.513633
85.989833
203.180909
515.056849
892.824531
1015.893817
1015.893817
1015.893817
1015.893817
1015.893817
1015.893817
1015.893817
1015.893817
633.937716
335.281491
109.538436
38.080812
10.784864
7.978678
7.872581
7.946491
8.761883
10.752678
15.923977
21.815896
32.698512
41.831732
53.460598
61.066747
65.614581
63.978434
57.049990
49.566627
38.815737
29.955506
20.001531
14.289618
8.971691
6.779432
5.349517
4.715919
4.542470
4.436970
4.543662
4.167557
4.547834
##ZVALUE=340
0.655651
0.628829
0.701547
0.651479
0.715852
0.613928
0.641942
0.823736
0.861883
0.673532
0.698566
0.615716
0.667572
0.791550
0.800490
0.760555
0.885725
0.895858
0.893474
0.730753
0.833869
0.909567
0.797510
0.783801
0.879765
0.838637
0.912547
1.003742
0.886917
0.953674
1.185536
1.103878
1.065731
1.098514
1.136661
1.206994
1.296997
1.319647
1.454949
1.479983
1.252890
1.434684
1.563430
1.534820
1.650453
1.858473
1.901984
2.307892
2.185702
2.446771
2.743602
3.523827
8.000731
47.161579
133.987069
385.816693
706.220865
1015.870571
1015.870571
1015.870571
1015.870571
1015.870571
1015.870571
1015.870571
1015.870571
751.712918
424.571633
166.605711
60.054660
13.005733
8.288622
7.730722
7.302761
7.238984
7.817745
10.154843
13.415813
20.991564
28.701425
40.342808
49.453974
57.670474
60.486794
59.798956
55.859685
47.014952
38.967729
27.738810
20.609498
13.515949
9.613633
6.640553
5.535483
4.895926
4.565716
4.387498
##ZVALUE=345
0.738502
0.547767
0.730753
0.760555
0.860691
0.796914
0.634789
0.697970
0.592470
0.709891
0.673532
0.750422
0.743866
0.847578
0.740886
0.898838
0.918508
0.622869
0.713468
0.889897
0.861883
0.905991
0.910759
0.972748
0.923872
0.894666
0.815988
1.026988
0.997782
0.900626
0.888705
0.983477
1.196861
0.912547
1.037717
1.106858
1.063943
1.015663
1.261830
1.209974
1.244545
1.404881
1.439452
1.431704
1.473427
1.628995
1.718998
1.814961
1.846552
1.928806
1.939535
2.398491
2.542734
2.942681
4.355907
23.921728
81.589818
260.990858
496.866703
962.216854
1015.870571
1015.870571
1015.870571
1015.870571
1015.870571
1015.870571
1015.870571
966.693759
578.820705
231.104493
98.120570
24.339557
10.008812
8.112788
7.386804
6.659627
6.285906
6.864667
8.204579
12.871623
18.472672
27.577877
35.616755
44.318438
50.830841
55.830479
55.739880
52.352548
46.718717
37.044883
29.200912
19.386411
14.368892
9.224415
7.134676
5.595684
##ZVALUE=350
0.747442
0.770688
0.627637
0.770688
0.651479
0.845790
0.688434
0.689626
0.786781
0.706911
0.689626
0.977516
0.933409
0.640750
0.771880
0.719428
0.745654
0.761747
0.734925
0.720620
0.941753
0.827909
0.774860
0.857711
0.911951
0.940561
0.754595
0.839829
0.961423
0.981688
0.971556
1.105666
1.069903
0.931621
1.067519
1.162887
1.008511
1.247525
1.220703
1.071692
1.200438
1.248717
1.245737
1.269579
1.410842
1.471639
1.485944
1.567602
1.658797
1.726747
1.825690
1.813769
2.059937
2.148747
2.373457
2.652407
3.334880
11.417866
41.583776
157.799721
334.315896
752.793550
1015.870571
1015.870571
1015.870571
1015.870571
1015.870571
1015.870571
1015.870571
1015.870571
719.249845
335.579515
149.516463
34.961700
11.655688
7.275939
6.445646
5.986691
5.523562
5.161762
5.923510
8.240938
10.993481
16.966462
22.253990
31.982660
38.853884
46.682954
50.835609
51.757693
49.486756
42.908788
36.731958
27.992725
21.428466
14.390945
##ZVALUE=355
0.734925
0.798702
0.931621
0.762939
0.714660
0.659823
0.624657
0.688434
0.756979
0.831485
0.887513
0.762939
0.939965
0.813603
0.874996
0.812411
0.950694
0.871420
0.952482
0.709891
0.871420
0.812411
0.910759
0.929832
0.984669
0.962615
0.927448
0.959635
1.033545
1.144409
0.987649
0.877976
1.124740
0.996590
1.241565
1.081824
1.158714
1.225471
1.157522
1.346469
1.118779
1.176596
1.426935
1.295805
1.413822
1.519918
1.409650
1.551509
1.381636
1.616478
1.663566
1.714826
2.019405
2.093911
2.074838
2.330542
2.366900
2.712607
2.842546
5.693436
20.406842
97.398758
224.762559
535.333753
912.524462
1015.873551
1015.873551
1015.873551
1015.873551
1015.873551
1015.873551
1015.873551
906.063914
414.102674
196.963549
53.310990
16.571879
7.297993
6.380677
5.978942
5.489588
5.151629
5.058646
5.583763
6.932616
9.835958
13.500452
20.372868
26.334524
34.941435
41.409731
46.669841
47.792792
45.971870
41.681528
34.071803
##ZVALUE=360
0.711679
0.768900
0.784993
0.835657
0.815988
0.767708
0.663996
0.675917
0.729561
0.874996
0.756979
0.653863
0.814795
0.710487
0.867844
0.910759
0.834465
0.888705
0.806451
0.818968
0.965595
0.870824
0.956655
1.029968
0.886917
0.984669
0.784993
1.148582
1.189709
1.161695
0.927448
1.064539
1.047850
1.056790
1.097918
1.214743
1.212955
1.220703
1.154542
1.125932
1.321435
1.226664
1.170635
1.354814
1.318455
1.393557
1.386404
1.416802
1.377463
1.567602
1.601577
1.735687
1.777411
1.928806
2.098680
2.024770
2.121925
2.262592
2.353787
2.738833
2.972484
3.761649
8.800626
44.778585
126.737356
367.954969
671.283603
1015.870571
1015.870571
1015.870571
1015.870571
1015.870571
1015.870571
1015.870571
1015.870571
562.547445
295.491815
102.162957
33.689737
8.297563
6.615520
5.834699
5.458593
5.145669
4.776716
4.845858
5.095601
6.034970
7.964969
11.625886
16.321540
23.743510
29.703975
36.687851
41.390657
44.320822
##ZVALUE=365
0.779629
0.759959
0.827909
0.822544
0.778437
0.691414
0.803471
0.634789
0.751615
0.718832
0.706911
0.734925
0.623465
0.693798
0.709891
0.672936
0.756979
0.843406
0.730753
0.863671
0.818968
0.707507
0.867844
0.913739
0.800490
1.006722
0.941753
0.842810
0.975728
1.127720
0.917912
0.989437
1.025796
1.052618
1.167655
1.032948
1.013875
1.127720
0.953674
1.111627
1.135468
1.080632
1.069903
1.111627
1.233816
1.154542
1.358986
1.135468
1.311898
1.353621
1.414418
1.530647
1.676679
1.671910
1.626611
1.628995
1.668930
1.933575
1.979470
2.152920
2.341866
2.751946
3.059506
3.323555
4.633665
23.198724
72.488785
228.990316
467.993617
953.781605
1015.871763
1015.871763
1015.871763
1015.871763
1015.871763
1015.871763
1015.871763
770.094991
428.161621
151.898861
54.690838
11.154413
6.526709
5.419850
5.210638
4.872680
4.716516
4.643798
4.364848
4.829764
5.600452
7.497668
10.219812
15.353560
19.910932
26.660562
##ZVALUE=370
0.710487
0.731945
0.676513
0.810623
0.672936
0.683665
0.735521
0.697970
0.744462
0.751615
0.873804
0.779629
0.723600
0.759959
0.756979
0.793934
0.700951
0.694990
0.848770
0.681877
0.907779
0.844598
0.805855
0.878572
0.844598
0.814795
0.814795
0.924468
0.848770
0.889897
0.953674
0.853539
0.979900
0.794530
0.991821
0.915527
1.027584
1.072884
1.195669
1.008511
1.223683
0.939965
1.043677
1.098514
1.076460
1.075864
1.182556
1.139641
1.306534
1.154542
1.306534
1.249909
1.195669
1.155734
1.304746
1.396537
1.511574
1.629591
1.636744
1.768470
1.855493
2.130866
2.075434
2.292991
2.559423
3.012419
3.424883
11.236668
42.705536
165.375471
344.700813
732.996464
1015.880704
1015.880704
1015.880704
1015.880704
1015.880704
1015.880704
1015.880704
932.684541
543.859601
218.474865
94.913840
25.084615
8.583665
5.420446
5.040765
4.751682
4.577637
4.466772
4.544854
4.577637
4.797578
5.733967
6.935596
9.393692
##ZVALUE=375
0.714660
0.722408
0.550747
0.615716
0.548959
0.786781
0.738502
0.721812
0.742674
0.621676
0.595450
0.717640
0.768900
0.735521
0.711679
0.686646
0.644922
0.846982
0.789762
0.796914
0.815988
0.688434
0.766516
0.863671
0.806451
0.775456
0.915527
0.897646
0.932813
0.867844
0.848770
0.900626
0.991821
0.754595
1.009703
0.969768
0.982881
0.897646
0.639558
1.037717
1.025796
0.938773
0.989437
0.954866
0.985861
1.021624
1.071692
1.080632
0.996590
1.208782
1.033545
1.278520
1.141429
1.161695
1.199841
1.213551
1.229644
1.260638
1.352429
1.514554
1.488924
1.376867
1.683831
1.890659
1.859665
2.221465
2.255440
2.749562
3.241897
6.121993
20.468831
88.578463
218.190551
549.668670
924.741626
1015.893817
1015.893817
1015.893817
1015.893817
1015.893817
1015.893817
1015.893817
760.111809
385.882854
193.796754
55.235624
16.454458
5.923510
5.265474
4.796982
4.887581
4.800558
4.967451
4.990697
4.906654
4.997849
##ZVALUE=380
0.564456
0.570416
0.470877
0.691414
0.672936
0.639558
0.632405
0.601411
0.605583
0.623465
0.553727
0.578761
0.612736
0.459552
0.644922
0.696778
0.563860
0.621676
0.731945
0.681877
0.702739
0.739694
0.941753
0.785589
0.808835
0.587702
0.889897
0.833869
0.853539
0.821948
0.839829
0.901818
0.844598
0.897646
0.952482
0.893474
0.916719
0.816584
1.006722
0.957847
0.958443
0.895858
1.104474
0.923872
1.022816
1.022816
0.952482
0.926852
1.091957
1.090765
0.997782
1.259446
1.032948
1.068711
1.061559
1.083612
1.086593
1.120567
1.295805
1.250505
1.342893
1.331568
1.411438
1.552701
1.595616
1.703501
2.051592
2.368689
2.700686
2.876520
3.153682
3.835559
10.378957
57.622790
154.615045
422.245860
742.546916
1015.871763
1015.871763
1015.871763
1015.871763
1015.871763
1015.871763
1015.871763
987.505913
537.789464
284.409523
96.994638
33.424497
8.235574
5.550981
5.477667
5.248785
5.124807
5.222559
4.906654
##ZVALUE=385
0.647902
0.615716
0.554919
0.596642
0.731945
0.595450
0.579953
0.724792
0.668764
0.625849
0.620484
0.599623
0.510812
0.675917
0.500679
0.574589
0.628829
0.678897
0.617504
0.721812
0.668764
0.612736
0.654459
0.619888
0.765920
0.747442
0.838637
0.906587
0.834465
0.911951
0.922680
0.763535
0.978708
0.949502
0.773668
0.996590
1.006722
1.051426
1.091957
0.987649
0.938773
1.061559
1.102686
0.891685
1.036525
0.995994
0.988841
1.178980
1.041889
0.980496
0.975728
1.088977
0.971556
1.084805
1.005530
1.173615
0.876784
1.185536
1.236796
1.192689
1.209974
1.376867
1.208782
1.348853
1.554489
1.753569
1.857877
1.965761
2.257824
2.327561
2.435446
2.698898
2.632737
3.015995
4.850626
28.883815
88.434815
267.929435
528.515577
994.900465
1015.870571
1015.870571
1015.870571
1015.870571
1015.870571
1015.870571
1015.870571
772.837996
459.309816
192.700624
75.045824
15.031695
6.675720
5.623698
5.265474
4.963875
##ZVALUE=390
0.576973
0.739694
0.568628
0.536442
0.681877
0.687838
0.552535
0.631809
0.721812
0.590682
0.575781
0.659823
0.651479
0.649691
0.609756
0.686646
0.611544
0.449419
0.505447
0.710487
0.652671
0.444651
0.634789
0.705719
0.755787
0.714660
0.812411
0.768900
0.746846
0.872612
1.036525
0.907779
1.107454
1.022816
0.966787
1.035929
1.034737
1.051426
1.113415
0.977516
1.028776
1.038909
1.000762
0.956655
1.099706
0.918508
0.996590
1.031756
1.115799
1.149774
1.113415
0.927448
1.124740
1.062751
0.992417
1.038909
1.065731
1.070499
1.123548
1.171827
1.217723
1.193881
1.276731
1.440644
1.385808
1.616478
1.791716
2.020597
2.030730
2.444983
2.173781
2.475977
2.526641
2.368689
2.357960
2.557635
3.229976
13.067722
50.580502
193.018913
407.873392
867.836475
1015.869975
1015.869975
1015.869975
1015.869975
1015.869975
1015.869975
1015.869975
998.458862
646.435618
274.463892
122.654438
29.156804
9.457469
5.639791
##ZVALUE=395
0.561476
0.509620
0.639558
0.415444
0.572801
0.526905
0.483990
0.530481
0.496507
0.447631
0.606775
0.515580
0.515580
0.668764
0.650883
0.718832
0.752807
0.555515
0.517964
0.618696
0.588894
0.462532
0.679493
0.778437
0.727773
0.645518
0.821948
0.923872
0.694990
0.832677
0.823736
0.861883
1.034737
1.020432
0.987649
1.105666
0.980496
1.042485
0.971556
1.077652
1.101494
1.118779
1.177788
1.188517
1.098514
1.160502
1.063943
1.244545
1.191497
1.081824
1.065731
1.051426
1.146793
0.996590
1.154542
1.174808
1.181960
1.169443
1.088977
1.106858
1.108646
1.353621
1.289845
1.323819
1.487732
1.589656
1.740456
1.874566
1.850724
2.052784
1.955628
2.181530
2.044439
2.093911
2.081990
2.052784
2.224445
2.697706
2.864599
7.444620
30.186772
131.189823
281.881690
610.727668
965.581536
1015.866995
1015.866995
1015.866995
1015.866995
1015.866995
1015.866995
1015.866995
841.044784
392.611623
190.533996
58.671832
##ZVALUE=400
0.657439
0.695586
0.721812
0.525713
0.441670
0.525713
0.544786
0.593662
0.566840
0.581741
0.511408
0.442863
0.599623
0.420809
0.510812
0.522733
0.487566
0.689626
0.469685
0.585914
0.553727
0.621676
0.603795
0.520945
0.657439
0.717640
0.861883
0.744462
0.832677
0.873804
0.857711
1.053810
0.849962
0.848770
0.963807
1.124740
1.073480
1.216531
1.105666
0.863671
0.943542
1.046658
1.029968
1.043677
1.136661
0.934601
0.948906
1.085997
1.049638
1.061559
1.126528
1.159906
1.054406
1.005530
1.083612
1.129508
1.146793
0.981688
1.129508
1.092553
1.078844
1.138449
1.182556
1.390576
1.162887
1.511574
1.644492
1.804829
1.863837
1.814961
1.774430
1.794696
1.718998
1.748800
1.690984
1.709461
1.746416
1.997948
2.206564
2.460480
2.576709
4.417896
13.985634
65.628886
164.591670
436.302423
766.851902
1015.830636
1015.830636
1015.830636
1015.830636
1015.830636
1015.830636
1015.830636
1003.721952
573.430657
##END
