##TITLE=C102_R2
##FORMAT=SPECTACLE-ASCII V-1.2
##DATA TYPE=ULTRAVIOLET SPECTRUM
##SECOND TYPE=ULTRAVIOLET SPECTRUM
##DATE=05/28/18
##TIME=12:24:26
##SPECTROMETER/DATA SYSTEM=SPECTACLE
##XUNITS=NM EM
##YUNITS=ENERGY
##YFACTOR=1
##FIRSTX=220
##LASTX=410
##NPOINTS=96
##3DDATA=Equidistant
##ZUNITS=NM EX
##FIRSTZ=210
##LASTZ=400
##ZPOINTS=39
##XYDATA=(Y..Y)
##ZVALUE=210
47.482848
47.287941
35.105944
31.291842
27.405620
23.303628
21.063685
17.338991
13.235807
12.808442
8.283854
7.479787
6.617904
7.823706
7.481575
7.879734
7.376671
8.550882
8.354783
8.246899
9.506941
10.789633
13.558865
13.169646
16.463995
19.258857
21.480918
24.691820
26.919842
28.471947
31.233430
31.260848
32.396913
31.728745
33.059716
33.065677
30.987859
31.916499
31.406879
28.805733
31.640530
29.504895
29.968619
29.389858
27.533770
28.491616
26.487708
27.448535
24.538636
25.710464
26.837587
25.876760
24.385452
25.299788
24.561882
23.667812
23.026466
23.171902
23.515821
22.234917
22.958517
22.629499
22.486448
22.950768
24.047494
26.374459
27.946830
34.194589
38.050413
42.115450
47.219992
52.343607
60.000420
61.688423
60.546994
58.367848
56.900978
52.661896
46.475530
41.454434
34.968853
30.104518
27.825832
21.088719
22.091866
19.075871
19.289851
18.832684
19.321442
26.854873
31.206608
50.963759
66.592693
93.791485
119.516850
146.667957
##ZVALUE=215
153.474808
144.218802
116.292834
80.216527
60.594678
49.177408
40.355921
36.376715
32.700896
28.259754
21.700859
17.578602
12.686849
10.248423
8.012652
6.843805
7.411838
7.559657
7.544756
7.515550
9.030700
9.218454
10.698438
12.840629
14.569759
16.770959
20.280480
23.019910
23.701787
27.685761
26.970506
29.733777
30.059814
30.742884
31.950474
32.515526
30.124784
28.977990
30.929446
29.964447
29.213428
28.156638
28.439760
28.469563
27.651787
26.882887
27.089715
28.580427
27.120709
27.188659
26.239753
25.723577
24.235845
25.832653
25.866628
25.683641
24.199486
25.140643
24.225712
21.865964
22.073984
22.320747
21.931529
22.653937
24.779439
23.269653
25.682449
29.712915
30.300617
34.802556
38.394928
38.967729
44.179559
45.794845
44.503808
44.970512
41.588545
38.487911
34.276843
28.930902
28.059483
23.568869
21.245480
20.160675
16.338825
16.416907
14.867783
14.201999
13.861656
13.740659
12.901425
14.030933
15.339851
18.624663
24.307966
40.984750
##ZVALUE=220
318.608880
324.199796
298.975706
248.275995
198.030472
140.545964
100.526810
69.443583
59.233904
49.852729
47.669411
42.769909
36.804676
31.058788
24.509430
17.376542
11.175871
9.408593
8.146763
7.201433
8.257627
8.048415
7.676482
9.716749
10.722876
12.134910
14.364719
16.163588
17.375946
18.064976
20.093918
20.860434
21.615624
23.695827
24.836659
24.358630
24.672747
26.747584
26.017427
26.040673
25.632977
27.645826
26.330948
26.949644
25.510788
25.857687
27.023554
24.653673
26.112795
24.761558
25.388598
29.072762
25.381446
27.223825
24.733543
25.950670
23.749471
25.903583
24.109483
23.732781
24.031997
22.897720
22.528768
21.921992
22.543669
22.022724
22.932887
26.790500
27.177930
30.814409
31.022429
32.826662
34.288764
34.203529
36.633611
35.167933
32.625794
30.082464
27.088523
23.112893
21.857619
19.459724
16.762614
16.863942
14.531612
14.666915
13.349652
12.824535
13.599992
12.238622
12.304783
11.522770
13.223886
11.108518
11.443496
11.457801
##ZVALUE=225
369.222760
382.322669
446.627736
486.744642
466.789603
403.446555
336.789489
228.900909
162.160993
116.504431
79.457760
69.274902
65.300465
63.650608
58.344603
50.285459
38.868785
30.466914
20.556450
14.605522
10.732412
9.135604
8.329749
9.034872
9.817481
9.488463
9.178519
11.037588
11.838675
12.553930
13.490915
14.697909
15.370846
16.130805
17.368793
18.141866
19.188523
21.210909
23.553967
22.863746
23.814440
25.084615
26.222467
25.874972
25.989413
26.942492
25.621653
25.335550
25.530457
25.099516
27.235746
25.096536
25.515556
25.056601
25.470853
23.966432
23.452640
22.581816
23.060441
22.510886
21.538734
21.086931
21.765828
22.441745
20.646453
21.741986
21.979809
23.297668
25.229454
27.717948
28.710961
31.443834
31.574965
32.645464
31.928420
28.453469
28.361678
25.397539
23.994446
21.337867
18.375516
16.013980
16.415715
13.780594
13.651848
13.366938
13.394952
12.830496
12.382865
11.776686
12.249947
11.004806
11.266470
11.974573
11.646748
11.388659
##ZVALUE=230
205.187798
227.018595
334.636569
501.377583
613.783002
699.730515
701.283813
627.999902
534.085631
408.466458
258.967876
171.210766
109.344721
90.638995
83.510876
85.577965
82.924962
76.934695
66.954494
48.720837
37.478805
22.726655
16.610622
10.504723
8.774996
8.654594
8.703470
8.640885
8.817911
9.811521
9.339452
10.875463
11.795759
13.494492
14.624596
15.416741
16.106963
18.418431
18.821955
20.166636
21.939874
20.841956
22.482872
23.176670
22.275448
23.890734
23.920536
23.280978
23.567677
23.682714
22.894740
23.357868
21.117926
22.854805
21.320581
22.833943
21.285415
20.853877
20.031929
20.332932
20.558834
19.974709
18.058419
19.655824
19.398928
19.343495
20.134449
21.692514
23.246408
24.229884
26.067495
27.471781
26.845932
28.732419
27.946830
26.523471
24.388433
23.604631
21.267533
19.543767
16.771555
15.235543
13.555884
13.622642
13.194680
13.064742
11.596680
12.231469
12.141466
11.821985
11.395812
11.125803
10.807514
11.353493
10.590553
11.220574
##ZVALUE=235
42.213798
48.747659
101.691484
236.110687
374.648571
583.728552
739.201903
897.431970
951.460600
896.813869
771.828890
560.467839
402.958989
239.409804
165.538788
121.078491
101.865530
99.448562
104.845762
102.527738
88.862777
75.073838
53.678751
39.137602
23.127794
17.418861
11.671782
9.782910
8.322597
8.639693
9.530783
9.524822
10.192990
10.856986
11.940598
13.055801
13.206601
14.955997
16.193986
16.101599
17.084479
17.756820
18.517971
17.354488
18.536448
18.806458
18.468499
19.117594
18.931627
19.441843
18.575788
19.343495
18.342733
17.979741
18.565655
17.023683
17.486811
16.769767
16.610622
16.630888
16.429424
16.640425
16.607642
15.645623
16.996861
16.427636
17.042756
18.557906
18.859506
21.701455
22.975802
24.031997
23.830533
24.066567
23.647547
22.602677
21.657944
19.345880
17.897487
16.815662
14.897585
13.653636
12.241602
12.568831
12.444854
11.866689
11.160970
10.865927
11.365414
10.582805
10.820627
10.623932
10.179877
9.687543
10.372996
10.262728
##ZVALUE=240
2.845526
3.318787
9.534955
41.165948
92.714429
215.503573
364.123583
613.238811
818.189979
989.845991
1015.870571
1015.870571
961.454511
787.901878
554.153919
375.829935
209.235549
145.242810
109.080672
102.958679
110.556483
112.892985
109.472871
93.759894
77.228546
55.335760
43.206811
26.839972
19.568801
14.263988
11.340976
10.680556
9.581447
10.334849
10.841489
11.271834
11.532903
12.292862
12.211800
13.041496
13.552904
14.269948
15.164614
15.141964
14.316440
15.219450
15.395880
14.979839
14.976859
14.877915
14.329553
14.775991
14.150739
14.003515
13.911724
13.173819
13.270974
13.095737
13.606548
13.366938
12.542605
12.414455
13.252497
12.828708
13.555884
13.308525
14.156699
14.992952
16.111732
17.342567
18.080473
19.567609
18.630624
19.582510
19.027591
18.551946
17.857552
15.922785
14.882684
13.393760
12.245774
11.494756
10.533929
10.073781
10.351539
9.866953
9.549856
9.766817
9.183884
10.147691
10.058880
9.142756
9.624958
9.240508
9.404421
9.787679
##ZVALUE=245
1.988411
2.346635
2.184510
2.107620
6.135702
20.125508
71.173906
150.271654
344.581604
539.971590
846.454501
1015.843749
1015.843749
1015.843749
1015.843749
965.533853
770.986080
503.050685
336.516500
179.667473
118.654966
100.653768
103.987455
115.856528
119.617581
113.933682
99.300742
84.828734
62.826872
47.006607
34.506917
20.913482
15.948415
12.183785
10.401607
10.004640
11.437535
11.880994
11.916757
11.955500
11.881590
11.967421
12.244582
12.575984
12.360811
12.746453
12.243986
12.075901
12.576580
12.123585
12.401938
12.824535
12.324452
11.703968
11.190772
11.602640
11.475682
10.973811
11.020899
10.139942
10.153651
10.993481
10.243654
10.233521
10.308623
10.863543
11.365414
12.276769
13.391972
13.915896
14.561415
15.678406
15.483499
15.899539
15.281439
14.056563
13.859868
12.744665
12.352467
11.086464
9.987950
8.829832
8.954406
8.320808
8.285642
8.430481
8.104444
8.366704
8.077621
7.756948
8.089542
8.150935
7.670522
8.270741
7.889867
8.038878
##ZVALUE=250
1.813769
1.800656
1.690984
2.017617
2.228618
2.227426
3.256798
13.090968
40.300488
98.045468
258.749723
452.603698
765.541792
989.097953
1015.870571
1015.870571
1015.870571
1015.870571
1009.641886
695.945024
465.067625
240.013599
147.836804
95.792413
92.983842
106.988549
118.848681
121.002793
118.788481
104.439855
88.096857
67.127943
50.249696
32.953620
23.501515
15.397668
13.528466
12.002587
11.458993
12.182593
12.350678
12.512803
12.450814
12.337565
12.025833
11.765957
11.470914
11.576414
11.939406
11.276603
11.590719
11.072755
11.317730
10.988712
10.474920
10.695457
10.615587
10.173917
8.974671
9.790659
9.127855
9.090900
9.390712
9.213686
9.464622
9.460449
9.845495
10.166764
10.519624
12.234449
12.715459
12.410879
13.650656
12.754798
13.173819
12.038946
11.290908
10.485649
9.701848
8.564591
8.130670
7.673502
7.540584
7.102489
7.052422
6.650686
6.651878
6.541610
6.707907
6.676912
6.611943
7.035732
6.996989
6.888509
7.476807
6.810427
##ZVALUE=255
1.653433
1.618862
1.666546
1.799464
1.799464
2.061725
1.982450
2.132654
2.748966
5.165935
30.371547
82.719922
175.851583
386.234522
606.450438
964.910984
1015.870571
1015.870571
1015.870571
1015.870571
1015.870571
938.481688
580.618978
360.512733
175.899863
112.328529
83.653927
89.169741
107.378960
118.903518
126.378536
122.945905
112.518668
92.229843
73.863864
50.691962
37.280917
24.292469
19.223690
14.184713
13.107657
13.146996
12.598634
12.334585
12.673736
12.814999
12.426972
11.798739
11.784434
12.474656
11.664629
10.934472
11.088848
11.208653
10.234714
10.350943
10.194778
9.726882
9.726882
9.583831
9.259582
8.810759
8.836985
8.466840
8.278489
8.792877
8.904934
9.485483
9.840727
9.983778
11.342764
11.295676
11.327863
11.078715
10.932684
9.775758
9.692907
9.052753
8.189678
7.425547
7.055998
6.515980
6.428957
6.023645
5.661845
5.962849
5.768538
5.761981
6.126761
5.680919
5.667806
5.639791
5.942583
5.555749
5.914569
5.919933
##ZVALUE=260
1.444817
1.651645
1.260638
1.424551
1.674891
1.596808
1.793504
1.899600
1.838803
2.104640
2.286434
3.213882
9.745955
47.632456
114.952922
291.883945
492.754579
829.987526
1015.870571
1015.870571
1015.870571
1015.870571
1015.870571
1015.870571
768.133402
519.409776
286.944509
164.972544
88.282824
75.128675
84.689856
105.877519
119.542480
130.981803
127.365589
113.682747
99.557638
74.721575
57.847500
39.669871
29.005408
20.034909
17.488599
15.182495
14.914870
14.576912
14.500618
14.081597
13.841987
14.069676
13.853908
13.079643
12.510419
12.257695
11.852980
11.447668
11.077523
10.889769
10.363460
10.281801
9.577870
9.395480
9.756684
8.907914
8.477569
9.091496
9.066463
9.519458
9.405613
10.177493
10.284781
10.928512
10.543466
10.664463
9.749532
9.523630
8.621812
8.080602
7.146597
6.905794
6.506443
6.248951
5.889535
5.611777
5.435944
5.645752
5.116463
4.985929
4.964471
5.278587
4.954934
5.144477
4.951954
5.213618
4.930496
4.920959
##ZVALUE=265
1.294613
1.389980
1.385808
1.555681
1.534820
1.564622
1.700521
1.737475
1.602769
1.797676
1.900792
1.981854
1.940727
2.836585
5.162954
29.993653
80.296397
216.238499
397.791862
765.703917
1015.870571
1015.870571
1015.870571
1015.870571
1015.870571
1015.870571
1001.479626
740.999579
408.266783
238.902569
130.269527
70.546865
69.058537
90.540648
107.611418
127.849579
132.213831
129.686594
120.558739
97.780824
81.163645
58.815479
44.092536
30.588508
22.874475
18.825531
17.557740
16.712546
16.343594
16.429424
15.795827
15.302896
15.196800
14.569759
13.944507
13.462901
12.649894
12.003779
11.803508
10.959506
11.084676
9.981990
10.303855
9.672642
9.344816
9.309649
9.406805
9.496808
9.383559
9.853840
10.466576
10.379553
10.392666
10.332465
9.612441
8.929968
8.277893
7.644892
7.373691
6.849766
6.498694
5.970597
5.626678
5.181432
5.441904
5.080700
4.982948
4.963875
4.943609
4.801750
5.160570
4.998446
4.793406
4.864931
4.815459
4.440546
##ZVALUE=270
1.154542
1.287460
1.331568
1.148582
1.307726
1.346469
1.384616
1.530647
1.621842
1.580715
1.803637
1.706481
1.844764
1.990795
2.029538
2.355576
2.987981
13.223886
43.529868
153.437853
306.445956
533.788800
968.976617
1015.870571
1015.870571
1015.870571
1015.870571
1015.870571
1015.870571
990.718007
615.466833
366.376638
198.257565
81.983805
58.897734
69.538951
88.135004
111.366510
125.687718
135.414004
133.872628
120.642781
106.235743
81.489682
65.206885
45.622587
34.714937
26.431680
22.449493
19.831657
18.239617
17.740726
16.895533
16.369820
16.063452
15.060902
14.514923
14.225841
13.357997
12.685657
12.192726
11.583567
11.249781
10.403991
10.065436
10.169744
9.806752
10.004640
10.014772
10.262728
10.525584
10.629892
10.403991
10.020733
9.720922
8.857846
8.615851
7.961988
7.432699
6.762743
6.520748
5.878806
5.766749
5.494952
5.394816
5.301833
5.081892
5.096793
5.072951
5.085468
4.606843
4.936457
4.775524
4.835725
4.706979
4.507899
##ZVALUE=275
1.005530
1.312494
1.353621
1.318455
1.347661
1.502633
1.439452
1.288652
1.357794
1.490712
1.620650
1.541972
1.709461
1.643896
1.785755
1.997948
2.247691
2.548695
2.585649
5.671978
22.372603
71.432590
229.371786
448.037982
871.008635
1015.870571
1015.870571
1015.870571
1015.870571
1015.870571
1015.870571
1015.870571
942.761898
506.153703
286.192894
118.459463
64.092875
53.719878
66.619515
90.769529
107.345581
126.521587
135.942698
133.234859
124.003887
102.034807
86.245537
64.202547
49.922466
35.179853
27.518868
21.372437
19.006729
17.474890
16.865730
15.794635
15.064478
14.559627
13.754964
12.977719
12.740493
12.135506
11.510849
11.366606
10.646582
10.293722
10.702610
10.563731
10.394454
10.442734
10.913610
10.818839
10.208488
9.885430
9.916425
8.882880
8.671880
7.911921
7.454753
6.798506
6.463528
6.039739
5.704761
5.716681
5.401969
5.301833
5.091429
5.237460
4.942417
5.024672
4.859567
4.677773
4.765987
4.936457
4.486442
4.810691
##ZVALUE=280
1.207590
1.180768
1.212955
1.207590
1.152754
1.124740
1.276731
1.368523
1.279712
1.237988
1.301765
1.360774
1.519918
1.542568
1.658797
1.576543
1.718998
1.991987
2.007484
2.367496
2.689958
2.999902
13.334751
48.707724
174.551606
339.564085
670.500994
982.648730
1015.880704
1015.880704
1015.880704
1015.880704
1015.880704
1015.880704
1015.880704
663.882494
394.912958
171.581507
83.808899
44.707656
48.457980
67.805648
86.182952
107.650757
121.716857
130.446553
130.267739
117.662549
103.288889
81.894994
63.745975
44.091940
32.972693
23.281574
18.160939
15.344620
14.174581
13.226867
12.684464
12.259483
11.875629
11.211634
10.853410
10.776520
10.500550
10.179877
9.553432
10.045767
9.710789
9.953976
9.926558
9.631515
9.555817
9.346604
8.938909
8.423924
8.059740
7.401705
7.282495
6.351471
6.357431
6.046891
5.983710
5.888939
5.458593
5.483627
5.198717
5.036592
5.156994
4.851818
5.062819
4.783869
4.885793
4.974604
4.648566
4.723668
##ZVALUE=285
1.046658
1.135468
1.179576
1.120567
1.174808
1.173615
1.357794
1.342893
1.321435
1.140833
1.332760
1.312494
1.231432
1.388788
1.444817
1.569986
1.596808
1.736879
1.806617
1.921654
2.064705
2.223849
2.573729
2.717972
6.247759
22.470951
89.575648
202.055573
468.864441
779.414773
1015.870571
1015.870571
1015.870571
1015.870571
1015.870571
1015.870571
1015.870571
930.233598
591.917634
277.645588
135.681629
49.310923
33.478737
43.500662
56.889653
79.573989
95.931888
112.686753
120.310783
122.048855
115.190744
97.612739
81.629753
58.879852
43.658614
27.717948
19.617677
13.936758
11.615753
10.331869
9.910464
9.536743
8.994937
8.812547
8.939505
8.846521
8.874536
8.549690
8.882880
9.268522
9.304881
9.054542
8.864999
8.865595
8.063912
7.819533
7.517934
6.894469
6.695986
6.289482
6.181598
5.819798
5.698800
5.550981
5.356669
5.312562
5.215406
5.163550
4.991889
5.073547
5.272627
4.919767
4.989505
4.985929
5.086660
4.992485
##ZVALUE=290
0.947714
1.064539
1.038909
1.060963
1.081824
0.921488
1.033545
1.050830
1.107454
1.316667
1.207590
1.232624
1.246929
1.422763
1.305938
1.265407
1.508594
1.514554
1.430511
1.659989
1.817942
1.991987
1.963973
1.923442
2.397895
2.764463
3.115535
8.647442
46.796799
121.051669
255.234838
585.997701
953.003764
1015.870571
1015.870571
1015.870571
1015.870571
1015.870571
1015.870571
1015.870571
787.996650
398.255587
204.222798
70.906878
31.079650
26.503801
34.978986
50.777793
66.208839
88.569522
100.715756
112.825632
115.608573
106.665492
93.538761
72.811842
56.291819
37.499666
26.649833
16.356707
12.054443
8.741617
7.823706
7.504821
7.399917
7.360578
7.126927
7.505417
7.708669
7.931590
7.946491
8.107424
8.150935
7.654428
7.902980
7.157922
6.705523
6.632805
6.183982
5.704761
5.610585
5.485415
5.557537
5.576611
5.462766
5.325675
5.158782
5.319715
4.901886
5.157590
5.023479
5.062819
4.818439
4.884601
4.638433
4.687905
##ZVALUE=295
1.060963
0.986457
0.870824
0.994802
0.942945
0.909567
1.071692
0.920892
1.158714
0.981688
1.016855
1.206994
1.241565
1.099706
1.183748
1.250505
1.261830
1.254678
1.437664
1.612902
1.284480
1.737475
1.740456
1.825690
1.976490
1.960993
2.336502
2.488494
2.658963
4.067421
20.766854
67.909956
172.072053
450.617671
771.600604
1015.866995
1015.866995
1015.866995
1015.866995
1015.866995
1015.866995
1015.866995
971.758962
530.522466
293.354988
106.561780
43.209791
18.722415
21.044612
31.706691
43.568611
63.151717
77.770948
96.150637
104.833841
107.809901
101.453662
86.386800
71.791410
51.201582
38.079619
23.343563
16.070604
10.354519
7.926822
6.831884
6.743670
6.536841
6.546974
6.870627
6.999969
7.205606
7.260442
7.037520
6.761551
6.460547
6.295443
6.135702
5.576611
5.545616
5.452633
5.193949
5.103946
5.305409
5.046725
4.827976
4.917979
5.017519
4.993677
4.931688
4.799962
4.754663
4.816651
4.791617
4.634857
4.720688
##ZVALUE=300
0.879765
0.882745
0.841618
0.764728
0.968575
0.987649
0.962615
1.056790
1.244545
0.966787
0.977516
0.933409
1.015663
1.219511
1.060963
1.036525
1.229644
1.294613
1.257658
1.304746
1.363754
1.373887
1.466870
1.488924
1.735687
1.743436
1.826882
1.974702
2.289414
2.421737
2.738833
2.724528
8.262992
31.676888
127.998590
272.753835
615.062714
967.960954
1015.871763
1015.871763
1015.871763
1015.871763
1015.871763
1015.871763
1015.871763
814.521909
419.721007
223.756433
77.792406
28.368831
14.774799
18.223524
27.479529
37.993789
56.033731
71.458817
89.467764
97.424984
102.114677
97.544789
84.730983
72.457790
52.179694
38.905740
23.557544
16.654730
10.211468
8.120537
6.765723
6.558895
6.521940
6.374717
6.444454
6.624460
6.217957
6.069541
5.592704
5.521774
5.663633
5.306602
5.038977
4.918575
4.947782
4.845858
5.109906
4.902482
4.853606
4.730821
4.655719
4.718900
4.584789
4.596710
4.392862
4.454851
4.613996
4.537702
##ZVALUE=305
0.608563
0.611544
0.748634
0.493526
0.765920
0.791550
0.776649
0.762939
0.633597
0.918508
0.861883
0.829697
0.817776
0.779629
0.774860
0.794530
0.859499
0.966787
0.954866
1.014471
0.972748
1.082420
1.108646
1.176596
1.250505
1.387596
1.463890
1.562834
1.599789
1.718998
1.732707
2.111793
2.263784
2.781749
3.791451
20.166636
64.225793
211.490989
411.707759
827.362537
1015.668511
1015.668511
1015.668511
1015.668511
1015.668511
1015.668511
1015.668511
966.005921
625.544786
285.393596
135.054588
39.016604
15.484691
12.889504
16.539693
26.031733
36.270618
53.051710
67.015886
83.433986
92.027783
94.790459
92.057586
80.675483
68.163872
48.245788
36.246777
23.477674
16.048551
9.850860
8.064508
6.626844
6.379485
5.929470
5.694628
5.322695
5.131960
5.029440
4.742742
4.528761
4.424453
4.395843
4.450679
4.408956
4.409552
4.085898
4.305840
4.242659
4.217625
4.343987
4.289746
4.057884
4.130602
4.136562
4.105568
3.890991
##ZVALUE=310
0.866652
0.926852
0.808835
0.776649
0.895858
0.786781
0.881553
0.863671
1.200438
0.941753
1.056790
0.889897
0.996590
1.009703
1.012683
1.051426
1.080632
1.058578
0.903606
1.206994
1.078844
1.178980
1.305938
1.182556
1.378655
1.406670
1.308918
1.596808
1.503825
1.698732
1.596808
1.748800
1.989603
2.232790
2.383590
2.656579
2.836585
7.828474
28.219819
115.018487
252.286792
575.857759
944.869518
1015.870571
1015.870571
1015.870571
1015.870571
1015.870571
1015.870571
1015.870571
872.876644
447.475910
233.871937
77.664852
26.405454
10.685921
11.147857
15.455484
21.107793
32.877922
44.935942
62.327981
74.369907
85.888505
90.262890
87.605715
80.313683
65.269470
52.158833
35.310984
25.084615
16.390681
11.269450
7.576942
6.123781
5.569458
4.886985
4.846454
4.535913
4.340410
4.454851
4.469752
4.363656
4.186630
4.393458
4.276633
4.557967
4.325509
4.215837
4.165769
4.188418
4.191995
3.955960
4.188418
4.168749
4.123449
##ZVALUE=315
0.852942
0.807643
0.852942
0.778437
0.960827
0.793934
0.796914
0.950694
0.791550
0.933409
0.937581
1.012683
1.031756
0.855923
1.002550
0.865459
1.058578
1.010895
0.994802
0.971556
1.078844
1.227856
1.213551
1.136661
1.201630
1.275539
1.359582
1.424551
1.412630
1.485944
1.396537
1.568794
1.582503
1.843572
1.728535
2.004504
2.058744
2.296567
2.652407
4.020929
13.390779
68.639517
167.643428
423.290730
741.683841
1015.866995
1015.866995
1015.866995
1015.866995
1015.866995
1015.866995
1015.866995
1015.866995
618.131757
339.023471
119.000673
43.132901
12.343526
9.244680
10.145903
12.983680
20.317435
28.512478
42.351484
54.956675
71.018934
80.301762
85.110664
83.401799
74.220896
63.842535
48.321486
36.318898
22.910833
15.365481
9.377599
7.005930
5.261898
4.716516
4.569888
4.196763
3.963709
4.266500
4.012585
3.927946
3.912449
3.944635
4.103780
4.136562
3.996491
4.069805
4.145503
3.878474
4.044771
3.967881
3.878474
##ZVALUE=320
0.753999
0.884533
0.934601
0.630617
0.702739
0.891685
0.799894
0.791550
0.958443
0.802875
0.702739
0.932813
0.830889
0.934601
0.871420
0.992417
0.975728
0.909567
0.995994
1.098514
1.179576
1.052618
0.862479
1.017451
1.018643
1.099706
1.237988
1.121759
1.343489
1.453757
1.305938
1.486540
1.590848
1.615882
1.681447
1.557469
1.754761
1.995564
2.080798
2.284646
2.388954
2.957582
6.035566
37.302971
103.505850
302.628875
540.571809
967.587829
1015.870571
1015.870571
1015.870571
1015.870571
1015.870571
1015.870571
1015.870571
801.440477
471.514463
200.772882
83.578825
20.329952
9.362698
8.425713
9.054542
12.150407
16.713738
26.498437
37.003756
51.855445
63.823462
75.631738
80.603957
79.606771
73.087811
59.053898
47.785640
31.786561
22.753477
13.697743
9.347796
6.026626
4.755855
4.298687
3.916621
3.895760
3.883839
3.945827
3.790855
3.643632
3.809929
3.650784
3.689528
3.757477
3.794432
3.476739
3.850460
3.813505
##ZVALUE=325
0.636578
0.786781
0.731945
0.689626
0.844598
0.851750
0.626445
0.890493
0.845790
0.935793
0.951886
0.924468
0.801682
0.935793
0.995994
0.706911
0.723600
0.959635
0.993609
0.877976
0.795722
0.865459
1.030564
0.930429
0.976920
1.095533
1.035929
1.080632
1.148582
1.272559
1.150966
1.245737
1.260638
1.467466
1.349449
1.581907
1.632571
1.498461
1.672506
1.807809
2.025962
2.235770
2.262592
2.681613
3.645420
22.752881
68.398714
202.915668
391.388535
800.608993
1015.867591
1015.867591
1015.867591
1015.867591
1015.867591
1015.867591
1015.867591
951.471925
596.870780
270.576477
127.113461
33.047795
11.919737
7.648468
7.684827
8.615851
11.083484
16.893744
24.442673
37.635565
48.493743
61.929822
70.270896
75.274706
73.220730
65.150857
55.670738
41.827559
31.087995
19.435883
13.272762
7.867813
5.759597
4.434586
4.053712
3.709793
3.427863
3.622770
3.596544
3.402829
3.618598
3.628731
3.622770
3.569722
3.651977
3.600717
##ZVALUE=330
0.717640
0.689626
0.747442
0.741482
0.696778
0.712872
0.645518
0.840425
0.802875
0.802875
0.831485
0.834465
0.894666
0.855923
0.813603
0.944734
0.698566
0.819564
0.556707
0.859499
1.032948
0.900626
0.838637
0.955462
1.017451
1.071692
1.107454
1.031756
1.105666
1.142621
1.136661
1.147985
1.050830
1.195669
1.269579
1.302958
1.403689
1.323819
1.330972
1.566410
1.450777
1.850724
1.944900
2.073646
2.104640
2.391934
2.704859
8.959770
32.566786
125.179887
265.857577
592.958927
934.907794
1015.870571
1015.870571
1015.870571
1015.870571
1015.870571
1015.870571
1015.870571
765.357614
365.862846
187.221766
61.613917
20.008683
7.832646
7.150769
7.117987
8.113980
11.026859
15.412569
23.625493
32.674670
46.567917
56.215525
66.082478
69.871545
67.813993
62.250495
50.795674
40.876865
27.797818
19.616485
12.174845
8.717775
5.724430
4.367828
3.904700
3.728867
3.438592
3.649592
3.498793
3.535748
3.517866
3.470778
3.391504
##ZVALUE=335
0.772476
0.762939
0.664592
0.785589
0.648499
0.715852
0.814795
0.747442
0.763535
0.843406
0.674725
0.791550
0.659823
0.696778
0.853539
0.873804
0.890493
0.717640
0.840425
0.611544
0.765920
0.784993
0.892878
0.916719
0.947714
0.976920
0.997782
0.942945
0.949502
1.059771
1.091957
1.184940
1.084805
1.004934
1.240969
1.191497
1.140833
1.197457
1.285672
1.442432
1.421571
1.459718
1.476407
1.750588
1.816750
1.804829
1.983643
2.374649
2.552867
3.659725
18.831491
59.667826
197.129846
384.509563
778.833628
1015.870571
1015.870571
1015.870571
1015.870571
1015.870571
1015.870571
1015.870571
891.608000
553.159714
240.398645
109.341741
28.837919
10.276437
7.002950
6.755590
7.215738
7.673502
10.236502
13.806820
21.832585
29.383898
41.696429
51.433444
60.442686
64.214468
63.511729
58.133602
48.896670
40.312409
28.061867
20.586848
13.008714
9.077787
5.831718
4.569888
3.792644
3.674626
3.343821
3.496408
3.274679
3.584623
##ZVALUE=340
0.736713
0.642538
0.619888
0.643730
0.728965
0.636578
0.640750
0.734925
0.634789
0.796914
0.645518
0.824928
0.681877
0.804663
0.677705
0.702739
0.669956
0.720620
0.797510
0.799894
0.756979
0.923872
0.736713
0.776649
0.827909
0.893474
0.916719
0.835657
0.897646
0.992417
1.088977
0.999570
1.118779
1.036525
1.130700
1.213551
1.089573
1.151562
1.213551
1.063943
1.173615
1.323819
1.309514
1.432896
1.487732
1.658797
1.754761
1.842976
1.796484
2.136827
2.371669
2.987981
7.049441
40.849447
115.125775
327.314734
594.101548
1006.956697
1015.870571
1015.870571
1015.870571
1015.870571
1015.870571
1015.870571
1015.870571
622.209907
342.334509
125.470757
46.032667
11.761785
7.643700
6.793737
6.577969
6.558895
7.180572
9.419918
12.808442
20.378828
27.858615
39.957762
48.335791
57.046413
60.195923
59.389472
55.177808
46.291947
37.999749
27.335882
20.208955
12.875795
9.034872
5.827546
4.771948
3.946424
3.708601
3.526807
##ZVALUE=345
0.674725
0.675917
0.675917
0.738502
0.583529
0.671744
0.779629
0.670552
0.581741
0.673532
0.703931
0.771880
0.716448
0.850558
0.716448
0.895858
0.734925
0.614524
0.783801
0.839829
0.857711
0.806451
0.704527
0.897646
0.845790
0.736713
0.867844
0.867844
0.769496
0.826716
0.840425
0.926852
0.893474
0.957847
1.087785
1.011491
1.078844
1.021624
1.053810
1.237988
1.204610
1.266599
1.219511
1.178980
1.357794
1.324415
1.512766
1.419783
1.693964
1.788735
1.803637
2.120733
2.267957
2.571940
3.829002
20.753741
70.050955
220.825076
419.671535
823.257565
1015.870571
1015.870571
1015.870571
1015.870571
1015.870571
1015.870571
1015.870571
793.562531
456.669927
178.622007
75.582862
20.344853
8.971691
7.167459
6.655455
5.950928
5.561709
6.252527
7.851720
12.264848
17.515421
27.139783
34.882426
43.948889
49.953461
55.128932
55.577755
51.828623
46.012998
36.865473
28.485656
19.019842
13.716817
8.566976
6.637573
4.969835
##ZVALUE=350
0.677705
0.643730
0.566840
0.730753
0.775456
0.871420
0.642538
0.617504
0.623465
0.834465
0.672936
0.696778
0.631809
0.723600
0.796914
0.718832
0.987649
0.693798
0.662804
0.853539
0.653863
0.859499
0.857711
0.888705
1.032948
0.800490
0.928640
1.068711
0.984669
0.874996
0.903606
0.931621
0.994802
0.927448
1.083612
0.973940
0.910759
1.122952
1.097918
0.993609
1.023412
1.162887
1.156926
1.185536
1.438856
1.382828
1.458526
1.367927
1.386404
1.548529
1.406670
1.697540
1.742840
1.773834
2.218485
2.375841
2.645850
9.383559
34.174919
130.576491
276.482701
620.460510
961.035490
1015.871763
1015.871763
1015.871763
1015.871763
1015.871763
1015.871763
939.950943
590.477586
271.914005
121.327639
28.875470
10.187626
6.501675
5.785823
5.289912
4.930496
4.930496
5.620718
7.726550
10.516644
16.140938
21.766424
30.980706
37.873983
46.340823
49.819946
51.286817
48.817992
42.103529
35.812855
26.339889
19.945502
13.335943
##ZVALUE=355
0.773668
0.729561
0.669956
0.680685
0.682473
0.795722
0.805855
0.833869
0.773668
0.702739
0.847578
0.808835
0.688434
0.771880
0.728965
0.795722
0.681877
0.809431
0.890493
0.801682
0.873804
0.822544
0.927448
0.724792
0.880957
0.813603
0.991821
0.963807
0.817776
0.933409
0.874996
0.985861
1.093745
0.942945
0.968575
1.025796
1.158714
1.098514
0.873804
1.022816
0.999570
1.105666
1.219511
1.342893
1.202822
1.082420
1.289845
1.256466
1.464486
1.475811
1.418591
1.693964
1.780987
1.577735
1.757741
1.984835
2.003908
2.390742
2.695918
4.948974
16.641617
78.908801
182.622671
435.887575
745.195746
1015.870571
1015.870571
1015.870571
1015.870571
1015.870571
1015.870571
1015.870571
718.399882
330.488682
161.249638
49.417615
15.313625
6.230474
5.922914
5.229712
4.709959
4.630685
4.761815
5.234480
6.442666
9.344816
12.998581
20.028949
25.501847
34.320951
40.316582
46.380758
47.517419
44.952631
40.958524
33.887625
##ZVALUE=360
0.692606
0.475645
0.663996
0.684857
0.552535
0.729561
0.590682
0.825524
0.722408
0.611544
0.624657
0.778437
0.622869
0.660419
0.825524
0.769496
0.799894
0.750422
0.879765
0.771880
0.868440
0.847578
0.871420
0.784993
0.872612
0.963807
0.993609
0.803471
0.892878
0.818968
0.948906
0.947714
0.958443
0.826716
1.020432
1.030564
1.057982
1.151562
0.995994
0.980496
0.982881
1.062751
1.179576
1.054406
1.176000
1.086593
1.151562
1.287460
1.346469
1.315475
1.422763
1.300573
1.501441
1.443624
1.722574
1.679659
1.734495
1.940727
2.015829
2.397895
2.615452
3.337860
7.192492
36.935806
103.652477
297.977924
538.424850
957.434773
1015.852690
1015.852690
1015.852690
1015.852690
1015.852690
1015.852690
912.984610
469.522476
249.403715
87.717772
28.882623
7.321835
5.840659
5.258918
4.866719
4.360676
4.235506
4.260540
4.623532
5.615950
7.258654
11.092424
15.607476
22.955537
28.954744
36.310554
40.138960
43.034554
##ZVALUE=365
0.685453
0.630617
0.571609
0.637770
0.593662
0.667572
0.677705
0.699759
0.639558
0.804663
0.632405
0.751615
0.778437
0.712872
0.604987
0.728965
0.883937
0.908971
0.792742
0.676513
0.669956
0.797510
0.749826
0.714660
0.813603
0.772476
0.845790
0.819564
0.650883
0.798702
0.840425
0.945926
0.901818
0.955462
1.077652
0.813603
0.990629
0.837445
0.960827
1.102686
0.933409
0.953674
1.150966
1.046658
1.121759
1.204610
1.132488
1.131892
1.155734
1.235604
1.319647
1.420975
1.362562
1.417994
1.409650
1.395941
1.571774
1.653433
1.687407
1.940727
2.025962
2.219677
2.557635
2.764463
3.704429
17.678738
58.748722
193.141699
384.379625
765.579939
1015.870571
1015.870571
1015.870571
1015.870571
1015.870571
1015.870571
1015.870571
642.232895
362.882614
134.601593
50.019622
10.365844
5.808473
5.098581
4.916787
4.383922
4.258752
4.069805
3.770590
4.215837
4.950762
6.887913
9.306669
13.741851
18.580556
25.456548
##ZVALUE=370
0.656843
0.624657
0.657439
0.679493
0.569820
0.818968
0.632405
0.718832
0.562668
0.763535
0.886917
0.838637
0.741482
0.626445
0.612736
0.624657
0.701547
0.716448
0.890493
0.751615
0.797510
0.745654
0.743866
0.856519
0.817776
0.766516
0.810623
0.828505
0.924468
0.809431
0.839829
0.868440
0.773668
0.928640
0.969768
0.858903
0.889897
0.981688
0.797510
1.026988
0.896454
0.988841
1.101494
0.981688
0.961423
1.075864
1.046658
1.107454
1.095533
1.007915
1.225471
1.220703
1.089573
1.137853
1.195669
1.193881
1.310706
1.379848
1.405478
1.463890
1.516938
1.626611
1.866817
1.993775
2.066493
2.310872
2.963543
9.196997
33.865571
131.879449
271.665454
580.224991
915.284753
1015.870571
1015.870571
1015.870571
1015.870571
1015.870571
1015.870571
768.326521
453.968644
184.203982
81.235766
22.190809
7.692575
4.890561
4.493594
4.165769
4.048944
3.850460
3.740788
3.944635
4.209876
4.910827
6.121993
8.771420
##ZVALUE=375
0.628829
0.685453
0.482798
0.706911
0.685453
0.652671
0.643730
0.710487
0.673532
0.558496
0.548959
0.671744
0.685453
0.759959
0.596642
0.701547
0.568628
0.726581
0.626445
0.742674
0.631809
0.792742
0.707507
0.732541
0.798702
0.870824
0.858903
0.948906
0.833869
0.892878
0.830889
0.735521
0.841618
0.935793
0.804663
0.919700
0.910759
0.723600
0.767708
0.874996
0.826716
0.755787
1.010895
0.925660
0.924468
0.728965
0.936985
0.969768
0.858903
1.013875
0.875592
0.939965
1.066923
1.013875
1.092553
0.982881
0.999570
1.162887
1.187921
1.300573
1.330972
1.189709
1.407862
1.523495
1.493692
1.698732
1.996756
2.156496
2.668500
4.993677
15.836954
69.669485
171.570778
434.073806
728.821754
1015.870571
1015.870571
1015.870571
1015.870571
1015.870571
1015.870571
945.906639
620.481968
299.743414
151.413679
44.434667
13.774633
4.968643
4.676580
4.288554
4.226565
4.207492
4.377961
3.954768
3.867745
4.084706
##ZVALUE=380
0.659823
0.761747
0.555515
0.818968
0.552535
0.632405
0.678897
0.562668
0.478625
0.508428
0.552535
0.601411
0.640750
0.699759
0.583529
0.659823
0.476837
0.676513
0.566840
0.588894
0.600815
0.550747
0.685453
0.649691
0.722408
0.737906
0.755787
0.519753
0.841618
0.888705
0.803471
0.918508
0.849962
0.917912
0.886917
0.945926
0.861883
0.819564
0.976920
0.928640
0.850558
0.898838
0.901818
0.880957
0.865459
0.895858
1.017451
0.942945
0.968575
0.800490
0.929832
0.901818
0.952482
0.862479
0.928640
1.043677
1.049638
1.056790
1.013875
1.148582
1.197457
1.141429
1.173615
1.373887
1.454949
1.541972
1.564622
1.912713
2.269745
2.397895
2.751946
3.249645
10.398626
36.413670
133.291483
280.736685
620.812774
960.176587
1015.871763
1015.871763
1015.871763
1015.871763
1015.871763
1015.871763
748.795867
463.265777
200.243592
90.109706
21.673441
7.103682
4.698634
4.451871
4.491806
4.492998
4.154444
4.251599
##ZVALUE=385
0.523925
0.514984
0.515580
0.690818
0.628829
0.583529
0.488758
0.588894
0.424981
0.483990
0.570416
0.711679
0.511408
0.510812
0.713468
0.534654
0.425577
0.464916
0.554919
0.533462
0.698566
0.620484
0.823736
0.762939
0.554919
0.639558
0.622869
0.767708
0.895858
0.816584
0.827909
0.899434
0.829697
0.972748
0.898838
0.816584
0.964999
0.841618
0.877976
0.890493
0.862479
0.842810
0.870824
0.859499
1.016855
0.943542
0.938773
0.897646
0.775456
0.971556
0.946522
1.063943
0.969768
0.940561
0.956655
1.109838
0.924468
1.189709
1.016855
1.009703
1.037717
1.052618
1.018643
1.176000
1.393557
1.396537
1.491904
1.679659
1.922846
1.866817
2.212524
2.166629
2.254844
2.406836
4.666448
16.834736
77.476501
189.048648
459.789634
760.015845
1015.870571
1015.870571
1015.870571
1015.870571
1015.870571
1015.870571
962.239504
649.191737
313.056707
156.338811
49.448609
15.205741
5.089641
4.641414
4.544854
4.299879
##ZVALUE=390
0.540614
0.587702
0.541806
0.556707
0.326633
0.601411
0.484586
0.523925
0.593662
0.474453
0.481606
0.519753
0.440478
0.565648
0.498891
0.575781
0.502467
0.544786
0.524521
0.582933
0.520945
0.482798
0.699759
0.604987
0.472665
0.591874
0.700951
0.724792
0.679493
0.705719
0.861883
0.727773
0.892878
0.935793
0.883937
0.904799
0.835657
0.888705
0.889897
0.941753
0.826716
0.932813
0.894666
0.882745
0.782609
0.927448
0.914931
0.961423
0.904799
0.927448
0.961423
0.971556
0.903606
0.922680
0.972748
0.992417
0.914931
1.022816
1.034737
1.097918
1.073480
1.049638
1.066923
1.269579
1.284480
1.252890
1.434684
1.572967
1.727939
1.867414
1.921654
1.911521
1.850724
1.949668
2.048612
2.090931
2.520680
11.092424
42.780638
160.149932
335.309505
697.769523
990.931988
1015.815735
1015.815735
1015.815735
1015.815735
1015.815735
1015.815735
828.416944
508.878827
219.480991
99.519491
24.262667
7.803440
4.809499
##ZVALUE=395
0.735521
0.729561
0.462532
0.573993
0.519753
0.485778
0.579953
0.609756
0.487566
0.482798
0.578761
0.441670
0.604987
0.577569
0.624657
0.702739
0.717640
0.633597
0.691414
0.691414
0.564456
0.543594
0.756979
0.680685
0.733733
0.755787
0.681877
0.769496
0.782609
0.831485
0.721812
0.796914
0.863671
0.910759
0.939965
0.803471
1.010895
0.941753
1.083612
1.056790
1.025796
0.984669
0.997782
1.001954
1.014471
1.191497
1.039505
1.053810
0.937581
0.976920
0.996590
0.941753
1.041889
1.022816
0.983477
1.003742
1.042485
1.239777
1.016855
0.960827
1.048446
0.975728
1.008511
1.202822
1.196861
1.445413
1.480579
1.572967
1.761913
1.803637
1.770854
1.738667
1.597404
1.760721
1.713634
1.812577
1.835823
2.118945
2.280474
6.096959
24.880767
109.883547
237.426758
505.882502
812.048912
1015.869975
1015.869975
1015.869975
1015.869975
1015.869975
1015.869975
972.263813
651.536584
306.077003
150.924921
47.037601
##ZVALUE=400
0.784993
0.581741
0.716448
0.567436
0.575781
0.687838
0.536442
0.553727
0.503659
0.503659
0.506639
0.723600
0.611544
0.519753
0.523925
0.477433
0.575781
0.622869
0.534654
0.590682
0.644922
0.566840
0.456572
0.662804
0.707507
0.707507
0.749826
0.853539
0.834465
0.840425
0.777841
0.869632
0.999570
0.955462
0.975728
0.999570
0.885725
0.943542
1.111627
0.841618
1.074672
1.025796
0.951886
0.997782
1.043677
1.032948
0.930429
0.875592
1.004934
1.107454
1.002550
1.023412
0.961423
1.013875
0.858903
1.035929
0.957847
1.066923
1.063943
1.059771
1.132488
1.165867
1.158714
1.125932
1.386404
1.330972
1.342893
1.601577
1.529455
1.710653
1.822710
1.514554
1.526475
1.497865
1.479983
1.550913
1.761913
1.698732
1.698732
2.092719
2.254844
3.669858
12.315512
59.747696
145.449638
372.110009
642.215610
1015.875936
1015.875936
1015.875936
1015.875936
1015.875936
1015.875936
1015.875936
862.193704
467.152596
##END
