##TITLE=C102_R4
##FORMAT=SPECTACLE-ASCII V-1.2
##DATA TYPE=ULTRAVIOLET SPECTRUM
##SECOND TYPE=ULTRAVIOLET SPECTRUM
##DATE=05/28/18
##TIME=12:33:19
##SPECTROMETER/DATA SYSTEM=SPECTACLE
##XUNITS=NM EM
##YUNITS=ENERGY
##YFACTOR=1
##FIRSTX=220
##LASTX=410
##NPOINTS=96
##3DDATA=Equidistant
##ZUNITS=NM EX
##FIRSTZ=210
##LASTZ=400
##ZPOINTS=39
##XYDATA=(Y..Y)
##ZVALUE=210
48.884749
43.825507
33.630729
29.446483
24.704933
22.966862
19.940734
16.428828
12.560487
9.937882
8.263588
6.983876
6.202459
5.648732
6.130934
6.873608
6.975532
8.102655
7.078648
7.763505
8.143783
9.987950
10.979772
13.767481
16.217828
18.650889
19.650459
23.613572
25.145411
26.346445
28.892756
30.123591
28.823614
30.575991
29.554963
31.740665
29.714704
29.745698
28.713942
30.261874
29.608607
29.783845
30.005574
28.635859
27.135611
26.502609
26.916862
28.304458
24.734735
25.856495
26.987791
26.216507
25.099516
23.714900
24.397969
24.337769
23.631454
23.838878
22.899508
22.475719
22.935867
21.547675
21.896958
22.284985
25.516748
23.857951
28.375983
31.754971
37.534833
42.329431
46.001673
53.117871
55.544972
61.419606
62.351823
58.479905
58.601499
53.411722
49.102902
42.122602
36.474466
29.048920
25.197864
22.332668
21.205544
18.175840
18.602610
19.207597
20.835996
27.682781
35.456419
51.218867
70.288777
97.527504
117.757916
157.938004
##ZVALUE=215
163.171887
158.491731
119.654536
80.140829
63.024759
49.092770
40.435791
34.690499
36.255717
29.212832
23.751855
17.976761
13.729930
11.067986
9.035468
8.056760
7.375479
6.312728
8.487701
9.699464
9.273887
11.043549
9.991527
14.229417
16.244650
18.568635
21.260977
23.382902
26.020408
28.590560
31.009912
30.306578
31.017661
31.376481
32.104850
33.263564
33.748746
31.837821
32.959580
33.146739
33.044815
32.022595
32.323599
31.035542
30.483603
32.295585
30.249953
30.354857
28.666854
28.819442
29.693842
28.000474
29.133558
29.338598
28.636456
28.499961
26.614666
27.281642
26.860833
25.908947
25.912523
25.811791
25.171638
25.053620
25.708675
28.921962
30.179620
32.705665
36.556721
39.678812
42.978525
48.148632
50.846934
50.902963
53.350925
52.513480
49.204826
45.266747
41.824579
35.257936
32.875538
26.721954
25.079846
20.240545
19.681454
18.642545
17.334819
17.463565
16.952753
16.417503
16.608834
16.977787
17.541647
21.497607
30.498505
45.189857
##ZVALUE=220
368.382931
364.410877
341.501832
279.700756
227.297544
156.066418
111.032724
75.974464
61.537623
51.867962
49.411654
44.577718
36.822557
31.258464
23.913980
16.889572
12.647510
10.169744
9.161830
8.434653
8.593798
9.886622
9.829998
11.032820
11.486411
14.371872
15.018582
17.269850
17.302632
20.502806
21.743774
23.050904
24.422407
24.911761
25.982857
27.015805
28.333664
28.985739
30.031800
29.706955
29.885769
30.633807
29.964447
29.659867
30.295849
31.169653
29.986501
29.480457
31.513572
30.215979
31.165481
30.277967
28.633475
29.716492
28.776526
27.545691
28.801560
28.851628
28.605461
26.861429
26.851892
24.426579
26.092529
23.481846
26.220679
27.015805
25.980473
29.954910
30.871630
35.960674
36.865473
38.940907
45.178533
45.343637
42.496920
42.219758
41.001439
35.695434
34.485459
29.410720
26.611686
21.852851
20.130873
18.201470
17.795563
16.293526
15.937686
15.361905
14.444590
14.820695
15.198588
15.103817
14.807582
14.288425
14.697909
13.307929
##ZVALUE=225
420.688987
437.563658
501.828790
549.643636
532.097816
468.981862
388.288498
267.346501
183.280706
127.320886
87.246895
71.874857
67.394972
65.336823
58.952570
49.588680
40.269494
29.211640
21.473765
14.135838
11.847615
8.691549
7.779598
9.537935
9.847879
10.696650
11.274815
13.167858
13.827682
14.606714
15.563965
16.255975
18.380880
19.436479
21.750927
22.998452
22.607446
24.369955
26.101470
28.379560
27.741790
29.464960
29.972792
27.891994
31.194687
29.617548
30.162930
28.741956
28.825998
29.012561
30.638576
30.139685
29.552579
28.378963
29.251575
27.871728
26.793480
26.630759
27.798414
25.517941
25.474429
25.242567
24.436712
23.996830
23.696423
25.226474
25.640726
27.763844
30.832887
31.789541
35.319924
35.613775
37.975907
38.563609
36.992431
36.556721
35.511851
30.175447
26.436448
24.654865
22.289753
19.559860
17.491579
16.357899
15.178919
14.951825
15.726686
14.585853
14.634728
13.148785
13.953447
11.978745
13.298988
13.361573
14.455914
13.930798
##ZVALUE=230
226.931572
242.494941
404.928923
548.442006
682.622790
788.318515
810.421705
730.725527
616.940856
437.469482
311.116576
183.013678
128.818750
93.040466
86.315870
84.334612
85.388422
75.516701
66.989660
47.169924
34.957528
23.829937
16.806722
11.780858
9.554625
8.452535
9.637475
9.555817
10.250807
11.358857
11.800528
12.919903
14.012456
15.572906
16.712546
17.935634
19.557476
21.663904
22.663474
23.445487
23.890734
25.387406
26.613474
27.247667
27.212501
25.860667
26.890635
28.006434
26.453733
26.568770
27.518868
25.608540
25.772452
24.193525
25.466681
24.887919
23.834705
24.422407
22.876859
24.047494
21.180511
22.152662
22.270679
22.930503
23.130774
22.033453
23.802519
24.372935
26.538968
27.861595
30.508637
32.819510
32.691956
33.678412
32.895803
30.578971
29.675961
26.440620
24.003983
21.668673
19.362569
18.172860
17.261505
15.697479
15.023947
14.291406
13.411641
13.433695
13.247728
13.202429
12.885928
12.638569
12.579560
12.467504
12.497902
12.742877
##ZVALUE=235
45.458674
53.898692
116.053820
265.777707
425.182581
657.633543
833.905935
1011.712551
1015.743017
1005.479693
874.359608
633.767843
452.116728
268.487930
183.920860
131.740570
102.902651
105.545521
104.978681
102.233887
87.826848
77.454448
53.857565
39.084554
25.517941
18.696785
12.848973
10.433793
9.612441
10.011792
10.045767
10.907650
11.732578
12.484789
13.713837
14.470816
15.741587
17.319918
17.188787
17.399788
19.877553
20.535588
20.324588
21.225810
21.903515
21.460652
21.504760
21.588802
20.836592
21.715760
20.654798
21.583438
20.439625
20.424724
20.160675
20.687580
19.964576
19.217730
19.055605
18.981695
18.043518
18.845797
18.149614
18.862486
17.963648
18.620491
20.022988
20.992756
22.604465
24.232864
26.181936
27.457476
26.559830
27.467608
27.387738
26.598573
25.230646
22.533536
21.657944
19.649863
17.198920
14.810562
14.880896
13.687611
13.358593
13.119578
12.810826
12.731552
13.037920
12.558699
12.284517
11.650920
11.709929
11.379719
11.170506
11.532903
##ZVALUE=240
2.864599
2.742410
13.907552
38.588643
115.666986
219.029784
440.932512
662.243962
973.214507
1015.870571
1015.870571
1015.870571
1015.870571
898.314714
673.110485
407.114625
264.776945
159.430504
114.750862
104.943514
109.343529
114.875436
108.803511
97.669959
75.756907
59.280992
41.863918
29.525757
19.165874
14.510751
12.472868
11.030436
11.121631
11.772513
11.267662
12.477636
13.120770
13.324618
13.596416
14.203787
15.326738
14.601946
15.371442
15.867949
16.544461
16.794801
16.278625
16.563535
16.632676
16.324520
15.701652
15.925765
16.517639
15.403628
16.445518
16.109943
14.645457
15.445948
15.365481
14.970899
15.033484
15.145540
14.184713
14.914870
15.665889
15.615821
15.777946
17.241836
18.466711
20.345449
20.686984
22.961497
23.816824
22.824407
23.874640
21.763444
20.513535
18.578768
17.292500
15.549660
14.050603
13.109446
12.319684
12.344718
11.037588
11.553764
11.159778
11.115670
10.630488
10.858774
10.248423
10.195971
10.698438
10.393858
10.323524
10.908842
##ZVALUE=245
2.130866
2.202988
2.324581
2.461672
7.588863
22.255778
81.489682
171.935558
395.027995
619.481802
968.102813
1015.870571
1015.870571
1015.870571
1015.870571
1015.870571
914.866924
596.008897
392.315984
207.678676
132.149458
103.759766
106.902719
116.909742
120.846629
112.287998
100.048780
84.734559
62.793493
47.772527
35.263896
23.477674
16.465783
12.312531
11.729598
11.490583
12.323856
12.665987
12.802482
12.336969
13.784766
13.455749
13.568997
13.663769
13.395548
14.104843
13.965964
13.391972
13.846755
13.489723
13.972521
13.862848
12.737513
13.152957
12.362599
12.758970
12.405515
12.179613
12.352467
12.524724
13.237596
12.179613
12.089610
12.174845
11.923909
12.623668
13.104677
14.213920
15.739799
17.038584
17.679930
17.600656
19.012690
19.170642
18.959641
17.257929
16.792417
15.012622
14.353991
11.661649
11.652708
11.150837
10.860562
9.804964
10.223985
9.169579
9.042621
9.554625
9.325743
8.595586
9.219646
8.418560
8.662939
8.885860
8.586645
8.572936
##ZVALUE=250
1.753569
1.772642
1.830459
1.824498
2.066493
2.367496
3.470778
14.813542
47.226548
80.702901
296.418667
523.278713
888.509750
1015.870571
1015.870571
1015.870571
1015.870571
1015.870571
1015.870571
859.599710
510.416627
313.637853
153.374672
105.813742
93.911886
107.703805
117.923617
123.366714
119.530559
106.469989
90.037584
67.304969
51.072836
33.905506
24.448633
16.884804
14.607906
12.702942
12.000799
12.534857
12.668967
12.712479
12.941957
13.051629
12.998581
13.140440
12.735724
13.064742
12.475848
12.712479
12.821555
12.248755
12.458563
12.277961
11.665821
11.352897
12.053847
11.194944
11.424422
10.470748
10.813475
11.039972
10.378957
10.777712
10.834932
11.322498
11.506677
12.267828
12.840629
13.887882
14.672875
15.099645
15.691519
15.384555
15.348792
14.457703
13.734698
12.494922
11.413693
10.368824
9.028912
9.005666
8.447766
8.262992
7.928610
7.710457
7.793903
7.636547
7.346869
8.139610
7.937551
7.310510
7.335544
7.519722
7.544756
7.097721
##ZVALUE=255
1.534820
1.661777
1.829863
1.775622
2.059937
1.710653
2.191663
2.406836
2.697706
6.125569
35.843849
94.280839
204.751492
456.667542
714.359879
1015.870571
1015.870571
1015.870571
1015.870571
1015.870571
1015.870571
1015.870571
724.103451
448.852777
213.120580
128.979683
88.024735
89.830756
109.269619
120.122433
125.451684
123.081803
113.052726
92.766881
73.729753
52.248836
38.732886
25.176406
19.880533
15.984774
14.486909
13.809800
13.887882
14.315844
14.193654
14.310479
14.569759
14.367700
14.074445
13.426542
12.905598
12.627840
12.882948
12.109876
12.252927
11.856556
11.810660
11.385679
11.118650
10.433793
10.624528
10.001659
10.709763
10.547638
10.322928
10.323524
10.500550
11.348724
11.697412
12.754798
13.268590
13.119578
13.393760
13.428926
12.965798
12.322664
11.264682
11.207461
10.031462
8.958578
8.841753
7.832646
7.683635
7.537603
7.321835
6.674528
6.537437
6.771684
6.768703
6.376505
6.499887
6.402731
6.544590
6.493926
6.708503
6.812811
##ZVALUE=260
1.545548
1.484752
1.375675
1.512766
1.827478
1.762509
2.034903
1.648664
2.010465
2.441406
2.582669
3.709793
11.542439
56.518912
134.795904
344.977975
584.088564
973.954797
1015.882492
1015.882492
1015.882492
1015.882492
1015.882492
1015.882492
959.936380
649.212599
349.960923
196.687579
96.068978
77.288747
86.108446
108.433962
123.298764
131.760836
130.615830
116.018653
100.201964
77.352524
59.959888
40.747523
30.915737
22.527575
19.283891
17.142892
16.497970
16.667843
15.792847
15.951991
16.339421
15.583634
15.409589
14.757514
14.451742
13.824701
13.867617
13.437867
12.700558
12.211800
12.340546
11.786819
11.418462
11.568666
10.936856
11.093616
10.845661
10.351539
10.452867
10.951757
11.667609
11.819601
12.432933
13.106465
12.996793
12.700558
12.287498
11.022687
10.203719
9.793639
8.856654
8.392930
7.749796
7.066727
7.366538
6.753802
6.531477
6.202459
6.398559
6.187558
6.246567
6.116629
6.332994
5.863905
6.100535
5.820990
5.715489
5.732775
##ZVALUE=265
1.349449
1.363754
1.457930
1.653433
1.548529
1.610518
1.645684
1.770854
2.008677
2.031922
2.213717
2.153516
2.563000
2.734661
6.004572
33.213496
90.668797
247.906446
452.728868
884.175897
1015.870571
1015.870571
1015.870571
1015.870571
1015.870571
1015.870571
1015.870571
929.780006
510.065556
291.959643
155.939460
76.726675
70.269704
92.442632
110.128522
128.860474
136.594772
132.567883
121.652484
100.606680
83.933473
60.236454
46.487451
32.585859
26.081800
21.243691
19.656420
19.311905
18.798709
18.629432
18.446445
17.850995
17.191768
16.634464
16.333461
15.833974
14.617443
13.925433
13.814569
13.153553
12.994409
11.920929
11.794567
11.091828
11.328459
11.153817
11.329651
11.871457
12.093782
12.548566
13.096929
12.874603
12.993813
12.497902
11.672974
10.937452
10.917783
9.474754
8.937716
8.363724
7.901788
6.810427
6.780624
6.620884
6.454587
6.284714
6.110668
6.169677
6.172657
5.851984
5.989671
5.795956
5.819798
5.901456
5.732775
5.921721
##ZVALUE=270
1.243949
1.255870
1.353621
1.348853
1.516938
1.342893
1.498461
1.648664
1.547933
1.776814
1.701713
2.063513
1.874566
2.309680
2.459884
2.514720
3.634691
9.682775
52.819848
136.981010
362.346768
656.604767
1015.870571
1015.870571
1015.870571
1015.870571
1015.870571
1015.870571
1015.870571
1015.870571
828.362703
418.303013
229.751468
93.927979
62.613487
72.073936
90.467930
115.332603
129.522681
138.035417
135.789514
124.560595
108.959675
85.723996
67.926645
47.481656
38.050413
28.950572
24.897456
21.351576
20.870566
19.416809
20.156503
18.554926
18.306971
17.495751
16.458631
16.124845
16.099811
15.097857
14.532804
13.766885
13.247728
12.321472
12.567639
12.236834
12.202859
12.671947
12.419820
12.399554
12.959838
12.628436
12.737513
12.545586
12.024641
11.052489
10.799766
9.361506
9.161830
7.750988
7.588863
7.122755
7.178783
6.897449
6.686449
6.619692
6.225705
6.242990
6.101727
5.862713
5.763769
5.813837
5.632639
5.383492
5.783439
5.587935
##ZVALUE=275
1.173615
1.433492
1.224875
1.339912
1.328588
1.321435
1.703501
1.412630
1.536608
1.601577
1.487732
1.692772
1.654625
1.995564
2.016425
2.137423
2.143979
2.442598
2.760887
6.144643
23.798943
77.926517
256.549716
505.310893
973.408818
1015.870571
1015.870571
1015.870571
1015.870571
1015.870571
1015.870571
1015.870571
1015.870571
614.068508
346.633792
137.576461
71.837902
55.768490
69.604516
93.907714
110.778809
129.177570
137.174726
135.906935
127.668977
106.802583
89.677572
66.536665
52.265525
37.957430
30.141473
24.243593
21.535754
19.750595
19.447803
18.190742
17.519593
17.002821
16.272664
15.535951
14.980435
14.648438
14.235973
13.507605
12.723804
12.818575
12.758970
12.884736
12.598634
12.731552
13.153553
13.051629
12.857914
12.399554
12.057424
11.279583
10.290742
9.232759
8.946657
8.289814
7.853508
7.038713
7.261634
6.772876
6.816983
6.669760
6.266832
6.172657
6.140471
5.918741
5.768538
5.754828
5.629659
5.926490
5.628467
6.007552
##ZVALUE=280
1.220703
1.285672
1.260638
1.132488
1.277924
1.380444
1.459718
1.313686
1.378655
1.608729
1.634955
1.439452
1.590848
1.627803
1.700521
1.930594
2.010465
2.029538
2.344847
2.651811
2.908707
3.169775
14.333725
53.913593
196.226835
383.219123
767.164826
1015.941501
1015.941501
1015.941501
1015.941501
1015.941501
1015.941501
1015.941501
1015.941501
802.780390
477.961898
204.468966
97.473860
48.574805
51.231980
69.962740
88.032484
110.635757
124.296546
134.286880
131.380558
120.626688
106.897950
83.965659
66.394806
47.173500
35.951734
25.901794
21.061897
17.474890
16.190410
15.125871
14.826655
14.491677
13.931990
13.643503
13.311505
12.809634
12.441874
12.223721
11.905432
11.936426
11.952519
11.975765
12.093782
12.026429
11.942983
11.597872
11.187792
10.630488
9.690523
9.101629
8.526444
8.115768
7.848740
7.546544
7.409453
7.356405
7.097721
6.624460
6.543994
6.403923
6.450415
6.316900
6.316900
6.100535
5.965829
5.889535
5.592704
5.701780
##ZVALUE=285
1.174808
1.155734
1.057982
1.094937
1.133680
1.460910
1.188517
1.216531
1.185536
1.208782
1.409650
1.322627
1.507998
1.351833
1.504421
1.505613
1.793504
1.671910
1.850724
2.163649
1.995564
2.087951
2.576709
2.985597
7.012486
26.858449
104.148388
236.634016
556.318760
908.885598
1015.869975
1015.869975
1015.869975
1015.869975
1015.869975
1015.869975
1015.869975
1015.869975
709.902644
332.449675
164.535642
57.106614
36.498904
45.706630
60.585737
81.684589
97.775459
115.828514
122.986436
123.763680
117.015839
99.306703
83.147883
60.968995
45.364499
29.797554
21.917820
15.859604
13.744831
12.502670
11.673570
11.228919
11.100769
11.000633
11.026859
10.581613
10.701418
10.787845
10.656714
11.216998
11.153817
10.967851
10.878444
10.753870
10.379553
9.802580
9.308457
8.484721
8.212924
7.962584
7.561445
7.572770
7.397532
6.844997
6.874800
6.388426
6.445646
6.509423
6.264448
6.446838
6.223917
6.148815
6.103516
5.745888
5.932450
5.718470
##ZVALUE=290
1.094937
1.131892
1.163483
1.023412
1.021624
1.128912
1.232624
1.311898
1.158714
1.177788
1.285672
1.377463
1.384616
1.385808
1.457930
1.576543
1.541972
1.550913
1.786947
1.812577
1.835823
2.153516
2.288818
2.455711
2.708435
2.990961
3.641844
10.013580
54.043531
139.636993
360.589027
650.759935
1015.907526
1015.907526
1015.907526
1015.907526
1015.907526
1015.907526
1015.907526
1015.907526
891.646743
531.483889
225.452781
101.251602
32.693744
26.853681
37.764907
49.516559
70.085526
86.644888
105.729699
113.869905
115.978718
110.079646
94.386935
78.328848
54.873824
41.243434
27.015805
19.035935
13.201833
10.528564
9.483695
9.141564
9.100437
9.023547
9.213686
9.116530
9.273887
9.808540
9.915829
10.085702
10.010600
9.707808
9.283423
9.057522
8.565784
7.849932
7.531643
7.255673
7.330775
6.916523
6.656647
6.670952
6.346703
6.559491
6.454587
6.317496
6.460547
6.344914
6.214976
5.989671
6.389618
5.946755
5.981922
5.849600
##ZVALUE=295
0.964999
0.958443
0.989437
1.191497
1.183748
0.958443
1.153946
1.182556
1.210570
1.221895
1.176000
1.225471
1.085997
1.177788
1.258850
1.327991
1.254678
1.352429
1.325607
1.551509
1.653433
1.688600
1.854897
2.002716
1.928806
2.330542
2.308488
2.846718
3.060699
5.213618
18.025637
88.995695
210.635066
528.007746
887.212753
1015.870571
1015.870571
1015.870571
1015.870571
1015.870571
1015.870571
1015.870571
1015.870571
656.628013
359.995961
129.407644
50.461888
20.078421
22.119880
32.805800
45.004487
64.469576
80.290437
97.834468
106.503963
107.770562
102.883577
88.090897
74.806809
54.162741
39.597750
24.586916
17.580986
11.603832
9.203553
8.151531
7.843971
7.917881
7.921457
8.449554
8.627772
9.077787
8.856654
8.655787
8.523464
8.128881
7.570982
7.419586
6.918907
6.788969
6.735921
6.448627
6.433725
6.416440
6.121993
6.033778
6.215572
6.221533
6.158948
5.944967
5.915761
5.984902
6.060600
5.768538
5.651712
5.725622
##ZVALUE=300
0.925660
0.803471
0.953674
1.018643
1.079440
0.989437
0.916719
1.187921
0.979900
0.984669
1.248717
1.151562
1.112819
1.041889
1.137853
1.151562
1.190901
1.371503
1.476407
1.348853
1.316667
1.514554
1.566410
1.599789
1.785755
1.827478
2.050996
2.216697
2.283454
2.654791
3.049970
3.444552
9.413958
35.793781
143.780708
312.423706
700.626969
1015.871763
1015.871763
1015.871763
1015.871763
1015.871763
1015.871763
1015.871763
1015.871763
962.206721
498.776436
263.585448
89.151859
32.099485
15.971661
19.305944
28.808713
39.683580
57.510734
72.393417
90.421438
99.569559
103.113651
99.645853
86.232424
72.497725
53.994656
40.278435
25.400519
17.521977
11.713505
9.287000
7.928610
7.894635
8.177757
7.989407
8.022785
7.914901
7.674694
7.343888
6.926656
6.565452
6.478429
6.337762
6.337762
6.079674
6.177425
6.291866
6.063581
5.624890
5.770922
5.690455
5.700588
5.629659
5.535483
5.628467
5.777478
5.576611
5.486608
5.451441
##ZVALUE=305
0.827909
0.852942
0.951886
0.933409
0.855923
0.936985
0.934601
1.004934
1.067519
0.866652
1.000762
1.083612
0.956655
0.924468
1.115799
1.012683
1.292825
1.168847
1.155734
1.320839
1.404881
1.299977
1.407862
1.503825
1.579523
1.651645
1.587868
1.894832
1.925826
2.029538
2.090931
2.415776
2.583861
3.069639
4.324913
22.125840
71.066022
234.047771
462.585688
940.231681
1015.871763
1015.871763
1015.871763
1015.871763
1015.871763
1015.871763
1015.871763
1015.871763
752.931833
339.967608
158.384442
44.914484
17.345548
14.357567
17.309785
27.391911
37.867427
54.760575
68.975687
85.694790
93.257427
97.445846
93.269944
82.541704
69.745779
50.041676
37.661791
24.701953
17.284751
11.083484
9.437799
8.279681
8.068681
7.456541
7.331967
6.811619
6.521940
5.971789
6.113648
5.737543
5.778670
5.673766
5.790591
5.680919
5.574822
5.632639
5.710721
5.659461
5.491972
5.306602
4.959702
5.445480
5.146861
5.501509
5.216599
5.138516
##ZVALUE=310
0.965595
0.849962
1.035929
0.861883
0.817776
0.934601
0.915527
0.810623
1.074672
0.996590
1.041889
0.901818
0.955462
0.992417
1.011491
1.042485
1.089573
1.037717
1.037717
1.154542
1.210570
1.211762
1.320839
1.352429
1.302958
1.541972
1.547933
1.460910
1.740456
1.809597
1.849532
2.140999
2.070665
2.434850
2.546906
2.685785
3.229976
8.882880
32.480955
131.967664
288.730860
667.673945
1012.389660
1015.870571
1015.870571
1015.870571
1015.870571
1015.870571
1015.870571
1015.870571
1006.018519
543.883443
284.641981
90.625882
30.750632
11.435747
11.879802
16.162992
21.850467
34.330487
45.638680
63.227415
75.491667
86.766481
91.523528
88.527799
81.411004
66.813827
52.590966
36.461949
26.413798
17.182827
12.502670
8.549690
7.533431
6.516576
6.124973
5.799532
5.406737
5.492568
5.325675
5.391836
5.283952
5.394816
5.268455
5.299449
5.348921
5.283952
5.262494
5.055666
5.000830
4.829764
4.886985
4.968643
4.964471
5.106926
##ZVALUE=315
0.746846
0.853539
0.810623
0.799894
0.694990
0.852942
0.789762
0.640750
0.714660
0.716448
0.843406
0.822544
0.772476
0.977516
0.885725
0.901818
0.866652
1.113415
0.881553
1.022816
1.053810
1.075864
1.220703
1.080632
1.169443
1.157522
1.419783
1.417994
1.286864
1.360774
1.478791
1.617670
1.647472
1.839995
1.875758
2.269745
2.272725
2.489686
2.863407
4.279613
15.272498
77.279806
194.875598
504.081845
859.784484
1015.767455
1015.767455
1015.767455
1015.767455
1015.767455
1015.767455
1015.767455
1015.767455
762.583017
418.843627
147.253871
52.646995
13.829470
10.214448
11.370778
13.747811
21.325946
29.459000
43.294430
55.963993
71.936846
81.380606
86.248517
84.832907
75.730681
65.244436
50.210953
37.630796
23.649931
16.617775
10.215640
7.989407
6.147623
5.436540
5.077720
4.776716
4.796982
4.704595
4.797578
4.621744
4.599690
4.532933
4.626513
4.708767
4.573464
4.517436
4.637837
4.773736
4.475713
4.762411
4.487634
##ZVALUE=320
0.789762
0.778437
0.781417
0.980496
0.793934
0.664592
0.848770
0.739694
0.865459
0.863671
0.875592
0.856519
0.925660
0.772476
1.003742
0.859499
1.005530
0.947714
1.260638
1.037717
1.140833
1.208782
0.943542
1.129508
1.215935
1.177788
1.174808
1.338720
1.355410
1.466870
1.351833
1.580715
1.595616
1.737475
1.701713
1.928806
2.011657
2.060533
2.297759
2.332926
2.661943
3.374815
6.847978
40.069818
115.102530
339.221954
624.435544
1015.870571
1015.870571
1015.870571
1015.870571
1015.870571
1015.870571
1015.870571
1015.870571
948.714614
568.979979
242.707729
103.910565
25.246739
10.549426
9.009838
9.952784
12.753606
17.605424
27.293563
37.640929
54.244995
64.234734
76.844692
80.978870
80.131888
74.592829
60.265660
47.662854
32.597780
23.061633
14.258623
10.034442
6.549954
5.444884
4.865527
4.495978
4.600883
4.508495
4.309416
4.437566
4.405975
4.204512
4.443526
4.424453
4.342794
4.244447
4.407763
4.498959
4.404783
##ZVALUE=325
0.784993
0.673532
0.716448
0.853539
0.746846
0.764728
0.742674
0.841618
0.707507
0.909567
0.931621
0.772476
0.945926
0.942945
0.912547
0.928640
0.832677
0.780821
0.803471
0.888705
1.055598
1.117587
1.091957
0.989437
1.108646
1.086593
1.065731
1.231432
1.245737
1.326799
1.388788
1.337528
1.485944
1.452565
1.560450
1.665950
1.563430
1.784563
1.827478
2.126694
2.257824
2.572536
2.639890
2.917647
4.202724
24.340749
74.549913
229.015946
443.396568
915.020704
1015.871763
1015.871763
1015.871763
1015.871763
1015.871763
1015.871763
1015.871763
1015.871763
726.723671
330.757499
154.419541
39.719939
13.285875
8.470416
8.253455
9.514689
11.675954
17.514825
24.929643
38.766861
49.052835
62.480569
70.954561
76.199770
74.438453
65.126419
56.937933
42.503476
31.646490
19.902587
13.547540
8.419752
6.341934
4.997849
4.488826
4.117489
4.021525
4.147887
4.099607
3.986955
4.042983
4.009604
3.973842
4.158616
4.196763
4.294515
##ZVALUE=330
0.594854
0.779629
0.878572
0.673532
0.730753
0.766516
0.956655
0.644922
0.634789
0.712872
0.614524
0.769496
0.887513
0.906587
0.829697
0.810623
0.886917
0.960827
0.780821
0.913739
0.821948
0.915527
1.043677
1.140833
0.923872
1.150966
1.008511
1.142621
1.114607
1.403689
1.158714
1.233816
1.278520
1.415610
1.372695
1.300573
1.477599
1.557469
1.512766
1.700521
1.902580
1.982450
1.924634
2.175570
2.327561
2.839565
3.150702
9.616613
35.805702
144.912601
308.211446
685.473680
1014.938951
1015.870571
1015.870571
1015.870571
1015.870571
1015.870571
1015.870571
1015.870571
917.947888
448.261499
227.467418
73.169470
23.246408
8.338690
7.728934
7.806420
8.829832
11.739731
15.929937
24.534464
33.294559
47.104955
57.092905
66.632628
70.066452
68.635941
63.240528
51.102638
41.142702
27.973652
20.163655
12.852550
9.095669
5.940795
4.970431
4.288554
4.205704
4.156828
3.898740
3.880858
3.938675
3.889799
3.982782
3.986955
##ZVALUE=335
0.650883
0.666976
0.853539
0.654459
0.720620
0.571609
0.757575
0.768900
0.562668
0.731945
0.798702
0.594854
0.747442
0.803471
0.776649
0.824928
0.699759
0.823736
0.750422
0.782609
0.888705
0.888705
1.031756
0.854731
0.974536
0.945926
1.154542
0.997782
0.915527
1.084805
0.939965
0.990629
1.305938
1.158714
1.317859
1.154542
1.302958
1.412630
1.379848
1.644492
1.590848
1.507998
1.745820
1.790524
1.912713
2.202988
2.424717
2.488494
2.829432
4.703999
16.723871
82.178712
197.792649
500.295758
861.409903
1015.871763
1015.871763
1015.871763
1015.871763
1015.871763
1015.871763
1015.871763
1015.871763
611.323714
326.524973
107.968450
37.729740
10.606647
7.705688
7.481575
7.606745
8.193851
10.381937
15.679598
21.524429
32.460690
41.732788
52.831769
60.454607
65.125823
64.160824
56.710839
49.916506
39.209723
30.251741
19.950867
13.993979
8.841753
6.541610
5.025864
4.446507
4.098415
4.073977
4.016757
4.081726
4.021525
##ZVALUE=340
0.592470
0.409484
0.624657
0.618696
0.654459
0.612736
0.643730
0.693798
0.704527
0.751615
0.584722
0.714660
0.763535
0.637770
0.669956
0.891685
0.808835
0.822544
0.766516
0.924468
0.773668
0.899434
0.975728
0.884533
0.997782
0.967979
0.962615
1.035929
0.853539
0.915527
1.022816
1.111627
0.928640
1.031756
0.971556
1.078844
1.165867
1.242757
1.305938
1.352429
1.410842
1.423955
1.386404
1.589656
1.562834
1.772642
2.020597
2.110600
2.237558
2.446771
2.799630
3.307462
7.953644
48.007965
136.179924
392.198563
706.219673
1015.870571
1015.870571
1015.870571
1015.870571
1015.870571
1015.870571
1015.870571
1015.870571
753.043890
417.414904
155.640841
57.920814
13.475418
8.499622
7.469654
7.387996
7.011890
7.697940
9.882450
13.493896
20.716786
28.235912
40.320754
48.674941
57.827830
60.413480
59.639812
55.911541
46.704412
38.222671
27.554631
20.687580
13.522506
9.399652
6.443858
5.159974
4.673600
4.428625
4.162788
##ZVALUE=345
0.673532
0.632405
0.601411
0.668764
0.587702
0.717640
0.716448
0.739694
0.749826
0.625849
0.769496
0.857711
0.807643
0.723600
0.670552
0.706911
0.680685
0.825524
0.770688
0.850558
0.743866
0.874996
0.824928
0.901818
0.762939
0.990629
0.916719
0.955462
0.948906
0.949502
1.032948
0.916719
0.919700
0.938773
0.998974
0.958443
1.088977
1.067519
1.212955
1.326799
1.284480
1.313686
1.359582
1.333952
1.471639
1.439452
1.466870
1.670718
1.846552
1.937747
2.086759
2.253652
2.394915
2.986789
4.175901
24.198890
82.820654
263.384581
499.909520
961.652994
1015.867591
1015.867591
1015.867591
1015.867591
1015.867591
1015.867591
1015.867591
937.417746
544.091463
217.800736
90.873837
21.532774
9.610653
7.883906
7.239580
6.381869
5.993843
6.540418
8.254647
12.693405
18.119812
27.786493
35.236478
44.487715
50.500631
55.592656
56.296587
52.191615
46.127439
36.909580
29.166937
19.485950
14.484525
9.345412
6.988645
5.541444
##ZVALUE=350
0.770688
0.594854
0.694990
0.728965
0.715852
0.782609
0.712872
0.583529
0.789762
0.615716
0.743866
0.683665
0.665784
0.752807
0.687838
0.724792
0.686646
0.838637
0.766516
0.922680
0.905991
0.892878
0.769496
0.976920
0.835657
0.985861
0.939965
0.872612
0.814795
1.015663
0.867844
1.033545
0.989437
1.020432
0.973940
1.138449
0.948906
1.079440
1.125932
1.057982
1.205802
1.243949
1.187921
1.217723
1.317859
1.431704
1.429915
1.402497
1.629591
1.697540
1.777411
1.848936
1.955628
2.205968
2.364516
2.608895
3.210902
11.157990
40.817857
156.894922
333.201885
747.324824
1015.870571
1015.870571
1015.870571
1015.870571
1015.870571
1015.870571
1015.870571
1015.870571
686.981678
316.935778
140.823722
33.253431
11.221766
7.141829
6.588697
5.697608
5.301833
5.151629
6.116629
8.126497
10.853410
16.508698
22.147894
31.283498
38.733482
46.551824
50.222874
51.524639
49.359798
42.781830
36.371946
26.437640
20.372868
14.023781
##ZVALUE=355
0.673532
0.722408
0.652671
0.777841
0.721812
0.846982
0.735521
0.705719
0.690818
0.870824
0.737906
0.853539
0.841618
0.770688
0.684857
0.808835
0.760555
0.823736
0.801682
0.840425
0.934601
0.923872
0.908971
0.832677
0.991821
0.888705
0.968575
0.945926
1.001954
0.940561
1.033545
1.032948
1.135468
0.961423
1.123548
1.184940
1.114607
1.223683
1.124740
1.277924
1.186728
1.051426
1.192689
1.252890
1.452565
1.368523
1.473427
1.337528
1.538992
1.687407
1.618862
1.693964
1.774430
1.962781
2.095699
2.193451
2.458692
2.536774
2.871752
5.382895
19.864440
97.077489
225.185752
535.571575
903.445482
1015.870571
1015.870571
1015.870571
1015.870571
1015.870571
1015.870571
1015.870571
859.444737
393.084884
186.373591
51.052570
15.710592
7.153749
6.221533
5.283952
5.299449
5.058646
4.963875
5.599856
6.858706
9.830594
13.567805
19.608736
26.001930
35.607815
41.169524
47.163963
48.451424
46.424866
42.244792
34.870505
##ZVALUE=360
0.756979
0.853539
0.671744
0.799894
0.725985
0.639558
0.808835
0.813603
0.818968
0.629425
0.805855
0.758767
0.934601
0.807643
0.767708
0.890493
0.810623
0.867844
0.924468
0.830889
0.708699
0.734925
0.773668
0.834465
1.038909
0.950694
0.937581
0.899434
1.034737
1.049638
0.967979
1.077652
1.057982
1.017451
1.198649
1.067519
1.084805
1.167655
1.121759
1.214743
1.203418
1.183748
1.139641
1.206994
1.377463
1.195669
1.298785
1.512766
1.515746
1.607537
1.635551
1.551509
1.722574
1.803637
1.837611
1.996756
2.183914
2.310872
2.370477
2.717972
2.994537
3.677607
8.759499
44.113994
126.108527
366.007686
664.196014
1015.870571
1015.870571
1015.870571
1015.870571
1015.870571
1015.870571
1015.870571
1009.334922
549.738407
288.825631
100.764632
32.983422
8.265972
6.417632
5.731583
5.226731
4.997849
4.835725
4.634857
4.938841
6.125569
7.623434
11.438727
16.269684
23.604631
30.145645
37.209988
41.451454
44.419765
##ZVALUE=365
0.736713
0.693798
0.722408
0.674725
0.696778
0.802875
0.667572
0.818968
0.871420
0.693798
0.917912
0.818968
0.470877
0.764728
0.785589
0.658631
0.796914
0.797510
0.747442
0.784993
0.744462
0.766516
0.756979
0.872612
0.973940
0.876784
0.898838
0.789762
0.914931
0.991821
1.025796
0.947714
0.876784
0.943542
1.046658
0.994802
0.990629
0.906587
0.958443
1.064539
1.273751
1.290441
1.102686
1.181960
1.060963
1.106858
1.257658
1.520514
1.265407
1.226664
1.282692
1.528859
1.417994
1.472831
1.723766
1.706481
1.942515
1.680851
1.911521
2.272725
2.298951
2.626777
2.818704
3.192425
4.813671
23.349524
73.709488
227.959752
466.683507
953.335762
1015.870571
1015.870571
1015.870571
1015.870571
1015.870571
1015.870571
1015.870571
753.591657
422.554016
154.960752
56.820512
11.771917
6.332994
5.428791
5.113482
4.652739
4.554987
4.458427
4.307628
4.599690
5.405545
7.442832
9.896755
14.690757
19.185543
25.985837
##ZVALUE=370
0.766516
0.655651
0.581741
0.632405
0.760555
0.660419
0.590682
0.777841
0.791550
0.653863
0.660419
0.869632
0.739694
0.827909
0.740886
0.711679
0.907779
0.823736
0.732541
0.839829
0.784993
0.752807
0.958443
0.888705
0.961423
0.833869
0.899434
0.719428
0.857711
0.898838
0.894666
0.988841
0.842810
0.951886
1.097918
0.989437
1.074672
1.039505
0.898838
1.040697
0.983477
1.092553
1.060963
1.085997
1.108646
1.026988
1.176000
1.110435
1.121759
1.244545
1.173615
1.149774
1.329780
1.377463
1.513958
1.497865
1.489520
1.548529
1.795888
1.669526
1.695752
1.751781
2.035499
2.317429
2.515912
2.880692
3.329515
11.340976
42.826533
165.707469
343.664885
728.816986
1015.870571
1015.870571
1015.870571
1015.870571
1015.870571
1015.870571
1015.870571
901.321769
525.514483
208.772421
90.825558
24.370551
8.267760
5.445480
4.777908
4.685521
4.502535
4.313588
4.309416
4.371405
4.822612
5.552769
6.645918
9.306669
##ZVALUE=375
0.663996
0.723600
0.630617
0.680685
0.622869
0.665784
0.708699
0.706911
0.778437
0.573993
0.618696
0.568628
0.754595
0.633597
0.734925
0.594854
0.730753
0.666976
0.824928
0.756979
0.799894
0.713468
0.587702
0.795722
0.714660
0.655651
0.841618
0.855923
0.843406
0.846982
0.786781
0.824928
0.844598
0.835657
0.992417
0.941753
0.838637
0.833869
0.894666
0.936985
0.964999
0.828505
1.029968
0.896454
0.973940
0.816584
0.909567
0.947714
0.960827
1.110435
0.987649
1.087785
1.033545
1.095533
1.134872
1.216531
1.189709
1.291633
1.279712
1.385808
1.532435
1.612902
1.624823
1.791716
1.906753
2.190471
2.263784
2.613664
3.247857
6.200671
20.412803
91.012716
221.220851
553.754568
924.242735
1015.870571
1015.870571
1015.870571
1015.870571
1015.870571
1015.870571
1015.870571
735.801458
372.329950
184.440613
52.427649
15.655756
5.710721
5.115867
4.822612
4.851818
4.819632
4.844666
5.025864
4.938841
4.779696
##ZVALUE=380
0.549555
0.462532
0.567436
0.480413
0.617504
0.547767
0.541806
0.465512
0.584722
0.529885
0.531673
0.574589
0.648499
0.614524
0.511408
0.406504
0.555515
0.755787
0.604987
0.444651
0.572801
0.565648
0.693798
0.539422
0.723600
0.703931
0.756979
0.792742
0.739694
0.686646
0.782609
0.885725
0.737906
0.899434
0.766516
0.937581
0.930429
0.867844
0.736713
0.877976
0.832677
0.880957
0.895858
0.882745
0.780821
0.974536
0.948906
1.027584
0.886917
1.036525
0.911951
0.956655
0.945926
0.997782
1.034737
1.047850
1.082420
1.212955
1.073480
1.014471
1.312494
1.235604
1.374483
1.421571
1.551509
1.633763
1.997948
2.245903
2.535582
3.082752
3.065467
3.908873
10.156631
59.364438
162.253380
434.896946
752.266645
1015.814543
1015.814543
1015.814543
1015.814543
1015.814543
1015.814543
1015.814543
977.222919
526.526570
276.488662
94.226003
32.361746
8.181930
5.458593
5.273819
5.157590
5.156994
5.037785
4.874468
##ZVALUE=385
0.476837
0.448823
0.486970
0.436902
0.393987
0.466704
0.549555
0.527501
0.563860
0.556707
0.558496
0.635982
0.612736
0.637770
0.524521
0.550747
0.663996
0.465512
0.582933
0.625849
0.654459
0.714660
0.676513
0.642538
0.752807
0.631809
0.754595
0.820756
0.992417
0.791550
0.693798
0.870824
0.734925
0.893474
0.828505
0.940561
0.925660
0.945926
0.986457
0.915527
0.942945
0.848770
1.012683
0.982881
0.952482
0.760555
0.759959
1.043677
1.023412
0.850558
1.037717
1.013875
1.064539
0.987649
0.993609
1.165867
0.967979
1.004934
1.091957
1.211762
1.134872
1.224875
1.280904
1.392961
1.486540
1.645684
1.800656
2.145767
2.166629
2.442598
2.443790
2.610683
2.675653
2.904534
4.955530
29.277802
95.175505
291.981697
574.377775
1015.827656
1015.827656
1015.827656
1015.827656
1015.827656
1015.827656
1015.827656
1015.827656
754.413009
445.627570
186.688900
72.554946
14.573932
6.414652
5.573630
5.290508
4.948974
##ZVALUE=390
0.536442
0.588894
0.550747
0.494719
0.485778
0.632405
0.546575
0.623465
0.670552
0.622869
0.534654
0.612736
0.531673
0.497699
0.622869
0.679493
0.697970
0.479817
0.497699
0.650883
0.596642
0.489950
0.640750
0.687838
0.681877
0.658631
0.713468
0.701547
0.888705
0.853539
0.916719
0.844598
0.968575
0.925660
0.873804
1.073480
1.033545
1.017451
1.211762
1.085997
1.026988
1.002550
1.022816
1.030564
0.896454
0.931621
1.101494
1.039505
1.047850
1.162887
1.059771
1.014471
1.145601
1.085997
1.146793
1.120567
1.037717
1.044869
1.057982
1.201630
1.104474
1.307726
1.329780
1.388788
1.411438
1.707673
1.787543
2.009869
2.176762
2.209544
2.391934
2.368689
2.381802
2.453923
2.378821
2.742410
3.129840
13.304949
52.206516
207.296610
445.231795
940.814018
1015.870571
1015.870571
1015.870571
1015.870571
1015.870571
1015.870571
1015.870571
999.484658
649.997592
278.852582
124.984980
29.239655
9.534955
5.538464
##ZVALUE=395
0.705719
0.612736
0.584722
0.561476
0.766516
0.514984
0.645518
0.661612
0.641942
0.643730
0.624657
0.477433
0.565648
0.556707
0.572801
0.679493
0.586510
0.709891
0.740886
0.596642
0.710487
0.579953
0.657439
0.654459
0.816584
0.823736
0.903606
0.805855
0.853539
0.913739
0.961423
0.961423
1.091957
1.134872
1.094937
1.034737
1.039505
1.142621
1.070499
1.186728
1.269579
1.099706
1.206994
1.266599
1.119971
1.104474
1.074672
1.179576
1.104474
1.156926
1.271963
1.200438
1.134872
1.220703
1.125932
1.178980
0.958443
1.191497
1.173615
1.094937
1.191497
1.258850
1.339912
1.311898
1.456738
1.589656
1.813769
1.963973
2.023578
2.175570
2.168417
2.082586
2.105832
2.055764
2.104640
2.200603
2.483726
2.650619
2.880692
7.781982
31.187534
138.582587
302.818418
661.779642
1005.163789
1015.914679
1015.914679
1015.914679
1015.914679
1015.914679
1015.914679
1015.914679
844.752789
394.406915
192.022920
59.602857
##ZVALUE=400
0.649691
0.736713
0.733733
0.641942
0.588894
0.625849
0.604987
0.571609
0.494719
0.591874
0.537634
0.440478
0.552535
0.562668
0.567436
0.500679
0.536442
0.578761
0.502467
0.605583
0.600815
0.572801
0.664592
0.625849
0.825524
0.734925
0.837445
0.819564
0.827909
0.850558
0.958443
0.944734
1.024604
1.036525
1.014471
1.093745
1.001954
1.089573
1.110435
1.076460
0.967979
1.107454
1.043677
0.950694
1.224875
1.117587
1.071692
1.195669
1.030564
1.237988
1.000762
1.100898
1.124740
1.197457
0.971556
1.110435
1.187921
1.002550
1.226664
1.159906
1.182556
1.288652
1.268983
1.300573
1.295805
1.615882
1.843572
1.731515
1.999736
1.880527
1.887679
1.878738
1.931787
1.793504
1.655817
1.757741
1.885891
2.025962
2.116561
2.492666
2.533793
4.505515
14.505982
67.784786
173.094869
463.584661
822.410583
1015.870571
1015.870571
1015.870571
1015.870571
1015.870571
1015.870571
1015.870571
1002.006531
566.920638
##END
