##TITLE=C103_R4
##FORMAT=SPECTACLE-ASCII V-1.2
##DATA TYPE=ULTRAVIOLET SPECTRUM
##SECOND TYPE=ULTRAVIOLET SPECTRUM
##DATE=05/28/18
##TIME=13:06:16
##SPECTROMETER/DATA SYSTEM=SPECTACLE
##XUNITS=NM EM
##YUNITS=ENERGY
##YFACTOR=1
##FIRSTX=220
##LASTX=410
##NPOINTS=96
##3DDATA=Equidistant
##ZUNITS=NM EX
##FIRSTZ=210
##LASTZ=400
##ZPOINTS=39
##XYDATA=(Y..Y)
##ZVALUE=210
57.074428
55.283904
43.415427
29.333830
26.133657
22.956729
19.238591
16.364455
14.040470
11.870861
9.841919
8.237958
8.150935
8.970499
7.593632
8.880496
9.468794
9.549856
11.227727
10.260940
11.538863
12.502670
13.986826
17.434955
19.726753
23.613572
24.659634
29.476881
30.484796
33.022761
33.335686
35.706758
36.847591
37.729740
36.945939
37.577748
39.289594
37.856698
37.751794
34.266710
35.731792
35.861731
34.321547
36.029816
35.386682
36.602616
34.131408
35.115480
31.308532
34.235716
35.206676
32.330751
36.094785
34.449697
33.024549
34.145713
31.151772
31.452775
32.335520
29.809475
31.026602
31.551719
32.380819
32.462478
33.925772
38.689971
42.714477
46.781898
54.840446
64.592957
72.863698
82.404613
87.989569
91.959834
92.377663
97.841620
93.530416
87.579489
78.338981
67.033768
59.945583
46.407580
42.859912
34.534931
31.812787
28.985739
28.964877
26.103854
28.241873
40.712953
48.493743
77.547431
98.566413
135.743618
166.992545
212.933421
##ZVALUE=215
219.783783
205.791593
159.034729
101.513863
75.565577
53.176880
43.151975
36.784410
35.884976
29.495955
23.406744
19.664764
14.745593
10.699630
10.359883
10.523796
9.905696
10.457635
11.213422
10.859966
12.241602
12.614727
13.150573
17.083883
18.980503
22.346973
24.430752
28.743744
28.691888
32.832623
32.826662
34.552813
33.549666
36.810637
35.911798
37.868619
38.376451
37.316680
39.283633
35.785437
39.281845
37.355423
37.349463
35.972595
37.401915
37.449598
37.196875
36.072731
34.115911
37.277937
36.826730
36.100745
36.696792
34.546852
34.363866
32.991767
32.655597
33.201575
32.824874
33.187866
32.427907
30.958652
32.033920
33.876896
33.161640
35.020709
36.630630
43.001771
47.563910
55.474639
59.749484
66.642761
71.548820
76.875687
77.943802
72.861910
72.435737
67.104697
59.185624
52.290559
45.919418
38.243532
34.227967
29.762983
27.509928
24.577975
23.061633
22.379756
21.882653
22.362471
23.387671
20.316839
22.984743
30.021667
37.498474
62.762499
##ZVALUE=220
461.403728
454.864502
434.177518
358.818769
284.707546
198.992491
141.818523
87.351799
64.964890
56.913495
51.080585
45.923591
37.636757
33.369660
25.089979
21.548867
13.276935
11.437535
10.737777
10.162592
9.728670
10.657907
11.791587
12.593865
13.486743
15.573502
18.540621
19.089580
22.217631
23.194551
24.745464
24.623871
25.743842
28.525591
30.095577
30.587912
32.859445
34.199953
33.794641
34.992695
35.277605
35.447478
34.829974
34.603477
35.084486
36.585927
35.472512
34.777522
35.420656
36.496520
37.364960
36.146641
36.667585
34.206510
36.658645
35.338998
34.992695
35.222769
32.899976
31.055808
30.936599
31.062961
31.116605
30.790567
30.764937
33.039451
33.383965
37.574768
41.873455
48.009753
51.668882
56.902766
55.998564
59.193969
60.221553
55.271983
54.996610
47.787428
46.040416
39.558411
35.689473
30.609965
28.010607
24.460554
22.778511
20.998716
19.956827
19.685626
18.974543
18.508434
18.993616
17.872453
18.498898
18.094778
17.511845
17.694831
##ZVALUE=225
488.158464
496.051908
584.002733
634.688735
624.472499
544.667840
452.720523
317.263007
214.383602
150.291920
93.375444
74.975491
65.310001
65.389872
58.422685
53.478479
38.966537
33.402443
23.675561
16.980767
11.927485
10.636449
10.230541
10.571480
11.888742
12.689829
12.408495
14.309883
15.004873
16.377568
16.323924
18.725991
19.278526
20.475984
22.670627
24.717450
26.877522
27.113557
30.578971
30.755997
31.939745
32.975674
34.388900
32.137632
33.353567
32.839775
34.044981
33.802986
34.563541
35.690665
34.135580
32.791495
33.317804
32.587647
33.916831
32.992959
33.647418
31.947494
32.145977
30.615926
29.813647
30.083656
29.548407
28.990507
29.350519
30.757785
29.685497
32.354593
36.977530
39.467812
43.419600
44.835806
47.500730
47.420859
47.154427
45.092702
42.994618
37.965775
34.772754
30.996799
27.127862
25.387406
21.564960
19.927621
20.190477
19.084811
18.937588
17.187595
16.912818
15.780926
16.192794
14.932752
16.648769
16.518831
14.780760
15.794635
##ZVALUE=230
258.788466
285.557508
421.350598
645.809770
773.545504
877.913833
889.652967
809.478760
678.641796
535.012484
334.779620
219.675899
130.841732
103.290677
90.895891
89.930892
84.936619
78.235865
129.766464
50.688982
39.142966
24.307966
17.823577
13.317466
11.169910
10.616779
10.672808
11.611581
11.726618
13.094544
13.808608
14.286637
15.638471
17.719865
18.403530
20.037889
21.426678
23.707747
24.049878
27.120709
27.553439
28.424859
29.473901
29.628873
30.667782
30.922890
29.897690
30.243993
30.637980
31.253695
30.185580
30.863881
31.299591
30.330420
28.976798
29.034615
29.041767
28.969646
28.816462
27.615428
26.951432
25.856495
25.870800
26.269555
26.796460
26.885867
29.057860
30.498505
32.623410
33.106804
35.721660
38.160682
39.741993
40.842891
38.464665
34.949780
36.430955
31.298995
29.409528
26.843548
22.896528
20.066500
19.398928
17.981529
17.368793
15.436411
15.351772
15.641451
14.995933
14.558434
14.201999
14.512539
14.902949
15.164614
14.457703
13.863444
##ZVALUE=235
51.844716
63.074827
133.626461
301.858783
480.360985
736.999512
926.706791
1015.870571
1015.870571
1015.870571
946.868658
745.458007
477.250814
325.492620
194.875002
135.678649
104.372501
101.907849
104.165673
100.704432
93.073845
71.914792
58.993697
39.915442
28.355718
18.480420
14.369488
11.737943
10.520816
11.436939
11.364818
12.390614
13.470650
14.176965
14.472604
16.268492
16.958714
19.345880
21.389723
20.994544
24.053454
23.663640
24.445653
24.271607
25.393963
27.187467
25.265813
26.480556
26.500821
25.883913
26.229620
25.846958
25.160909
25.328994
24.967790
23.704767
23.631454
23.037791
23.772717
23.345947
22.931695
21.566749
21.124482
23.184419
22.326708
21.496415
22.653937
26.279688
27.791858
29.419661
31.892657
34.296513
33.855438
33.596754
33.261776
32.680631
31.295419
28.000474
26.271939
22.543669
20.365715
19.076467
17.016530
16.489625
16.314983
15.305877
14.839768
14.220476
14.309883
13.304949
14.046431
13.157725
13.738871
12.851954
13.438463
13.352633
##ZVALUE=240
3.255606
3.539920
14.398694
42.761564
129.800439
244.900584
491.189957
745.037794
1015.861630
1015.861630
1015.861630
1015.861630
1015.861630
978.918672
741.321445
438.087583
289.938450
166.869760
122.638941
106.991529
113.762617
117.333531
110.179782
97.621679
75.308681
60.494542
41.814446
30.694604
19.794703
15.362501
12.329817
11.331439
12.082458
13.055801
13.298988
14.272928
15.693903
15.439987
15.100837
16.423464
18.304586
18.306971
18.764734
19.838810
19.820929
20.066500
20.211935
20.392537
21.127462
21.119714
20.435452
19.646883
19.724965
18.936992
18.822551
17.769933
18.373728
18.891692
17.359853
17.791986
18.486977
17.246604
17.610788
17.258525
18.652678
18.419623
18.902421
21.693707
22.621751
23.886561
25.709867
27.449727
27.576685
28.473735
28.668642
26.726723
24.264455
23.334622
21.023750
18.379688
17.156601
16.256571
15.499592
14.125705
13.350844
13.428926
12.977719
13.008714
12.699962
11.667609
13.027787
11.604428
11.898875
11.709929
12.310743
11.688471
##ZVALUE=245
2.395511
2.265573
2.520680
2.775788
7.570982
24.418831
91.165900
199.529529
453.686714
707.624555
1015.870571
1015.870571
1015.870571
1015.870571
1015.870571
1015.870571
989.964008
651.516914
432.921648
225.333571
140.310526
106.698871
109.723806
117.290616
119.780898
115.058422
100.970864
83.349943
64.047575
48.377514
35.266876
23.410916
17.472506
14.007688
12.681484
13.293624
13.922453
13.874769
14.325976
14.528632
14.444590
15.023947
15.544891
15.520453
15.855432
15.883446
16.606450
16.836524
16.575456
16.934872
16.251802
15.964508
15.433431
15.217662
15.521646
14.649630
14.606714
14.776587
14.133453
14.036894
13.653636
13.390779
14.076829
13.864636
13.891459
14.283657
14.949441
16.275644
17.884970
18.704534
20.560622
21.862984
22.278428
22.824407
22.697449
21.029711
19.360781
17.077923
16.429424
14.374852
13.820529
12.194514
12.004972
11.370778
10.410547
10.711551
10.447502
10.996461
10.192990
10.339618
10.496974
10.826588
10.430813
10.010600
9.831786
9.848475
##ZVALUE=250
2.097487
2.095699
2.156496
2.128482
2.296567
2.444983
4.308820
14.068484
64.158440
148.752928
374.299884
633.933544
947.538018
1015.975475
1015.975475
1015.975475
1015.975475
1015.975475
1015.975475
907.106996
590.927601
354.145765
169.621706
108.884573
96.515417
109.261870
120.388865
126.755834
117.835999
109.118819
92.602968
70.129633
53.777695
35.206676
25.129914
17.591715
14.927983
13.964772
14.021993
13.838410
13.890862
14.167428
14.008880
14.781952
14.891624
14.471412
14.159679
14.697909
14.450550
13.977885
14.160872
14.217496
13.423562
13.303757
13.644695
13.331771
13.346672
12.441874
12.296438
12.410879
12.168884
11.923909
12.471676
12.143850
12.041926
12.189746
12.744665
13.869405
15.175939
15.538931
17.345548
18.105507
18.929839
19.030571
18.383861
17.383695
15.778542
14.554858
13.320446
11.769533
10.949969
10.261536
9.659529
9.088516
8.727908
8.860826
8.814931
8.890629
8.595586
8.593798
8.449554
8.490682
8.097887
8.559823
8.467436
8.387566
##ZVALUE=255
1.689792
1.666546
1.691580
1.859665
2.053976
2.199411
2.347827
2.395511
2.868772
6.707907
39.075613
105.548501
225.022435
514.799953
827.792883
1015.870571
1015.870571
1015.870571
1015.870571
1015.870571
1015.870571
1015.870571
843.299627
522.140861
243.338943
140.765905
93.146563
92.889667
111.267567
123.446584
126.681924
124.425888
115.128756
94.347596
76.729655
53.356886
39.386749
26.518703
20.361543
16.813874
15.081763
14.987588
14.607906
14.968514
15.741587
15.781522
15.274882
14.805794
14.874935
14.924407
14.326572
14.667511
13.714433
13.766885
13.247728
13.333559
12.382865
12.435913
12.326837
12.153983
12.015700
11.841655
11.047721
11.388659
11.407733
11.623502
12.098551
12.332797
12.973547
14.443994
14.369488
15.260577
15.899539
16.142726
15.380979
14.585853
13.652444
12.161732
10.986924
10.084510
9.821653
8.463860
8.446574
7.622838
7.812977
7.809997
7.681847
7.617474
7.469654
6.973743
7.072687
7.180572
7.428527
7.081628
7.354617
6.986856
##ZVALUE=260
1.531839
1.554489
1.632571
1.879930
1.861453
1.784563
2.044439
2.197623
2.108812
2.541542
2.830625
3.901720
19.428730
57.788491
177.469850
353.679657
744.811893
1015.870571
1015.870571
1015.870571
1015.870571
1015.870571
1015.870571
1015.870571
1015.870571
712.153912
436.547399
206.941962
118.228793
81.430674
88.527799
112.001896
125.367641
133.523941
130.931735
116.215944
100.566745
76.124668
59.992671
41.501522
31.465888
23.711920
20.238757
18.566847
18.213987
17.719865
17.927885
17.302632
16.411543
16.642809
16.673803
16.368628
16.175508
15.576482
15.240908
14.215708
14.165640
13.653636
14.090538
12.846589
12.796521
12.349486
12.002587
11.754632
11.633635
11.949539
11.802912
12.257695
12.884736
13.371706
13.478994
14.528632
14.465451
14.122725
14.251471
12.845993
11.759996
11.059642
9.934902
9.121895
8.567572
8.015633
7.891655
7.378459
6.870627
6.996989
6.966591
6.883740
6.983876
6.782413
6.266832
6.829500
6.112456
7.021427
6.499887
6.564856
##ZVALUE=265
1.566410
1.676679
1.664758
1.569986
1.621842
1.657605
1.895428
2.010465
2.250671
2.161860
2.275705
2.441406
2.876520
3.355742
6.742477
40.911436
106.921792
288.710594
533.559918
988.472700
1015.906930
1015.906930
1015.906930
1015.906930
1015.906930
1015.906930
1015.906930
1004.189849
570.109487
328.406692
148.603916
85.139871
73.365569
94.636679
112.478733
131.453872
136.479735
132.473707
123.062730
102.096796
84.574819
61.741471
46.126842
33.888817
27.215481
23.466945
21.541715
21.275878
20.523667
19.815564
19.508600
19.556880
18.972754
18.581748
18.294454
16.970634
16.729832
16.132593
15.434623
14.931560
14.622808
13.654828
13.351440
12.820959
12.881756
12.552738
12.935996
12.905598
13.364553
13.603568
14.331937
15.046597
14.415979
14.237761
13.752580
12.335777
11.788607
10.315776
10.049939
8.628964
8.412600
8.048415
7.236600
7.207990
7.205606
6.791949
6.633997
6.414652
6.320477
6.216764
6.114841
6.197691
6.122589
6.057620
6.031990
6.042719
##ZVALUE=270
1.367927
1.515746
1.347661
1.408458
1.406670
1.653433
1.614690
1.739860
1.659989
1.817942
2.123713
2.041459
2.063513
2.179742
2.740622
2.689958
4.094839
13.673902
47.445893
179.128647
375.918746
827.376842
1015.870571
1015.870571
1015.870571
1015.870571
1015.870571
1015.870571
1015.870571
1015.870571
920.697451
458.128452
248.079896
100.457668
65.749884
74.710846
92.571974
117.155910
129.898787
140.048862
138.307810
125.297904
111.119747
87.130666
69.501996
49.737692
39.102435
30.602813
26.836991
23.774505
23.385882
21.904707
21.313429
20.824671
20.503998
19.269586
18.998981
18.113852
17.779469
16.708970
16.395450
15.596747
15.068650
14.556646
14.429688
13.460517
13.457537
13.701916
13.750792
14.398694
14.087558
14.631748
14.191866
13.554692
13.077855
12.239814
11.209846
10.641813
9.425879
8.603930
8.349419
7.876754
7.671714
7.178783
7.053614
6.673932
6.366968
6.560683
6.073713
6.050467
6.198883
6.226897
5.816817
5.989671
5.864501
5.712509
##ZVALUE=275
1.259446
1.312494
1.495481
1.211762
1.604557
1.244545
1.381636
1.643896
1.657605
1.553893
1.543760
1.772642
1.718998
1.993775
2.095699
2.122521
2.496839
2.658963
3.026724
7.736683
28.908849
88.641644
294.051766
581.297874
1015.871763
1015.871763
1015.871763
1015.871763
1015.871763
1015.871763
1015.871763
1015.871763
1015.871763
690.262914
385.732651
151.291490
76.749921
58.799982
70.890784
95.239878
113.147497
131.929517
139.001608
137.239695
127.943754
108.320713
91.984868
68.943501
54.669976
39.787889
32.347441
26.579499
23.722649
22.546649
21.570921
19.975901
19.682646
18.776655
18.721819
17.381907
17.110705
16.274452
16.076565
15.253425
14.831424
14.175773
13.902783
13.928413
13.794899
13.993979
14.173985
14.473796
14.181733
13.889670
13.338923
12.224913
11.672974
10.470748
9.405613
8.774996
8.467436
8.014441
7.734895
7.461905
7.063746
6.515980
6.659627
6.591678
6.295443
6.017685
6.155968
5.936623
5.786419
5.777478
5.886555
5.695820
##ZVALUE=280
1.261830
1.222491
1.299977
1.273751
1.255870
1.262426
1.412630
1.315475
1.504421
1.492500
1.526475
1.509786
1.777411
1.882911
1.747608
1.796484
2.100468
2.160668
2.381802
2.681613
2.883673
3.733635
16.827583
62.458515
220.665932
431.687832
857.988596
1015.870571
1015.870571
1015.870571
1015.870571
1015.870571
1015.870571
1015.870571
1015.870571
913.708806
545.630455
232.196450
108.376741
53.162575
54.317713
73.124766
90.300441
113.356709
127.395988
135.632753
134.592652
122.825503
109.121799
85.232854
68.885684
48.878789
37.832856
27.982593
23.074746
19.982457
18.734932
17.633438
17.329454
16.743541
16.088486
15.416741
15.237927
14.225841
13.916492
13.703704
13.521910
13.223886
13.517737
13.641715
13.502836
13.200641
13.348460
12.441874
12.027621
11.395812
10.454655
9.603500
9.427667
8.403659
7.981658
7.729530
7.658601
7.184744
6.966591
6.822944
6.547570
6.200671
6.304979
6.135702
6.091595
5.865693
5.893707
5.867481
5.876422
5.780458
##ZVALUE=285
1.219511
1.161695
1.283884
1.093745
1.157522
1.370907
1.368523
1.241565
1.387596
1.408458
1.409650
1.459718
1.477599
1.504421
1.744628
1.579523
1.879930
1.878738
2.023578
2.211928
2.189875
2.314448
3.026724
3.173947
7.640719
28.805733
114.960670
260.565877
612.657666
970.640779
1015.870571
1015.870571
1015.870571
1015.870571
1015.870571
1015.870571
1015.870571
1015.870571
811.914802
386.670828
190.841556
65.359473
39.230585
47.552586
61.238408
84.615946
100.123882
116.682649
124.607682
124.487877
117.982626
101.611614
85.083842
62.236786
46.611428
31.348467
23.124814
17.505884
15.625954
14.061928
13.496876
12.774467
12.367964
12.189746
12.032986
11.939406
11.629462
11.801720
12.058616
12.008548
12.507439
11.777878
12.092590
11.706948
10.985732
10.334849
9.701848
9.022951
8.652806
7.931590
7.573962
7.564425
7.287860
6.697774
6.759763
6.720424
6.398559
6.318688
6.202459
6.142855
6.116629
6.068945
5.833507
5.879998
5.543828
5.580783
##ZVALUE=290
1.157522
1.000762
1.061559
1.214743
1.285672
1.094937
1.215935
1.263618
1.223683
1.221895
1.230836
1.386404
1.319647
1.353621
1.421571
1.376867
1.667738
1.582503
1.571774
1.801848
1.758933
2.262592
2.212524
2.475977
2.839565
3.072619
4.068613
10.509491
55.663586
149.642825
325.939655
746.573806
1015.868783
1015.868783
1015.868783
1015.868783
1015.868783
1015.868783
1015.868783
1015.868783
1015.868783
564.820766
292.124748
99.754930
39.338470
29.574633
38.083792
53.995848
69.385767
91.752410
106.092691
116.423965
118.310452
109.528899
97.178817
75.046420
58.830976
39.947629
28.715730
18.655658
14.675856
11.486411
10.605454
10.055900
9.877682
9.925961
9.455681
9.861588
10.058880
10.471940
10.562539
10.765791
10.596514
10.348558
9.688735
9.424686
8.477569
7.903576
7.807612
7.356405
7.262826
7.002950
6.833673
6.533861
6.357431
6.238818
6.424785
6.039739
6.301999
5.922914
5.990863
6.037951
5.940795
5.686879
5.632639
5.605817
##ZVALUE=295
0.990629
0.928640
1.068711
0.996590
1.060963
1.074672
1.037717
1.239777
1.231432
1.231432
1.325607
1.314878
1.167655
1.244545
1.258850
1.544952
1.539588
1.635551
1.487732
1.649857
1.792908
1.977682
2.029538
1.857877
2.167821
2.272725
2.763867
3.029704
3.365874
4.887581
16.972423
87.615848
224.825740
591.472983
973.615646
1015.868783
1015.868783
1015.868783
1015.868783
1015.868783
1015.868783
1015.868783
1015.868783
752.094984
408.715010
139.651895
55.787563
22.098422
22.970438
34.317970
46.331882
65.858960
81.053972
98.503828
106.942654
108.558536
103.932619
87.490678
73.834658
53.131580
39.308667
25.491714
17.702579
12.381673
9.835958
8.500814
8.289814
8.268952
8.706450
8.949637
9.091496
9.358525
9.161830
8.854866
8.531809
8.357763
7.853508
7.299781
6.803870
6.732941
6.560683
6.363988
6.186962
6.220937
6.152987
6.115437
6.087422
5.885959
5.846620
5.910993
5.656481
5.576611
5.513430
5.592704
5.593896
5.475879
##ZVALUE=300
0.811815
0.928640
1.051426
0.979900
1.052618
1.061559
1.136661
1.058578
1.060963
1.129508
1.017451
1.055598
1.240969
1.290441
1.129508
1.357794
1.241565
1.283884
1.353621
1.319647
1.512766
1.738667
1.563430
1.811981
1.966953
2.010465
2.118945
2.278686
2.505779
2.819896
3.142953
3.619790
11.089444
41.415691
165.261626
356.554985
803.192854
1015.870571
1015.870571
1015.870571
1015.870571
1015.870571
1015.870571
1015.870571
1015.870571
1006.786823
553.008914
293.111801
98.465681
33.720732
16.196966
19.566417
29.295683
39.779544
58.235526
73.262453
91.478825
100.011826
103.240609
99.720955
86.491704
73.856711
53.822994
39.979815
25.012493
17.718673
11.448860
9.334683
8.426905
8.035898
8.182526
8.197427
8.283854
7.961988
7.640719
7.355809
6.853938
6.822944
6.530881
6.428957
6.116629
5.900860
6.050467
6.025434
5.690455
5.919933
5.547404
5.704761
5.568862
5.636811
5.337000
5.474687
5.567670
5.520582
5.473495
5.505681
##ZVALUE=305
0.942945
0.944734
0.930429
0.893474
0.917912
0.960827
0.950694
1.001954
1.047850
1.002550
1.128912
1.204610
1.018643
1.025796
1.066923
1.213551
1.145601
1.236796
1.221895
1.398921
1.355410
1.466870
1.511574
1.566410
1.902580
1.766682
1.811981
1.998544
2.172589
2.138615
2.390742
2.822876
3.046989
3.255606
4.890561
26.870966
87.220669
289.173722
558.712482
1015.870571
1015.870571
1015.870571
1015.870571
1015.870571
1015.870571
1015.870571
1015.870571
1015.870571
788.722634
369.517803
175.558925
49.389601
18.431544
14.194846
18.010736
27.986765
38.417578
55.234432
69.658756
86.339712
94.041824
97.035766
94.352961
81.584454
68.451762
50.841570
37.615895
23.684502
17.035604
11.507869
9.330511
8.327961
7.845759
7.353425
7.250905
6.646514
6.276965
5.953908
5.864501
5.839467
5.709529
5.811453
5.427599
5.344748
5.807877
5.429983
5.774498
5.458593
5.444884
5.494952
5.278587
5.165935
5.198717
5.368590
5.209446
5.396605
##ZVALUE=310
0.854731
0.880957
0.727773
0.903606
0.787973
0.854731
0.898838
0.890493
0.987649
0.927448
0.802875
0.927448
1.008511
1.158714
1.105666
1.181960
1.187921
1.243949
1.204610
1.144409
1.329780
1.456738
1.390576
1.507998
1.431704
1.559854
1.686811
1.518726
1.882911
1.974702
1.944900
2.047420
2.347827
2.256632
2.674460
3.168583
3.519654
10.306835
39.692521
158.553720
346.380472
788.342953
1015.871763
1015.871763
1015.871763
1015.871763
1015.871763
1015.871763
1015.871763
1015.871763
1015.871763
568.882823
298.043489
97.134709
32.253861
12.066960
12.499690
17.226934
22.415519
34.466982
45.884848
63.927770
75.994730
87.169409
91.747642
88.738799
81.283450
66.087842
52.650571
36.162734
26.520491
17.357469
12.643933
8.999705
7.453561
6.428957
6.158948
5.475879
5.465746
5.549788
5.075932
5.234480
5.433559
5.177855
5.236864
5.138516
5.179644
5.150437
5.022883
5.226731
5.220771
4.983544
5.221963
5.059838
5.093813
5.127788
##ZVALUE=315
0.782609
0.835657
0.723600
0.892878
0.922680
0.771880
0.914931
0.709891
0.988841
0.911951
0.808835
0.910759
1.010895
1.113415
0.953674
1.108646
1.039505
1.171827
1.073480
1.105666
1.254678
1.257658
1.265407
1.309514
1.316667
1.403689
1.558661
1.541972
1.711845
1.526475
1.677871
1.790524
1.783967
2.050996
2.189875
2.525449
2.639890
3.116727
3.355742
5.128980
17.580986
88.927746
222.073793
565.324426
966.087580
1015.870571
1015.870571
1015.870571
1015.870571
1015.870571
1015.870571
1015.870571
1015.870571
807.647705
437.956452
151.680708
54.684877
14.320612
10.641813
11.658669
14.491677
21.796823
30.026436
43.643713
56.800842
73.227882
81.630945
86.623430
84.830523
75.040460
64.820647
50.149560
37.193894
23.550987
16.414523
10.282993
7.977486
6.032586
5.499721
4.926920
4.979968
5.021691
4.971623
4.739761
4.971623
4.943609
4.769564
4.854798
4.632473
5.013943
5.041957
4.784465
5.137920
4.837513
5.099773
5.020499
##ZVALUE=320
0.667572
0.757575
0.877976
0.849962
0.885725
0.915527
0.883937
1.050830
0.740886
0.786781
0.971556
0.944734
0.826716
0.905991
0.913739
1.127720
1.015663
0.806451
0.998974
1.084805
1.038909
1.098514
1.242757
1.228452
1.192689
1.336932
1.226664
1.467466
1.299977
1.373887
1.469851
1.536608
1.629591
2.007484
1.960993
1.987815
2.233982
2.538562
2.684593
2.783537
3.116727
3.849864
7.929802
47.729611
138.897896
415.033698
740.543008
1015.873551
1015.873551
1015.873551
1015.873551
1015.873551
1015.873551
1015.873551
1015.873551
996.226668
617.650747
256.297588
104.407668
23.913980
10.805726
9.681582
10.515451
13.298988
17.886758
28.071404
37.941933
54.177642
65.787435
77.125430
81.811547
80.639720
74.317455
60.300827
48.057437
32.878518
23.174882
14.457703
10.087490
6.753802
5.394816
4.967451
4.781485
4.398823
4.432797
4.567504
4.394650
4.501939
4.510880
4.569888
4.557967
4.647970
4.711747
4.785657
4.835725
4.672408
##ZVALUE=325
0.715852
0.731945
0.824928
0.810623
0.801682
0.785589
0.926852
0.732541
0.763535
0.863671
0.984669
0.683665
0.816584
0.876784
0.901818
0.961423
0.971556
1.004934
1.093745
0.838637
1.139641
1.028776
1.086593
1.094937
1.119971
1.246929
1.181960
1.241565
1.408458
1.238585
1.338720
1.464486
1.516938
1.660585
1.662970
1.716614
1.800656
1.907945
2.062917
2.219677
2.274513
2.623796
2.931952
3.400445
4.776716
29.179454
88.575482
271.512866
530.867577
1011.503935
1015.870571
1015.870571
1015.870571
1015.870571
1015.870571
1015.870571
1015.870571
1015.870571
816.931725
360.847712
163.594484
40.370822
13.703704
9.088516
8.767843
9.949803
12.326837
18.088818
25.595427
39.819479
50.371885
63.611865
72.133541
76.635480
74.658990
65.915585
56.505799
42.219758
31.203628
19.687414
13.450980
8.396506
6.500483
5.070567
4.577637
4.413724
4.322529
4.369617
4.372597
4.314780
4.355907
4.230738
4.284978
4.360676
4.338622
4.448891
##ZVALUE=330
0.792742
0.915527
0.743866
0.757575
0.661612
0.834465
0.892878
0.695586
0.881553
0.814795
0.763535
1.003742
0.965595
0.746846
1.057982
0.763535
1.020432
0.892878
0.894666
1.070499
0.945926
0.966787
1.139641
0.902414
1.053810
1.075864
1.197457
1.237988
1.194477
1.264811
1.356602
1.523495
1.224875
1.453757
1.573563
1.651645
1.704693
1.813769
1.929998
1.912713
2.147555
2.333522
2.291799
2.847910
2.952814
3.289580
3.830791
13.895631
49.684644
188.344121
390.352011
848.140717
1015.905738
1015.905738
1015.905738
1015.905738
1015.905738
1015.905738
1015.905738
1015.905738
1005.861759
508.230925
252.442956
78.216791
23.670793
9.271502
8.347631
8.581877
9.383559
12.678504
17.032623
25.442839
34.529567
48.605800
57.793856
67.369938
70.118904
68.429708
63.315630
51.103830
40.722489
27.646422
19.904971
13.440847
9.300709
6.365776
5.153418
4.573464
4.464984
4.266500
4.251599
4.145503
4.095435
4.204512
4.406571
4.306436
##ZVALUE=335
0.583529
0.565648
0.667572
0.526905
0.494719
0.551939
0.430942
0.544786
0.525713
0.734925
0.610948
0.601411
0.771880
0.735521
0.669956
0.634789
0.683665
0.710487
0.784993
0.745654
0.769496
0.797510
0.906587
0.842810
0.811815
0.939965
1.058578
0.981688
0.954866
1.166463
1.023412
1.002550
1.169443
1.181960
1.216531
1.123548
1.347661
1.308918
1.489520
1.616478
1.622438
1.758933
1.718998
1.895428
2.049804
2.271533
2.376437
2.646446
3.169775
5.537868
20.059943
99.700689
238.964558
595.368743
980.017781
1015.754938
1015.754938
1015.754938
1015.754938
1015.754938
1015.754938
1015.754938
1015.754938
710.966587
371.065736
117.643476
40.270686
11.114478
8.520484
7.989407
8.169413
9.181499
11.083484
16.168952
22.235513
32.749772
41.970611
53.894520
61.078668
65.721869
63.991547
56.995749
49.851537
39.171576
30.048490
20.029545
13.943911
8.745790
6.559491
4.851818
4.511476
4.179478
4.123449
3.936887
4.190803
4.284978
##ZVALUE=340
0.601411
0.498891
0.535846
0.512600
0.616908
0.580549
0.678897
0.620484
0.616908
0.665784
0.626445
0.580549
0.657439
0.723600
0.720620
0.583529
0.696778
0.688434
0.737906
0.785589
0.615716
0.757575
0.809431
0.821948
0.737906
0.783801
0.877976
0.847578
1.006722
0.992417
0.895858
0.984669
1.180768
1.107454
1.089573
1.102686
1.246929
1.344681
1.217723
1.256466
1.352429
1.505613
1.440644
1.568794
1.667738
1.749992
1.916885
2.193451
2.271533
2.719760
2.837777
3.842711
9.283423
55.865645
158.725381
454.682708
839.399695
1015.783548
1015.783548
1015.783548
1015.783548
1015.783548
1015.783548
1015.783548
1015.783548
887.253881
490.998626
186.649561
64.754486
13.557673
8.960962
8.180737
7.681847
7.651448
8.032918
10.178685
14.019608
20.949841
28.758645
40.462613
49.848557
58.202744
60.907602
59.989691
55.640936
46.941638
38.788915
27.837753
20.274520
13.355613
9.618998
6.263852
5.247593
4.389882
4.399419
4.376769
##ZVALUE=345
0.547767
0.736713
0.722408
0.554919
0.664592
0.711679
0.643730
0.557899
0.718832
0.661612
0.556707
0.744462
0.630617
0.692606
0.727773
0.710487
0.841618
0.764728
0.762939
0.763535
0.776649
0.808835
0.843406
0.811815
0.917912
0.958443
0.996590
0.888705
0.915527
1.003742
1.226664
0.898838
1.087785
1.091957
1.127720
1.243949
1.094937
1.086593
1.337528
1.230836
1.484752
1.347661
1.435876
1.452565
1.533628
1.702905
1.798868
1.826882
1.923442
2.181530
2.352595
2.500415
2.865791
3.362894
4.715919
28.024912
93.666911
296.691060
580.743551
1015.836000
1015.836000
1015.836000
1015.836000
1015.836000
1015.836000
1015.836000
1015.836000
1015.836000
688.206553
271.996856
114.062428
27.145743
11.206865
8.823872
7.854700
7.111430
6.460547
6.898642
8.623600
13.319850
18.231869
28.153658
35.358667
45.009851
51.150918
56.214929
55.873990
51.755905
46.379566
36.854744
28.808713
19.454956
14.423728
9.386539
7.119775
5.571842
##ZVALUE=350
0.724792
0.728965
0.676513
0.748634
0.747442
0.775456
0.677705
0.796914
0.722408
0.710487
0.778437
0.779629
0.862479
0.827909
0.744462
0.785589
0.950694
0.767708
0.819564
0.819564
0.759959
0.828505
0.898838
0.819564
0.799894
0.803471
0.857711
0.868440
0.938773
1.097918
0.985861
0.985861
1.098514
0.998974
1.102686
1.189709
1.205802
1.224875
1.252890
1.240969
1.308918
1.318455
1.456738
1.396537
1.399517
1.589656
1.654625
1.679659
1.847744
1.861453
2.143979
2.066493
2.432466
2.408624
2.772808
2.967715
3.747940
14.289618
50.201416
187.694430
397.036672
887.267590
1015.875936
1015.875936
1015.875936
1015.875936
1015.875936
1015.875936
1015.875936
1015.875936
858.886838
396.829844
173.450708
38.158894
12.932420
7.991791
7.155538
6.114841
5.770922
5.747676
6.335974
8.501410
11.244416
16.803741
22.564530
32.241940
39.436817
47.052503
50.834417
52.137971
49.420595
42.593479
36.041737
26.868582
20.511746
14.337897
##ZVALUE=355
0.615716
0.762939
0.673532
0.649691
0.715852
0.868440
0.762939
0.802875
0.847578
0.719428
0.738502
0.816584
0.731945
0.764728
0.775456
0.913739
0.825524
0.768900
0.947714
0.884533
0.929832
0.882745
1.020432
0.956655
0.905991
0.957847
0.811815
1.038909
1.139641
1.103878
1.058578
1.004934
1.085997
1.070499
1.169443
1.194477
1.147985
1.102686
1.208782
1.204610
1.174808
1.279712
1.257658
1.408458
1.419783
1.635551
1.627803
1.533628
1.620650
1.871586
1.901984
1.844764
2.028942
2.196431
2.143979
2.572536
2.841949
2.986789
3.362894
6.841421
24.207830
115.304589
267.253518
632.312894
1003.108025
1015.871763
1015.871763
1015.871763
1015.871763
1015.871763
1015.871763
1015.871763
1005.159020
506.869555
244.437456
64.683557
18.262863
7.755756
6.867647
6.197691
5.751848
5.314946
5.372763
6.052852
7.042885
10.443926
14.190674
21.090508
26.949644
35.652518
41.850805
47.163963
48.471689
46.458840
42.061806
35.222769
##ZVALUE=360
0.734925
0.687838
0.664592
0.727773
0.848770
0.732541
0.692606
0.669956
0.865459
0.769496
0.878572
0.867844
0.891685
0.811815
0.859499
0.888705
0.739694
0.730753
0.942945
0.868440
0.686646
0.953674
0.906587
1.025796
0.894666
1.044869
1.036525
0.940561
1.099706
1.212955
1.104474
1.106858
1.145601
1.218915
1.075864
1.076460
1.276731
1.193881
1.116991
1.244545
1.244545
1.185536
1.346469
1.481771
1.363754
1.472831
1.544952
1.497865
1.530647
1.679659
1.800656
1.863837
1.830459
2.089739
2.093911
2.172589
2.333522
2.667904
2.847910
3.140569
3.493428
4.450679
10.228753
52.427649
148.178935
428.493619
777.292848
1015.871763
1015.871763
1015.871763
1015.871763
1015.871763
1015.871763
1015.871763
1015.871763
667.462945
355.143547
123.587847
39.346814
9.056926
7.035732
6.138682
5.728602
5.268455
5.313754
5.052686
5.115867
6.371737
7.946491
12.085438
16.684532
24.016500
30.354857
37.778616
42.079687
44.233799
##ZVALUE=365
0.690818
0.726581
0.656843
0.674725
0.682473
0.667572
0.758767
0.844598
0.806451
0.770688
0.572801
0.841618
1.002550
0.814795
0.962615
0.724792
0.805855
0.984669
0.834465
0.815988
0.841618
0.888705
0.792742
1.006722
0.897646
1.005530
0.958443
0.957847
0.879765
0.905991
0.988841
0.967979
0.985861
1.065731
1.069903
1.089573
1.136661
1.188517
1.173615
1.244545
1.198649
1.293421
1.166463
1.242757
1.384616
1.258850
1.437664
1.369715
1.408458
1.452565
1.654625
1.655817
1.663566
1.822710
1.853704
1.970530
2.127886
2.204776
2.339482
2.400875
2.707839
2.792478
3.245473
3.734827
5.606413
28.892756
89.853406
275.050402
557.583570
1015.885472
1015.885472
1015.885472
1015.885472
1015.885472
1015.885472
1015.885472
1015.886068
875.023007
490.485430
180.659890
65.847635
12.998581
6.943941
6.050467
5.488992
5.177855
5.007982
4.736781
4.728436
5.001426
5.651712
7.936954
10.457635
14.845729
19.737482
26.355982
##ZVALUE=370
0.703931
0.675917
0.815988
0.697970
0.726581
0.696778
0.562668
0.775456
0.688434
0.598431
0.809431
0.765920
0.755787
0.719428
0.749826
0.607967
0.701547
0.836849
0.803471
0.847578
0.928640
0.852942
0.799894
0.837445
0.830889
0.849962
0.929832
0.994802
1.010895
0.880957
0.904799
1.010895
1.026988
0.967979
0.870824
1.091957
0.990629
1.032948
1.087785
0.985861
1.144409
1.041889
1.086593
1.114607
1.040697
1.082420
1.219511
1.166463
1.273751
1.194477
1.381636
1.533628
1.364946
1.405478
1.248717
1.369715
1.702905
1.621842
1.742840
1.820922
2.014637
2.231598
2.334714
2.580881
2.696514
3.106594
3.913641
13.565421
49.875975
186.883807
392.529964
843.319893
1015.870571
1015.870571
1015.870571
1015.870571
1015.870571
1015.870571
1015.870571
995.145440
619.371533
247.277617
28.904676
7.842779
7.539988
5.858541
5.070567
4.982948
4.778504
4.644990
4.737973
4.690886
5.627871
5.822778
7.039905
11.334419
##ZVALUE=375
0.614524
0.605583
0.555515
0.564456
0.605583
0.642538
0.705719
0.752807
0.686646
0.600815
0.698566
0.579953
0.588894
0.549555
0.843406
0.846982
0.684857
0.720620
0.767708
0.742674
0.676513
0.666976
0.742674
0.797510
0.795722
0.937581
0.863671
0.804663
0.825524
0.881553
0.833869
0.838637
1.048446
1.030564
0.890493
0.924468
0.974536
0.955462
0.891685
0.973940
0.923872
0.927448
1.161695
0.999570
0.978708
0.998974
0.979900
1.064539
1.104474
1.015663
0.991821
1.079440
1.174808
1.193881
1.178980
1.353621
1.415610
1.371503
1.296997
1.373887
1.582503
1.698732
1.764894
1.977682
2.153516
2.318621
2.721548
3.031492
3.612638
6.159544
32.531619
93.879700
283.503532
558.656454
1015.870571
1015.870571
1015.870571
1015.870571
1015.870571
1015.870571
1015.870571
1015.870571
821.816921
469.437838
178.814530
69.102645
13.839602
6.388426
5.339980
5.114675
5.016923
5.200505
4.917979
5.018711
5.066991
5.041957
##ZVALUE=380
0.639558
0.680685
0.661612
0.490546
0.499487
0.582933
0.544786
0.654459
0.605583
0.651479
0.540614
0.665784
0.582933
0.651479
0.681877
0.507832
0.691414
0.582933
0.623465
0.729561
0.659823
0.653863
0.753999
0.727773
0.626445
0.833869
0.840425
0.819564
0.842810
0.805855
0.889897
1.051426
0.819564
0.993609
0.809431
0.944734
0.863671
0.934601
1.005530
0.979900
0.979900
0.919700
1.039505
0.984669
1.003742
0.944734
1.015663
0.987649
1.051426
1.020432
1.279712
1.055598
1.284480
1.081824
1.138449
1.160502
1.206994
1.311898
1.335740
1.370907
1.361966
1.401901
1.471639
1.625419
1.688600
1.937747
2.187490
2.358556
2.782941
3.189445
3.668666
4.275441
15.501976
54.752827
201.837420
412.004590
880.846977
1015.870571
1015.870571
1015.870571
1015.870571
1015.870571
1015.870571
1015.870571
1009.374857
657.671690
278.797746
123.014450
27.602911
8.851886
6.012917
5.499721
5.352497
5.453825
5.260706
5.155802
##ZVALUE=385
0.596642
0.533462
0.628829
0.693798
0.675917
0.706911
0.469685
0.635982
0.460744
0.543594
0.545979
0.550747
0.579953
0.480413
0.561476
0.594854
0.529885
0.554919
0.653863
0.592470
0.637770
0.610948
0.635982
0.674725
0.771880
0.697970
0.870824
0.783801
0.758767
0.930429
0.848770
0.944734
0.966787
1.112819
0.998974
1.019835
1.010895
0.920892
0.975728
1.022816
1.042485
0.932813
1.141429
1.005530
1.040697
1.000762
1.016855
0.978708
1.099706
1.041889
1.185536
1.090765
1.176596
0.939965
1.190901
1.148582
1.228452
1.238585
1.171827
1.395941
1.354814
1.184940
1.487732
1.427531
1.633763
1.877546
1.959801
2.250671
2.450943
2.726912
2.805591
2.974868
3.038645
3.397465
5.869865
31.240582
99.487901
317.528844
615.900755
1015.896797
1015.896797
1015.896797
1015.896797
1015.896797
1015.896797
1015.896797
1015.896797
886.422992
518.483520
213.443637
81.881881
16.305447
7.050633
5.705953
5.622506
5.335808
##ZVALUE=390
0.589490
0.621676
0.448823
0.601411
0.529885
0.486970
0.548959
0.597835
0.497699
0.449419
0.505447
0.589490
0.456572
0.416636
0.420809
0.554919
0.548959
0.592470
0.565648
0.568628
0.714660
0.503659
0.591874
0.685453
0.717640
0.955462
0.892878
0.943542
1.004934
0.871420
0.918508
0.939965
1.014471
1.055598
0.984669
0.963807
0.953674
1.072884
1.059771
0.921488
1.102686
1.138449
0.933409
1.079440
1.205802
1.159906
1.160502
1.139641
1.131892
1.093745
1.010895
1.304746
1.140833
1.227856
1.106858
1.097918
1.180768
1.199841
1.164675
1.276731
1.259446
1.218915
1.423955
1.443624
1.503825
1.874566
1.834631
2.119541
2.332926
2.493858
2.499819
2.572536
2.488494
2.745986
2.708435
2.771616
3.503561
15.783906
60.220361
227.348804
478.602648
975.763798
1015.868783
1015.868783
1015.868783
1015.868783
1015.868783
1015.868783
1015.868783
1015.868783
772.592425
329.369903
150.901675
40.016770
11.618733
6.031990
##ZVALUE=395
0.519753
0.703931
0.498891
0.552535
0.342727
0.466704
0.495911
0.736713
0.543594
0.440478
0.491738
0.375509
0.545979
0.606775
0.745654
0.368953
0.704527
0.629425
0.631809
0.580549
0.640750
0.724792
0.576973
0.635982
0.657439
0.816584
0.827909
0.760555
0.833869
0.870824
0.871420
0.968575
0.939965
0.979900
1.116991
1.017451
1.002550
0.926852
1.010895
1.119971
1.139641
1.152754
1.070499
1.020432
1.235604
1.066923
1.142621
1.028776
1.182556
1.129508
1.157522
1.105666
1.155734
1.149774
1.124740
0.994802
1.105666
1.203418
1.137853
1.019835
1.099706
1.291633
1.290441
1.305938
1.515746
1.752973
1.992583
1.948476
2.113581
2.099872
2.357960
2.497435
2.258420
2.262592
2.160668
2.277493
2.400875
2.710819
2.972484
8.407831
34.716725
150.519609
324.390531
702.541471
1015.871763
1015.871763
1015.871763
1015.871763
1015.871763
1015.871763
1015.871763
1015.871763
953.316689
454.097986
221.319795
67.098737
##ZVALUE=400
0.664592
0.664592
0.632405
0.596642
0.432730
0.587702
0.450611
0.487566
0.628829
0.481606
0.619888
0.598431
0.704527
0.483990
0.599623
0.510812
0.622869
0.458956
0.692606
0.449419
0.589490
0.606775
0.610948
0.635982
0.619888
0.807643
0.749826
0.860691
0.649691
0.812411
0.950694
0.875592
0.935793
1.008511
0.925660
1.011491
1.007915
1.005530
0.970960
1.086593
1.125932
1.019835
1.045465
1.021624
0.988841
1.154542
1.100898
1.074672
1.062751
1.254678
1.121759
1.253486
1.180768
1.011491
1.199841
1.132488
0.985861
1.216531
1.141429
1.162887
1.258850
1.100898
1.245737
1.381636
1.430511
1.727939
1.761913
1.989603
2.156496
2.107620
2.035499
1.999736
1.978874
1.902580
1.835823
1.936555
1.956820
2.122521
2.300739
2.757907
3.012419
4.928708
16.392469
75.555444
189.646482
492.204428
865.623951
1015.870571
1015.870571
1015.870571
1015.870571
1015.870571
1015.870571
1015.870571
1015.841961
672.819614
##END
