##TITLE=C103_R5
##FORMAT=SPECTACLE-ASCII V-1.2
##DATA TYPE=ULTRAVIOLET SPECTRUM
##SECOND TYPE=ULTRAVIOLET SPECTRUM
##DATE=05/28/18
##TIME=13:09:25
##SPECTROMETER/DATA SYSTEM=SPECTACLE
##XUNITS=NM EM
##YUNITS=ENERGY
##YFACTOR=1
##FIRSTX=220
##LASTX=410
##NPOINTS=96
##3DDATA=Equidistant
##ZUNITS=NM EX
##FIRSTZ=210
##LASTZ=400
##ZPOINTS=39
##XYDATA=(Y..Y)
##ZVALUE=210
53.754449
48.884749
38.158894
31.505823
27.872920
22.773743
20.320415
17.476678
14.304519
9.784698
9.177923
8.101463
6.750822
6.968975
7.203817
6.995797
8.437634
8.979440
8.854866
9.345412
9.911656
12.150407
12.883544
15.466809
17.120838
20.012856
22.197962
24.262667
26.944876
28.949976
29.381514
32.280684
33.859611
34.779906
34.066439
32.415986
34.152865
33.916831
33.862591
32.730699
32.961965
33.383965
32.316446
33.459663
33.835769
33.495426
31.482577
30.231476
32.190681
30.247569
30.863881
29.257536
29.968619
29.666424
28.571486
26.694536
27.310848
26.261806
27.704835
25.890470
27.641654
26.294589
26.437640
27.276874
28.214455
32.956600
37.247539
40.652752
47.479868
55.179000
62.253475
65.903664
74.222684
75.671673
78.161955
72.935820
73.789954
68.939924
61.723590
54.515600
45.051575
38.191676
32.656789
28.545856
23.257732
24.218559
22.594929
21.333694
23.700595
28.791428
40.268898
58.568716
82.155466
103.821754
140.374899
171.221495
##ZVALUE=215
196.992755
180.923939
144.203901
94.917417
74.090958
51.870942
42.402744
37.254691
34.409761
30.492544
24.877787
19.888878
14.398694
12.312531
8.985996
9.292960
7.596612
8.461475
9.577870
9.578466
11.081696
10.826588
10.804534
14.886856
15.830994
18.745661
22.579432
25.338531
26.861429
28.313994
31.068921
32.367706
31.874776
34.746528
33.973455
36.062598
36.733747
36.619902
35.522580
35.360456
35.069585
35.119653
35.018921
36.447644
34.703612
33.209920
32.558441
32.999516
34.409761
33.128858
33.974648
34.112930
32.058954
34.126639
31.214952
31.109452
31.043887
32.090545
32.868981
29.089451
29.829741
29.775500
30.385852
29.823780
30.505657
32.748580
34.212470
37.479997
42.855740
48.444867
52.683949
57.507753
62.664747
62.118769
62.989593
61.833858
56.693554
54.604411
50.887465
43.010712
38.284659
33.484697
30.203462
25.317669
23.252964
21.313429
21.321774
21.796823
20.617843
18.533468
19.453764
20.111799
19.839406
23.666620
33.116937
54.179430
##ZVALUE=220
418.626666
423.461795
396.183729
334.399939
267.538428
189.700723
133.945942
81.865788
63.278675
56.574941
47.791600
43.356419
38.231611
34.229755
24.443865
20.432472
14.240742
11.440516
9.763837
9.290576
9.544492
9.599924
10.531545
12.289882
13.469458
14.999509
17.049909
18.514991
19.941926
21.232963
22.813678
26.405454
24.104714
26.554465
29.524565
29.927492
29.026866
30.799508
30.160546
33.796430
35.065413
32.998919
31.887889
32.578707
33.791661
35.616755
32.714605
35.537481
34.466982
34.399629
35.052896
34.451485
34.613609
33.570528
33.113956
31.283498
32.517910
33.431649
33.206940
30.340552
30.098557
29.644966
29.584765
28.559566
31.581521
30.935407
33.281446
33.396482
39.454699
42.551756
47.427416
51.126480
53.614974
53.377748
52.578449
51.388741
45.951605
45.358539
40.730834
35.642982
31.810999
28.959513
24.781823
24.908781
20.217896
20.447969
19.027591
19.591451
17.200708
18.330812
16.426444
16.186833
16.634464
17.479658
16.853809
16.325712
##ZVALUE=225
474.987626
493.349433
588.376522
644.521713
631.379485
546.215773
454.022884
319.252014
220.273733
150.652528
92.936754
76.598525
65.512657
65.530539
59.153438
53.835511
39.627552
32.201409
23.826957
16.711950
13.128519
9.868741
9.289980
11.011958
11.394620
12.260675
12.776852
13.854504
14.763474
15.969872
17.078519
18.729568
20.156503
20.943880
22.016764
25.070906
25.029778
28.376579
31.180978
29.903650
30.829906
33.739805
34.113526
33.031702
32.222867
35.052896
34.087896
32.957792
34.586787
34.473538
33.778548
33.458471
34.405589
33.744574
34.559965
32.662749
32.341480
32.204986
31.285882
31.178594
29.428601
30.574799
31.087995
30.349493
29.362440
28.722882
30.383468
32.615662
35.012960
36.779642
40.805936
45.220852
46.461821
46.906471
46.151876
44.240952
42.367578
37.895441
33.977628
29.508471
27.522445
23.508668
20.794868
20.768642
19.099712
17.923713
17.125607
17.412901
16.559958
16.608834
16.405582
16.670823
14.648438
15.134811
15.304685
15.552640
##ZVALUE=230
258.464813
282.771587
435.868502
661.731958
799.927711
935.205817
942.612886
860.638022
730.835795
567.952991
348.251462
227.757692
133.010745
99.355578
88.438988
87.537766
85.301995
79.011917
69.122910
53.298473
40.346980
26.688576
18.664598
12.747645
11.079907
11.096597
10.640621
11.244416
11.955500
12.965798
13.413429
14.898777
15.310645
16.850829
17.750859
19.479990
22.667646
24.251938
24.798512
27.395487
28.126836
30.336976
31.505823
30.842423
30.704737
30.261874
32.987595
31.708479
31.318665
31.706691
30.781627
32.964945
31.790733
30.616522
29.221773
29.630661
29.411912
30.370951
28.833747
27.993917
28.270483
26.829839
26.849508
28.111935
27.487874
27.204752
29.087663
31.569600
32.011867
35.059452
36.724806
39.414763
40.675998
39.759874
40.986538
39.450526
36.007762
33.261776
29.465556
27.047992
23.810863
21.421909
19.373894
18.322468
17.771721
16.875863
15.907884
15.942454
15.495420
15.591979
15.307665
14.408827
15.750527
14.496446
14.665723
15.219450
##ZVALUE=235
51.442981
60.721636
132.301450
310.143828
494.103432
772.932768
990.560651
1015.870571
1015.870571
1015.870571
1015.870571
827.055573
532.827973
357.233882
209.963918
142.323971
104.251504
102.459788
105.236769
103.157759
94.143748
74.081421
60.482621
41.591525
29.670000
19.231439
14.830828
11.297464
12.224913
11.510849
12.500882
12.639761
13.831854
14.679432
15.558600
16.382933
17.968416
19.122958
21.009445
20.701885
23.189783
24.383664
25.116801
26.193857
25.778413
26.142597
26.043653
26.184916
27.413964
26.650429
25.980473
27.553439
26.320815
25.935769
24.824739
25.467873
25.429726
24.660826
22.986531
24.518967
23.162961
23.178458
22.692680
22.402406
22.700429
23.166537
23.974776
25.616884
27.934909
30.161738
32.261610
35.165548
35.361648
35.549998
34.321547
33.798814
31.077862
29.530525
25.305748
24.399757
21.670461
18.287897
17.877817
17.157793
15.865564
14.768839
14.780760
15.473962
15.058517
15.094876
14.550686
13.759732
13.299584
13.713837
14.264584
14.022589
##ZVALUE=240
3.165603
3.644824
10.745525
48.897862
114.460588
272.114873
461.201668
811.643600
1015.870571
1015.870571
1015.870571
1015.870571
1015.870571
1015.870571
806.321502
563.084483
306.471586
194.034576
122.747421
108.647943
112.916827
116.421580
111.624599
98.784566
77.053905
62.378645
46.930909
30.374527
22.360682
15.709996
12.993813
11.275411
12.121797
13.226867
13.337731
14.061928
15.042424
16.513467
16.555786
16.563535
17.992854
18.060803
19.412637
19.835830
19.298792
20.415783
21.205544
20.300746
20.678639
19.689798
20.948648
19.830465
20.761490
19.675493
19.515753
20.550489
18.674731
18.734932
18.874407
18.590689
18.741488
18.009543
19.530654
17.985702
18.751621
18.935800
20.373464
21.211505
23.309588
24.088621
26.277900
27.777553
29.327869
29.762983
27.450919
27.369857
24.845600
22.931695
21.285415
18.685460
18.375516
15.732646
15.255809
13.891459
13.998747
13.525486
13.112426
12.275577
12.780428
12.683868
12.239814
12.227893
12.737513
12.549758
12.311935
11.941791
##ZVALUE=245
2.351999
2.225637
2.474785
2.940893
5.303621
26.001930
74.579716
214.229822
396.179557
738.938451
1008.946896
1015.870571
1015.870571
1015.870571
1015.870571
1015.870571
1015.870571
720.872879
471.949577
240.715742
153.461695
113.328695
105.494857
115.838647
120.965838
115.414858
101.376772
87.161660
64.246655
50.475001
34.591556
25.472641
18.816590
13.715625
12.509823
13.127923
12.841821
13.759732
14.878511
14.360547
15.767813
16.311407
16.737580
16.703606
16.207695
17.140508
17.273426
16.677976
16.724467
18.031597
17.595887
17.057657
17.039776
16.495585
16.905665
16.224980
16.257763
16.019940
15.152693
15.835762
14.921427
15.205741
14.789701
14.741421
15.221834
15.401840
15.654564
17.860532
18.932819
20.800829
22.156835
22.893548
23.929477
22.507906
23.647547
21.497607
20.172596
18.960834
17.216802
14.263988
14.277697
12.698770
13.054609
11.546612
10.968447
10.783672
10.504723
10.700822
10.087490
10.702610
10.877848
10.066628
10.503531
10.236502
10.571480
10.728836
##ZVALUE=250
1.994967
1.682639
1.922846
2.377629
2.258420
2.743602
3.769994
11.710525
58.537722
140.307546
356.218815
612.023473
927.140713
1015.859842
1015.859842
1015.859842
1015.859842
1015.859842
1015.859842
958.340764
639.047623
389.007926
184.587836
115.383863
97.116828
104.862452
117.013454
124.530792
119.276643
108.150840
91.262460
73.355436
55.633783
35.871863
25.939941
18.163919
15.710592
14.295578
14.160872
14.843941
14.723539
14.713407
15.384555
15.204549
15.547872
16.468763
16.042590
15.915632
15.699863
16.422868
16.060472
16.404986
15.784502
15.542507
15.807748
14.925599
14.236569
14.529824
14.857650
14.305711
14.381409
13.524890
13.887882
13.388991
13.460517
13.451576
13.944507
14.579892
15.753508
17.915964
18.141866
19.263625
19.699931
18.779635
18.999577
17.568469
16.572475
15.418530
13.907552
12.379885
11.689663
10.523796
10.260940
9.699464
10.050535
9.466410
9.123683
8.430481
8.184910
8.692741
8.796453
9.221435
8.423924
8.999705
8.772612
9.243488
##ZVALUE=255
1.678467
1.776814
1.836419
1.877546
1.856685
2.191663
2.395511
2.354980
2.793670
4.955530
29.483438
87.420940
254.496932
457.826853
836.291909
1015.870571
1015.870571
1015.870571
1015.870571
1015.870571
1015.870571
1015.870571
907.558799
494.601727
276.141763
132.976770
93.476772
92.736483
104.681849
122.308731
127.469897
125.058889
115.385652
95.397830
77.289939
55.721998
40.626526
27.348995
21.068454
17.661452
15.922785
15.845895
16.291738
16.740561
16.548634
16.403794
16.612411
16.810894
16.747713
16.968846
16.389489
16.367435
15.760660
15.322566
14.826655
14.853477
14.908910
14.574528
13.971925
14.449954
13.189912
13.158917
12.980700
12.564659
13.205409
13.012886
13.050437
13.751984
14.248490
15.891790
16.018748
16.689897
16.005635
16.601682
15.943646
15.001893
13.719797
12.744665
11.412501
10.377765
10.210872
9.026527
8.808970
8.264780
8.257627
7.459521
7.697940
7.883906
7.424951
7.549524
7.389784
7.971525
7.467866
7.615685
7.810593
7.534623
##ZVALUE=260
1.786947
1.555681
1.880527
1.832843
1.815557
2.005696
2.095699
2.311468
2.321601
2.375841
2.872944
3.860593
11.267662
58.967471
142.710805
373.358727
637.437701
1015.957594
1015.957594
1015.957594
1015.957594
1015.957594
1015.957594
1015.957594
1015.957594
790.762901
432.233810
239.758492
111.871958
80.340505
84.784627
106.276870
122.419596
132.740736
131.557584
117.578506
103.053451
80.448985
61.877966
43.958426
33.417940
25.324821
21.802783
19.101501
19.664764
18.949509
18.899441
19.375682
19.274950
19.316673
18.681884
18.565655
18.971562
17.799735
17.585754
17.086864
17.175674
16.571879
16.332865
15.712976
15.057921
14.321804
14.355779
14.069676
13.135672
13.968945
13.738871
13.541579
14.533997
15.014410
15.602708
15.546679
15.594959
15.616417
14.922619
13.173819
12.639761
11.871457
10.658503
9.956956
9.193420
8.804798
8.366704
7.633567
7.759929
7.507801
7.421970
7.219911
7.217526
7.127523
6.806850
7.371902
7.105470
6.803870
7.266998
6.922483
##ZVALUE=265
1.529455
1.515746
1.351833
1.491904
1.477599
1.745820
1.830459
1.821518
2.227426
2.016425
2.318621
2.352595
2.520680
3.004670
5.898476
34.918785
97.965598
270.328522
499.369502
966.359973
1015.870571
1015.870571
1015.870571
1015.870571
1015.870571
1015.870571
1015.870571
1015.870571
617.916584
360.165834
196.221471
87.172985
72.189569
92.419982
109.715462
129.426718
136.011839
134.154558
124.544501
104.102492
87.807775
64.170957
50.569773
36.018491
29.790998
25.102496
23.817420
23.132563
22.906661
22.724867
21.715760
21.736622
21.269917
21.338463
20.698905
20.272732
19.417405
19.023418
18.168688
17.591715
17.076731
16.611814
16.060472
15.443563
14.696717
14.535785
14.523864
14.150739
14.934540
15.349984
15.676618
15.438795
15.638471
15.017986
14.572740
13.218522
12.286901
11.167526
10.179877
9.478927
8.663535
7.958412
8.035898
7.409453
7.061958
7.306933
6.931424
6.888509
6.752610
6.456971
6.449819
6.451607
6.392598
6.449819
6.518960
6.404519
##ZVALUE=270
1.428723
1.442432
1.508594
1.460910
1.495481
1.545548
1.655817
1.825690
1.875758
1.441836
1.885891
2.030730
2.305508
2.315640
2.591610
2.571940
3.586411
13.703704
48.241615
179.428458
380.189419
700.112581
1015.864611
1015.864611
1015.864611
1015.864611
1015.864611
1015.864611
1015.864611
1015.864611
998.894572
546.012521
296.559930
113.824606
68.562627
70.827603
89.455843
113.240480
129.863620
141.372681
137.875676
128.341913
113.307834
90.613961
71.441531
51.565766
41.258931
31.594634
28.227568
25.631785
24.013519
23.050904
22.998452
21.721721
21.215677
20.848513
20.158887
19.636750
19.152761
18.137693
17.297864
16.286969
16.313791
15.306473
14.805794
14.499426
14.164448
14.326572
14.218688
14.971495
15.008450
15.023947
14.654994
14.456511
13.873577
12.446642
11.977553
10.965466
9.479523
8.958578
8.526444
7.832646
7.395744
7.186532
6.955862
6.860495
7.015467
6.585717
6.187558
6.119609
6.352663
6.070733
6.452799
6.179810
6.358624
6.369948
##ZVALUE=275
1.050830
1.160502
1.202822
1.372695
1.221895
1.281500
1.395941
1.328588
1.384616
1.423955
1.713634
1.731515
1.898408
1.757741
2.126694
2.122521
2.442598
2.716780
3.037453
6.233454
25.085807
84.401965
278.774500
555.933714
1015.772820
1015.772820
1015.772820
1015.772820
1015.772820
1015.772820
1015.772820
1015.772820
1015.772820
732.157826
415.602922
166.332722
82.451701
57.114959
68.545938
92.996955
110.237002
129.270554
137.686729
136.325955
129.567981
109.496713
92.477798
70.393682
55.744648
40.700436
31.383634
25.996566
23.530722
21.892786
20.708442
19.718409
19.357800
18.438697
18.369555
17.368793
16.485453
15.936494
15.444756
14.914870
14.277697
13.596416
13.982654
14.028549
13.977885
13.800859
14.273524
14.609694
14.074445
14.020801
13.229847
12.460947
11.218786
10.371804
9.613633
8.619428
8.489490
8.098483
7.934570
7.377863
6.905794
7.052422
6.900430
6.773472
6.292462
6.531477
6.153584
6.019473
6.159544
5.980730
6.032586
5.792975
##ZVALUE=280
1.292825
1.223683
1.071692
1.420975
1.232624
1.318455
1.302958
1.487732
1.562834
1.616478
1.624823
1.664758
1.499653
1.690984
1.839995
2.132654
2.233982
2.327561
2.514720
2.694726
3.065467
3.875494
11.672974
67.324638
181.956887
474.703908
803.114772
1015.870571
1015.870571
1015.870571
1015.870571
1015.870571
1015.870571
1015.870571
1015.870571
958.812833
590.137839
244.986415
116.935968
52.758455
51.659942
70.650578
87.558627
110.741854
123.662949
134.987831
133.406520
123.094916
109.318495
87.444782
70.259571
50.709844
39.201975
27.485490
23.261905
19.972920
18.710494
17.755628
16.986728
16.580820
16.018748
15.065670
15.167594
14.210939
14.196634
13.318658
13.635755
13.466477
13.717413
13.345480
13.884902
13.644695
14.058948
13.247728
12.394786
11.514425
10.508895
9.697676
9.536743
8.843541
8.438826
8.135438
7.522702
7.290840
7.350445
6.782413
6.637573
6.742477
6.624460
6.456971
6.215572
6.294847
5.898476
5.987883
5.996823
5.727410
##ZVALUE=285
1.138449
1.077652
1.292825
1.200438
1.262426
1.310706
1.169443
1.247525
1.390576
1.414418
1.441836
1.486540
1.596808
1.574755
1.513958
1.957417
1.936555
1.766682
1.920462
2.286434
2.082586
2.577901
3.039837
3.217459
7.127523
24.744868
103.689432
242.009759
589.199662
962.144732
1015.870571
1015.870571
1015.870571
1015.870571
1015.870571
1015.870571
1015.870571
1015.870571
853.520036
403.763652
195.847750
67.117810
38.977861
45.244694
59.743524
81.197619
96.648932
114.687681
123.884678
124.735832
119.505525
102.945566
87.059736
65.121651
48.890710
32.477975
24.317503
18.578768
15.332699
14.052987
13.856888
13.290644
12.848973
12.228489
12.423992
12.314916
11.985898
12.225509
11.996627
12.610555
12.472868
12.595654
12.013912
11.940598
11.327863
10.535717
9.948611
9.531975
8.780956
8.280873
7.781982
7.612705
7.646680
7.498860
7.049441
7.073879
6.889701
6.752610
6.645918
6.291866
6.451607
6.066561
6.196499
6.180406
5.933642
6.230474
##ZVALUE=290
1.083612
1.105666
1.259446
1.322627
1.101494
1.166463
1.051426
1.335740
1.394749
1.362562
1.381636
1.353621
1.285672
1.521707
1.691580
1.788735
1.523495
1.661777
1.778603
1.877546
1.992583
2.300739
2.302527
2.638698
2.943873
3.108978
3.929734
9.315610
50.518513
140.597820
308.578610
719.210505
1015.870571
1015.870571
1015.870571
1015.870571
1015.870571
1015.870571
1015.870571
1015.870571
1015.870571
593.305826
309.569836
106.865764
42.277575
28.834939
36.829710
52.552819
67.554712
88.650584
103.178620
116.207600
117.849708
111.040473
99.059939
77.960491
60.987473
42.159557
30.225515
19.860864
15.403628
12.095571
10.998845
10.331869
10.170937
10.129809
10.251999
10.446906
10.485649
10.828972
11.068583
11.138916
11.195540
10.613799
10.445714
9.822845
9.189844
8.801818
8.154511
7.788539
7.466674
7.243752
7.161498
7.008910
6.714463
6.825924
6.505847
6.709695
6.420612
6.302595
6.055832
6.311536
6.161928
6.096959
6.078482
6.052852
##ZVALUE=295
1.044869
1.113415
1.023412
0.848770
1.102686
1.009703
1.013875
1.345873
1.243949
1.234412
1.339912
1.454949
1.373887
1.274943
1.469851
1.361966
1.471639
1.548529
1.450777
1.819730
1.730919
1.852512
1.810789
1.954436
2.431870
2.480745
2.672672
2.933741
3.395677
4.841685
23.741722
81.398487
210.693479
561.410785
952.086449
1015.870571
1015.870571
1015.870571
1015.870571
1015.870571
1015.870571
1015.870571
1015.870571
788.722634
444.681048
161.817670
63.946843
23.558736
22.511482
33.295751
44.505000
63.392520
79.027414
97.406507
107.162595
109.729767
105.002522
90.547800
76.148510
56.163669
42.190552
26.992559
19.092560
13.205409
10.454655
9.266734
9.183884
8.921623
9.229779
9.387732
9.797812
9.820461
9.874701
9.599924
9.309649
8.859634
8.397698
7.781982
7.448792
7.298589
6.875992
6.803870
6.632805
6.570816
6.596446
6.246567
6.450415
6.178617
6.305575
5.921721
5.998611
5.891919
5.952716
5.939603
5.599856
5.887747
##ZVALUE=300
0.964999
0.993609
0.985861
1.072884
1.017451
1.069903
1.084805
0.979900
1.137853
1.220703
1.201630
1.037717
1.192689
1.126528
1.217723
1.344681
1.371503
1.456738
1.678467
1.415610
1.484752
1.749992
1.812577
1.811981
1.865625
2.029538
2.145767
2.420545
2.735853
2.890825
3.304482
3.746748
10.346770
43.181777
175.042748
375.233889
836.762786
1015.870571
1015.870571
1015.870571
1015.870571
1015.870571
1015.870571
1015.870571
1015.870571
1015.870571
616.730452
336.610675
117.525458
41.315556
16.899705
19.632578
28.646588
38.949847
56.196451
71.714520
90.107918
99.007487
103.519559
99.994540
88.686943
75.181723
55.778623
42.321682
27.052760
19.039512
12.607574
10.212660
8.869767
8.834600
8.884668
9.038448
9.215474
9.166598
8.366704
7.957816
7.651448
7.344484
6.780624
6.701946
6.472468
6.492734
6.536841
6.355643
6.074905
6.076694
5.866885
5.880594
6.024837
6.101727
5.743504
5.850792
5.858541
5.650520
5.843639
5.734563
##ZVALUE=305
0.969768
0.872612
0.954866
0.880957
0.991821
1.196861
0.992417
0.980496
1.021624
1.071692
1.031756
1.077652
0.992417
1.257658
1.202822
1.233816
1.276731
1.254678
1.282692
1.351833
1.475811
1.339912
1.697540
1.492500
1.832843
2.000928
1.980662
2.037883
2.168417
2.232790
2.529621
2.734661
3.070831
3.525615
4.795790
25.955439
87.919831
299.989581
583.142638
1015.870571
1015.870571
1015.870571
1015.870571
1015.870571
1015.870571
1015.870571
1015.870571
1015.870571
917.542577
424.183607
203.313828
58.427453
20.969510
14.384985
18.223524
26.585460
36.989450
53.759813
67.152977
85.366964
93.586445
97.937584
95.804930
84.033608
70.974827
52.658916
39.569736
26.089549
18.567443
12.583733
10.255575
9.171963
8.828640
8.032918
7.912517
7.359982
6.893873
6.430745
6.447434
6.147623
6.038547
6.176829
6.050467
5.866885
5.880594
5.896688
5.773902
5.797744
5.802512
5.698800
5.551577
5.760789
5.667806
5.385876
5.605817
5.698800
##ZVALUE=310
0.893474
0.866652
0.875592
0.901818
1.015663
0.877976
0.951886
0.866652
0.956655
0.963807
0.972748
1.036525
0.993609
1.222491
1.067519
1.103878
1.146793
1.031756
1.089573
1.189709
1.362562
1.208782
1.433492
1.385808
1.393557
1.735687
1.636744
1.771450
1.887679
1.958609
2.146959
2.045631
2.408624
2.624989
2.720952
3.276467
3.810525
9.909868
38.310885
163.822770
365.915895
847.679973
1015.808582
1015.808582
1015.808582
1015.808582
1015.808582
1015.808582
1015.808582
1015.808582
1015.808582
653.260946
350.977778
117.703676
39.195418
12.951493
12.863874
16.583800
22.163987
33.295751
44.815540
61.971545
74.042678
86.845756
91.187954
89.445710
82.691908
68.656802
55.071712
38.230419
28.162599
18.763542
13.497472
9.611845
8.419752
7.120967
6.658435
6.264448
5.961657
5.724430
5.761981
5.547404
5.696416
5.548596
5.616546
5.496740
5.505681
5.632639
5.655885
5.503893
5.481839
5.500913
5.499721
5.538464
5.616546
5.339980
##ZVALUE=315
0.961423
0.778437
0.890493
0.850558
0.983477
0.877976
0.940561
0.903606
1.076460
0.907779
0.869632
1.147985
0.955462
1.103878
1.000762
1.073480
1.069903
1.179576
1.027584
1.118779
1.256466
1.439452
1.427531
1.206994
1.390576
1.545548
1.557469
1.653433
1.642704
1.761913
1.863837
1.837611
2.103448
2.138615
2.439618
2.702475
2.797842
3.323555
3.612638
5.122423
17.239451
92.954636
235.401988
611.590743
1000.620723
1015.870571
1015.870571
1015.870571
1015.870571
1015.870571
1015.870571
1015.870571
1015.870571
899.548531
493.220687
177.026987
65.435767
16.882420
11.218786
11.831522
14.462471
21.564960
28.901696
42.543411
55.221915
70.847869
80.197453
87.186694
86.442828
77.428818
67.855716
51.651597
39.305687
25.318861
17.638803
11.187792
8.348823
6.631613
6.040931
5.663633
5.434752
5.392432
5.168915
5.377531
5.331635
5.079508
5.226731
5.156994
5.273819
5.292892
5.160570
5.334616
5.404949
5.325675
5.242825
5.306602
##ZVALUE=320
0.865459
0.886917
0.861883
0.795722
0.985861
0.930429
0.991821
0.736713
0.923872
0.917912
1.015663
0.777841
0.892878
1.078844
0.896454
0.894666
1.055598
1.029968
1.168847
1.187921
1.220703
1.076460
1.220703
1.256466
1.213551
1.392961
1.462698
1.555681
1.404881
1.649857
1.433492
1.675487
1.832843
1.962781
2.103448
2.305508
2.311468
2.647638
2.700686
2.875924
3.244877
3.844500
7.512569
45.052767
138.624907
438.718796
794.301033
1015.871763
1015.871763
1015.871763
1015.871763
1015.871763
1015.871763
1015.871763
1015.871763
1015.871763
689.924955
291.025639
123.441815
29.099584
12.110472
9.916425
10.588765
13.342500
17.796755
27.234554
37.012696
52.673817
64.200759
77.082515
81.694722
81.104636
75.709820
61.382651
50.159693
34.437776
24.673939
15.565753
10.916591
7.451773
6.034970
5.474687
5.103946
4.959702
5.094409
4.787445
4.808903
4.828572
4.819632
4.944801
4.905462
5.004406
5.073547
5.255938
5.170703
5.280972
##ZVALUE=325
0.786781
0.791550
0.888705
0.813603
0.795722
0.659823
0.984669
0.837445
0.919700
0.988841
0.884533
0.947714
0.927448
0.917912
0.956655
1.035929
0.993609
1.030564
0.959635
1.116991
0.981688
1.082420
1.190901
1.266599
1.255870
1.153946
1.215935
1.245737
1.343489
1.382828
1.553893
1.537800
1.609921
1.548529
1.780987
1.830459
1.970530
2.024770
2.212524
2.465844
2.646446
2.900958
3.161430
3.508925
4.830956
27.321577
85.715652
270.821452
544.116497
1015.870571
1015.870571
1015.870571
1015.870571
1015.870571
1015.870571
1015.870571
1015.870571
1015.870571
917.686820
411.088467
190.815926
48.760772
16.020536
9.436607
9.458661
10.024905
12.438893
17.983913
25.201440
38.707852
49.027801
62.745810
71.414709
77.355504
76.039433
67.652464
58.205724
43.709874
33.222437
21.273494
14.680624
9.530783
7.053614
5.833507
4.919767
4.918575
4.731417
4.632473
4.682541
4.600883
4.786849
4.796982
4.714727
4.747510
4.882812
4.830956
##ZVALUE=330
0.818968
0.727773
0.615716
0.915527
0.833869
0.865459
0.807643
0.890493
0.919700
0.897646
0.947714
0.847578
0.840425
0.873804
0.846982
0.825524
0.879765
0.865459
1.122952
1.144409
1.020432
1.019835
1.143813
1.125932
1.129508
1.159906
1.092553
1.325607
1.136661
1.338720
1.266599
1.417994
1.552701
1.511574
1.572967
1.817942
1.774430
1.892447
2.040863
1.878738
2.215505
2.327561
2.551675
2.822876
2.993941
3.481507
3.995895
12.913942
50.659776
199.029446
416.515470
912.011862
1015.870571
1015.870571
1015.870571
1015.870571
1015.870571
1015.870571
1015.870571
1015.870571
1015.870571
567.620993
289.431810
94.015598
30.398965
9.974837
8.775592
8.777976
9.799600
12.604594
16.693473
24.750829
33.085942
46.900511
56.559443
66.632628
70.625544
69.606900
64.257979
52.948594
42.594671
29.510856
21.551847
13.653636
10.008812
6.738901
5.579591
4.658699
4.850626
4.488826
4.616976
4.543662
4.733801
4.733801
4.757643
4.837513
##ZVALUE=335
0.795722
0.775456
0.642538
0.762939
0.672936
0.710487
0.799894
0.822544
0.711679
0.868440
0.906587
0.899434
0.801682
0.752807
0.791550
0.815988
0.914931
0.964999
0.982881
1.127720
1.074672
0.884533
0.973940
0.986457
1.318455
1.058578
1.265407
1.317859
1.204610
1.041889
1.081824
1.454949
1.238585
1.475811
1.408458
1.482964
1.423955
1.647472
1.738667
1.728535
1.801848
2.014637
1.949668
2.326965
2.492666
2.709627
2.904534
3.280640
3.755689
5.875826
20.667911
110.287666
271.981955
691.319704
1015.866995
1015.866995
1015.866995
1015.866995
1015.866995
1015.866995
1015.866995
1015.866995
1015.866995
777.595639
410.504937
134.556890
46.907663
12.562871
8.964539
8.579493
8.752942
9.680986
11.392832
15.855432
21.696687
32.474995
41.552782
52.567720
60.018897
66.015720
64.751506
58.345795
51.136613
40.556788
31.536818
21.149516
14.876723
9.870529
7.278919
5.613565
5.151629
4.787445
4.827976
4.687905
4.675984
4.736781
##ZVALUE=340
0.665784
0.764728
0.886917
0.758767
0.693798
0.659823
0.781417
0.753999
0.876784
0.733733
0.810623
0.770688
0.758767
0.852942
0.948906
0.862479
0.764728
0.721812
0.910759
1.045465
1.031756
0.849962
1.051426
0.962615
1.095533
1.023412
1.025796
1.081824
1.097918
1.190901
1.041889
1.179576
1.179576
1.156926
1.296997
1.333952
1.336932
1.474619
1.464486
1.558661
1.529455
1.774430
1.760721
1.838803
2.012849
2.444983
2.390742
2.480745
2.789497
3.099442
3.457665
4.099607
10.611415
61.214566
178.640485
530.740023
950.708985
1015.864611
1015.864611
1015.864611
1015.864611
1015.864611
1015.864611
1015.864611
1015.864611
959.683061
547.186732
200.874805
74.091554
17.080903
9.789467
8.807778
8.541942
8.417964
8.453727
10.572672
13.955832
20.520687
28.271675
39.751530
48.445463
57.351589
61.034560
60.151815
56.845546
47.686696
39.537549
28.944612
21.290779
14.393926
10.269880
7.126927
5.856752
5.091429
5.017519
4.980564
##ZVALUE=345
0.731945
0.693798
0.712872
0.757575
0.771880
0.802875
0.748634
0.863671
0.924468
0.827909
0.758767
0.867844
0.799894
0.810623
0.906587
0.856519
0.800490
0.794530
0.782609
0.976920
0.953674
0.892878
1.047850
0.977516
0.895858
1.047850
0.980496
1.026988
1.101494
1.135468
1.127720
1.107454
1.000762
1.181960
1.288652
1.268983
1.379848
1.320839
1.386404
1.383424
1.647472
1.631975
1.622438
1.777411
1.772642
1.956820
2.020597
2.034903
2.189875
2.472997
2.641678
2.920628
2.975464
3.798604
5.213618
29.394627
99.163651
327.987671
672.465563
1015.874743
1015.874743
1015.874743
1015.874743
1015.874743
1015.874743
1015.874743
1015.874743
1015.874743
726.908445
289.339423
122.759938
31.196475
12.540817
9.676814
8.674860
7.470846
7.283688
7.345676
8.709431
13.027787
18.259883
27.653575
35.218000
44.158697
50.688982
56.013465
56.797862
52.796602
47.517419
38.415790
30.147433
20.925999
15.241504
10.277629
7.891655
6.201863
##ZVALUE=350
0.672936
0.723600
0.627637
0.608563
0.597835
0.649691
0.549555
0.833869
0.731945
0.849962
0.757575
0.807643
0.804663
0.851750
0.733733
0.833869
0.902414
0.855923
0.837445
0.866652
0.679493
0.906587
0.886917
0.825524
0.968575
0.831485
0.989437
0.887513
1.001954
0.982881
0.927448
0.989437
1.041889
1.053810
0.960827
1.187921
1.178980
1.231432
1.207590
1.424551
1.368523
1.467466
1.397729
1.374483
1.571774
1.536608
1.614690
1.729727
1.951456
2.011657
2.133846
2.405643
2.390742
2.663732
3.124475
3.411770
3.860593
13.479590
50.100684
196.855068
425.623655
953.288674
1015.763879
1015.763879
1015.763879
1015.763879
1015.763879
1015.763879
1015.763879
1015.763879
920.244455
427.269936
192.376971
45.597553
14.822483
8.403659
7.459521
6.715655
6.041527
5.979538
6.635785
8.528829
11.116862
16.383529
21.965504
31.034946
38.439631
46.034455
50.577521
52.146912
50.470829
44.119954
37.298799
27.864575
21.884441
15.141964
##ZVALUE=355
0.855923
0.766516
0.782609
0.844598
0.860691
0.731945
0.800490
0.859499
0.891685
0.953674
0.771880
0.765920
0.822544
0.837445
0.940561
1.074672
0.878572
0.929832
0.874996
0.867844
0.992417
1.009703
0.929832
1.017451
0.906587
1.154542
1.036525
1.030564
1.091957
1.167655
1.155734
1.324415
1.300573
1.100898
1.230836
1.222491
1.375675
1.329780
1.373887
1.250505
1.375675
1.505613
1.508594
1.668930
1.588464
1.711845
1.792908
1.798868
1.883507
1.870990
1.893640
2.221465
2.431870
2.471805
2.479553
2.753735
2.778769
3.246665
3.784895
6.943941
26.235580
125.941038
286.915898
684.340596
1015.870571
1015.870571
1015.870571
1015.870571
1015.870571
1015.870571
1015.870571
1015.870571
1015.870571
532.677770
253.170729
69.901943
21.405816
8.451939
7.383823
6.536841
6.108880
5.764961
5.857944
6.222725
7.277727
10.101795
13.962984
20.536780
26.360750
34.994483
41.148663
47.148466
48.737526
47.031641
43.369532
36.352873
##ZVALUE=360
0.716448
0.795722
0.702739
0.841618
0.777841
0.934601
0.710487
0.859499
0.865459
0.850558
0.792742
0.845790
0.832677
0.841618
0.924468
1.031756
0.936985
0.817776
1.039505
0.876784
1.046658
1.067519
0.873804
1.062751
1.068711
1.063943
1.170635
1.134872
1.181960
1.079440
1.259446
1.277924
1.184940
1.434684
1.358986
1.164675
1.303554
1.224875
1.336932
1.293421
1.391768
1.461506
1.554489
1.543760
1.593828
1.599789
1.652837
1.745820
1.753569
1.760721
1.957417
1.896620
2.036691
2.081990
2.328753
2.529621
2.648830
2.872944
3.135800
3.340840
3.711581
4.700422
9.551644
49.850941
145.993829
437.501669
808.206797
1015.870571
1015.870571
1015.870571
1015.870571
1015.870571
1015.870571
1015.870571
1015.870571
739.279985
385.132432
134.074688
44.013858
10.178685
7.570982
6.613731
6.272793
5.907416
5.580783
5.368590
5.652905
6.572604
8.364916
11.897683
16.479492
23.541451
29.858947
37.700534
41.653514
44.479966
##ZVALUE=365
0.730753
0.776649
0.822544
0.903606
0.855923
0.850558
0.813603
0.795722
1.020432
0.643730
0.703931
0.857711
0.838637
0.765920
0.890493
0.944734
0.929832
0.798702
0.831485
0.964999
1.020432
0.936985
1.033545
0.958443
1.043677
1.044869
0.874996
1.016855
1.167655
1.035929
1.061559
1.219511
1.156926
1.164675
1.147985
1.159906
1.198649
1.190901
1.287460
1.290441
1.286864
1.400709
1.387596
1.403689
1.384616
1.500845
1.595616
1.519918
1.525879
1.620650
1.550913
1.757741
1.924634
1.882911
2.018809
2.024770
2.143979
2.178550
2.421737
2.571940
2.845526
3.304482
3.505945
3.987551
5.339980
24.555922
78.342557
254.759789
535.252690
1015.874743
1015.874743
1015.874743
1015.874743
1015.874743
1015.874743
1015.874743
1015.874743
979.292393
568.925738
202.842951
72.602630
14.174581
7.599592
6.467700
6.071925
5.498528
5.203485
4.987717
4.940629
5.152822
6.076694
7.937551
10.512471
15.361905
19.969940
26.761889
##ZVALUE=370
0.703931
0.702739
0.772476
0.873804
0.885725
0.758767
0.890493
0.790954
0.788569
0.744462
0.695586
0.882745
0.747442
0.754595
0.780821
0.843406
0.825524
0.809431
0.967979
0.792742
0.868440
0.800490
0.844598
1.006722
1.042485
0.958443
1.007915
0.838637
0.891685
1.069903
1.087785
1.027584
1.102686
1.229644
1.030564
1.029968
1.107454
1.137853
0.978708
1.138449
1.155734
1.181960
1.164675
1.242757
1.315475
1.277924
1.239777
1.353621
1.285672
1.290441
1.357794
1.431704
1.467466
1.523495
1.611710
1.630783
1.642704
1.692772
1.891851
1.901984
2.122521
2.391934
2.427697
2.821684
2.917647
3.426671
4.004836
11.492968
44.232011
176.904798
386.735797
874.267817
1015.866995
1015.866995
1015.866995
1015.866995
1015.866995
1015.866995
1015.866995
1015.866995
716.021061
288.187861
126.674771
34.333467
10.665655
6.242990
5.641580
5.294681
5.143881
5.169511
5.157590
5.134940
5.473495
6.405711
7.407665
9.719729
##ZVALUE=375
0.696778
0.579953
0.667572
0.530481
0.740886
0.657439
0.719428
0.588894
0.779629
0.690818
0.610948
0.748634
0.716448
0.915527
0.758767
0.643730
0.737906
0.744462
0.719428
0.814795
0.751615
0.620484
0.834465
0.762939
0.872612
0.802875
0.824928
0.896454
0.854731
0.969768
0.953674
0.964999
0.927448
0.946522
0.871420
0.973940
0.985861
1.099706
0.844598
1.057982
1.070499
1.029968
1.019835
1.066923
1.144409
1.210570
1.132488
1.079440
1.151562
1.215935
1.045465
1.239777
1.240969
1.296997
1.303554
1.411438
1.411438
1.455545
1.478791
1.584888
1.755953
1.816750
1.884699
2.079606
2.234578
2.466440
2.689958
3.172755
3.607869
6.408691
19.846559
92.721581
233.735442
608.876944
988.734961
1015.862823
1015.862823
1015.862823
1015.862823
1015.862823
1015.862823
1015.862823
970.181823
509.964824
257.984996
74.500442
21.840930
6.691813
5.906820
5.594492
5.574822
5.476475
5.632639
5.537868
5.511642
5.741715
##ZVALUE=380
0.604987
0.631809
0.649691
0.576973
0.679493
0.644922
0.393987
0.688434
0.493526
0.682473
0.627637
0.635982
0.492930
0.711679
0.707507
0.571609
0.608563
0.603795
0.729561
0.712872
0.655651
0.733733
0.688434
0.624657
0.765920
0.850558
0.872612
0.680685
0.944734
0.970960
0.830889
0.999570
1.006722
0.847578
1.080632
0.925660
1.019835
0.914931
1.005530
0.979900
0.898838
0.946522
1.004934
1.054406
1.177788
1.122952
1.032948
1.053810
1.005530
1.030564
1.173615
1.277924
1.084805
1.159906
1.205802
1.195669
1.346469
1.337528
1.331568
1.448989
1.498461
1.470447
1.580715
1.871586
1.786947
2.009869
2.297759
2.618432
2.850890
3.422499
3.650784
4.569888
10.832548
60.529709
166.809559
464.478731
833.964944
1015.870571
1015.870571
1015.870571
1015.870571
1015.870571
1015.870571
1015.870571
1015.870571
667.182803
366.668701
141.218901
49.434900
9.826422
6.353855
6.023645
6.149411
6.004572
5.756617
5.809665
##ZVALUE=385
0.533462
0.563860
0.483990
0.376701
0.530481
0.590682
0.520945
0.525713
0.545979
0.540614
0.635982
0.512600
0.558496
0.621676
0.470877
0.781417
0.604987
0.552535
0.594854
0.644922
0.668764
0.654459
0.631809
0.691414
0.648499
0.702739
0.938773
0.852942
0.915527
0.940561
0.859499
0.976920
0.907779
0.804663
0.966787
0.952482
1.046658
0.966787
1.033545
1.128912
0.966787
0.881553
1.080632
1.193881
1.003742
1.119971
1.038909
1.064539
1.043677
1.008511
1.161695
1.114607
0.945926
1.022816
1.100898
1.228452
1.214743
1.398921
1.184940
1.176000
1.351833
1.417994
1.401901
1.575947
1.758933
1.802444
2.003908
2.310872
2.445579
3.000498
3.072619
2.977848
3.137589
3.414750
5.086660
29.608011
92.431903
287.677646
578.020811
1015.870571
1015.870571
1015.870571
1015.870571
1015.870571
1015.870571
1015.870571
1015.870571
948.531628
569.297671
241.744518
95.725656
19.382834
7.780790
6.306767
5.945563
5.722642
##ZVALUE=390
0.579953
0.448823
0.575781
0.597835
0.761747
0.612736
0.525713
0.569820
0.651479
0.592470
0.649691
0.669956
0.439882
0.562668
0.711679
0.501871
0.611544
0.629425
0.614524
0.518560
0.702739
0.669956
0.696778
0.689626
0.735521
0.676513
0.722408
0.879765
0.895858
0.895858
0.963807
0.935793
0.950694
0.975728
0.897646
1.070499
1.068711
0.949502
0.998974
1.060963
1.057982
1.224875
1.055598
1.100898
1.144409
1.127720
1.103878
1.117587
1.196861
1.001954
1.031756
1.232624
1.112819
1.022816
1.129508
1.130700
1.202822
1.142621
1.127720
1.357794
1.345873
1.372695
1.484752
1.460910
1.772642
1.893640
2.099872
2.266765
2.364516
2.615452
2.632737
2.858639
2.812743
2.684593
2.784729
3.021955
3.489852
13.437867
51.093698
201.920867
438.567996
950.414538
1015.870571
1015.870571
1015.870571
1015.870571
1015.870571
1015.870571
1015.870571
1015.870571
823.025703
357.444882
163.123608
38.985610
11.852980
6.614923
##ZVALUE=395
0.590682
0.741482
0.563860
0.526905
0.490546
0.599623
0.541806
0.676513
0.616908
0.601411
0.573993
0.651479
0.649691
0.580549
0.522733
0.701547
0.605583
0.620484
0.654459
0.711679
0.685453
0.663996
0.727773
0.679493
0.848770
0.782609
0.860691
0.766516
0.865459
0.948906
0.856519
0.845790
0.963807
1.069903
1.034737
1.075864
1.030564
1.064539
1.145601
1.016855
1.210570
1.162887
1.059771
1.202822
1.085997
1.211762
1.176000
1.251698
1.256466
1.271963
1.155734
1.120567
1.322627
1.261830
1.235604
1.086593
1.331568
1.266599
1.266599
1.313686
1.298785
1.207590
1.528859
1.451969
1.682639
1.826882
1.818538
1.991987
2.144575
2.420545
2.262592
2.381802
2.143979
2.298951
2.211928
2.324581
2.458692
2.820492
3.355742
6.231666
39.273500
114.641786
324.627757
613.442659
1015.870571
1015.870571
1015.870571
1015.870571
1015.870571
1015.870571
1015.870571
1015.870571
960.371494
566.251874
221.598744
92.833638
##ZVALUE=400
0.621676
0.558496
0.580549
0.486970
0.425577
0.425577
0.578761
0.431538
0.439882
0.411868
0.406504
0.422597
0.538826
0.515580
0.524521
0.507832
0.427961
0.577569
0.561476
0.499487
0.579953
0.369549
0.480413
0.536442
0.655651
0.641942
0.668764
0.824928
0.719428
0.835657
0.988841
0.863671
0.878572
1.037717
0.881553
0.902414
0.918508
1.125932
1.133680
1.062751
1.054406
1.080632
1.101494
1.077652
1.118779
1.126528
1.025796
1.144409
1.085997
1.189709
0.966787
1.085997
0.966787
1.044869
1.097918
0.980496
1.173615
1.182556
1.095533
1.086593
1.180768
1.178980
1.222491
1.435876
1.467466
1.603961
1.700521
1.981854
1.852512
2.155900
2.013445
1.918674
1.997948
1.894832
1.955628
1.880527
2.074838
1.995564
2.318621
2.617836
2.852678
4.622936
14.280677
68.189502
176.339746
473.707914
846.650004
1015.782952
1015.782952
1015.782952
1015.782952
1015.782952
1015.782952
1015.782952
1015.782952
723.098516
##END
