##TITLE=C103_R2
##FORMAT=SPECTACLE-ASCII V-1.2
##DATA TYPE=ULTRAVIOLET SPECTRUM
##SECOND TYPE=ULTRAVIOLET SPECTRUM
##DATE=05/28/18
##TIME=13:00:09
##SPECTROMETER/DATA SYSTEM=SPECTACLE
##XUNITS=NM EM
##YUNITS=ENERGY
##YFACTOR=1
##FIRSTX=220
##LASTX=410
##NPOINTS=96
##3DDATA=Equidistant
##ZUNITS=NM EX
##FIRSTZ=210
##LASTZ=400
##ZPOINTS=39
##XYDATA=(Y..Y)
##ZVALUE=210
47.554970
43.855906
37.026405
29.506683
25.467873
23.320913
18.399954
15.772581
12.738705
11.376739
8.390546
7.340908
7.620454
6.806850
6.389618
6.737709
7.328987
7.812977
9.205937
8.625984
9.690523
11.248589
12.686849
16.219616
17.714500
22.077560
22.693872
26.282668
30.728579
32.122731
35.024881
35.271645
35.470724
32.784939
33.842921
35.128593
35.401583
36.505461
34.101605
34.216642
35.149455
31.881928
32.867789
31.418800
31.971931
31.754971
29.915571
31.257868
29.829741
31.235814
30.386448
29.830933
28.573871
27.730465
28.688908
26.024580
27.067661
25.879741
26.349425
26.074648
27.138591
26.082993
24.626851
25.800467
27.737617
30.313730
33.386946
37.447810
44.313669
48.985481
57.698488
61.928630
65.826774
72.223544
71.089864
73.516965
69.305897
65.514445
56.052804
51.289797
41.102767
34.035444
32.286644
27.575493
22.809505
22.071600
21.691918
21.067858
23.052692
28.896928
42.180419
58.930516
80.563426
104.379654
137.894750
165.858865
##ZVALUE=215
172.087550
167.075992
124.956965
93.252659
69.577694
50.085783
40.422678
36.694407
34.512877
28.053522
23.950934
18.730760
14.062524
10.485649
9.004474
8.726716
7.114410
8.051991
8.487701
9.259582
9.038448
10.939837
13.003945
13.965964
16.328692
17.920732
22.258759
24.415851
27.407408
30.828714
32.921433
35.194755
34.600496
34.549832
35.771728
35.407543
34.153461
34.838915
32.914877
36.029816
35.522580
33.520460
32.758713
35.132766
30.630827
31.326413
31.124949
31.430721
31.217933
33.001900
31.270981
31.811595
32.428503
31.704903
31.491518
30.428767
30.151606
30.283928
27.947426
27.052760
26.549697
26.933551
27.660728
29.174685
27.917624
30.352473
30.416846
33.460855
40.206909
44.789910
47.398806
53.046942
54.367781
57.233572
54.709911
57.055950
53.866506
49.002767
45.521855
39.569736
33.760667
30.416846
28.980970
23.999810
21.661520
18.644929
19.655824
18.680692
17.633438
16.228557
16.119480
16.531944
20.130873
24.108887
33.676624
45.246482
##ZVALUE=220
381.981730
373.120904
360.147953
296.075940
237.932801
164.570808
114.632845
78.435540
61.255693
53.306818
49.824715
44.017434
36.727786
30.907989
23.240447
18.212795
13.713837
10.428429
8.995533
8.780956
8.098483
9.885430
9.979606
11.814833
11.922717
14.382601
16.262531
18.858910
19.281507
20.782948
22.010803
23.812652
24.482608
25.842786
26.580691
28.561950
29.427409
27.532578
30.150414
30.825734
32.619834
30.198693
30.665994
30.626655
31.142831
31.046867
31.465888
30.560493
31.932592
31.783581
31.496882
30.701756
31.081438
31.069517
31.353831
30.014515
29.205680
30.084848
27.602911
26.760697
27.731657
27.084947
26.493669
26.549697
26.458502
27.028918
28.093457
31.071901
32.694936
37.935972
38.418770
41.201711
44.145584
43.990612
46.209693
43.169856
40.712953
39.032698
34.361482
30.137897
27.637482
24.036765
22.795796
18.722415
18.317699
16.738772
17.719865
14.861822
15.024543
14.900565
14.706850
14.826655
13.942719
13.835430
14.591813
12.697577
##ZVALUE=225
420.287848
443.290472
508.599877
559.743643
545.000434
474.693775
391.378999
269.966722
185.033679
128.373504
85.435510
69.985986
66.051483
65.724850
57.818890
50.874949
38.501620
29.463768
21.666884
14.928579
11.497736
9.759665
9.680986
9.057522
9.362698
11.033416
11.032820
12.069941
12.589693
14.189482
14.480948
16.150475
17.680526
19.875765
20.583868
23.157001
23.511648
24.461746
25.054812
28.045774
27.458668
29.753447
30.156970
29.913783
31.305552
30.804873
30.392408
30.834675
31.964779
32.590628
32.674670
30.670762
31.033754
31.180978
31.439662
30.631423
30.325651
30.045509
28.942823
28.398633
28.184652
27.789474
26.081800
24.376512
27.102828
26.643872
27.761459
29.979944
30.928850
33.823848
35.661459
37.909746
39.457679
40.158629
39.756894
38.136840
35.468936
31.849742
29.329658
26.084781
23.476481
20.892620
18.984675
18.296838
17.092824
15.087724
16.415715
14.775991
15.228987
13.540983
14.769435
14.438629
14.329553
13.276935
14.245510
12.693405
##ZVALUE=230
236.973763
260.362625
387.088656
586.920977
715.835690
816.412568
844.084620
754.753947
635.491610
496.720672
305.746794
203.532577
121.216774
94.901919
85.516572
86.297989
83.742738
77.144504
67.893863
49.469471
36.916733
24.065971
16.727448
12.050867
9.491444
9.340644
9.509921
9.738803
10.304451
10.913610
11.503696
12.976527
14.182925
14.776587
15.674829
18.528700
20.091534
21.650791
23.024678
23.953915
25.630593
25.104880
27.135611
27.064681
27.732849
29.304624
29.096603
29.500723
29.059649
29.341578
29.879808
28.960705
27.616620
28.162599
28.013587
26.971698
24.811625
25.761724
25.106668
25.458932
26.304722
23.841858
23.147464
23.657680
24.323463
24.136901
24.988651
27.228594
28.101802
29.208660
33.208728
34.121871
34.969449
36.559701
33.948421
33.511519
31.956434
29.143691
26.158690
22.672415
22.025704
18.448830
17.861724
16.580820
14.848709
14.578700
13.940930
15.272498
13.783574
14.377832
13.777614
12.214780
13.787746
12.649894
12.741685
12.384653
##ZVALUE=235
50.204992
60.798526
122.353435
285.225511
444.725752
685.469508
860.923529
1015.870571
1015.870571
1015.870571
896.762013
708.205700
446.847677
307.640433
183.154941
127.568841
101.110935
98.886490
102.630854
100.189447
91.904998
70.016980
57.670474
39.531589
27.813911
16.839504
12.663603
11.499524
10.350943
9.788871
9.995699
11.213422
11.531711
12.623668
13.747811
15.367866
16.739964
17.547607
20.010471
20.335913
21.792650
20.209551
22.388697
22.622943
22.471547
24.055839
22.660494
23.431778
21.943450
22.850633
22.856593
23.095608
22.629499
22.965670
21.512508
21.522641
22.344589
20.465851
20.485520
19.720793
20.159483
19.759536
20.067692
19.622445
19.766688
19.849539
20.510554
22.503734
23.760796
25.412440
27.794838
29.448867
30.766726
29.824972
29.379725
27.340651
25.865436
26.043653
21.731853
19.943714
18.066764
15.931726
15.054941
14.566779
14.005899
13.601780
12.587905
12.236834
12.530684
12.468696
12.866855
12.173653
12.050867
11.760592
11.746883
11.815429
##ZVALUE=240
2.699494
3.257990
14.287829
42.284727
120.822787
226.473808
450.318456
675.809979
987.602472
1015.870571
1015.870571
1015.870571
1015.870571
886.074901
668.641925
399.868488
263.330936
152.193904
116.684437
108.057857
111.475587
114.450455
109.480619
95.344782
74.991584
60.316920
40.726662
30.544996
19.877553
15.005469
11.792779
11.109710
11.243820
11.692643
11.931658
12.802482
13.444424
14.653802
14.971495
15.244484
16.215444
16.953945
17.366409
17.749667
17.084479
17.588735
17.741919
17.845631
17.715693
18.038750
17.520785
17.125607
17.361641
17.069578
16.541481
16.327500
16.246438
15.754700
15.548468
15.043616
15.107989
15.187860
14.263988
14.967918
15.654564
15.619993
16.435981
18.017888
18.403530
19.836426
22.124648
23.013949
23.234487
23.149848
22.050738
22.133589
21.361709
19.018650
17.172694
15.678406
14.316440
13.748407
12.262464
12.476444
11.852980
11.299849
10.311604
10.938644
11.016726
10.561943
10.437965
9.892583
10.454655
10.268688
11.539459
10.864735
##ZVALUE=245
1.962781
2.352595
2.145767
2.576709
7.332563
22.104979
83.705783
176.791549
405.810475
621.166825
974.858999
1015.872955
1015.872955
1015.872955
1015.872955
1015.872955
869.081020
568.023920
372.177958
201.583505
130.212903
101.949573
107.551813
115.808845
119.414926
113.985538
101.815462
84.198713
62.380433
48.340559
36.065578
22.621751
17.222762
12.871623
11.809468
11.637807
12.009740
12.721419
12.774467
13.086796
13.348460
14.078617
13.710856
14.174581
13.713837
14.204979
14.193654
14.266968
13.902783
14.479756
13.754964
13.600588
13.753772
13.311505
12.925863
12.793541
12.247562
12.857914
11.611581
11.638999
12.151599
12.062788
12.072921
11.922717
12.329817
12.388825
12.772679
14.087558
14.963746
15.844703
16.881824
18.019676
17.971992
18.560886
17.372966
17.474890
16.159415
15.346408
14.240742
12.543797
11.411905
11.409521
10.044575
10.126829
9.637475
9.338856
9.240508
9.168983
8.376837
8.978844
8.746982
8.829832
9.277463
8.763671
8.453727
8.854866
##ZVALUE=250
1.836419
1.882911
1.601577
1.808405
2.042651
2.445579
3.756881
12.317896
56.838989
131.015778
325.665474
549.799800
818.821788
1015.878916
1015.878916
1015.878916
1015.878916
1015.878916
1015.878916
770.002007
506.107807
306.658745
153.861642
101.242661
95.015764
106.032491
117.886662
121.728778
116.645694
108.407736
93.082786
69.751740
53.091645
33.801794
24.724603
16.615987
14.271736
13.262630
13.018847
12.980700
13.082623
13.020635
13.421774
13.118982
13.146996
13.644695
13.192892
13.622642
12.825727
12.617707
12.635589
12.572408
12.317896
11.618733
11.746883
11.867881
11.680722
10.704994
10.877848
10.905862
10.731816
10.552406
10.194778
10.470748
10.491610
10.523796
10.603666
11.466742
12.568831
13.846755
13.796687
14.310479
15.828609
15.070438
14.374852
14.310479
12.932420
11.919737
11.553764
10.360479
9.625554
8.702874
7.545948
7.513762
7.685423
7.152557
7.514954
7.398725
6.886721
7.130504
7.045865
7.418990
7.021427
7.233620
7.333755
7.240772
##ZVALUE=255
1.651645
1.733899
1.685619
1.665950
1.896620
1.833439
2.434850
2.260804
2.753735
6.297827
33.727884
90.306401
195.647478
439.715981
701.172948
1015.870571
1015.870571
1015.870571
1015.870571
1015.870571
1015.870571
1015.870571
691.157579
427.442789
205.947757
125.265718
86.435676
90.405941
108.784437
120.852590
126.710534
123.654604
112.606883
93.112588
74.361563
51.862597
38.453937
24.930835
19.959807
15.447736
14.760494
14.571548
14.288425
14.250875
14.082789
14.397502
14.091730
14.245510
13.436675
13.364553
13.625622
13.113618
12.829900
12.469888
12.303591
11.874437
11.536479
11.565685
11.336803
11.147857
10.545850
10.858774
10.582805
9.481907
9.475946
9.509921
10.583997
11.209846
11.187792
11.735559
12.235641
13.194680
13.177991
12.896657
12.089610
11.892915
11.265874
10.027885
9.121895
8.289814
8.288622
7.728934
7.177591
7.157922
6.900430
6.613731
6.054640
6.347895
6.568432
6.421804
6.178617
6.257892
6.112456
5.863905
6.357431
6.588697
##ZVALUE=260
1.514554
1.559854
1.660585
1.462698
1.778603
1.808405
1.718998
2.001524
2.139807
2.304912
2.561808
3.511906
11.940598
55.023432
129.833817
334.304571
563.475490
955.714583
1015.870571
1015.870571
1015.870571
1015.870571
1015.870571
1015.870571
926.289558
626.100898
343.995690
196.043849
100.269914
78.938603
86.484551
108.733773
123.408437
132.093430
128.668547
113.270879
98.962784
75.239539
58.856606
41.080713
30.802488
22.429824
19.035935
16.650558
16.967654
16.595721
15.931726
15.772581
15.835762
15.947819
15.361905
15.181899
14.744997
14.781952
13.930798
13.237000
12.849569
13.258457
12.307763
11.892915
11.031628
10.990500
10.565519
10.603666
10.143518
10.196567
10.595918
10.961890
11.039972
11.534691
11.625886
12.118816
12.291670
11.921525
11.924505
10.612607
10.307431
8.924603
8.331537
7.779598
7.068515
7.021427
6.436706
6.115437
6.660819
5.966425
6.206632
5.890727
6.128550
5.676746
5.792975
5.840659
5.532503
5.373955
5.579591
5.655885
##ZVALUE=265
1.312494
1.380444
1.407862
1.341701
1.574755
1.447797
1.522899
1.757741
1.744628
2.013445
1.961589
2.288818
2.434850
2.875924
6.067753
34.065843
88.915825
243.005753
444.043875
860.605836
1015.871763
1015.871763
1015.871763
1015.871763
1015.871763
1015.871763
1015.871763
872.672796
466.746688
271.478891
152.313709
77.101588
71.311593
93.274713
110.914707
127.600431
135.056973
131.366849
120.652914
100.644827
83.328485
60.378909
44.526458
32.477975
25.386810
21.267533
20.012856
19.104481
18.792748
18.407702
18.236637
17.666817
17.531514
16.851425
16.118884
15.420914
15.183687
14.100671
13.706684
13.829470
12.876987
12.382865
11.775494
12.334585
11.312962
11.042953
11.280775
11.363626
11.869669
12.299418
12.194514
12.481809
12.447834
12.420416
11.429787
10.657907
9.895563
9.093881
8.473992
7.645488
7.138848
6.694794
6.446838
5.953908
6.028414
5.806684
5.889535
5.397797
5.485415
5.326867
5.428791
5.257726
5.285740
5.448461
5.458593
5.217791
##ZVALUE=270
1.343489
1.305938
1.334548
1.436472
1.446605
1.300573
1.537800
1.418591
1.672506
1.672506
1.837611
1.996756
1.774430
2.078414
2.265573
2.618432
3.297925
13.801455
44.965744
161.090493
333.988667
610.191822
1015.868783
1015.868783
1015.868783
1015.868783
1015.868783
1015.868783
1015.868783
1015.868783
825.539827
422.952771
225.440860
90.610981
62.174797
71.901679
91.071725
116.058588
129.146576
137.733817
134.942532
123.833418
108.057857
84.049702
66.330433
46.956539
36.992431
28.734803
25.122762
22.384524
20.974874
20.137429
20.197630
19.145608
18.283725
17.845631
16.726851
16.392469
16.101599
14.850497
15.107989
13.708472
12.919903
12.609959
12.202859
12.253523
12.003779
12.090802
11.969805
11.921525
12.728572
12.594461
12.274981
11.707544
11.678934
10.772943
9.922981
8.991957
8.351803
7.244945
7.179976
6.543994
6.506443
6.093979
6.104708
5.667806
5.439520
5.850792
5.261898
5.062819
5.093813
5.373955
5.168915
5.039573
5.138516
5.024672
##ZVALUE=275
1.081824
1.270771
1.087785
1.320839
1.182556
1.286864
1.410842
1.290441
1.245737
1.477599
1.421571
1.602769
1.545548
1.831651
1.801848
1.938939
2.200603
2.682805
2.798438
5.948544
24.408698
78.208447
250.271559
488.854647
950.371027
1015.808582
1015.808582
1015.808582
1015.808582
1015.808582
1015.808582
1015.808582
1010.716558
572.343469
322.873592
127.781630
68.684816
56.251884
68.770647
93.605518
110.880733
129.943490
137.073994
135.883689
125.678778
106.657743
88.041425
67.787766
52.039623
37.273765
29.392838
24.468899
21.624565
20.556450
19.596815
18.064976
17.951727
17.465949
16.573668
15.753508
15.329719
14.838576
14.373660
13.421774
12.809634
12.312531
12.305975
12.013912
12.256503
12.131929
12.348890
12.389421
12.487769
11.817813
11.181831
10.718703
9.837747
8.828640
8.180737
7.460713
7.215738
6.861687
6.376505
6.355643
5.976558
5.864501
5.550981
5.551577
5.693436
5.541444
5.289912
5.064607
5.061626
5.034804
5.210638
5.114675
##ZVALUE=280
1.067519
1.144409
1.098514
1.220703
1.230836
1.392961
1.254678
1.257658
1.235604
1.376867
1.451969
1.469851
1.414418
1.497865
1.718998
1.884699
1.786947
2.058744
2.190471
2.416968
2.481937
3.546476
12.475848
65.954924
170.882344
422.532558
697.642565
1015.870571
1015.870571
1015.870571
1015.870571
1015.870571
1015.870571
1015.870571
1015.870571
763.549805
452.218652
187.491775
90.655684
47.346950
51.307678
70.944428
89.074969
111.350417
125.011802
132.312775
132.228732
119.620562
105.291605
83.308816
66.342950
47.062635
36.288500
25.936961
21.216869
18.153787
16.739964
15.871525
15.717745
14.992952
14.441609
13.975501
13.250709
13.028979
12.681484
11.954904
12.095571
11.923909
11.732578
11.543632
11.661649
11.524558
11.618733
10.868907
10.107756
9.606481
9.028912
8.593798
7.786751
7.273555
7.045865
6.606579
6.478429
6.388426
5.991459
6.079674
5.898476
5.532503
5.371571
5.427599
5.359650
5.357862
5.079508
5.126595
5.369782
5.321503
##ZVALUE=285
1.221895
0.928640
1.169443
1.070499
1.011491
1.157522
1.038909
1.075864
1.233816
1.048446
1.366735
1.213551
1.316667
1.313686
1.483560
1.496673
1.635551
1.744628
1.789927
2.054572
2.076626
2.396703
2.564788
2.911687
6.949902
25.708675
99.133849
224.355459
521.400571
848.977566
1015.871763
1015.871763
1015.871763
1015.871763
1015.871763
1015.871763
1015.871763
1015.871763
590.904951
338.370800
134.951472
61.980486
36.315918
43.368936
61.279535
78.543425
100.902915
113.550425
125.047565
124.944448
114.054680
101.928711
80.182552
63.751936
43.598413
31.462908
21.328926
16.350746
13.732910
12.779832
11.900663
11.760592
10.817647
11.017919
10.882616
10.323524
10.540485
10.580420
10.409951
10.550618
10.172725
10.751486
10.271668
9.933710
9.457469
8.733869
8.249879
7.778406
7.285476
7.375479
6.677508
6.598830
6.220937
6.170869
5.834699
5.826950
5.847812
5.649924
5.615950
5.612969
5.502701
5.447865
5.341768
5.211830
5.321503
5.281568
##ZVALUE=290
1.135468
1.000762
1.045465
1.192689
1.195669
1.159906
1.072884
1.036525
1.183748
1.158714
1.180768
1.149774
1.131892
1.365542
1.316667
1.406670
1.611710
1.366735
1.523495
1.752973
1.769662
1.756549
2.086759
2.276897
2.271533
3.035665
3.347993
13.045669
44.195652
154.306889
311.515927
680.996776
1010.148525
1015.870571
1015.870571
1015.870571
1015.870571
1015.870571
1015.870571
1015.870571
882.650018
443.985462
228.375793
79.098940
34.464598
27.794838
37.075877
54.327846
68.781972
90.014935
102.592707
115.086436
116.109848
107.782483
95.549822
74.087977
57.947636
38.987994
28.274655
18.169880
13.484955
10.236502
9.453893
9.003878
8.333921
8.562803
8.736849
8.619428
8.981824
9.134412
9.101629
9.359717
9.231567
8.798838
8.538961
7.921457
7.510781
7.043481
6.836653
6.329417
6.258488
6.286502
5.629659
5.875826
5.887747
5.529523
5.784631
5.703568
5.214810
5.476475
5.255938
5.354881
5.350709
5.122423
5.378723
5.251765
##ZVALUE=295
0.988841
1.006722
0.880957
0.773668
0.883937
0.916719
1.183748
1.164675
1.018643
1.047850
1.010895
1.234412
1.171827
1.339912
1.174808
1.379848
1.267791
1.286864
1.481771
1.379848
1.606941
1.581907
1.861453
1.778603
1.807809
2.118945
2.318621
2.641678
2.983809
5.304813
19.089580
92.374682
212.236047
514.012575
851.019621
1015.871763
1015.871763
1015.871763
1015.871763
1015.871763
1015.871763
1015.871763
1015.871763
616.244674
335.480571
116.040707
47.471523
20.052791
22.255778
33.329725
45.289993
64.532757
79.159737
97.261667
105.715990
108.538866
102.566481
87.440610
72.747469
52.710772
38.176775
24.222732
17.163754
11.062622
8.680820
7.478595
7.450581
7.254481
7.392764
7.651448
7.828474
7.982850
8.078814
7.486939
7.549524
7.007718
7.025599
6.407499
6.179810
5.952716
5.805492
5.765557
5.620718
5.544424
5.449653
5.570650
5.542636
5.324483
5.528927
5.207658
5.411506
5.207658
5.062819
5.365610
5.135536
5.238652
##ZVALUE=300
0.931621
0.877976
0.832677
0.894666
0.785589
0.789762
1.001954
0.940561
1.065731
0.981688
0.999570
1.169443
1.089573
1.056790
1.050830
1.247525
1.182556
1.126528
1.384616
1.440644
1.437664
1.486540
1.335740
1.517534
1.457930
1.725554
1.938939
1.966953
2.265573
2.480745
2.504587
3.161430
9.662509
39.373636
154.172778
320.703387
701.527596
1015.871763
1015.871763
1015.871763
1015.871763
1015.871763
1015.871763
1015.871763
1015.871763
898.366570
460.505486
243.838429
81.988573
29.784441
15.142560
18.749833
28.512478
39.212704
57.185888
71.955919
90.122819
99.344850
101.815462
98.110437
85.930824
71.344972
52.171946
38.349628
24.260879
16.407967
10.932684
8.272529
7.275939
7.139444
6.953478
6.968975
6.972551
6.650686
6.468892
6.260872
6.144643
5.727410
5.731583
5.542636
5.494952
5.271435
5.551577
5.289912
5.359650
5.129576
5.355477
4.989505
5.059838
5.042553
4.823804
5.026460
5.019903
4.776716
4.993677
5.010962
##ZVALUE=305
0.856519
0.907779
0.844598
0.853539
0.826716
0.927448
0.935793
1.054406
0.940561
0.939965
0.924468
1.036525
1.136661
1.032948
1.057982
1.209974
1.167655
1.167655
1.205802
1.300573
1.314878
1.321435
1.379848
1.467466
1.296997
1.476407
1.579523
1.800656
1.808405
1.961589
2.312660
2.331734
2.744794
2.921820
4.192591
23.935437
77.437758
250.419974
480.969548
947.102904
1015.870571
1015.870571
1015.870571
1015.870571
1015.870571
1015.870571
1015.870571
1004.801989
677.158833
305.844545
144.031644
41.242838
16.079545
13.510585
17.530918
26.784539
37.622452
54.362416
68.026781
83.987713
92.618465
95.783472
92.728734
80.296993
67.964792
49.175620
36.642551
23.586750
16.170740
10.080934
8.443594
7.410645
7.147789
6.453991
6.318688
5.726814
5.481839
5.337596
5.236864
5.225539
4.756451
5.015731
4.972816
4.834533
4.894733
5.121827
4.999638
5.069971
4.769564
4.907846
4.808903
4.683733
4.738569
4.763603
4.661679
4.819632
##ZVALUE=310
0.896454
0.786781
0.772476
0.882745
0.735521
0.960827
0.865459
0.975728
0.836849
0.831485
0.782609
1.033545
0.888705
0.965595
1.070499
1.063943
1.069903
1.176000
1.004934
1.066923
1.172423
1.081824
1.222491
1.262426
1.423955
1.412630
1.479983
1.629591
1.601577
1.606941
1.791716
2.118945
1.995564
2.196431
2.464652
2.917647
3.159642
9.619594
35.416484
143.229961
308.455825
695.662498
1015.874743
1015.874743
1015.874743
1015.874743
1015.874743
1015.874743
1015.874743
1015.874743
943.441391
479.173660
251.602530
81.773996
27.483702
10.915995
11.435747
15.817881
21.761656
33.906698
45.302510
63.220859
74.866414
86.219907
90.073943
87.456703
80.115795
65.400600
51.774979
35.286546
25.795698
16.479492
11.352897
7.811785
6.627440
5.661845
5.214810
5.001426
4.607439
4.631877
4.692674
4.631877
4.453659
4.554987
4.686713
4.535913
4.431605
4.750490
4.766583
4.672408
4.575849
4.573464
4.632473
4.491806
4.527569
4.439950
##ZVALUE=315
0.696778
0.625849
0.756979
0.729561
0.645518
0.642538
0.606775
0.666976
0.815988
0.841618
0.807643
0.845790
0.864863
0.932813
0.787973
0.771880
0.739694
0.823736
0.878572
0.939965
1.027584
0.849962
1.100898
1.229644
1.190901
1.072884
1.165867
1.321435
1.330972
1.348853
1.410842
1.518726
1.572967
1.825690
1.751781
1.991987
2.174973
2.435446
2.929568
4.457831
16.413927
83.708763
204.233527
513.658524
888.372660
1015.744805
1015.744805
1015.744805
1015.744805
1015.744805
1015.744805
1015.744805
1015.744805
664.023757
361.720920
126.181841
45.579672
12.539625
9.522438
10.880828
13.402700
20.864606
29.216409
42.560697
55.275559
71.308613
80.408454
85.613728
84.096789
74.170828
63.956976
48.512816
36.586523
22.617579
15.208721
9.570718
6.953478
5.380511
4.927516
4.425645
4.146695
4.329681
4.149675
4.222989
4.118681
4.156828
4.408956
3.985763
4.198551
4.222989
4.234910
4.138947
4.236698
4.067421
4.308820
4.160404
##ZVALUE=320
0.587702
0.747442
0.676513
0.646710
0.684857
0.784993
0.763535
0.678897
0.726581
0.754595
0.675917
0.680685
0.761747
0.796914
0.876784
0.663996
0.818968
0.822544
0.867844
0.979900
0.999570
0.995994
1.168847
1.092553
1.084805
1.033545
1.082420
1.246929
1.277924
1.186728
1.343489
1.368523
1.468658
1.611710
1.745820
1.808405
1.981854
1.995564
2.262592
2.267957
2.615452
3.172755
7.182956
41.852593
122.169852
364.363790
647.486448
1015.791893
1015.791893
1015.791893
1015.791893
1015.791893
1015.791893
1015.791893
1015.791893
862.976909
502.001047
209.655762
88.413954
20.665526
9.694695
8.514524
9.530783
12.418628
17.122626
27.321577
37.985444
52.438974
64.571500
76.637864
80.884695
79.903603
72.678924
59.272647
47.052503
31.404495
22.760630
13.695955
9.441972
6.120801
4.878640
4.413724
4.389882
3.944635
3.960729
3.792644
4.043579
3.834963
3.945827
4.126430
3.890991
4.102588
4.020929
4.179478
4.161596
4.190803
##ZVALUE=325
0.822544
0.714660
0.834465
0.877976
0.744462
0.819564
0.845790
0.860691
0.797510
0.762939
0.807643
0.900626
0.746846
0.795722
0.834465
0.841618
0.863671
1.047850
0.808835
1.020432
0.948906
1.035929
1.008511
1.072884
1.146793
1.092553
1.040697
1.296997
1.155734
1.156926
1.248717
1.478791
1.437664
1.326799
1.516938
1.595616
1.566410
1.849532
1.844764
1.964569
2.039671
2.319813
2.610683
2.988577
4.332662
25.740862
77.196956
234.974623
459.187031
943.887830
1015.870571
1015.870571
1015.870571
1015.870571
1015.870571
1015.870571
1015.870571
1009.570956
663.938522
292.322636
133.609772
34.346581
12.023449
7.992983
7.847548
8.935928
11.458993
17.417669
24.889708
38.394928
49.033761
62.640905
70.981979
75.942874
73.794723
65.794587
55.477619
41.542649
30.947924
19.434690
13.226867
7.897615
5.988479
4.752874
4.251599
4.068613
3.921986
4.027486
3.965497
3.850460
3.695488
3.972650
3.945827
3.950000
3.755689
4.033446
##ZVALUE=330
0.671744
0.629425
0.608563
0.826716
0.833869
0.638962
0.750422
0.559688
0.723600
0.641942
0.755787
0.746846
0.704527
0.811815
0.935793
0.862479
0.828505
0.754595
0.909567
0.818968
0.992417
0.892878
1.020432
0.969768
1.126528
1.025796
1.071692
1.104474
1.056790
0.989437
1.237988
1.147985
1.178980
1.302958
1.363754
1.496673
1.394749
1.411438
1.769662
1.657605
1.878738
2.044439
2.093911
2.380610
2.320409
2.654791
3.297925
10.439754
37.534833
147.174001
311.929584
695.151687
1015.870571
1015.870571
1015.870571
1015.870571
1015.870571
1015.870571
1015.870571
1015.870571
870.074034
412.353873
206.318498
65.616965
20.358562
8.211732
7.746816
7.751584
8.409619
11.708736
15.797615
24.406910
33.436418
47.772527
57.161450
66.611767
69.788694
68.684816
62.163472
50.659776
39.910674
27.641654
20.074844
12.847781
8.900762
5.773902
4.808903
3.886819
3.933907
3.779531
3.748536
3.802776
3.775954
3.714561
3.816485
3.847480
##ZVALUE=335
0.780821
0.651479
0.780821
0.729561
0.599623
0.761747
0.771880
0.800490
0.794530
0.829697
0.780821
0.824928
0.740886
0.884533
0.911951
0.816584
0.842810
0.863671
0.881553
0.920892
0.820756
0.791550
1.018643
0.978708
1.112819
0.997782
1.039505
1.018643
0.982881
1.019835
1.204610
0.996590
1.067519
1.138449
1.285672
1.364946
1.210570
1.211762
1.540780
1.551509
1.568794
1.655817
1.662970
1.872778
2.120733
2.138615
2.277493
2.541542
2.781749
4.995465
16.735792
82.007647
197.270513
491.610765
855.423808
1015.935540
1015.935540
1015.935540
1015.935540
1015.935540
1015.935540
1015.935540
1014.328599
578.227639
303.925872
99.209547
34.108758
9.865761
7.614493
7.360578
7.656813
8.436441
10.589957
15.505552
21.778941
32.204986
41.654706
53.081512
60.228705
65.281987
63.960552
57.003498
49.641728
37.955642
29.477477
19.497871
13.659000
8.666515
6.543994
4.820824
4.099607
4.050732
3.881454
3.958941
3.937483
3.662705
##ZVALUE=340
0.770688
0.670552
0.723600
0.733733
0.736713
0.699759
0.706911
0.756979
0.619888
0.734925
0.655651
0.658631
0.732541
0.843406
0.732541
0.844598
0.682473
0.764728
0.808835
0.929832
0.800490
0.906587
0.972748
0.936985
0.887513
0.873804
0.928640
0.878572
0.962615
0.972748
0.944734
0.792742
1.124740
1.202822
1.241565
1.234412
1.166463
1.231432
1.226664
1.290441
1.207590
1.412630
1.439452
1.561642
1.745820
1.770854
1.931787
2.097487
2.010465
2.486706
2.644658
3.408790
8.246899
47.097802
132.770538
376.796722
683.344007
1015.899777
1015.899777
1015.899777
1015.899777
1015.899777
1015.899777
1015.899777
1015.899777
693.068504
387.029648
151.277781
53.599477
12.196898
8.148551
7.434487
7.174611
6.864667
7.471442
10.106564
13.378859
20.828843
28.590560
40.582418
49.551725
57.652593
60.467720
59.525967
55.314898
46.487451
38.433671
27.286410
20.539761
13.129711
9.140968
6.093979
4.880428
3.920794
4.015565
3.882647
##ZVALUE=345
0.548959
0.688434
0.735521
0.597835
0.704527
0.698566
0.575781
0.741482
0.780821
0.688434
0.693798
0.676513
0.788569
0.745654
0.789762
0.812411
0.670552
0.757575
0.709891
0.767708
0.840425
0.843406
0.715852
0.878572
0.766516
0.890493
0.857711
0.909567
0.916719
0.878572
0.894666
1.044869
1.010895
0.854731
0.941753
0.991821
1.087785
1.072884
1.101494
1.234412
1.332760
1.311898
1.336932
1.404881
1.432896
1.625419
1.603961
1.709461
1.795888
1.779795
1.993775
2.328753
2.327561
2.920628
4.329681
25.004745
81.078410
248.510838
483.180881
950.439572
1015.872955
1015.872955
1015.872955
1015.872955
1015.872955
1015.872955
1015.872955
937.780738
538.045764
208.880901
87.643862
22.377968
9.850860
7.915497
7.149577
6.405711
6.120801
6.550550
8.206964
12.798905
18.469691
27.604699
35.331845
44.949651
51.136613
55.597425
55.768490
51.827431
46.386719
36.795735
28.316975
18.997788
13.824701
8.908510
6.644726
5.131960
##ZVALUE=350
0.730753
0.659823
0.704527
0.657439
0.790954
0.707507
0.642538
0.699759
0.654459
0.816584
0.678897
0.609756
0.821948
0.588894
0.719428
0.695586
0.786781
0.767708
0.921488
0.841618
0.937581
0.822544
0.867844
0.935793
0.907779
0.779629
0.974536
0.863671
0.953674
0.951886
0.970960
1.003742
0.788569
0.903606
0.911951
1.057982
1.082420
1.019835
1.158714
1.040697
1.174808
1.025796
1.225471
1.348853
1.262426
1.427531
1.422763
1.559854
1.568794
1.597404
1.807809
1.965761
1.968741
2.288818
2.504587
2.666712
3.225803
11.559725
42.572618
161.252618
338.892937
747.115016
1015.870571
1015.870571
1015.870571
1015.870571
1015.870571
1015.870571
1015.870571
1015.870571
695.055723
310.486555
138.206482
32.305717
11.044741
6.958842
6.369948
5.517602
5.178452
5.280972
6.034970
8.007884
10.923743
16.533732
22.453666
31.836629
38.705468
46.746731
50.487518
51.639676
48.993826
42.039752
36.043525
27.324557
20.564795
14.030933
##ZVALUE=355
0.652671
0.736713
0.597835
0.889897
0.808835
0.835657
0.688434
0.689626
0.669956
0.757575
0.742674
0.671744
0.827909
0.795722
0.780821
0.847578
0.691414
0.745654
0.842810
0.869632
0.773668
0.878572
0.802875
1.003742
0.799894
0.991821
0.956655
1.067519
0.883937
0.977516
0.905991
0.991821
0.977516
1.025796
0.966787
1.049638
1.037717
1.247525
1.014471
1.085997
1.195669
1.085997
1.145601
1.191497
1.278520
1.438856
1.450777
1.393557
1.448989
1.704693
1.583695
1.636744
1.864433
1.900792
1.965761
2.229810
2.452731
2.799630
2.963543
5.983710
20.841956
98.160505
224.230886
529.312491
898.000002
1015.871763
1015.871763
1015.871763
1015.871763
1015.871763
1015.871763
1015.871763
876.712799
400.429964
188.939571
50.221682
15.385747
7.005930
6.161928
5.416870
5.247593
4.872680
5.080700
5.500913
6.737709
9.864569
13.494492
20.391941
26.319623
35.004616
41.154623
46.510696
47.195554
45.528412
41.088462
33.860803
##ZVALUE=360
0.744462
0.775456
0.683665
0.735521
0.785589
0.692606
0.737906
0.745654
0.788569
0.730753
0.811815
0.712872
0.891685
0.719428
0.803471
0.725985
0.687838
0.900626
0.750422
0.686646
0.830889
0.818968
0.960827
0.856519
0.900626
1.032948
0.916719
0.803471
0.862479
0.882745
0.842810
1.026988
0.887513
1.052618
1.180768
1.062751
1.169443
1.134872
1.179576
1.242757
1.124740
1.171827
1.195669
1.198649
1.245737
1.422763
1.223683
1.306534
1.455545
1.496673
1.568794
1.588464
1.468658
1.888871
1.887679
1.993775
2.029538
2.266765
2.371669
2.553463
3.006458
3.831983
8.650422
45.072436
122.180581
345.657468
640.105605
1015.870571
1015.870571
1015.870571
1015.870571
1015.870571
1015.870571
1015.870571
1010.109782
554.725528
291.707516
100.259781
33.036470
8.219481
6.329417
5.527735
5.157590
4.943609
4.763603
4.583597
4.808903
5.978942
7.863641
11.521578
15.869737
23.729801
29.144883
36.410689
40.467978
43.251514
##ZVALUE=365
0.610948
0.720620
0.719428
0.693798
0.745654
0.806451
0.800490
0.765920
0.711679
0.773668
0.668764
0.827909
0.696778
0.823736
0.796914
0.679493
0.828505
0.978708
0.878572
0.853539
0.734925
0.877976
0.781417
0.844598
0.923872
0.857711
0.985861
0.805855
0.888705
0.916719
0.878572
1.033545
0.859499
0.966787
1.040697
1.022816
0.975728
0.990629
1.169443
1.057982
1.199841
1.097918
1.250505
1.200438
1.181960
1.433492
1.201630
1.354814
1.434684
1.339912
1.412630
1.443624
1.427531
1.583695
1.602769
1.561642
1.746416
1.856685
1.994967
2.124906
2.341866
2.600551
2.798438
3.175735
4.538894
23.851991
72.971582
228.086710
466.371775
949.599743
1015.870571
1015.870571
1015.870571
1015.870571
1015.870571
1015.870571
1015.870571
752.078891
416.675806
147.576928
52.596927
10.611415
6.142855
5.427599
5.261898
4.639626
4.294515
4.185438
4.183650
4.496574
5.221963
7.098913
9.892583
14.784932
19.632578
26.210546
##ZVALUE=370
0.554919
0.802875
0.706911
0.633597
0.792742
0.570416
0.641942
0.659823
0.615716
0.721812
0.704527
0.727773
0.658631
0.679493
0.760555
0.850558
0.778437
0.887513
0.719428
0.791550
0.777841
0.851750
0.786781
0.815988
0.740886
0.846982
1.034737
0.837445
0.773668
0.850558
0.730753
0.915527
0.937581
0.827909
0.959635
0.948906
0.975728
1.008511
1.121759
0.935793
0.881553
1.040697
0.956655
1.032948
1.170635
1.062751
1.084805
0.998974
1.059771
1.129508
1.260638
1.242757
1.263618
1.278520
1.446605
1.428723
1.403689
1.533628
1.680851
1.524687
1.819730
2.016425
1.936555
2.261996
2.519488
2.776980
3.620982
8.963943
53.984523
148.365498
401.062965
690.847635
1015.870571
1015.870571
1015.870571
1015.870571
1015.870571
1015.870571
1015.870571
957.173705
481.417775
250.112414
86.425543
28.825998
7.202625
5.333424
4.748702
4.468560
4.231930
4.440546
4.263520
4.169941
4.492998
4.882812
6.700754
8.501410
##ZVALUE=375
0.542998
0.652671
0.605583
0.595450
0.671744
0.545979
0.591874
0.571609
0.595450
0.699759
0.695586
0.680685
0.568628
0.630617
0.770688
0.721812
0.660419
0.705719
0.693798
0.769496
0.715852
0.740886
0.787973
0.696778
0.622869
0.817776
0.706911
0.914931
0.799894
0.755787
0.963807
0.883937
0.780821
0.689626
0.757575
0.965595
0.884533
0.980496
1.048446
0.888705
1.031756
0.997782
0.850558
1.054406
1.057982
0.999570
0.958443
1.038909
1.119971
1.123548
1.079440
1.096725
1.160502
1.210570
1.281500
1.203418
1.324415
1.361966
1.246929
1.357794
1.485944
1.504421
1.628995
1.715422
1.828671
2.062917
2.101660
2.698898
3.185868
5.859733
19.447803
85.292459
207.550526
529.034734
890.747905
1015.875936
1015.875936
1015.875936
1015.875936
1015.875936
1015.875936
1015.875936
732.750893
351.154804
173.976421
49.603581
14.801621
5.665421
5.027652
4.627705
4.516840
4.565716
4.544854
4.455447
4.226565
4.386902
##ZVALUE=380
0.657439
0.695586
0.654459
0.554919
0.615716
0.660419
0.559688
0.599623
0.504851
0.681877
0.606775
0.646710
0.667572
0.652671
0.592470
0.608563
0.678897
0.652671
0.620484
0.536442
0.579953
0.699759
0.848770
0.697970
0.689626
0.856519
0.831485
0.825524
0.711679
0.878572
0.904799
0.813603
0.856519
0.797510
0.751615
0.896454
0.933409
0.915527
1.009703
0.964999
0.860691
0.860691
0.890493
0.905991
1.002550
0.976920
1.060963
1.038909
0.983477
1.041889
1.028776
0.947714
1.031756
1.131892
1.030564
1.173615
1.210570
1.149774
1.242757
1.254678
1.140833
1.259446
1.450777
1.650453
1.660585
1.826882
1.814961
2.230406
2.343655
2.828836
3.164411
3.750920
10.027885
54.642558
146.380663
399.532914
708.330870
1015.871763
1015.871763
1015.871763
1015.871763
1015.871763
1015.871763
1015.871763
956.208706
503.645539
265.875459
89.479685
30.924678
7.569790
5.053878
4.854798
4.721880
4.794598
4.471540
4.296899
##ZVALUE=385
0.401735
0.448823
0.644922
0.539422
0.595450
0.448823
0.538826
0.556707
0.494719
0.607967
0.513792
0.512600
0.691414
0.591874
0.768900
0.611544
0.520945
0.465512
0.557899
0.458956
0.534654
0.611544
0.653863
0.649691
0.667572
0.718832
0.851750
0.743866
0.763535
0.696778
0.661612
0.871420
0.989437
0.960827
0.988841
0.921488
1.089573
0.832677
0.806451
1.002550
0.991821
0.975728
0.899434
0.929832
1.032948
0.935793
0.951886
1.040697
1.004934
0.995994
1.007915
0.971556
0.974536
1.077652
1.101494
0.919700
1.134872
0.962615
1.100898
1.251698
1.149774
1.329780
1.210570
1.523495
1.521707
1.559854
1.836419
2.130866
2.028942
2.228618
2.508759
2.514720
2.718568
2.933741
5.016923
29.155612
86.752772
258.446932
497.277975
964.448452
1015.870571
1015.870571
1015.870571
1015.870571
1015.870571
1015.870571
1015.870571
719.569921
423.960686
176.611543
66.964626
13.143420
5.868673
5.136728
5.017519
4.603863
##ZVALUE=390
0.528693
0.459552
0.563860
0.583529
0.469685
0.477433
0.426769
0.412464
0.403523
0.552535
0.486970
0.570416
0.639558
0.614524
0.573993
0.494719
0.637770
0.639558
0.523925
0.610948
0.589490
0.548959
0.769496
0.720620
0.927448
0.867844
0.766516
0.900626
0.615716
0.702739
0.854731
0.856519
1.017451
0.964999
1.132488
0.932813
0.985861
0.909567
0.923872
1.013875
1.000762
0.934601
0.890493
0.989437
1.021624
1.040697
0.932813
0.990629
0.992417
0.968575
0.985861
1.009703
0.998974
0.997782
1.188517
1.083612
1.052618
1.043677
1.100898
1.029968
1.049638
1.193881
1.252890
1.345873
1.497865
1.578927
1.688600
1.993775
2.039671
2.186894
2.087951
2.298951
2.321601
2.159476
2.374649
2.468824
2.995729
13.655424
51.048398
188.365579
391.503572
822.510719
1015.870571
1015.870571
1015.870571
1015.870571
1015.870571
1015.870571
1015.870571
979.967713
623.039603
264.706016
118.146539
27.102828
8.506775
5.153418
##ZVALUE=395
0.570416
0.531673
0.595450
0.438690
0.496507
0.450611
0.592470
0.579953
0.476837
0.594854
0.653863
0.721812
0.361800
0.538826
0.707507
0.390410
0.471473
0.553727
0.681877
0.637770
0.615716
0.606775
0.738502
0.634789
0.750422
0.847578
0.739694
0.746846
0.792742
0.983477
1.032948
0.925660
0.991821
1.004934
0.931621
0.980496
0.993609
0.995994
1.065731
1.071692
1.226664
1.125932
1.184940
1.177788
1.140833
1.130700
1.097918
0.961423
1.121759
1.122952
1.094937
1.177788
1.078844
1.039505
1.046658
1.137853
1.083612
0.974536
1.051426
1.146793
1.233816
1.186728
1.165867
1.329780
1.354814
1.603961
1.709461
1.802444
1.849532
2.112985
2.061725
2.122521
1.869798
1.829863
1.892447
1.944900
2.163649
2.343655
2.513528
6.961823
28.419495
125.970840
279.064775
623.254776
967.878699
1015.870571
1015.870571
1015.870571
1015.870571
1015.870571
1015.870571
1015.870571
831.315517
413.887501
202.710629
61.807632
##ZVALUE=400
0.649691
0.594854
0.660419
0.670552
0.588894
0.484586
0.633597
0.580549
0.469685
0.518560
0.529885
0.592470
0.495911
0.611544
0.652671
0.650883
0.513792
0.660419
0.566840
0.400543
0.621676
0.594854
0.796914
0.645518
0.579953
0.662804
0.779629
0.895858
0.863671
1.023412
0.877976
0.987649
1.016855
1.017451
1.064539
0.873804
0.912547
1.007915
1.024604
1.008511
1.045465
1.180768
1.021624
1.219511
1.153946
0.967979
1.084805
1.076460
1.111627
1.036525
1.043677
1.109838
1.039505
1.115799
0.978708
0.927448
1.028776
1.223683
1.057982
1.048446
1.060963
1.239777
1.207590
1.291633
1.521707
1.572967
1.707673
1.840591
1.873970
1.815557
1.937747
1.967549
1.743436
1.801848
1.739860
1.795888
1.800656
2.057552
2.201796
2.110600
2.511740
4.508495
14.178753
65.123439
164.944530
437.463522
766.538978
1015.878916
1015.878916
1015.878916
1015.878916
1015.878916
1015.878916
1015.878916
984.658599
550.299883
##END
