##TITLE=C103_R3
##FORMAT=SPECTACLE-ASCII V-1.2
##DATA TYPE=ULTRAVIOLET SPECTRUM
##SECOND TYPE=ULTRAVIOLET SPECTRUM
##DATE=05/28/18
##TIME=13:03:14
##SPECTROMETER/DATA SYSTEM=SPECTACLE
##XUNITS=NM EM
##YUNITS=ENERGY
##YFACTOR=1
##FIRSTX=220
##LASTX=410
##NPOINTS=96
##3DDATA=Equidistant
##ZUNITS=NM EX
##FIRSTZ=210
##LASTZ=400
##ZPOINTS=39
##XYDATA=(Y..Y)
##ZVALUE=210
56.764483
53.650737
42.279959
30.122995
25.638938
24.173856
20.290613
17.099977
15.283823
12.319684
9.886622
9.390712
7.758737
7.589459
7.849932
8.425713
9.627938
10.555983
10.372996
10.088682
11.630654
12.864470
15.361905
16.112924
20.156503
22.986531
24.362803
26.972890
30.473471
33.346415
34.261942
36.067963
37.436485
36.770701
36.201477
36.665797
36.734939
35.892725
37.056804
37.243962
38.128495
37.713647
33.966899
36.235452
35.583973
34.637451
34.960508
35.708547
35.488605
33.567548
34.909844
34.459829
31.160712
33.020973
32.405853
33.883452
30.842423
32.083988
31.707883
32.799840
32.449961
31.081438
32.148957
31.495690
35.127997
34.888983
42.148829
48.086643
57.962537
65.448880
77.339411
82.477927
91.056824
99.170804
102.295876
103.367567
96.393824
91.293454
78.655481
73.701739
56.757927
50.194860
44.243932
36.317706
31.883717
29.575825
28.458834
27.025938
30.445457
36.246777
51.021576
67.757964
98.189712
125.439763
163.638592
203.562975
##ZVALUE=215
199.343562
191.855431
147.415996
95.199943
73.588490
52.326918
42.843819
39.095879
33.479929
30.745864
26.115775
20.610690
14.627576
12.175441
10.734797
9.114742
9.911656
9.570718
11.151433
11.143684
11.097789
12.534857
13.945699
16.949773
19.178987
23.546815
25.048852
28.458834
29.726624
32.227635
34.527779
35.929680
33.989549
36.206841
39.006472
39.219856
40.094852
38.511753
36.616921
37.967563
37.857890
36.630630
36.879778
36.634803
36.013722
35.776496
36.677718
36.242604
34.671426
37.028790
32.937527
34.876466
34.756660
34.708977
35.279989
34.978986
33.895969
35.793781
32.720566
33.585429
34.529567
33.521652
33.104420
33.250451
34.823418
35.610795
38.379431
45.785904
49.303770
57.577491
63.178539
67.763925
76.747537
79.554915
75.011849
77.923536
71.961880
68.295598
64.702630
57.521462
48.499703
43.268800
34.807920
31.647682
28.653741
24.865866
24.225712
24.894476
22.745728
22.754669
23.287535
22.575855
24.880767
28.072000
40.915608
60.839653
##ZVALUE=220
409.862995
416.504741
389.692783
320.784450
255.107880
181.874633
131.145716
84.239841
65.216422
53.641796
47.840476
44.865608
39.429665
30.233860
24.283528
17.699599
13.654828
11.101961
9.702444
9.829998
9.532571
9.527802
10.273457
12.647510
13.876557
16.808510
18.265843
18.940568
20.408630
22.531748
25.145411
25.766492
26.909709
26.932955
28.444529
29.445887
31.092763
32.081604
32.191873
31.366944
32.349825
32.937527
33.092499
33.683777
35.292506
35.135746
32.789707
34.480691
34.342408
35.616755
36.655664
35.529733
35.578609
33.411980
35.248995
34.106970
32.782555
33.915639
32.385588
31.606555
31.122565
29.270649
29.627681
29.251575
31.305552
32.088757
35.125613
37.662983
40.843487
43.986440
50.779581
52.105784
55.027604
57.758689
56.646466
57.919621
52.159429
48.419833
44.569969
39.103627
36.502481
31.506419
29.911995
24.663806
24.129748
21.345615
19.829869
19.450784
17.648935
18.146634
18.394589
18.791556
18.766522
17.545819
18.311739
17.450452
##ZVALUE=225
465.591550
482.184887
564.578772
618.728995
597.984791
510.429740
428.264737
294.603705
201.579928
137.626529
88.821650
75.459480
67.415833
62.958002
58.707595
50.507784
39.432645
30.491948
24.776459
16.040802
11.934638
9.762645
9.537935
11.182427
10.975599
11.167526
12.175441
13.507605
13.735890
14.988780
14.685988
17.447472
18.865466
19.262433
21.821856
24.203658
25.524497
26.119947
26.961565
28.233528
26.769638
31.688809
32.524467
30.817986
30.651689
32.497644
32.527447
32.152534
32.664537
32.081604
33.006668
33.050776
32.768846
33.604503
33.649802
30.850768
31.010509
30.668974
28.992891
30.277967
28.826594
27.640462
27.483702
28.239489
27.639866
29.032826
29.567480
31.550527
32.997727
37.887692
40.712953
41.520000
44.671893
45.157671
45.171976
43.307543
41.201711
38.566589
34.101605
30.153990
27.853847
22.642612
22.084713
19.855499
18.735528
18.094778
17.752647
16.168952
16.239882
15.472770
15.112758
15.352964
14.730692
14.619827
15.355945
14.228821
##ZVALUE=230
259.285569
282.273889
414.595008
632.438660
758.422017
867.472887
873.817801
791.651011
669.050813
522.826910
318.579674
204.659700
122.827888
97.175837
87.626576
88.273883
83.052516
77.856779
67.978501
49.214959
37.186742
25.148988
17.518997
12.449622
10.598898
10.542870
10.233521
10.245442
10.904670
11.565685
12.542605
13.341904
14.488697
14.838576
17.916560
19.188523
20.974874
21.802783
22.878647
25.390983
26.553869
26.420951
28.609633
28.702617
28.346777
31.147599
29.545426
29.656887
29.179454
30.816793
30.487776
29.506683
30.219555
28.359890
29.113889
27.265549
26.145577
28.314590
26.259422
26.495457
25.839806
25.114417
25.009513
24.751425
24.806857
25.887489
27.080774
28.962493
29.142499
32.027960
33.282638
37.893653
37.181973
38.051605
36.849976
35.592914
33.709407
31.219721
26.329756
24.932623
22.794604
20.410419
18.378496
18.016696
16.645789
16.571879
14.892817
14.815927
14.232993
14.681816
13.559461
14.630556
13.844967
13.838410
12.880564
13.119578
##ZVALUE=235
53.832531
62.384605
134.034753
300.836563
475.581884
723.046660
919.715762
1015.870571
1015.870571
1015.870571
934.791565
734.804869
472.614765
317.394733
190.806985
132.798553
103.652477
104.906559
106.163621
100.944638
90.504885
71.875453
56.456923
38.777590
27.491450
17.890930
13.617873
10.791421
10.485649
9.799600
10.636449
12.289882
12.003779
13.268590
13.996959
15.304685
15.860796
17.758608
19.337535
19.785762
20.201802
21.478534
22.297502
23.683906
23.135543
23.128986
23.311973
24.894476
23.407936
23.439527
24.005771
23.476481
24.273992
22.807717
21.644831
21.767616
21.637678
20.858645
20.905733
20.825863
20.412803
20.578504
19.121766
20.816922
22.141933
21.137595
21.844506
23.400784
25.275946
26.233792
28.129816
30.868649
31.369925
31.367540
32.956600
30.022860
27.172565
25.809407
22.670627
20.231605
19.162893
18.398762
16.155839
15.631914
13.699532
13.437867
13.866425
13.825893
13.811588
12.579560
13.355613
12.507439
12.180805
11.834502
12.354851
11.602640
##ZVALUE=240
3.056526
3.498793
12.073517
50.115585
118.963718
269.410610
451.683998
771.664977
1001.624465
1015.870571
1015.870571
1015.870571
1015.870571
976.057649
681.037903
460.302830
254.916549
167.396665
116.912723
108.444691
113.266706
115.344524
107.538700
97.799897
73.795915
59.803724
44.296980
28.074980
21.275878
14.376640
12.866855
12.260675
11.353493
12.090802
12.290478
12.613535
13.815761
14.395714
15.114546
15.699863
17.243624
16.769767
17.475486
18.107891
18.188953
17.777681
18.964410
18.453598
18.224716
18.517971
17.655492
18.977523
18.224716
17.008781
18.028617
16.808510
16.901493
16.746521
16.193986
16.919971
16.315579
15.879869
16.069412
15.483499
16.050935
16.413927
17.830729
18.431544
18.996596
22.685528
23.079515
25.456548
25.532842
24.845600
25.142431
23.795962
22.057891
19.158721
18.355846
16.544461
14.406443
13.979673
13.510585
13.036728
12.041926
11.203885
11.887550
11.125803
11.266470
10.728836
11.267662
10.524988
11.688471
11.132956
10.875463
10.698438
##ZVALUE=245
1.985431
2.188683
2.282858
2.708435
7.380843
25.137663
90.492964
194.419622
442.645550
681.376457
1013.540030
1015.818715
1015.818715
1015.818715
1015.818715
1015.818715
937.637091
610.060692
394.649506
209.161639
135.636926
104.473829
107.298493
117.035508
117.785931
113.979578
99.125504
83.193779
62.229633
46.423674
31.489730
23.455620
17.188787
12.863874
11.483431
11.859536
12.414455
12.557507
13.348460
13.625622
14.037490
14.149547
14.802814
14.478564
14.043450
14.367700
14.480948
14.831424
14.300942
14.796853
14.873743
14.653802
14.383793
14.032722
13.938546
14.397502
13.595819
13.917685
13.180971
13.139844
13.070703
12.373924
12.894869
12.161732
12.845993
13.733506
13.673902
14.757514
16.433001
16.799569
18.856525
19.453764
20.641685
19.818544
18.846989
18.629432
18.075705
15.532970
14.783740
12.666583
11.872649
11.035800
10.575652
9.752512
9.759665
9.141564
9.749532
8.820891
9.189844
9.440780
9.421706
9.205937
8.821487
9.534955
8.837581
8.536577
##ZVALUE=250
1.749992
2.063513
2.144575
2.116561
2.186894
2.603531
3.178716
16.380548
52.701831
120.807886
321.622491
560.816526
961.904526
1015.870571
1015.870571
1015.870571
1015.870571
1015.870571
1015.870571
851.406455
563.215017
284.092426
167.625546
101.386905
94.019771
110.415816
117.366910
122.767687
117.521882
105.342865
91.007948
66.617727
51.993728
34.440756
25.190711
17.215610
14.067888
12.649894
12.860894
12.855530
13.602972
13.489723
13.451576
13.125539
13.619661
13.137460
13.966560
14.096498
13.718605
13.656616
13.184547
12.935996
12.850761
12.479424
12.123585
12.226701
11.311769
12.413859
11.272430
11.228919
11.254549
11.115670
10.774732
10.836720
10.660887
11.920929
11.318922
12.686849
13.248920
14.291406
15.746951
15.343428
16.690493
16.203523
15.788674
15.042424
13.669729
12.566447
12.333989
10.404587
9.735823
8.886456
8.650422
8.315444
8.157492
8.061528
8.028746
7.631779
7.510781
8.044839
8.005500
7.766485
7.756948
7.318854
7.746816
7.347465
##ZVALUE=255
1.649857
1.717806
1.707673
1.892447
1.853704
1.990795
2.465844
2.348423
2.930760
6.525517
35.777688
96.915960
205.965638
471.423864
750.572681
1015.870571
1015.870571
1015.870571
1015.870571
1015.870571
1015.870571
1015.870571
733.038783
450.643897
213.612914
125.945807
88.630915
90.252757
108.973980
121.118426
127.691627
122.609735
114.135742
92.903972
74.428916
51.418543
38.508773
25.196671
20.055771
15.853643
14.570951
14.771819
14.159679
14.774799
14.930964
14.486909
14.430881
14.181733
13.975501
13.406873
13.872981
13.368726
13.220906
12.712479
12.890697
12.376904
11.969805
12.037754
11.720657
10.988712
11.153817
10.909438
10.614991
10.771751
10.327697
10.760427
10.717511
11.643767
12.077689
12.643933
13.273954
14.153719
14.099479
14.379621
13.697743
12.163520
11.984706
11.060834
10.073781
9.177923
8.663535
7.846951
7.622838
7.535815
7.237792
7.383823
7.010698
7.107854
6.436706
6.513000
6.460547
7.011890
6.577969
6.320477
6.543994
6.634593
##ZVALUE=260
1.600981
1.674891
1.793504
1.662970
1.692772
1.740456
2.115965
1.924634
2.322793
2.370477
2.758503
3.799796
12.119412
57.674646
141.221881
358.032584
610.226989
999.701619
1015.870571
1015.870571
1015.870571
1015.870571
1015.870571
1015.870571
984.392762
681.957603
371.285677
207.296610
99.328756
78.616738
86.426735
107.968450
121.237636
131.569505
129.648447
115.771890
100.000501
76.921582
59.783459
40.964484
30.717850
22.829771
19.368529
17.230511
17.032623
16.954541
17.196536
16.083717
16.099811
16.398430
16.125441
15.631914
15.239716
14.947653
14.883876
14.166832
13.431907
13.230443
12.870431
12.263656
11.933446
11.374950
11.070967
11.089444
10.740757
10.936856
11.126995
11.489987
11.820793
12.188554
12.505651
13.635755
13.255477
13.163686
12.542605
11.549592
11.137724
10.102987
9.149909
8.230805
8.115768
7.535815
7.250905
6.965995
6.946921
6.530881
6.090999
6.096959
6.278753
5.890727
6.140471
6.110668
6.092787
6.133914
5.781651
6.001592
##ZVALUE=265
1.466870
1.351833
1.540780
1.496673
1.656413
1.761913
1.694560
1.725554
1.869798
2.028942
2.232790
2.361536
2.664924
2.871752
6.892681
40.083528
104.085803
272.498727
502.484441
955.578685
1015.870571
1015.870571
1015.870571
1015.870571
1015.870571
1015.870571
1015.870571
976.190567
553.660393
321.580768
173.108578
82.322955
72.773695
93.528628
113.540888
129.095912
135.650635
131.234527
120.887756
100.327730
84.067583
60.850978
46.057701
31.979680
26.995540
22.092462
20.934939
20.053983
19.543767
19.002557
18.912554
18.141866
18.040538
17.837882
16.674995
16.265512
16.121864
15.596747
14.863610
13.855696
13.513565
13.044477
12.398958
12.301803
11.934638
11.980534
12.247562
12.099743
12.573600
13.531446
13.453960
13.605952
14.009476
13.252497
12.803674
11.854768
11.186600
9.276867
9.425879
8.390546
7.700920
7.249713
6.878972
6.551743
6.582737
6.501675
6.188750
6.054640
6.182790
5.960464
5.985498
5.684495
6.020665
5.712509
5.835891
5.977750
##ZVALUE=270
1.428723
1.346469
1.459718
1.572967
1.586676
1.579523
1.398921
1.720786
1.526475
1.802444
1.922846
2.021790
1.999736
2.307892
2.525449
2.842546
3.493428
15.342832
52.296519
182.744861
379.810929
684.736967
1015.876532
1015.876532
1015.876532
1015.876532
1015.876532
1015.876532
1015.876532
1015.876532
962.304473
508.542657
279.971957
113.538504
69.848895
73.886514
92.075467
115.232468
130.437613
137.387514
137.167573
125.084519
109.160542
86.467862
67.771673
47.052503
38.226843
29.284954
25.532842
23.148656
22.396445
21.023750
21.005869
19.553900
19.770861
18.881559
18.177629
17.271638
16.737580
16.535521
15.282631
14.377832
14.182925
13.605952
13.047457
12.692809
12.380481
12.753606
13.302565
13.383627
13.377666
14.042854
13.507605
13.450980
12.515783
11.745691
11.142492
9.670854
9.374619
8.590817
8.029938
7.551908
7.074475
6.733537
6.556511
6.092787
6.292462
6.259680
6.141663
5.900860
5.632639
5.737543
5.688667
5.703568
5.503893
5.648732
##ZVALUE=275
1.170635
1.313686
1.257658
1.326799
1.204610
1.459718
1.385808
1.463890
1.563430
1.473427
1.762509
1.629591
1.857877
1.987815
2.035499
2.159476
2.428889
2.524853
2.904534
6.746650
26.751757
85.444450
278.627872
543.950796
1003.705859
1015.871763
1015.871763
1015.871763
1015.871763
1015.871763
1015.871763
1015.871763
1015.871763
694.152713
397.325754
164.820552
85.706711
59.294701
70.352554
94.242692
111.824870
131.545663
138.650537
136.310458
127.805471
106.576681
89.381933
68.435669
54.047704
38.452744
31.469464
25.128722
23.305416
20.828843
20.621419
19.374490
18.984675
17.988682
17.707944
16.442537
16.578436
15.298724
15.005469
14.256835
14.221668
13.342500
12.918711
13.295412
13.695955
13.559461
14.175773
13.937950
13.856888
13.377666
12.895465
11.950731
10.838509
10.009408
9.185672
8.042455
7.735491
7.567406
7.242560
6.796718
6.673932
6.418824
6.402731
6.013513
5.908608
5.885959
5.769730
5.529523
5.642772
5.580783
5.176663
5.712509
##ZVALUE=280
1.220703
1.169443
1.260638
1.181960
1.324415
1.303554
1.310706
1.424551
1.466870
1.512766
1.384616
1.488924
1.535416
1.736879
1.657605
1.888871
1.974702
2.211928
2.361536
2.493858
2.899766
3.662705
16.173720
59.143901
211.492777
411.567688
811.101794
1015.870571
1015.870571
1015.870571
1015.870571
1015.870571
1015.870571
1015.870571
1015.870571
872.392654
533.518791
234.274864
113.644004
54.739714
53.178668
71.109533
89.358687
112.775564
126.151443
134.557486
131.681561
121.076703
107.303858
84.555745
66.720843
48.144460
36.802888
27.125478
22.219419
18.817782
18.011928
17.091632
16.485453
15.681982
15.361905
14.537573
14.020801
14.033914
13.403893
12.898445
12.829900
12.854934
12.587905
12.674928
12.330413
13.135672
12.771487
12.118816
11.584759
11.047721
10.300875
9.253621
8.804798
7.938743
7.859468
7.278919
7.032752
6.787777
6.623864
6.523728
6.170869
6.431937
6.057620
5.652905
5.786419
5.714893
5.701780
5.614758
5.680919
5.726814
##ZVALUE=285
1.230836
1.130700
1.135468
1.245737
1.100898
1.233816
1.198649
1.110435
1.320839
1.368523
1.390576
1.599789
1.377463
1.621842
1.632571
1.585484
1.758933
1.823902
2.167821
2.139807
2.232790
2.506971
2.992749
3.271699
9.635687
35.081506
129.573941
273.420811
604.396462
962.436795
1015.870571
1015.870571
1015.870571
1015.870571
1015.870571
1015.870571
1015.870571
1015.870571
724.547505
340.049863
166.204572
57.581663
37.421584
46.666861
60.498714
84.628463
114.193559
115.268826
125.328898
124.273896
106.619596
101.975799
82.389712
59.785843
37.865639
30.204654
23.121834
17.107725
14.812946
13.338923
12.601614
12.356639
11.618733
11.874437
11.214614
11.247993
11.057854
11.426806
11.351705
11.758804
11.574626
11.703968
11.041760
11.040568
9.987950
9.639859
8.943677
8.382797
8.199811
7.355809
7.215738
6.796718
6.513000
6.760955
6.590486
6.568432
6.239414
6.048679
6.142855
6.199479
5.887747
5.933642
5.782843
5.697608
5.565882
5.562901
##ZVALUE=290
1.080632
1.155734
1.105666
1.123548
1.208782
1.040697
1.221895
1.138449
1.172423
1.296997
1.209974
1.472831
1.353621
1.380444
1.429915
1.447797
1.517534
1.565814
1.636744
2.026558
1.725554
1.944900
2.497435
2.589822
2.973676
3.223419
3.960729
13.063550
76.921582
187.211037
388.388038
793.339014
1015.870571
1015.870571
1015.870571
1015.870571
1015.870571
1015.870571
1015.870571
1015.870571
960.396528
491.618514
252.884626
85.573792
35.979748
28.647780
37.321448
53.710938
68.893433
90.931654
104.738474
115.045905
117.015839
109.694004
95.534921
74.664950
58.247447
39.308667
28.182864
18.611550
13.994575
10.684729
10.208488
9.445548
9.269714
9.467602
9.412766
9.476542
9.635687
10.415912
10.039806
10.361671
10.174513
10.001659
9.444952
8.870959
8.175969
7.719994
7.344484
7.046461
6.790757
6.647706
6.344914
6.206632
6.256700
6.239414
6.066561
5.898476
5.889535
5.678535
5.794764
5.604625
5.776882
5.688667
5.824566
5.726814
##ZVALUE=295
1.076460
1.094937
0.917912
1.096725
1.125932
1.290441
1.160502
1.254678
1.229644
1.237988
1.154542
1.249909
1.163483
1.214743
1.362562
1.412630
1.471639
1.350641
1.443624
1.603961
1.762509
1.839995
1.991987
2.170801
2.176762
2.464652
2.577901
2.883673
3.425479
4.977584
26.466846
94.940662
249.917507
647.055507
1004.578471
1015.872955
1015.872955
1015.872955
1015.872955
1015.872955
1015.872955
1015.872955
1015.872955
647.984743
355.478525
125.668645
49.553514
21.131635
22.589564
33.468604
45.962930
64.623952
80.434680
98.314881
106.533766
108.937621
102.364421
87.399483
72.569847
52.293539
39.223433
24.950504
17.766953
11.407733
9.473562
8.237958
7.978678
7.966757
8.304715
8.647442
8.790493
8.605719
9.154677
8.766651
8.288622
7.916689
7.515550
7.186532
6.828904
6.465912
6.234646
6.248951
5.936623
5.987883
5.817413
5.738735
5.654693
5.548596
5.665421
5.519986
5.491972
5.313754
5.445480
5.496740
5.286932
5.213618
##ZVALUE=300
1.018643
0.948906
1.015663
1.005530
0.868440
0.935793
0.975728
1.062751
1.092553
1.050830
1.149774
1.087785
1.153946
1.256466
1.214743
1.303554
1.353621
1.269579
1.452565
1.456738
1.509786
1.475811
1.699924
1.668930
1.845956
1.916885
2.115965
2.111793
2.464652
2.867579
3.247857
3.402829
10.173917
40.723681
163.013935
357.188582
812.019706
1015.871763
1015.871763
1015.871763
1015.871763
1015.871763
1015.871763
1015.871763
1015.871763
960.652828
492.258668
259.511471
87.650418
31.087995
16.101599
19.698739
29.306412
39.276481
57.692528
73.147416
92.007518
99.464655
101.998448
98.304749
85.795522
71.888566
52.863955
39.743781
24.461746
17.349720
11.349916
9.102821
7.889867
7.994771
8.090734
7.910728
8.023977
7.891655
7.432699
6.827712
6.659627
6.371737
6.272793
5.957484
5.793571
5.903840
5.903840
5.538464
5.574822
5.488992
5.346537
5.402565
5.184412
5.367994
5.362630
5.283952
5.474687
5.282760
5.437732
5.079508
##ZVALUE=305
0.883937
0.927448
1.007915
0.923872
0.931621
1.098514
0.868440
0.962615
1.181960
1.024604
0.916719
1.106858
1.076460
1.048446
1.041889
1.045465
1.242757
1.159906
1.227856
1.319647
1.236796
1.554489
1.408458
1.598597
1.536608
1.694560
1.813769
2.004504
2.216697
2.186894
2.248883
2.528429
2.839565
3.286600
4.615784
25.249720
80.790520
265.915394
523.251891
1001.303792
1015.870571
1015.870571
1015.870571
1015.870571
1015.870571
1015.870571
1015.870571
1015.870571
741.238594
334.512591
155.918598
44.246912
17.044544
14.081001
17.455816
27.636886
38.382411
55.123568
69.321990
85.168481
93.607903
96.826553
93.584657
82.002878
67.858696
49.698949
37.005544
24.180412
17.028451
11.173487
9.352565
8.176565
7.567406
7.165670
7.188916
6.322861
6.225705
5.951524
5.578995
5.525947
5.552769
5.316734
5.314946
5.534887
5.146861
5.166531
5.247593
5.089641
5.251765
5.132556
5.045533
5.077720
5.154610
5.016923
4.897714
4.883409
##ZVALUE=310
0.702739
0.911951
0.777841
0.689626
0.703931
0.821948
0.794530
0.772476
0.806451
0.814795
0.729561
0.786781
0.954866
0.921488
1.075864
1.042485
1.094937
1.099706
0.941753
1.118779
1.029968
1.045465
1.313686
1.314878
1.346469
1.437664
1.563430
1.511574
1.403689
1.683831
1.703501
1.875758
2.230406
2.359748
2.588630
3.003478
3.197789
10.439754
37.987828
151.196718
326.691866
742.417574
1015.743017
1015.743017
1015.743017
1015.743017
1015.743017
1015.743017
1015.743017
1015.743017
1007.189751
537.325740
278.634429
89.850426
30.549765
11.548996
12.289882
16.147494
21.991730
33.555627
45.520663
63.280463
74.981451
87.156892
91.234446
87.842941
80.469847
66.276789
52.711964
35.785437
26.252866
17.102957
12.175441
8.467436
7.085800
6.347895
5.742908
5.402565
5.151629
4.843473
5.035996
4.783869
4.941821
4.960895
4.929900
4.823804
4.871488
4.745722
4.950762
4.844666
4.809499
4.724860
4.860759
4.845858
4.868507
4.675984
##ZVALUE=315
0.634789
0.615716
0.695586
0.780821
0.798702
0.775456
0.806451
0.854731
0.712872
0.743866
0.863671
0.810623
0.758767
0.742674
0.817776
0.848770
0.765920
1.084805
0.946522
0.863671
0.905991
0.932813
1.146793
1.154542
1.247525
1.253486
1.311898
1.187921
1.391768
1.449585
1.567602
1.506805
1.627803
2.038479
1.936555
2.271533
2.394915
2.795458
3.249645
4.823804
17.682910
92.108846
224.069357
554.317832
949.433446
1015.706658
1015.706658
1015.706658
1015.706658
1015.706658
1015.706658
1015.706658
1015.706658
773.485899
414.083004
142.296553
51.410794
13.927817
10.287762
11.097789
13.966560
21.357536
29.440522
43.228865
55.855513
72.254539
81.126690
86.694956
84.414482
75.069666
64.614415
49.688816
37.010908
23.158789
16.075969
9.770989
7.246733
5.816817
4.931688
4.823804
4.745722
4.412532
4.599690
4.655719
4.310608
4.463792
4.402995
4.512668
4.558563
4.409552
4.478693
4.617572
4.426837
4.656911
4.494786
4.577637
##ZVALUE=320
0.785589
1.004934
0.725985
0.860691
0.809431
0.882745
0.876784
0.962615
0.830889
0.868440
0.821948
0.973940
0.870824
0.952482
0.941753
1.000762
1.100898
0.991821
0.987649
0.995994
0.962615
1.185536
1.091957
1.077652
1.328588
1.192689
1.315475
1.294613
1.510978
1.437664
1.561642
1.659989
1.549721
1.874566
1.890659
1.982450
1.996756
2.216697
2.511740
2.735853
3.046989
3.655553
7.447004
45.238733
133.708715
401.758552
712.409616
1015.870571
1015.870571
1015.870571
1015.870571
1015.870571
1015.870571
1015.870571
1015.870571
975.085497
589.531660
242.708921
100.907683
23.468733
10.576844
9.265542
10.112524
12.730956
17.504692
27.280450
38.014650
53.568482
65.337420
76.455474
80.872774
80.159903
73.362589
59.540868
47.639608
32.565594
23.121834
14.537573
9.904504
6.278753
5.329847
5.004406
4.381537
4.486442
4.369617
4.291534
4.305840
4.110932
4.243851
4.402995
4.191995
4.394650
4.326701
4.382730
4.661679
4.463792
##ZVALUE=325
0.681877
0.776649
0.716448
1.043677
0.660419
0.775456
0.807643
0.779629
0.836849
0.801682
0.919700
0.862479
0.758767
0.810623
0.923872
0.931621
0.828505
0.987649
0.908971
0.897646
1.168847
1.047850
0.882745
1.086593
1.091957
1.120567
1.125932
1.228452
1.454949
1.330972
1.432896
1.380444
1.584888
1.477599
1.651645
1.758933
1.802444
1.751781
2.087951
2.211928
2.274513
2.652407
2.828836
3.409982
4.585981
28.124452
84.160566
257.890821
505.118966
987.061858
1015.870571
1015.870571
1015.870571
1015.870571
1015.870571
1015.870571
1015.870571
1015.870571
760.360956
340.233445
157.117844
39.597750
13.390779
8.644462
8.388758
9.765625
12.151599
17.952919
25.650859
38.724542
49.272776
63.165426
70.681572
76.924562
74.438453
65.831542
56.001544
41.805506
31.530857
19.388795
13.367534
8.132458
6.421804
4.941821
4.405975
4.211664
4.053712
4.163980
4.092455
4.098415
4.098415
4.050732
4.134774
4.138947
4.284978
4.326701
##ZVALUE=330
0.844598
0.668764
0.694990
0.661612
0.624657
0.853539
0.785589
0.804663
0.770688
0.763535
0.872612
0.745654
0.793934
0.877976
0.846982
0.796914
1.093745
0.737906
0.921488
0.909567
0.841618
0.896454
0.843406
1.060963
1.039505
1.073480
1.135468
1.177788
1.099706
1.086593
1.280904
1.297593
1.361966
1.378655
1.312494
1.512766
1.443624
1.535416
1.727939
1.739860
1.882911
2.112985
2.236962
2.155900
2.684593
2.971888
3.403425
10.860562
39.843917
160.774589
342.327952
769.333839
1015.872955
1015.872955
1015.872955
1015.872955
1015.872955
1015.872955
1015.872955
1015.872955
954.612494
459.043980
229.182839
72.309971
23.318529
8.768439
8.073449
8.119941
8.982420
12.323856
16.390681
24.759769
33.689737
47.729611
56.858659
66.919923
70.191622
68.607926
62.510967
51.080585
40.915608
27.911663
20.244718
12.438893
8.818507
5.880594
4.975796
4.141927
3.960729
3.969669
3.934503
3.988743
3.975630
4.045963
3.897548
4.153848
##ZVALUE=335
0.672936
0.748634
0.670552
0.731945
0.756979
0.726581
0.679493
0.719428
0.782609
0.853539
0.757575
0.681877
0.915527
0.838637
0.902414
0.945926
0.753999
0.861883
0.963807
0.862479
0.962615
1.010895
0.802875
1.075864
0.875592
0.966787
0.949502
1.086593
1.135468
0.975728
1.062751
1.123548
1.183748
1.146793
1.218915
1.271963
1.362562
1.398921
1.500845
1.566410
1.780987
1.648664
1.921654
1.882911
1.917481
2.458692
2.519488
2.762675
3.095865
5.312562
18.422008
90.492964
216.937661
548.072457
950.165987
1015.870571
1015.870571
1015.870571
1015.870571
1015.870571
1015.870571
1015.870571
1015.870571
661.149621
345.088840
110.797882
37.537813
10.628700
8.186698
7.831454
8.025765
8.984804
10.916591
16.165972
21.931529
32.823682
42.455792
52.928925
61.043501
65.217614
64.494610
57.386756
49.715638
38.506985
30.034781
19.612908
13.716817
8.836985
6.624460
4.866719
4.469752
4.133582
4.188418
4.075766
4.121661
3.937483
##ZVALUE=340
0.687838
0.624657
0.755787
0.761747
0.593662
0.613928
0.614524
0.674725
0.660419
0.829697
0.682473
0.771880
0.737906
0.659823
0.727773
0.743866
0.705719
0.758767
0.834465
0.810623
0.820756
0.863671
0.793934
0.878572
0.927448
0.886917
1.144409
0.972748
0.907779
0.971556
1.152754
1.044869
1.087785
1.193881
1.208782
1.168847
1.208782
1.427531
1.268983
1.560450
1.364946
1.377463
1.556873
1.665950
1.880527
1.859665
1.987815
2.213717
2.285838
2.578497
2.728701
3.686547
8.820891
51.691532
146.040916
419.552922
765.538812
1015.854478
1015.854478
1015.854478
1015.854478
1015.854478
1015.854478
1015.854478
1015.854478
820.148587
455.669761
174.209476
61.302781
13.207793
8.870959
7.986426
7.527471
7.432699
8.103848
10.406971
13.776422
20.739436
29.021502
41.459799
49.537420
57.870746
60.773492
59.962869
55.926442
46.859980
38.108826
27.673841
20.262599
13.460517
9.512901
6.349683
5.206466
4.460812
4.312992
4.280806
##ZVALUE=345
0.718832
0.678897
0.672936
0.667572
0.680685
0.748634
0.767708
0.803471
0.683665
0.757575
0.706911
0.774860
0.838637
0.768900
0.647902
0.678897
0.596642
0.736713
0.798702
0.838637
0.773668
0.746846
0.889897
0.860691
0.897646
0.970960
1.036525
1.024604
1.017451
0.803471
1.193881
0.919700
1.146793
1.088977
1.150966
1.133680
1.147985
1.135468
1.310706
1.379848
1.390576
1.233816
1.511574
1.304746
1.521707
1.685619
1.676679
1.697540
1.979470
2.090931
2.183914
2.506971
2.564788
2.955794
4.623532
26.697516
86.266398
272.131562
522.788763
990.938544
1015.870571
1015.870571
1015.870571
1015.870571
1015.870571
1015.870571
1015.870571
1001.026630
623.276830
254.362822
102.523565
24.547577
10.625720
8.349419
7.654428
6.684661
6.535649
7.048845
8.333921
12.842417
18.093586
27.719736
35.661459
45.437813
51.193833
55.801868
56.381822
52.465796
46.751499
36.751628
28.103590
19.274950
14.074445
9.307861
7.045865
5.168915
##ZVALUE=350
0.920892
0.842810
0.882745
0.898838
1.008511
0.809431
0.813603
1.027584
0.962615
0.927448
0.860691
0.887513
0.965595
0.900626
1.076460
1.005530
0.955462
0.977516
0.958443
0.931621
1.091957
1.000762
1.135468
1.123548
1.136661
1.070499
1.240969
1.135468
1.072884
1.134872
1.136661
1.136661
1.229644
1.319647
1.265407
1.279712
1.381636
1.417994
1.560450
1.463890
1.323819
1.442432
1.336932
1.609921
1.788735
1.777411
1.740456
1.845956
1.994967
1.823902
2.117753
2.172589
2.370477
2.646446
2.785921
3.100634
3.633499
12.227893
44.750571
169.833899
362.237692
818.050504
1016.052961
1016.052961
1016.052961
1016.052961
1016.052961
1016.052961
1016.052961
1016.052961
811.928511
370.880961
159.871578
35.901666
12.414455
7.900596
7.052422
6.297827
5.802512
5.852580
6.390810
8.550882
11.448860
17.058849
22.634864
32.042861
39.101839
47.253966
50.749779
51.774979
49.950480
43.001771
36.148429
26.821494
20.402670
14.104843
##ZVALUE=355
0.700951
0.766516
0.657439
0.679493
0.720620
0.841618
0.894666
0.787973
0.685453
0.677705
0.745654
0.884533
0.750422
0.680685
0.852942
0.829697
0.717640
0.792742
0.868440
0.861883
0.950694
0.879765
0.898838
0.982881
0.719428
0.805855
1.049638
1.013875
0.909567
0.903606
1.259446
1.030564
0.979900
1.004934
1.021624
1.034737
1.095533
1.134872
1.167655
1.174808
1.299977
1.277924
1.309514
1.344681
1.331568
1.455545
1.521707
1.495481
1.653433
1.693964
1.839995
1.769662
1.887679
2.065897
2.209544
2.618432
2.482533
2.887845
3.118515
6.144643
22.290945
105.770826
243.554711
577.243567
960.927606
1015.865803
1015.865803
1015.865803
1015.865803
1015.865803
1015.865803
1015.865803
972.117782
467.166901
223.580003
59.249997
16.929507
7.652640
6.619692
5.740523
5.544424
5.274415
5.377531
5.637407
6.934404
10.117888
14.034510
20.709634
26.623607
35.577416
41.439533
46.911836
47.454834
45.343637
41.795969
34.264922
##ZVALUE=360
0.653863
0.863671
0.780821
0.775456
0.721812
0.830889
0.770688
0.807643
0.696778
0.708699
0.755787
0.627637
0.756979
0.831485
0.831485
0.864863
0.842810
0.958443
0.909567
0.898838
0.905991
0.903606
0.740886
0.949502
0.986457
1.151562
1.024604
1.184940
1.080632
1.040697
1.098514
1.076460
0.968575
1.025796
1.097918
1.125932
1.098514
1.063943
1.215935
1.261830
1.162887
1.215935
1.210570
1.331568
1.302958
1.510978
1.467466
1.443624
1.625419
1.570582
1.779795
1.751781
1.748800
1.892447
1.937747
2.022982
2.455711
2.224445
2.564788
2.790689
3.076792
4.093647
9.161830
47.852993
136.001706
388.848782
703.401566
1015.870571
1015.870571
1015.870571
1015.870571
1015.870571
1015.870571
1015.870571
1015.870571
632.006526
333.280563
116.488934
37.494898
8.808970
6.772876
5.949736
5.551577
5.278587
4.749894
4.872680
5.118847
6.270409
8.157492
11.758804
16.442537
23.854971
29.781461
37.181973
41.478872
43.944716
##ZVALUE=365
0.759959
0.668764
0.649691
0.590682
0.796914
0.683665
0.644922
0.606775
0.632405
0.772476
0.732541
0.826716
0.852942
0.792742
0.893474
0.728965
0.714660
0.779629
0.727773
0.812411
0.972748
0.900626
0.941753
0.962615
0.942945
0.884533
0.775456
0.865459
0.945926
0.947714
0.942945
0.987649
0.931621
0.996590
1.072884
0.991821
1.012683
1.092553
1.075864
1.068711
1.089573
1.233816
1.214743
1.261830
1.080632
1.287460
1.268983
1.400709
1.210570
1.353621
1.447797
1.578927
1.502633
1.544952
1.656413
1.735687
1.872778
1.774430
2.091527
2.313852
2.445579
2.785921
2.921820
3.368855
4.654527
22.419691
75.895786
251.044035
503.048897
974.639654
1015.837789
1015.837789
1015.837789
1015.837789
1015.837789
1015.837789
1015.837789
852.137804
480.774641
176.003575
64.041615
12.385845
6.627440
5.691648
5.393624
4.818439
4.751682
4.319549
4.447699
4.626513
5.397797
7.584691
9.650588
14.560819
19.281507
26.132464
##ZVALUE=370
0.689626
0.716448
0.729561
0.808835
0.782609
0.646710
0.757575
0.668764
0.660419
0.841618
0.577569
0.839829
0.707507
0.806451
0.782609
0.812411
0.705719
0.824928
0.528693
0.767708
0.782609
0.934601
0.921488
0.879765
0.860691
0.954866
0.917912
0.759959
0.954866
0.844598
0.872612
1.013875
0.888705
0.845790
0.996590
1.146793
0.992417
0.984669
0.817776
1.132488
1.181960
1.033545
1.184940
1.084805
1.130700
1.216531
1.110435
1.214743
1.091957
1.367927
1.277924
1.129508
1.502633
1.318455
1.389980
1.517534
1.580715
1.635551
1.720786
1.632571
1.853704
2.045631
2.223849
2.309680
2.648830
3.086925
3.581643
12.831688
47.397614
176.146626
371.355414
795.442462
1015.870571
1015.870571
1015.870571
1015.870571
1015.870571
1015.870571
1015.870571
962.947011
583.999753
233.787894
97.691417
22.094846
7.834435
5.536675
5.137920
4.761815
4.514456
4.358888
4.286766
4.476905
4.662871
5.629659
6.597638
9.160638
##ZVALUE=375
0.586510
0.545979
0.551939
0.660419
0.615716
0.653863
0.581741
0.528693
0.794530
0.554919
0.653863
0.595450
0.735521
0.653863
0.720620
0.739694
0.525713
0.715852
0.777841
0.799894
0.708699
0.717640
0.692606
0.724792
0.696778
0.695586
0.732541
0.799894
0.811815
0.958443
0.836849
1.039505
0.897646
0.820756
0.772476
0.906587
0.989437
0.925660
0.968575
0.936985
0.835657
0.890493
1.054406
0.899434
0.952482
0.971556
1.009703
1.060963
1.039505
1.157522
1.138449
1.117587
1.245737
1.148582
1.214743
1.328588
1.356602
1.134872
1.363754
1.379848
1.466870
1.682639
1.689792
1.890659
1.889467
2.206564
2.451539
2.762675
3.560781
5.607605
29.906631
88.049769
266.860723
522.463918
989.735723
1015.871763
1015.871763
1015.871763
1015.871763
1015.871763
1015.871763
1015.871763
764.749646
444.000959
174.336433
68.468451
13.524890
6.072521
5.178452
4.916787
4.849434
4.836917
4.642606
4.622936
4.678965
4.687905
##ZVALUE=380
0.678897
0.617504
0.624657
0.571609
0.505447
0.516772
0.636578
0.667572
0.503659
0.542998
0.609756
0.571609
0.510812
0.742674
0.535846
0.637770
0.686646
0.548959
0.576973
0.626445
0.714660
0.667572
0.739694
0.675917
0.774860
0.729561
0.817776
0.806451
0.949502
1.024604
1.051426
0.918508
0.974536
0.876784
0.903606
0.885725
0.931621
0.937581
1.052618
0.957847
0.901818
0.924468
0.993609
0.966787
1.063943
1.198649
0.911951
1.081824
1.015663
0.966787
0.918508
0.922680
1.009703
0.925660
1.155734
1.069903
1.320839
1.223683
1.150966
1.296997
1.384616
1.277924
1.421571
1.524687
1.765490
1.814961
2.029538
2.212524
2.664924
2.936721
3.341436
4.465580
11.240840
61.871409
164.660811
445.189476
780.542493
1015.870571
1015.870571
1015.870571
1015.870571
1015.870571
1015.870571
1015.870571
984.544754
532.070994
280.526876
95.354915
32.980442
8.081794
5.683899
5.249977
5.150437
5.001426
4.988909
4.679561
##ZVALUE=385
0.513792
0.533462
0.463724
0.501871
0.757575
0.469685
0.746846
0.675917
0.508428
0.602603
0.532866
0.587702
0.647902
0.536442
0.634789
0.628829
0.589490
0.582933
0.643730
0.604987
0.677705
0.620484
0.802875
0.716448
0.794530
0.828505
0.755787
0.917912
0.809431
0.934601
0.833869
0.828505
1.080632
0.984669
0.981688
0.886917
0.864863
0.858903
0.919700
0.882745
1.081824
0.980496
1.070499
0.993609
0.845790
0.933409
0.990629
0.979900
0.881553
1.096725
0.938773
1.018643
1.019835
1.069903
1.160502
0.981688
1.039505
1.132488
1.150966
1.191497
1.085997
1.313686
1.394749
1.361966
1.530647
1.711845
1.853704
2.063513
2.251863
2.416968
2.658963
2.786517
2.744794
3.156662
5.355477
32.829642
98.450780
289.135575
564.996004
1015.870571
1015.870571
1015.870571
1015.870571
1015.870571
1015.870571
1015.870571
1015.870571
804.864764
468.138456
191.092491
72.563887
14.061928
6.419420
5.404949
4.994869
5.058646
##ZVALUE=390
0.555515
0.602603
0.695586
0.546575
0.521541
0.559688
0.551939
0.423789
0.527501
0.550747
0.406504
0.372529
0.551939
0.509620
0.620484
0.688434
0.693798
0.488758
0.445843
0.584722
0.544786
0.497699
0.579953
0.678897
0.704527
0.889897
0.739694
0.763535
0.895858
0.926852
0.926852
0.862479
0.847578
0.851750
1.152754
0.984669
1.240969
0.981688
1.057982
1.158714
0.952482
0.997782
0.975728
1.126528
0.972748
1.014471
1.069903
0.987649
0.959635
1.020432
1.180768
1.079440
1.129508
1.133680
1.155734
1.087785
1.233816
1.267791
1.173615
1.140833
1.208782
1.308918
1.130700
1.448989
1.342893
1.780987
1.820922
2.207756
2.150536
2.207756
2.422929
2.578497
2.503991
2.501607
2.620816
2.785921
3.335476
14.099479
51.744580
196.210742
415.789485
887.135863
1015.870571
1015.870571
1015.870571
1015.870571
1015.870571
1015.870571
1015.870571
1015.870571
711.199641
300.280452
137.063861
36.110878
10.533929
5.682707
##ZVALUE=395
0.548959
0.625849
0.527501
0.465512
0.364780
0.385642
0.501871
0.616908
0.482798
0.643730
0.613928
0.490546
0.581741
0.519753
0.573993
0.480413
0.522733
0.657439
0.567436
0.608563
0.461936
0.543594
0.534654
0.742674
0.701547
0.794530
0.860691
0.894666
0.831485
0.940561
0.921488
0.959635
0.977516
0.919700
1.051426
0.982881
1.137853
0.944734
1.036525
1.174808
1.068711
1.163483
0.976920
0.977516
1.078844
1.160502
1.143813
1.251698
1.164675
1.114607
1.139641
1.088977
1.066923
1.059771
1.071692
1.011491
1.165867
1.135468
1.034737
1.183748
1.292825
1.298785
1.221895
1.324415
1.446605
1.456738
1.761913
1.976490
2.204776
2.213717
2.113581
2.233982
2.025962
1.973510
2.146959
2.129674
2.234578
2.569556
2.940893
6.168485
38.082004
109.457970
304.041505
567.875504
1010.708809
1015.870571
1015.870571
1015.870571
1015.870571
1015.870571
1015.870571
1015.870571
846.872926
482.428670
186.748505
78.463554
##ZVALUE=400
0.617504
0.619888
0.573993
0.588894
0.715852
0.524521
0.601411
0.576973
0.629425
0.558496
0.469685
0.624657
0.660419
0.743866
0.738502
0.554919
0.564456
0.599623
0.532866
0.530481
0.540614
0.591874
0.730753
0.604987
0.694990
0.602603
0.748634
0.800490
0.896454
0.869632
0.879765
0.852942
0.980496
1.043677
0.846982
0.929832
1.040697
1.043677
1.025796
1.069903
1.164675
1.081824
1.159906
1.262426
1.103878
1.108646
1.071692
1.139641
0.987649
1.224875
1.163483
1.189709
1.182556
1.163483
1.061559
0.988841
0.916719
1.087785
1.170635
1.007915
1.196861
1.226664
1.276731
1.334548
1.435876
1.546741
1.766682
1.809597
1.969934
1.887679
2.041459
1.872778
1.873970
1.848936
1.688600
1.756549
1.932979
1.772642
2.188683
2.267957
2.731681
3.716946
16.621947
55.310726
192.179680
391.701460
829.015970
1015.870571
1015.870571
1015.870571
1015.870571
1015.870571
1015.870571
1015.870571
996.436477
662.342906
##END
