##TITLE=C104_R4
##FORMAT=SPECTACLE-ASCII V-1.2
##DATA TYPE=ULTRAVIOLET SPECTRUM
##SECOND TYPE=ULTRAVIOLET SPECTRUM
##DATE=05/28/18
##TIME=14:29:24
##SPECTROMETER/DATA SYSTEM=SPECTACLE
##XUNITS=NM EM
##YUNITS=ENERGY
##YFACTOR=1
##FIRSTX=220
##LASTX=410
##NPOINTS=96
##3DDATA=Equidistant
##ZUNITS=NM EX
##FIRSTZ=210
##LASTZ=400
##ZPOINTS=39
##XYDATA=(Y..Y)
##ZVALUE=210
63.617826
59.791803
43.228865
30.919909
26.325583
22.938848
21.776557
18.996596
15.420914
12.664795
11.432767
9.581447
8.698702
10.226965
9.834766
10.802746
11.434555
11.571646
13.253689
14.245510
14.136434
15.763640
17.714500
20.052791
24.591684
25.943518
31.080842
34.703612
36.838651
39.047599
42.739511
41.297674
47.841668
44.780970
47.923923
49.312711
49.617887
48.849583
49.415827
49.517751
50.829649
50.185919
49.693584
50.993562
50.089955
50.580502
48.862696
49.636960
48.937798
52.791834
49.439669
51.163435
52.551627
48.589706
48.595667
50.136447
48.114657
51.292777
47.459602
46.884418
45.425892
48.484802
46.756864
48.154593
52.242875
57.394505
61.471462
67.285895
77.859759
91.281533
103.952885
111.241937
125.662684
131.660700
130.504966
129.219890
121.585727
113.344789
98.044872
88.535547
74.452758
62.316656
53.531528
45.241714
41.886568
38.497448
35.568476
34.020543
38.536787
47.884583
63.085556
78.313947
111.301541
146.863461
198.292732
231.007934
##ZVALUE=215
237.199664
232.658982
166.387558
117.976665
84.820986
53.514838
44.439435
38.162470
34.752488
30.098557
25.473833
20.100474
16.233921
12.522936
11.634827
10.388494
10.287762
10.729432
10.398626
11.809468
12.280941
13.058782
17.357469
18.024445
22.114515
23.170710
28.390884
31.859875
36.934614
39.113760
40.014982
42.879581
43.144822
44.487715
48.159957
48.631430
49.639940
48.866868
50.630569
51.237941
51.371455
52.661896
51.656961
52.147508
51.182508
53.428411
51.663518
52.811503
54.056644
55.043697
53.054690
54.178834
54.920912
51.782727
55.452585
53.055882
50.905943
52.214861
52.721500
50.818920
50.855875
48.202872
48.975945
48.102736
51.025748
52.904487
53.991675
58.571696
70.599914
72.214603
83.423853
89.593530
94.687939
94.177723
95.569491
94.682574
88.670850
81.901550
72.747469
65.821409
56.980848
50.840974
44.290423
39.780736
33.293962
32.606721
31.100512
29.727817
28.340816
28.144717
28.203726
27.742982
30.329823
36.699772
50.882697
66.066980
##ZVALUE=220
546.916723
539.537668
507.953763
418.683887
326.334834
222.655535
154.992938
97.474456
70.363879
55.463910
50.754547
46.898723
38.880706
34.102798
26.775599
19.365549
15.507936
13.228655
11.329651
10.263920
10.687709
12.242794
13.310909
14.626980
17.312765
17.973781
22.085905
22.946000
25.322437
28.235912
29.642582
32.266974
33.592582
37.508607
38.667917
41.248798
42.611957
46.205521
48.109889
49.337745
50.232410
51.330924
51.299930
53.981543
55.859685
54.045916
54.664612
57.099462
57.435632
59.061646
57.762861
60.006976
60.494542
60.145855
62.095523
58.383942
58.951974
58.686733
58.872700
59.558749
57.001710
54.548979
54.636002
55.419803
55.598617
56.560636
57.025552
61.214566
65.931678
69.968700
72.812438
80.388784
81.689954
85.076690
82.014799
80.384612
78.196526
68.749785
64.340830
54.243803
50.160885
42.567849
40.967464
34.933686
33.383965
30.048490
28.569698
29.592514
28.786659
26.841760
25.295615
25.339723
25.287867
26.251674
25.351644
23.870468
##ZVALUE=225
646.518469
667.752624
774.166584
858.402848
833.164454
724.205971
601.733923
406.798720
275.861621
185.901523
105.948448
76.854825
69.281459
69.628954
60.251951
53.533912
40.320754
31.999946
25.041699
18.234849
15.279651
13.317466
12.614727
12.594461
13.265610
15.725493
16.351938
18.025637
18.469691
21.846890
22.786856
26.282668
27.007461
29.645562
33.888817
35.958886
40.240884
43.986440
46.926737
46.591759
50.512552
52.969456
52.447915
56.495667
55.730939
59.160590
60.071945
61.611533
62.361956
62.696934
66.393614
66.062808
66.158772
65.324903
65.969825
63.788891
65.022707
64.390898
65.904856
61.880946
62.978864
59.269667
63.312650
57.644844
57.713985
57.360530
60.851574
64.514875
66.336989
68.832636
72.515607
74.642897
75.423717
78.457594
74.260831
72.706938
68.522692
60.681701
54.172873
52.281618
44.737458
39.018989
34.833550
33.356547
30.706525
28.692484
28.818846
26.772618
26.577711
27.328730
25.096536
23.584962
24.977922
24.154782
23.760796
24.762750
##ZVALUE=230
357.777476
391.757488
592.427850
904.650688
1015.870571
1015.870571
1015.870571
1015.870571
979.411006
769.050717
458.241701
292.242765
156.069994
114.175677
91.436505
86.864829
85.953474
80.384612
67.499876
51.804781
39.815903
27.409792
20.861626
14.885664
14.522672
13.034940
14.103651
14.764667
15.535951
17.224550
17.577410
19.428730
22.104979
24.621487
26.098490
30.531883
33.054948
36.690831
40.753484
43.204427
44.972897
49.066544
50.115585
53.627491
56.157708
56.288838
57.312846
58.643818
59.765577
60.055852
61.715841
62.706470
61.550736
63.331723
62.929988
64.056516
63.827634
61.611533
60.541630
62.196851
58.531761
59.146881
56.436658
58.969855
56.939721
55.075884
58.086514
58.991909
60.409904
64.512491
65.807700
68.534613
68.018436
69.911480
69.049597
64.074993
60.601830
52.854419
48.302412
43.974519
40.998459
35.789609
34.382939
30.413866
29.223561
27.467608
26.960969
26.633739
25.551915
24.783611
24.957657
24.318695
24.696589
23.508668
23.774505
21.742582
##ZVALUE=235
72.912574
88.082552
187.307596
430.838466
686.974525
1015.870571
1015.870571
1015.870571
1015.870571
1015.870571
1015.870571
1009.607911
657.945871
432.181954
242.571831
153.361559
106.720924
103.863478
105.976462
103.788972
93.556643
75.483918
60.410500
41.255951
30.949712
21.634698
17.823577
13.803840
14.286637
14.431477
14.394522
17.290711
18.840432
19.659996
22.695661
23.720860
25.675893
29.789805
32.418966
34.220815
35.903454
39.247870
41.153431
43.867826
43.238997
45.083761
45.151711
47.783852
48.427582
48.115849
48.037767
49.839616
49.675703
50.333738
48.530698
49.746633
49.232841
49.070716
48.108697
47.403574
48.007965
46.726465
45.361519
46.344995
43.925643
45.182705
46.049953
47.899485
49.736500
52.207708
53.218603
57.368875
58.092475
56.831837
56.857467
54.594874
51.466823
46.218634
41.111708
37.557483
34.920573
31.350851
29.865503
24.921894
25.504827
24.112463
22.234917
22.533536
21.701455
21.749735
22.268891
22.215843
21.017790
21.340847
20.592809
21.790862
##ZVALUE=240
4.118681
4.609823
21.143556
65.832734
196.305513
370.720625
737.078786
1015.870571
1015.870571
1015.870571
1015.870571
1015.870571
1015.870571
1015.870571
991.850495
592.241883
372.219682
203.397870
137.517452
111.958981
114.935637
115.666986
111.765862
99.194646
79.411864
61.644912
44.575930
33.907890
23.066998
18.245578
17.029643
14.976859
16.616583
16.713738
17.749667
19.244552
20.096898
22.695661
23.078918
24.657845
26.276708
27.746558
28.632879
30.139685
30.936599
31.585693
31.801462
33.145547
33.844709
33.103824
34.517646
35.226941
34.039617
34.425855
33.647418
35.019517
33.761859
34.232736
34.636855
33.392906
33.076406
33.465624
32.826662
32.715797
33.365488
34.156442
33.922791
37.278533
36.680698
40.997863
43.547750
46.179891
47.094822
46.238899
44.701695
42.550564
39.399862
35.874844
33.557415
29.992461
27.333498
24.592876
22.912621
22.351742
21.472573
20.229816
19.653440
19.040704
19.616485
18.182993
18.554926
18.216968
18.866658
17.360449
17.859936
17.126799
##ZVALUE=245
2.803802
2.737641
2.954602
3.581643
8.764863
44.860840
117.407441
328.790545
605.001450
958.122611
1015.870571
1015.870571
1015.870571
1015.870571
1015.870571
1015.870571
1015.870571
950.234532
598.580837
308.260918
176.156759
110.492706
111.244917
120.187998
122.907758
114.187598
104.648471
82.338452
67.246556
48.966408
37.502646
25.560856
19.510984
16.832948
16.666651
17.071962
17.537475
19.144416
19.233823
20.681620
21.188855
21.484494
23.066998
24.210811
23.978949
23.772717
25.096536
25.306940
25.456548
25.730729
25.851727
25.865436
26.069880
27.045608
26.665926
25.109649
25.109649
25.667548
25.578737
25.936961
26.077628
25.944710
25.061965
25.240779
25.175810
26.219487
26.496649
28.562546
30.119419
33.195615
34.891963
36.962628
36.929846
37.018657
35.286546
34.689903
31.845570
30.107498
27.177930
24.603605
22.284985
20.345449
19.786954
18.491745
16.468763
16.943812
16.733408
15.540719
15.798807
15.852451
16.612411
16.154647
15.738606
16.752481
15.731454
15.581846
##ZVALUE=250
2.463460
2.175570
2.560616
2.753735
2.849698
3.456473
5.375743
17.750859
93.014836
214.880705
544.512868
919.619799
1015.810966
1015.810966
1015.810966
1015.810966
1015.810966
1015.810966
1015.810966
1015.810966
864.875913
513.079762
234.785676
133.447647
102.480650
110.512972
123.830438
125.882626
121.116638
112.601519
95.664859
73.597431
56.713820
38.076639
29.355884
22.378564
19.455552
18.768907
19.230843
19.779801
20.151734
21.153688
21.160841
22.223592
23.020506
22.934675
23.730993
23.438931
23.362637
23.750663
24.184585
24.284720
24.829507
24.379492
23.923516
24.548769
23.951530
22.824407
23.681521
24.274588
23.168921
22.815466
22.599697
22.841692
23.011565
23.327470
23.943782
25.088787
26.818514
28.048754
29.740930
31.236410
32.441616
31.684637
30.450821
29.319525
27.525425
25.403500
22.954941
20.986795
18.511415
17.344952
16.143918
15.562773
14.716983
14.953613
14.178753
14.331937
14.307499
14.240742
13.945699
13.655424
13.445616
14.331937
13.122559
13.234615
##ZVALUE=255
2.167821
2.136827
2.410412
2.326965
2.430677
2.759695
2.946854
3.441572
4.048944
9.429455
55.249929
153.761506
330.085754
746.430755
1015.870571
1015.870571
1015.870571
1015.870571
1015.870571
1015.870571
1015.870571
1015.870571
1015.870571
746.926069
352.906585
196.743608
107.050538
97.943544
114.959478
125.243664
131.397843
129.195452
118.645430
98.352432
78.734756
57.533979
44.261813
32.413602
27.299523
23.571849
22.729635
22.503734
23.023486
23.990870
25.142431
24.255514
24.952888
26.332736
26.815534
25.265813
26.117563
26.511550
26.093721
27.068853
26.401877
26.002526
26.010871
25.503635
25.475621
24.782419
24.695992
24.736524
24.297833
23.440719
24.241805
24.347901
24.239421
25.009513
26.655793
27.374625
28.091669
28.677583
29.644966
29.124618
28.244853
25.796890
24.438500
22.180676
20.709634
18.564463
17.981529
15.383959
15.477538
14.381409
14.605522
13.709664
13.521910
12.712479
13.088584
12.413859
12.731552
12.421608
12.402534
12.724996
12.510419
12.393594
##ZVALUE=260
2.007484
1.956820
2.056956
2.065897
2.202988
2.367496
2.389550
2.775788
2.761483
3.190637
3.726482
5.318522
19.008517
90.588927
222.391486
568.313003
953.705907
1015.870571
1015.870571
1015.870571
1015.870571
1015.870571
1015.870571
1015.870571
1015.870571
1012.372971
578.620434
325.529575
144.720674
94.966888
92.030764
114.073753
130.129457
138.216615
135.611892
121.687651
107.896924
83.869696
67.162514
49.430728
40.766597
32.860637
30.100942
28.246641
28.952956
29.324889
29.838681
30.519962
31.182766
31.083822
30.659437
31.921864
30.861497
31.160712
30.620694
30.540824
29.909611
29.844642
29.390454
29.081702
28.463602
27.890801
27.615428
26.896596
26.528835
26.429892
26.490688
27.009845
28.182864
28.932691
28.726459
28.990507
29.654503
27.906895
27.882457
25.088787
23.585558
21.449924
19.825697
18.487573
16.586781
16.102791
15.213490
14.003515
13.710856
13.363957
12.759566
12.969971
12.045503
11.862516
12.052655
11.764765
11.903644
11.414886
11.604428
11.788607
##ZVALUE=265
1.978874
1.847744
2.028942
1.989603
2.049804
2.152920
2.245903
2.502799
2.297759
2.670884
2.783537
3.331900
3.680587
4.405975
9.098649
55.267811
148.490667
411.241651
754.152536
1015.870571
1015.870571
1015.870571
1015.870571
1015.870571
1015.870571
1015.870571
1015.870571
1015.870571
867.380500
489.244461
254.137516
107.986927
83.545446
101.326704
117.777586
137.540698
143.590569
141.851902
131.714940
112.185478
94.470978
72.975755
60.212612
46.590567
41.866899
37.672520
37.038922
37.496686
37.426949
37.407875
38.227439
38.252473
38.304925
38.150549
38.143992
37.108660
35.946965
35.512447
35.831928
34.662485
33.534765
32.844543
31.711459
31.743646
30.494928
31.186938
30.475855
31.062961
30.262470
31.344891
31.564832
31.747818
31.298995
30.011535
28.991699
26.277900
24.390817
22.117496
20.535588
19.168854
16.938448
16.423464
15.860796
14.483929
14.258623
14.071465
13.200641
13.160706
12.675524
12.521744
12.050867
12.008548
11.410713
11.992455
11.101961
11.173487
##ZVALUE=270
1.850724
1.735687
1.949668
2.053976
1.857877
1.926422
2.078414
2.346635
2.322793
2.530813
2.643466
2.602935
2.849698
3.132820
3.715754
4.028678
5.091429
22.554994
75.209737
267.579556
562.908649
980.729461
1015.870571
1015.870571
1015.870571
1015.870571
1015.870571
1015.870571
1015.870571
1015.870571
1015.870571
835.762024
431.303978
147.500634
81.526637
82.518458
101.937652
126.686692
141.876936
152.647495
151.626468
140.662789
125.739574
103.243589
86.157918
65.815449
56.989789
49.765706
47.549605
45.922995
45.726895
44.792891
44.450760
44.185519
44.110417
43.941736
42.694807
42.653680
41.739941
40.782690
39.851665
38.018823
37.229657
35.993457
35.806894
34.560561
34.577847
34.236908
33.936501
34.467578
33.254623
32.953620
33.196807
31.634569
30.480623
27.741790
26.332736
23.591518
22.184849
20.278692
19.042492
17.100573
16.384721
15.860796
15.302896
13.930798
14.474988
13.513565
12.880564
12.081861
12.630820
11.958480
11.797547
11.685491
11.619925
11.236668
##ZVALUE=275
1.818538
1.813769
1.889467
1.979470
2.039671
1.872778
2.131462
2.110600
2.080798
2.193451
2.463460
2.668500
2.603531
2.980828
3.029704
3.169775
3.682971
3.898740
4.431605
10.074973
41.436553
132.597685
428.501964
856.048465
1015.946865
1015.946865
1015.946865
1015.946865
1015.946865
1015.946865
1015.946865
1015.946865
1015.946865
1015.946865
742.989779
276.630521
120.101571
71.986914
84.239841
108.588934
128.704906
146.903992
155.555606
156.549811
147.719979
127.043724
111.180544
91.036558
77.064633
62.880516
57.098866
50.293803
49.475431
48.486590
47.712922
47.418475
46.435595
45.324564
44.877529
44.174790
43.280721
41.951537
40.755868
40.036440
38.569570
36.821961
36.721826
36.130548
35.432577
35.215616
35.305619
35.605431
34.008622
32.788515
31.313896
29.149652
26.598573
24.734735
22.983551
21.285415
19.609928
18.036962
17.058849
16.406775
15.721917
15.100837
14.624000
13.862848
13.207793
12.885928
12.411475
12.062788
12.385845
11.316538
11.290908
11.557937
##ZVALUE=280
1.725554
1.725554
1.721978
1.776814
1.802444
1.714826
1.954436
1.824498
1.882911
2.028942
2.172589
2.450943
2.241731
2.458692
2.622604
2.766848
3.134608
3.158450
3.495812
4.013777
4.455447
5.552769
24.636984
92.895627
327.664614
643.410683
1015.878916
1015.878916
1015.878916
1015.878916
1015.878916
1015.878916
1015.878916
1015.878916
1015.878916
1015.878916
971.188545
429.424644
191.673636
74.554682
67.945719
89.434981
105.554461
130.696893
144.593716
154.602528
153.340697
143.374801
130.979419
108.176470
91.934800
73.535442
63.567758
53.336620
49.275756
46.919584
45.629740
45.535564
43.381453
43.146610
42.377710
41.211843
40.586591
38.815737
38.666725
36.965609
35.978556
35.952926
34.974813
34.420490
34.437776
33.743978
32.226443
31.365752
29.578805
27.267933
26.191473
23.782849
22.331476
20.082593
19.420981
17.918944
17.689466
16.613603
16.129613
14.927983
14.222860
13.480783
13.199449
12.553930
12.945533
12.050867
11.831522
11.312962
11.701584
11.118650
##ZVALUE=285
1.671910
1.555681
1.529455
1.578927
1.692772
1.630783
1.657605
1.621842
1.633763
1.723766
1.777411
2.075434
2.229810
2.254844
2.274513
2.280474
2.452731
2.726912
2.780557
2.938509
3.286600
3.748536
4.023910
4.820824
12.621880
47.618747
142.591596
439.422727
818.601847
1015.870571
1015.870571
1015.870571
1015.870571
1015.870571
1015.870571
1015.870571
1015.870571
1015.870571
1015.870571
613.983870
294.444561
97.261667
55.115819
61.315894
75.504780
101.129413
117.318630
134.769678
144.043565
144.280791
138.555765
123.089552
106.909871
84.309578
69.744587
54.044724
47.133565
41.317940
39.102435
37.763715
36.418438
35.228729
35.646558
34.786463
33.768415
32.879710
32.636523
31.961799
31.870604
31.694770
31.419992
30.269623
29.643774
27.842522
26.951432
24.785995
23.230910
21.719933
20.985603
18.996596
18.121600
17.670989
16.513467
15.331507
15.211701
14.431477
14.195442
13.372898
12.659431
12.343526
11.823773
12.013912
11.468530
11.387467
11.216998
10.712743
##ZVALUE=290
1.396537
1.467466
1.502633
1.613498
1.595616
1.519918
1.587868
1.634955
1.706481
1.687407
1.805425
1.873970
1.799464
1.795888
1.928806
2.087951
2.181530
2.079606
2.366900
2.520680
2.792478
3.099442
3.239512
3.614426
3.980994
4.616976
6.318688
18.798709
99.358559
246.991515
498.227477
1015.870571
1015.870571
1015.870571
1015.870571
1015.870571
1015.870571
1015.870571
1015.870571
1015.870571
1015.870571
883.203745
429.015756
132.508874
55.707693
41.301847
49.815774
67.795515
83.663464
106.808543
120.874643
131.871700
134.181976
126.924515
114.726424
93.665719
77.626705
58.763623
47.507882
37.580729
33.194423
30.108690
28.822422
27.661920
27.309656
26.475787
26.244521
26.661754
26.468635
26.418567
26.320815
25.691986
24.694800
23.944974
23.597479
21.051764
20.093918
18.833876
17.764568
16.993880
15.966892
15.005469
14.430881
13.891459
13.625622
12.983680
12.690425
12.213588
12.414455
11.568666
11.188984
11.205673
11.011958
10.524988
10.326505
10.609627
##ZVALUE=295
1.312494
1.462698
1.355410
1.412630
1.476407
1.539588
1.378655
1.464486
1.585484
1.573563
1.547933
1.657605
1.640916
1.810789
1.820922
2.010465
1.878738
2.200603
2.160668
2.367496
2.449751
2.563596
2.739429
2.939701
3.303885
3.433824
3.933907
4.217625
5.143881
7.502437
27.377605
138.375759
352.167487
912.418962
1015.873551
1015.873551
1015.873551
1015.873551
1015.873551
1015.873551
1015.873551
1015.873551
1015.873551
1015.873551
648.574829
212.503672
82.456470
33.013821
32.477975
44.053793
56.305528
76.515675
91.496706
109.020472
119.002461
121.451616
115.681887
100.451708
86.032748
65.175891
51.670671
37.099719
29.291511
24.076700
21.573901
19.558668
19.847751
19.611716
19.835830
20.228624
20.129681
20.494461
19.735694
19.086599
18.688440
17.263889
16.005635
15.522838
14.421940
13.604760
13.244748
12.958646
12.528896
12.069941
11.725426
11.325479
10.911822
10.819435
10.650754
10.490417
10.217428
9.956956
9.928942
9.560585
9.439588
9.663701
##ZVALUE=300
1.242757
1.240969
1.436472
1.246929
1.264811
1.498461
1.254678
1.548529
1.550913
1.514554
1.512766
1.589656
1.577735
1.648664
1.728535
1.687407
1.918674
1.732707
2.121925
1.919866
2.104640
2.234578
2.315640
2.578497
2.613664
3.073812
3.077984
3.521442
3.818870
4.078746
4.715919
5.501509
17.287731
69.032311
269.136429
577.031970
1015.871763
1015.871763
1015.871763
1015.871763
1015.871763
1015.871763
1015.871763
1015.871763
1015.871763
1015.871763
893.542767
466.618538
149.588585
50.150752
23.669600
26.353598
35.973787
46.895742
65.572858
81.004500
98.312497
106.772780
110.028982
106.468797
92.665553
79.753995
60.055852
47.100782
32.074451
24.321675
19.240975
16.351938
15.676618
15.756488
15.699863
15.626550
15.639663
15.173554
14.538765
13.650656
12.994409
12.443662
11.999607
11.434555
10.883808
10.555983
10.466576
10.150671
10.058880
9.806752
9.935498
9.582639
9.434819
9.157658
9.066463
8.969903
9.288788
8.873940
8.843541
9.070635
##ZVALUE=305
1.170635
1.015663
1.173615
1.171827
1.177788
1.052618
1.133680
1.155734
1.328588
1.190901
1.223683
1.299977
1.184940
1.329780
1.498461
1.354814
1.506805
1.587868
1.649857
1.762509
1.841784
1.735687
2.022982
2.218485
2.345443
2.485514
2.593994
2.780557
2.912879
3.283620
3.475547
3.853440
4.407763
5.040765
7.373691
48.378706
154.698491
486.707687
931.982994
1015.721560
1015.721560
1015.721560
1015.721560
1015.721560
1015.721560
1015.721560
1015.721560
1015.721560
1015.721560
607.079864
279.919505
76.628923
26.327968
18.875599
22.888780
32.192469
42.891502
59.982538
73.050857
89.777708
98.398924
101.651549
98.147988
86.737871
73.166490
54.583549
42.320490
29.583573
22.164583
16.840696
15.233755
13.995767
13.445616
13.049841
12.373924
11.478662
10.919571
10.209680
9.847879
9.806752
9.655952
9.432435
9.084940
9.053946
9.006858
8.777976
8.750558
8.567572
8.471608
8.570552
8.561611
8.308887
8.375645
8.382797
8.445978
8.156896
##ZVALUE=310
1.019835
1.017451
0.980496
0.970960
1.096725
1.238585
1.202822
1.267791
1.234412
1.271963
1.294613
1.266599
1.449585
1.249909
1.381636
1.387596
1.543760
1.516938
1.687407
1.649857
1.780987
1.886487
1.770854
2.019405
2.037883
2.208948
2.271533
2.389550
2.660751
2.817512
2.981424
3.190637
3.267527
3.975630
4.396439
4.790425
5.416870
16.823411
66.445470
271.826982
585.145950
1015.795469
1015.795469
1015.795469
1015.795469
1015.795469
1015.795469
1015.795469
1015.795469
1015.795469
1015.795469
948.186517
511.971712
162.470937
50.495863
16.358495
16.459823
20.203590
26.121736
38.231611
49.812794
66.982508
79.810619
91.058612
95.240474
92.125535
84.663630
70.441961
56.839585
40.792823
30.573606
22.050738
16.958714
13.492703
11.992455
10.473728
9.633899
9.412766
9.026527
8.643866
8.467436
8.318424
8.285642
8.433461
8.240938
8.209944
8.119941
8.070469
8.028746
7.664561
7.831454
7.706881
7.843971
7.908940
7.954836
7.810593
##ZVALUE=315
1.053810
1.011491
1.161695
1.139641
1.144409
1.194477
1.172423
1.095533
1.241565
1.070499
1.090765
1.391768
1.326799
1.423955
1.399517
1.272559
1.498461
1.631975
1.557469
1.589656
1.827478
1.622438
1.815557
1.844764
1.698732
1.975894
2.179742
2.117753
2.446771
2.466440
2.372861
2.625585
2.733469
3.145933
3.462434
3.659725
4.040599
4.618764
5.089641
8.395910
29.855967
152.876377
392.822623
954.384804
1015.870571
1015.870571
1015.870571
1015.870571
1015.870571
1015.870571
1015.870571
1015.870571
1015.870571
1015.870571
710.107684
248.996615
87.071657
20.784736
14.302731
14.977455
17.680526
25.210977
32.792687
47.189593
59.718490
75.683594
85.151792
90.559721
89.253783
79.488754
68.833828
53.661466
41.384697
27.694702
20.343661
13.777614
10.890961
9.009838
8.612871
8.102655
7.831454
7.980466
7.860661
7.743835
7.609725
7.418990
7.420778
7.383823
7.339716
7.548928
7.524490
7.355809
7.506609
7.666945
7.501841
7.399917
##ZVALUE=320
1.022816
0.895858
1.090765
0.963807
1.066923
1.004934
1.190901
1.167655
1.270771
1.191497
1.173615
1.264811
1.211762
1.189709
1.273751
1.317859
1.255870
1.465678
1.489520
1.394749
1.379848
1.530647
1.650453
1.545548
1.694560
1.913905
1.740456
1.895428
2.141595
2.075434
2.070665
2.129674
2.369881
2.495646
2.868772
2.842546
3.143549
3.389716
3.660917
4.336834
4.399419
5.779862
12.208819
75.649023
223.419666
671.214461
1015.871763
1015.871763
1015.871763
1015.871763
1015.871763
1015.871763
1015.871763
1015.871763
1015.871763
1015.871763
938.613415
391.435623
159.416795
34.865737
14.638901
12.712479
13.314486
16.227961
20.892620
31.049848
41.229725
56.676865
69.062710
80.997944
85.529685
84.265471
77.653527
63.479543
51.106811
35.596490
26.195645
16.955733
12.488961
9.214878
8.064508
7.414818
7.295609
7.101893
6.935596
6.932616
6.901622
6.742477
6.940961
6.863475
6.992817
6.807446
7.003546
7.127523
7.107854
7.251501
##ZVALUE=325
0.936985
1.039505
1.080632
1.000762
1.016855
1.045465
1.021624
1.162887
1.099706
1.179576
1.028776
1.089573
1.044869
1.187921
1.287460
1.110435
1.231432
1.184940
1.286864
1.305938
1.323819
1.285672
1.295805
1.553893
1.645684
1.491904
1.512766
1.514554
1.764894
1.869798
1.798868
1.834631
2.097487
2.272725
2.254844
2.319813
2.494454
2.768636
3.060699
3.367662
3.437996
3.857613
4.330873
4.965663
7.364750
46.253800
139.186978
432.306528
846.382976
1015.846729
1015.846729
1015.846729
1015.846729
1015.846729
1015.846729
1015.846729
1015.846729
1015.846729
1015.846729
544.366837
248.292685
60.803890
19.086599
12.094975
11.625886
12.618899
15.001893
20.953417
28.735995
42.292476
53.134561
66.973567
74.881911
79.428554
77.674985
68.506598
59.295893
44.431686
33.756495
21.823645
15.476942
10.690689
8.671880
7.199645
7.006526
6.515980
6.434917
6.410480
6.253719
6.655455
6.480813
6.727576
6.774664
6.760955
6.859899
6.734729
##ZVALUE=330
0.937581
0.865459
0.945926
0.985861
0.981688
1.029968
0.880957
1.028776
0.947714
0.759959
1.139641
1.066923
1.169443
1.072884
1.058578
1.106858
1.139641
1.183748
1.032948
1.250505
1.281500
1.262426
1.332760
1.505613
1.578927
1.452565
1.644492
1.584888
1.527667
1.521707
1.786947
1.772642
1.978874
2.003908
2.204776
2.074838
2.358556
2.458692
2.579689
2.822876
2.844930
3.198981
3.483891
3.512502
4.133582
4.689693
5.430579
18.067956
67.094564
269.614458
577.216744
1015.871763
1015.871763
1015.871763
1015.871763
1015.871763
1015.871763
1015.871763
1015.871763
1015.871763
1015.871763
759.778023
377.484560
117.477775
34.465790
11.845827
10.929704
11.030436
12.169480
15.226603
19.783974
28.179884
37.230849
50.633550
60.366988
70.470572
72.260499
70.831776
64.740777
52.526593
42.206645
29.536486
21.855831
15.066862
11.235476
7.963777
6.900430
6.262660
6.210804
6.228685
6.076694
6.395578
6.448627
6.562471
6.640553
6.661415
##ZVALUE=335
0.906587
0.828505
0.828505
0.892878
1.012683
0.875592
1.101494
0.977516
0.987649
1.016855
1.049638
0.932813
1.112819
0.969768
0.951886
1.005530
1.042485
1.126528
1.265407
1.258850
1.105666
1.260638
1.381636
1.343489
1.344681
1.532435
1.443624
1.480579
1.454949
1.521707
1.602769
1.698732
1.759529
1.996756
1.928806
1.985431
2.020597
2.143979
2.054572
2.318621
2.313852
2.600551
2.805591
3.129840
3.300905
3.600717
3.883839
4.495978
4.916787
8.979440
32.633543
167.999864
409.481525
971.230865
1015.870571
1015.870571
1015.870571
1015.870571
1015.870571
1015.870571
1015.870571
1015.870571
1015.870571
993.714929
571.649671
192.186832
60.886741
14.382601
11.407733
11.176467
11.085868
12.147427
14.137626
18.899441
24.879575
35.575628
44.665933
56.032538
62.848926
67.158937
66.407919
59.488416
51.670671
40.062666
31.034946
21.400452
15.721917
10.955930
8.630753
6.986856
6.486773
6.414652
6.503463
6.583929
6.632805
6.781816
##ZVALUE=340
1.015663
1.061559
1.010895
1.013875
1.125932
1.089573
0.954866
1.164675
0.986457
1.078844
1.164675
1.241565
1.127720
1.083612
1.047850
1.259446
1.188517
1.276731
1.366735
1.355410
1.274943
1.336932
1.388788
1.421571
1.428723
1.423955
1.402497
1.538992
1.680851
1.536608
1.735687
1.710653
1.721978
1.765490
1.790524
1.889467
1.969934
2.209544
2.116561
2.367496
2.512932
2.449751
2.487898
2.787709
3.022552
3.138781
3.461838
3.649592
3.948808
4.319549
4.842877
6.100535
14.926791
90.878606
264.914632
794.098973
1016.023755
1016.023755
1016.023755
1016.023755
1016.023755
1016.023755
1016.023755
1016.023755
1016.023755
1016.023755
738.355517
281.360745
97.864866
20.001531
12.692809
11.670589
11.033416
10.531545
10.698438
12.652874
15.949607
23.277998
30.725002
43.133497
51.736832
60.128570
62.884688
62.106848
57.775974
48.786998
40.434599
29.666424
22.779703
15.373826
11.718869
8.656979
7.839799
7.221699
7.048845
7.126927
##ZVALUE=345
0.848770
0.709891
0.877976
0.879765
0.860691
1.046658
0.991821
0.970960
1.027584
0.988841
1.018643
1.033545
1.128912
1.090765
1.000762
0.980496
1.027584
0.994802
1.064539
1.043677
1.112819
1.163483
1.252890
1.260638
1.223683
1.293421
1.333952
1.440644
1.266599
1.382828
1.433492
1.493692
1.433492
1.601577
1.651645
1.633763
1.855493
1.731515
1.932979
2.001524
1.972914
1.949668
2.156496
2.164841
2.434850
2.575517
2.620816
2.798438
2.906919
3.230572
3.541708
3.977418
4.360676
5.327463
7.722974
46.306849
150.923729
485.710502
948.038697
1015.870571
1015.870571
1015.870571
1015.870571
1015.870571
1015.870571
1015.870571
1015.870571
1015.870571
961.625576
388.130546
159.672499
38.642883
15.756488
12.709498
11.127591
9.642839
8.974671
9.082556
10.320544
15.094876
20.118952
29.374957
37.509799
47.541857
53.578615
58.477521
58.251619
53.996444
48.199892
38.847923
30.737519
21.838546
16.877651
12.150407
9.898543
8.272529
##ZVALUE=350
1.051426
0.935793
0.972748
0.989437
1.041889
1.027584
1.043677
1.008511
1.065731
1.057982
1.128912
1.042485
1.077652
1.057982
1.100898
1.245737
1.133680
1.126528
1.250505
1.228452
1.089573
1.245737
1.168847
1.248717
1.246929
1.302958
1.325607
1.351833
1.361966
1.404881
1.406670
1.494884
1.565814
1.587868
1.695752
1.631975
1.622438
1.636744
1.836419
1.891851
1.879930
1.975894
1.989603
2.166629
2.355576
2.198815
2.369881
2.668500
2.711415
2.784729
2.997518
3.257990
3.604889
3.973842
4.291534
4.659891
5.943775
22.394657
78.342557
294.548869
629.058480
1015.870571
1015.870571
1015.870571
1015.870571
1015.870571
1015.870571
1015.870571
1015.870571
1015.870571
1015.870571
596.894622
256.198645
56.998730
18.067956
11.194944
9.664893
8.407831
7.897615
7.633567
8.133650
10.474920
13.214946
18.554926
24.712682
33.836961
41.200519
49.262643
52.942634
54.101944
51.809549
45.198798
38.738847
29.515624
23.430586
16.759634
##ZVALUE=355
0.971556
0.977516
1.005530
1.138449
1.129508
1.132488
1.066923
1.076460
1.227856
1.003742
0.960827
1.042485
1.211762
1.140833
1.184940
1.056790
1.235604
1.219511
1.252890
1.235604
1.258850
1.324415
1.334548
1.479983
1.234412
1.336932
1.238585
1.388788
1.459718
1.564622
1.510978
1.488924
1.595616
1.658797
1.658797
1.845956
1.605749
1.755953
1.714826
1.755953
1.974702
1.989603
2.178550
2.059937
2.148747
2.236962
2.259612
2.553463
2.598763
2.563596
2.651811
2.940893
3.052950
3.202558
3.686547
3.878474
4.302859
4.662871
5.422831
10.724664
42.541623
198.896527
447.964668
978.859663
1015.870571
1015.870571
1015.870571
1015.870571
1015.870571
1015.870571
1015.870571
1015.870571
1015.870571
805.253983
373.568535
96.354485
27.136803
11.120439
9.637475
8.693933
8.005500
7.715821
7.534623
7.861853
9.235740
12.331605
15.810728
22.371411
28.880835
38.187504
44.682622
49.511790
50.909519
48.664808
45.183897
37.909746
##ZVALUE=360
1.024604
1.075864
0.948906
1.080632
1.072884
1.107454
1.150966
1.039505
1.149774
1.114607
1.077652
1.262426
1.007915
1.031756
1.192689
1.260638
1.097918
1.357794
1.208782
1.207590
1.342893
1.317859
1.253486
1.280904
1.452565
1.433492
1.473427
1.390576
1.495481
1.506805
1.593828
1.560450
1.604557
1.535416
1.665950
1.592636
1.771450
1.807809
1.781583
1.969934
2.008677
1.927614
2.045631
2.150536
2.172589
2.251863
2.159476
2.117753
2.555847
2.578497
2.728701
2.850890
2.886653
3.157854
3.307462
3.524423
3.694892
3.927946
4.393458
4.847646
5.554557
7.671714
25.313497
157.216787
385.389924
923.890471
1015.873551
1015.873551
1015.873551
1015.873551
1015.873551
1015.873551
1015.873551
1015.873551
1015.873551
980.584621
542.668700
179.961920
57.038665
13.293624
9.958744
8.987784
8.373857
7.501841
7.461905
7.222891
7.326603
8.390546
10.294914
14.317632
19.114614
26.971698
32.681823
39.821863
44.545531
47.333837
##ZVALUE=365
1.066923
1.150966
0.980496
1.046658
1.012683
1.050830
1.163483
0.954866
1.116991
1.081824
1.086593
1.110435
1.154542
1.179576
1.194477
1.257658
1.176000
1.266599
1.340508
1.227856
1.157522
1.151562
1.216531
1.389980
1.514554
1.308918
1.336932
1.439452
1.553893
1.467466
1.453757
1.508594
1.428723
1.589656
1.548529
1.742840
1.689792
1.836419
1.635551
1.762509
1.730919
1.860857
1.853704
1.825690
2.021790
2.010465
1.965761
2.066493
2.221465
2.407432
2.319813
2.445579
2.578497
2.696514
2.702475
2.819896
3.112555
3.314614
3.479719
3.847480
4.293919
4.885793
5.404949
6.226897
10.345578
81.761479
266.395807
702.132583
1015.839577
1015.839577
1015.839577
1015.839577
1015.839577
1015.839577
1015.839577
1015.839577
1015.839577
1015.839577
804.952383
279.587507
94.152689
17.417669
9.720922
8.282661
7.778406
7.290840
6.987453
6.530881
6.601810
7.280707
7.964969
10.132790
12.719631
17.700791
22.211671
29.397607
##ZVALUE=370
0.986457
0.981688
0.923872
0.997782
0.846982
0.923872
0.857711
1.034737
1.104474
1.095533
0.981688
0.898838
1.072884
1.077652
1.198649
0.904799
0.944734
1.037717
0.999570
1.216531
1.212955
1.159906
1.183748
1.176000
1.305938
1.072884
1.267791
1.264811
1.370907
1.391768
1.407862
1.377463
1.383424
1.377463
1.425743
1.513958
1.494884
1.414418
1.516938
1.535416
1.628995
1.603961
1.690984
1.600981
1.665950
1.795888
1.764894
1.721978
1.860857
1.846552
2.003908
2.040863
2.085567
2.087951
2.228618
2.362728
2.458692
2.581477
2.729893
2.870560
2.949834
3.503561
3.649592
4.013777
4.467964
4.958510
6.043911
21.201968
79.438686
312.580466
649.610758
1015.870571
1015.870571
1015.870571
1015.870571
1015.870571
1015.870571
1015.870571
1015.870571
1015.870571
982.535481
417.279601
181.503892
44.868588
13.377666
8.182526
7.661581
7.094741
6.985664
6.818771
6.704926
7.140636
7.618666
8.623600
9.838939
12.286901
##ZVALUE=375
0.904799
0.752807
0.774860
0.657439
1.061559
0.855923
0.829697
0.930429
0.910759
0.881553
0.964999
0.876784
0.870824
0.901818
1.070499
1.004934
0.911951
1.020432
0.913739
1.014471
0.924468
1.082420
1.018643
1.128912
1.153946
0.966787
1.131892
1.296997
1.093745
1.183748
1.176000
1.264811
1.119971
1.189709
1.436472
1.296997
1.415610
1.367927
1.361966
1.251698
1.258850
1.388788
1.414418
1.357794
1.337528
1.395941
1.534820
1.682639
1.519918
1.463890
1.502633
1.531839
1.855493
1.720786
1.680851
1.901984
1.901984
2.063513
2.076626
2.184510
2.356768
2.551675
2.727509
2.934933
3.199577
3.825426
4.098415
4.892945
5.534887
11.005998
37.439466
165.180564
410.890579
981.344581
1015.871763
1015.871763
1015.871763
1015.871763
1015.871763
1015.871763
1015.871763
1015.871763
1015.871763
757.969618
376.073718
103.265643
28.439760
9.142756
7.986426
7.674694
7.605553
7.680655
7.887483
8.010864
7.937551
7.965565
##ZVALUE=380
0.764728
0.766516
0.701547
0.832677
0.911951
0.818968
0.749826
0.643730
0.761747
0.717640
0.898838
0.652671
0.713468
0.728965
0.798702
0.712872
0.890493
1.051426
0.711679
0.970960
0.989437
0.897646
0.914931
0.998974
1.102686
0.976920
1.081824
1.104474
1.020432
1.112819
1.236796
1.421571
1.150966
1.267791
1.286864
1.252890
1.162887
1.279712
1.375675
1.342893
1.385808
1.282692
1.203418
1.375675
1.409650
1.367927
1.371503
1.433492
1.546741
1.529455
1.356602
1.435876
1.514554
1.607537
1.661777
1.762509
1.724958
1.933575
1.936555
2.001524
1.938939
2.209544
2.228618
2.596974
2.746582
3.037453
3.508925
3.896952
4.607439
5.117655
5.688667
7.361770
19.307733
106.754899
285.955667
783.465505
1015.870571
1015.870571
1015.870571
1015.870571
1015.870571
1015.870571
1015.870571
1015.870571
1015.870571
992.438793
566.203594
192.169547
64.801574
13.357997
8.846521
8.345842
8.577704
8.531809
8.095503
7.998943
##ZVALUE=385
0.666976
0.770688
0.644922
0.615716
0.678897
0.775456
0.688434
0.748634
0.774860
0.787973
0.836849
0.734925
0.700951
0.848770
0.816584
0.904799
0.757575
0.655651
0.893474
0.851750
0.894666
0.781417
0.913739
1.064539
1.084805
1.046658
0.940561
1.143813
1.247525
1.234412
1.138449
1.128912
1.245737
1.412630
1.289845
1.342893
1.191497
1.376867
1.387596
1.385808
1.386404
1.448989
1.448989
1.451969
1.525879
1.520514
1.506805
1.676679
1.454949
1.472831
1.460910
1.566410
1.485944
1.602769
1.552701
1.750588
1.639724
1.681447
1.750588
1.785755
1.926422
1.864433
2.086759
2.315640
2.373457
2.730489
2.933741
3.428459
3.867745
4.397631
4.259944
4.772544
4.759431
5.165935
9.156466
54.020882
165.349841
511.118770
956.174731
1015.870571
1015.870571
1015.870571
1015.870571
1015.870571
1015.870571
1015.870571
1015.870571
1015.870571
861.029625
356.390476
133.510828
24.509430
10.546446
8.664727
8.486509
7.911921
##ZVALUE=390
0.875592
0.741482
0.831485
0.806451
0.844598
0.768900
0.971556
0.919700
0.903606
0.848770
0.776649
0.853539
0.808835
0.847578
0.771880
0.892878
0.779629
0.844598
0.906587
0.861883
1.203418
0.931621
1.099706
0.989437
1.038909
0.967979
1.148582
1.302958
1.313686
1.399517
1.291633
1.374483
1.391768
1.498461
1.415610
1.465678
1.361966
1.496673
1.482964
1.558661
1.549721
1.518726
1.570582
1.639724
1.614690
1.605749
1.630783
1.705885
1.629591
1.754761
1.735687
1.748800
1.642704
1.740456
1.775622
1.692772
1.760721
1.934767
1.927614
1.997948
1.969934
2.021790
2.192855
2.315640
2.394915
2.722740
3.220439
3.464818
3.673434
4.096627
4.101992
4.261732
4.287958
4.275441
4.253983
4.593730
5.654693
24.940968
94.475746
357.914567
766.313672
1015.998721
1015.998721
1015.998721
1015.998721
1015.998721
1015.998721
1015.998721
1015.998721
1015.998721
1015.998721
539.021492
246.401429
62.637925
17.582774
9.153485
##ZVALUE=395
0.711679
0.643730
0.750422
0.649691
0.701547
0.635982
0.692606
0.656843
0.782609
0.614524
0.670552
0.756979
0.802875
0.672936
0.734925
0.747442
0.741482
0.808835
0.741482
0.770688
0.758767
0.678897
0.956655
0.930429
1.036525
1.041889
0.924468
1.132488
1.133680
1.157522
1.228452
1.156926
1.323819
1.208782
1.452565
1.536608
1.414418
1.420975
1.390576
1.432896
1.445413
1.490712
1.457930
1.518726
1.610518
1.603961
1.569986
1.727939
1.515746
1.660585
1.625419
1.595616
1.562834
1.630783
1.560450
1.725554
1.684427
1.646876
1.807809
1.812577
1.945496
2.108812
2.049804
2.134442
2.286434
2.608895
2.842546
3.087521
3.355742
3.496408
3.571510
3.634691
3.359914
3.433824
3.675818
3.493428
3.757477
4.320741
4.821420
12.619495
51.143765
225.031972
509.682894
1015.869975
1015.869975
1015.869975
1015.869975
1015.869975
1015.869975
1015.869975
1015.869975
1015.869975
1015.869975
854.344964
421.633720
126.382709
##ZVALUE=400
0.767708
0.784993
0.921488
0.776649
0.639558
0.735521
0.776649
0.744462
0.736713
0.804663
0.641942
0.686646
0.873804
0.701547
0.665784
0.758767
0.758767
0.774860
0.966787
0.874996
0.899434
0.653863
0.790954
0.894666
0.851750
0.821948
0.962615
0.971556
0.970960
1.074672
1.077652
1.285672
1.187921
1.133680
1.352429
1.491904
1.460910
1.387596
1.389980
1.432896
1.668930
1.541972
1.525879
1.483560
1.368523
1.499653
1.613498
1.584888
1.657605
1.557469
1.642704
1.587868
1.753569
1.645684
1.772642
1.601577
1.422763
1.666546
1.608729
1.733899
1.798868
1.958609
1.954436
2.255440
2.468824
2.711415
2.828836
3.044605
3.195405
3.170967
3.286600
3.078580
3.090501
2.906919
2.968907
3.080964
3.215671
3.394485
3.630519
4.046559
4.506707
7.719994
26.016831
121.594667
307.381749
811.939836
1015.870571
1015.870571
1015.870571
1015.870571
1015.870571
1015.870571
1015.870571
1015.870571
1015.870571
1014.632583
##END
