##TITLE=C104_R3
##FORMAT=SPECTACLE-ASCII V-1.2
##DATA TYPE=ULTRAVIOLET SPECTRUM
##SECOND TYPE=ULTRAVIOLET SPECTRUM
##DATE=05/28/18
##TIME=13:19:25
##SPECTROMETER/DATA SYSTEM=SPECTACLE
##XUNITS=NM EM
##YUNITS=ENERGY
##YFACTOR=1
##FIRSTX=220
##LASTX=410
##NPOINTS=96
##3DDATA=Equidistant
##ZUNITS=NM EX
##FIRSTZ=210
##LASTZ=400
##ZPOINTS=39
##XYDATA=(Y..Y)
##ZVALUE=210
85.577965
79.322457
51.600933
38.273931
31.794906
27.327538
23.382902
19.248724
17.269850
13.748407
13.974905
12.681484
12.272000
12.641549
13.285875
13.739467
15.841722
14.697909
16.198754
18.514991
20.619631
21.563768
23.293495
27.536750
32.850504
32.936931
37.724972
40.981770
44.283867
45.023561
50.420761
51.963925
52.523613
55.038929
55.023432
54.663420
56.637526
55.110455
57.916641
59.658885
57.199001
57.893991
56.995749
58.824420
60.923696
61.196685
59.039593
62.365532
62.536597
60.474873
65.459609
64.269900
67.374706
65.399408
62.487721
66.543818
63.946843
64.732432
63.250661
62.947869
64.146519
63.099861
66.317916
69.014430
73.117614
76.879859
89.176893
97.776651
122.461915
136.551857
161.205530
169.993639
193.156600
208.214521
214.324594
214.485526
207.633972
196.479559
175.835490
159.561634
131.262541
111.851692
91.187954
79.498887
68.037510
59.984922
54.448843
55.667758
60.802698
69.003701
91.703534
117.157698
168.754458
212.696791
285.513997
338.153839
##ZVALUE=215
354.797840
334.592462
251.136422
153.916478
106.485486
67.462921
50.945878
41.477680
38.816929
33.574700
29.700994
23.515821
20.104647
16.779900
15.245676
13.526678
15.431643
15.296936
15.880466
18.700957
17.686486
20.166636
23.173690
26.273727
28.907657
32.439828
34.557581
39.227605
42.539835
45.696497
49.341917
51.249862
53.306818
52.584410
54.552555
58.117509
60.289502
58.748722
55.953860
58.881640
61.409473
59.902668
62.489510
61.551929
59.938431
61.776638
65.121651
67.782998
67.195892
67.013502
67.969561
68.475604
70.316792
70.574880
70.237517
71.944594
71.254969
71.260929
65.676570
69.461465
69.970489
68.230629
69.444776
70.073605
69.988966
78.260899
80.183744
91.814995
103.387833
118.170977
134.474635
146.109462
158.627629
165.637732
164.162517
164.597631
159.590840
141.806602
125.324726
114.775896
96.790791
82.477927
74.833632
65.804720
56.644678
53.659678
48.319697
48.061609
45.175552
46.072602
43.730736
41.113496
44.701695
54.158568
69.632530
100.968480
##ZVALUE=220
805.405974
810.748935
763.031840
614.811778
486.465693
328.272581
215.858817
123.954415
80.986619
60.627460
54.245591
48.506856
42.190552
39.199591
30.229688
25.307536
19.891858
17.273426
15.236735
15.146732
17.234683
17.071962
18.673539
21.063685
23.350716
25.494695
26.645660
30.206442
32.091737
34.907460
36.505461
39.487481
40.380955
42.831898
45.868754
50.438643
49.624443
50.756931
53.403974
54.253936
58.590770
60.029626
62.470436
62.813759
63.565969
62.593818
68.172812
67.801476
68.006516
72.600842
70.433617
71.791410
71.646571
74.653625
74.227452
72.965622
75.256824
76.135993
74.547529
74.182749
75.423717
71.565509
69.094896
72.074533
70.794821
76.735616
80.286860
91.811419
98.310709
107.917786
116.596818
129.425526
134.142637
142.517686
143.558979
135.189891
129.747987
120.181441
108.148456
96.119642
85.776448
72.833896
66.694617
55.665970
52.103996
48.386455
45.786500
42.659640
41.803718
40.607452
42.730570
36.812425
38.814545
37.713647
37.734509
36.211610
##ZVALUE=225
946.409702
980.494022
1015.870571
1015.870571
1015.870571
1015.870571
900.921822
596.517920
383.538008
245.923996
125.400424
87.667704
72.597861
69.771409
64.276457
56.420565
46.438575
35.741925
28.351545
22.767782
19.902587
17.737746
17.437935
18.762946
19.694567
22.432804
22.820830
23.170710
25.223494
27.105808
27.483702
30.022860
31.698942
34.601688
37.053823
38.688779
44.225454
46.493411
48.512816
53.080916
55.221915
57.586432
61.086416
59.457421
65.146685
67.837834
69.407821
71.507692
72.309971
74.231625
77.459812
75.823665
76.442957
76.874495
77.778697
79.786777
77.169538
75.953603
75.256824
74.352622
75.816512
75.656772
75.623989
76.367855
76.866746
78.733563
79.524517
89.925528
93.402863
104.638934
109.967589
116.499662
123.227835
129.794478
122.135878
117.789507
111.307502
103.820562
93.495846
81.039667
72.061419
65.466762
58.789849
51.702857
50.141811
42.889714
44.624805
40.757656
39.092898
37.767887
37.668943
36.585927
38.129687
35.605431
34.408569
34.507513
##ZVALUE=230
536.574721
597.145557
897.420645
1015.870571
1015.870571
1015.870571
1015.870571
1015.870571
1015.870571
1015.870571
719.396472
436.862707
217.957497
139.023662
100.645423
94.972849
91.830492
83.012581
71.735978
59.547424
43.599606
33.135414
24.357438
21.794438
19.803643
19.879937
20.460486
21.346807
21.503568
22.363663
24.198890
26.600957
26.109815
29.469728
33.601522
35.800934
38.744807
42.310953
45.547485
49.025416
51.159859
53.087473
57.954788
59.347749
61.177611
63.533783
65.760612
66.632628
69.464445
70.368648
71.325898
74.030757
72.239637
74.136853
73.471665
73.421597
74.088573
74.127913
74.066520
75.515509
70.810914
71.279407
69.315434
71.756840
72.375536
75.013638
78.810453
80.904961
87.017417
95.233917
100.773573
107.779503
108.935833
109.955668
108.484626
106.821656
100.283623
88.655949
80.710649
71.732998
64.782500
58.533549
53.422451
46.112537
43.504834
40.384531
38.075447
36.583543
37.710667
35.116673
35.723448
35.261512
34.517646
32.330751
32.882690
31.174421
##ZVALUE=235
113.265514
139.460564
289.416909
679.358840
1015.870571
1015.870571
1015.870571
1015.870571
1015.870571
1015.870571
1015.870571
1015.870571
1015.870571
734.723806
379.889011
221.124887
127.448440
113.248825
112.938881
107.453465
101.884604
81.265569
67.594647
47.536492
36.992431
26.633739
23.960471
22.971630
21.498799
21.498799
22.397637
23.933649
25.905967
27.387738
28.468966
30.879974
32.514930
35.890937
38.798451
40.969849
43.477416
44.428706
46.799779
49.806833
50.724745
52.553415
53.668618
53.923726
54.743886
57.367682
59.030652
56.330562
59.192777
60.219765
60.028434
58.414936
58.627725
58.856606
58.140755
57.485700
60.346723
58.199763
56.982636
57.464838
57.775974
59.522986
62.163472
67.650676
72.636604
79.056621
80.946684
90.023875
91.937780
95.092654
90.361834
86.584687
80.991983
74.283481
67.101717
59.891939
56.195855
45.913458
44.133663
38.769841
38.810968
36.632419
34.361482
33.170581
31.386614
32.321811
29.475689
30.267835
30.665994
29.905438
28.649569
29.234886
##ZVALUE=240
5.880594
6.851554
21.350980
103.872418
250.523686
608.684421
987.840891
1015.870571
1015.870571
1015.870571
1015.870571
1015.870571
1015.870571
1015.870571
1015.870571
1015.870571
558.173656
323.717594
195.045471
125.667453
122.053623
123.536587
121.860504
104.792714
86.660981
66.569448
53.138733
38.391948
31.176805
25.230646
23.588538
21.972656
23.178458
23.546815
24.182796
26.094913
27.366877
27.656555
28.383732
31.446815
33.821464
35.114884
34.115911
35.677552
36.517978
38.812757
39.464831
39.149523
39.827824
41.852593
41.587949
43.361783
41.710734
43.141842
41.430593
41.604638
42.176843
41.926503
41.807890
41.891932
40.267706
40.731430
39.668679
41.350722
41.639805
43.948889
46.231747
50.878525
55.218935
60.875416
64.061880
70.641637
73.968768
73.622465
73.694587
69.983602
64.400434
56.869984
52.543879
45.767426
40.467978
37.815571
34.116507
32.093525
30.487776
27.956963
27.038455
28.117895
27.023554
26.532412
24.285913
25.783777
25.233626
24.890900
25.333762
24.306774
##ZVALUE=245
3.823638
3.793836
4.352927
4.944801
11.580586
61.951876
163.315535
477.605462
887.305737
1015.870571
1015.870571
1015.870571
1015.870571
1015.870571
1015.870571
1015.870571
1015.870571
1015.870571
990.927815
494.467616
256.039500
131.699443
117.558837
127.877593
132.369995
123.010874
112.106800
91.952682
74.802637
59.438944
42.413473
33.783913
26.712418
23.326874
23.540854
23.059845
23.628473
24.442673
24.809837
25.759935
26.400685
26.688576
27.413964
28.031468
28.730631
29.268861
29.259920
30.143857
29.985905
30.839443
31.781793
31.149983
31.507611
31.315684
31.216741
30.342937
31.620860
31.669736
31.299591
31.539798
30.733943
30.407906
30.241609
30.261874
31.016469
31.139851
34.281611
36.603808
40.696859
43.980479
49.417615
51.305890
55.526495
55.141449
54.872632
51.827431
48.668981
44.209957
38.906932
35.691857
30.233860
27.783513
26.147962
23.913980
23.383498
21.274686
20.884871
21.526814
21.363497
20.473599
20.551682
20.103455
20.392537
19.315481
18.783808
19.072890
##ZVALUE=250
3.435612
3.720522
3.570914
3.898740
3.915429
4.842877
6.464720
32.320619
105.775595
350.901484
717.352629
1015.870571
1015.870571
1015.870571
1015.870571
1015.870571
1015.870571
1015.870571
1015.870571
1015.870571
1015.870571
778.509974
312.429667
162.168741
110.999942
117.303729
127.536654
132.668614
127.706528
114.159584
99.700689
77.198744
61.270595
43.893456
34.186840
27.167797
24.309754
23.268461
22.512674
23.750663
23.681521
25.715828
24.828911
26.159883
26.711822
27.175546
26.898980
27.891994
27.467608
28.596520
28.148890
28.130412
28.171539
28.883815
28.082728
27.502775
28.299689
28.537512
27.618408
27.380586
28.148890
27.218461
26.830435
26.579499
26.556849
27.984977
29.890537
30.898452
33.528805
38.396716
41.229725
42.391419
45.976639
46.663880
46.785474
43.003559
40.086508
35.525560
32.809973
27.796626
25.161505
23.310781
20.550489
20.312667
18.891692
18.171668
18.243790
17.544627
17.398000
17.265677
16.588569
17.278790
16.655922
16.679764
17.331839
16.817451
##ZVALUE=255
2.882481
3.200769
3.292561
3.224611
3.370643
3.748536
4.050732
4.540682
5.812645
15.062690
87.108016
229.921937
503.054857
1015.870571
1015.870571
1015.870571
1015.870571
1015.870571
1015.870571
1015.870571
1015.870571
1015.870571
1015.870571
1015.870571
546.442866
283.988714
133.390427
105.833411
117.699504
129.926801
136.429667
132.834911
123.054981
103.380680
84.187984
61.389804
48.646927
35.673976
29.544830
26.362538
26.423931
25.645494
26.641488
26.328564
26.467443
27.653575
27.773976
28.339624
28.329492
29.127598
28.604865
28.931499
29.505491
29.028654
28.814673
28.815866
28.676987
28.454661
28.065443
27.355552
27.645826
26.981831
26.088953
26.934743
26.159883
27.249455
28.454661
30.248761
31.623840
33.989549
36.318898
38.536787
39.955974
39.717555
38.893819
35.738945
34.162998
29.722452
28.483868
24.315715
22.166967
19.617677
18.738508
17.615557
17.146468
16.119480
15.929937
15.024543
15.327930
14.775991
15.150905
14.890432
14.938712
14.577508
14.044642
14.303923
##ZVALUE=260
2.877712
2.919436
2.821684
3.186464
3.254414
3.407598
3.635883
3.858805
4.292727
4.647970
5.612969
8.242726
34.788847
165.095329
390.959978
945.326686
1015.878916
1015.878916
1015.878916
1015.878916
1015.878916
1015.878916
1015.878916
1015.878916
1015.878916
1015.878916
848.127604
443.986654
175.834894
105.083585
99.378824
118.820667
132.975578
141.283870
140.086412
125.078559
111.496449
86.831450
70.721507
52.140951
42.822957
35.449862
32.230616
30.417442
30.653477
31.335950
31.381845
31.465888
32.421947
33.177733
33.443570
32.487512
33.539534
33.038855
33.205748
32.308698
33.249855
32.832623
30.925870
30.758977
30.148625
30.232668
29.674768
28.648973
28.328896
28.606653
29.226542
30.055642
31.002760
33.592582
35.296679
36.028624
36.882758
36.572814
35.593510
32.441616
29.966831
27.678609
24.032593
21.606684
20.444989
18.292665
17.134547
16.395450
15.346408
15.247464
14.312863
14.213920
14.297962
13.370514
13.549924
13.126731
13.144612
12.716651
12.838840
12.998581
##ZVALUE=265
2.599955
2.685785
2.529621
2.842546
3.108978
3.124475
3.356934
3.460646
3.747940
4.169941
4.154444
4.778504
5.690455
6.190538
19.368529
80.950856
326.917768
680.892467
1015.870571
1015.870571
1015.870571
1015.870571
1015.870571
1015.870571
1015.870571
1015.870571
1015.870571
1015.870571
1015.870571
643.472672
321.585536
120.135546
89.087486
105.922818
122.778416
141.262412
147.132874
142.498612
133.175850
113.336444
95.375776
73.290467
60.775876
47.071576
41.469932
38.015842
37.240982
37.919879
37.483573
39.319992
38.073659
38.764477
39.358735
38.347840
38.954616
38.814545
37.552714
36.962628
36.860704
36.642551
36.320686
33.934712
33.194423
32.592416
32.361746
33.126473
32.837987
33.632517
34.588575
36.469698
37.116408
38.947463
38.055778
38.029552
36.932826
33.966899
31.184554
27.892590
25.567412
21.952987
20.572543
18.514991
17.700791
16.665459
15.571713
15.110970
14.860630
14.409423
14.457703
13.846755
13.751984
13.330579
12.654662
13.091564
12.668967
12.232661
##ZVALUE=270
2.332926
2.425909
2.522469
2.591610
2.799630
2.901554
2.916455
2.976656
3.457665
3.538728
3.838539
4.239678
4.343987
4.825592
5.121827
6.074905
7.718801
36.568642
130.557418
504.447818
987.151861
1015.840769
1015.840769
1015.840769
1015.840769
1015.840769
1015.840769
1015.840769
1015.840769
1015.840769
1015.840769
949.628949
505.999923
113.339424
85.862875
102.161765
105.727911
129.400492
142.203569
150.732994
150.101781
142.893791
123.467445
106.333494
84.450841
69.313645
56.441426
48.851967
47.943592
45.697689
46.109557
44.782758
44.700503
44.781566
44.355989
44.845939
44.387579
42.816997
42.728782
41.383505
40.755868
39.505959
38.822889
37.657619
37.195683
35.788417
36.975741
37.408471
37.777424
39.194822
39.666891
40.463805
40.056705
38.579702
37.667751
34.587979
32.597780
28.905869
26.572943
23.083687
21.848679
19.275546
18.795729
17.210841
16.693473
15.749931
15.488863
14.913678
14.515519
13.748407
13.522506
13.139844
12.883544
12.296438
12.594461
12.200475
##ZVALUE=275
2.410412
2.379417
2.446771
2.510548
2.911687
2.674460
2.899766
2.817512
2.875924
3.002882
3.326535
3.670454
4.023910
4.228950
4.565716
4.788637
5.498528
6.029606
6.666780
17.346740
74.229836
236.569643
791.883469
1015.870571
1015.870571
1015.870571
1015.870571
1015.870571
1015.870571
1015.870571
1015.870571
1015.870571
1015.870571
1015.870571
848.531723
305.489898
136.009455
74.947476
85.884929
110.535622
128.297806
148.211718
157.079697
155.966878
146.605968
128.115416
112.730861
91.383457
77.712536
63.923001
57.549477
51.906705
50.425529
49.160719
48.671961
48.438907
47.487617
47.395825
46.531558
44.901967
44.652820
42.698979
41.865706
41.033626
40.067434
39.482713
40.059686
39.469600
40.032864
40.681958
40.632486
42.121410
41.265488
40.123463
38.805604
35.049915
32.983422
29.689670
26.961565
23.965836
22.686720
20.126700
18.835664
17.887950
16.799569
15.778542
15.635490
14.913678
14.631748
14.023781
13.740659
13.386607
12.914538
12.419820
11.903644
11.943579
##ZVALUE=280
2.239943
2.434850
2.410412
2.411604
2.494454
2.742410
2.668500
2.867579
2.938509
2.821684
3.300905
3.352761
3.416538
3.653765
4.028678
4.236698
4.539490
5.004406
5.315542
6.522536
6.888509
8.404851
40.382743
158.897042
580.249429
1015.874743
1015.874743
1015.874743
1015.874743
1015.874743
1015.874743
1015.874743
1015.874743
1015.874743
1015.874743
1015.874743
1015.874743
517.905951
218.180418
80.727935
71.873665
91.836452
109.143853
134.133697
147.063732
156.278610
156.203508
146.336555
132.286549
110.669732
93.900561
75.683594
65.757632
56.424737
51.842928
48.698783
47.870874
46.924949
46.044588
45.296550
43.933988
42.847991
42.502880
40.747523
39.740801
39.430857
38.749576
39.001703
38.767457
39.310455
39.280653
39.459467
38.750768
37.816763
36.101937
33.026934
30.757785
28.097630
26.330948
23.459792
21.435618
19.853711
18.845797
17.852783
16.924739
16.254783
15.567541
15.152693
14.409423
13.641715
13.862848
13.251901
12.770891
12.293458
12.002587
12.035966
##ZVALUE=285
2.384782
2.160668
2.347827
2.493858
2.490878
2.744794
2.589822
2.580881
2.820492
2.820492
3.028512
3.019571
3.248453
3.297925
3.537536
3.673434
3.982782
4.105568
4.525781
4.890561
5.318522
6.273985
6.990433
8.569956
18.310547
108.066797
297.891498
874.252915
1015.870571
1015.870571
1015.870571
1015.870571
1015.870571
1015.870571
1015.870571
1015.870571
1015.870571
1015.870571
1015.870571
913.993716
420.306921
123.695731
63.725710
67.719817
81.334710
104.984641
120.739937
139.660835
148.534775
149.672627
142.650604
126.929879
110.392570
88.327527
73.275566
57.928562
50.317645
44.930577
42.242408
40.775537
40.197968
38.547516
38.389564
36.786795
36.774874
35.728812
35.483837
35.688877
35.868883
36.411881
36.205649
35.967827
35.540462
34.045577
32.358766
29.862523
27.929544
25.472641
23.143888
21.823645
20.355582
18.842816
18.078685
16.593933
16.332865
15.445948
15.054941
14.610887
13.998747
13.265610
13.053417
12.566447
12.106895
12.089610
11.902452
11.717677
##ZVALUE=290
2.210736
2.188683
2.092719
2.190471
2.399683
2.257824
2.429485
2.608895
2.277493
2.760887
2.789497
2.857447
2.864599
2.979636
3.193617
3.329515
3.634691
3.767610
3.872514
4.241467
4.710555
4.975796
5.546808
6.212592
7.104874
7.632971
10.402799
30.740499
173.085928
439.437628
1015.871763
1015.871763
1015.871763
1015.871763
1015.871763
1015.871763
1015.871763
1015.871763
1015.871763
1015.871763
1015.871763
1015.871763
639.484525
263.143778
71.317554
47.636628
57.566762
70.858002
90.671778
108.398795
127.318501
136.134624
137.590766
132.432580
116.424561
101.017952
77.813864
63.311458
49.201846
41.126609
35.136938
33.061504
31.158924
30.278563
29.507875
29.350519
28.895736
29.683709
29.943585
30.702949
30.833483
30.621886
29.846430
29.027462
27.501583
25.724769
23.499727
21.704435
19.560456
18.892884
17.416477
16.717911
15.955567
15.560985
14.492869
14.006495
13.386607
13.109446
12.920499
12.670755
12.116432
12.034774
11.379719
11.170506
11.093616
10.971427
##ZVALUE=295
1.931787
2.084970
1.912713
1.961589
1.998544
2.152920
2.070665
2.270937
2.440810
2.298951
2.374649
2.421737
2.510548
2.645850
2.709627
2.825856
2.867579
3.150702
3.223419
3.408790
3.694892
3.865957
4.193783
4.659891
4.979968
5.796552
6.489754
7.520914
8.257627
16.061664
57.670474
285.805464
684.313774
1015.870571
1015.870571
1015.870571
1015.870571
1015.870571
1015.870571
1015.870571
1015.870571
1015.870571
1015.870571
1015.870571
967.150927
347.368717
124.587417
40.763617
38.998723
49.582720
61.439872
80.977678
96.017718
113.867521
122.135878
124.945641
119.044781
103.209615
89.237690
68.825483
54.533482
39.740801
32.134652
25.870800
23.369789
22.026896
21.518469
21.860600
22.560954
23.699999
24.118423
24.085641
23.935437
23.480654
21.831989
19.833446
18.788576
16.875863
16.313791
14.801621
14.302731
13.468862
12.990832
12.574792
12.400746
11.828542
11.370778
11.201501
11.104941
11.057854
10.824800
10.493994
10.115504
10.392666
9.909868
10.014772
##ZVALUE=300
1.835823
1.822710
1.963973
1.824498
1.940727
2.024770
1.981854
2.037883
2.164841
2.195835
2.356768
2.385974
2.484918
2.460480
2.604723
2.516508
2.716780
2.972484
3.055930
2.992749
3.002882
3.482699
3.544688
3.865957
4.059672
4.542470
4.942417
5.397797
6.151795
6.801486
7.493496
8.716583
24.786592
103.969574
440.513492
933.015943
1015.870571
1015.870571
1015.870571
1015.870571
1015.870571
1015.870571
1015.870571
1015.870571
1015.870571
1015.870571
1015.870571
763.511062
223.839879
72.264671
30.375719
31.820536
41.109920
51.050782
68.678856
83.178878
100.696683
109.472871
112.299919
109.252930
95.683932
81.086755
61.964989
48.669577
33.829808
26.969910
20.431876
19.021630
18.508434
18.777847
19.522905
20.026565
19.440651
18.826723
17.623901
16.393661
14.769435
14.209747
12.858510
12.279749
11.737943
11.327863
11.032820
10.766983
10.495782
10.404587
10.173917
10.076761
9.896755
9.582639
9.599924
9.394884
9.164810
9.294748
8.875728
9.044409
##ZVALUE=305
1.596808
1.739860
1.835823
1.804829
1.646876
1.765490
1.733899
1.815557
1.948476
1.917481
1.992583
2.074838
2.086759
2.219677
2.268553
2.695918
2.205968
2.444983
2.502799
2.871752
2.915859
2.995729
3.061891
3.627539
3.526807
3.888607
4.024506
4.227757
4.918575
4.918575
5.470514
6.284714
6.682873
8.113980
11.842847
68.322420
221.975446
735.969543
1015.868783
1015.868783
1015.868783
1015.868783
1015.868783
1015.868783
1015.868783
1015.868783
1015.868783
1015.868783
1015.868783
954.646468
464.283824
118.524432
38.326979
24.858713
27.659535
36.713481
47.092438
63.034892
76.066852
93.396902
101.078749
104.611516
100.753903
88.887811
76.520443
56.761503
44.390559
31.733513
24.863482
20.106435
18.644929
17.702579
17.080903
16.584992
15.668869
14.105439
13.105869
11.831522
11.369586
10.424852
10.387897
9.933710
9.978414
9.364486
9.670854
9.291768
9.388924
9.061694
9.089708
8.666515
8.886456
8.351803
8.664727
8.631945
8.379817
8.353591
##ZVALUE=310
1.557469
1.767874
1.741648
1.719594
1.651645
1.692772
1.718998
1.749992
1.786947
1.970530
1.855493
1.841784
2.015829
2.008677
1.964569
2.138615
2.304912
2.356768
2.337694
2.536774
2.577901
2.815723
2.843738
2.978444
3.046989
3.394485
3.528595
3.669858
4.008412
4.257560
4.565716
4.877448
5.245805
6.022453
6.606579
7.173419
8.535981
28.918982
110.313892
438.826680
929.782987
1015.870571
1015.870571
1015.870571
1015.870571
1015.870571
1015.870571
1015.870571
1015.870571
1015.870571
1015.870571
1015.870571
793.047547
246.094465
74.235797
22.397637
21.448731
24.667978
30.103922
40.861964
52.479506
70.381761
82.039833
92.817545
97.609758
95.165968
87.285638
72.416663
59.375763
43.806434
33.918619
25.680661
20.826459
16.263723
14.560819
12.714863
11.849999
10.446906
9.958744
9.588599
8.933544
9.188652
8.899570
8.697510
8.670688
8.586645
8.493662
8.485913
8.216500
8.132458
8.129478
8.186698
7.933974
8.012652
8.189678
7.926822
##ZVALUE=315
1.387596
1.465678
1.485944
1.576543
1.467466
1.542568
1.573563
1.750588
1.666546
1.588464
1.775622
1.629591
1.902580
1.824498
1.930594
1.946688
1.959801
2.172589
2.241731
2.256632
2.345443
2.563000
2.582669
2.775788
2.882481
2.806783
3.075600
3.116727
3.400445
3.395677
3.666878
3.923774
4.182458
4.704595
4.861951
5.571842
6.205440
7.002950
7.687807
13.370514
50.456524
254.583955
617.657900
1015.845537
1015.845537
1015.845537
1015.845537
1015.845537
1015.845537
1015.845537
1015.845537
1015.845537
1015.845537
1015.845537
994.759798
368.368626
124.053955
28.504729
19.028783
19.130707
21.300912
27.781725
35.822988
49.120784
61.785579
77.776909
86.849928
92.253685
91.066957
82.846880
72.274804
56.790709
44.957995
30.628443
22.658706
15.703440
12.783408
10.482669
9.365678
8.764863
8.250475
8.075833
8.076429
7.992983
8.200407
7.766485
7.677674
7.791519
7.683635
7.533431
7.385612
7.627606
7.564425
7.628798
7.485747
7.435679
##ZVALUE=320
1.462698
1.353621
1.380444
1.441836
1.480579
1.493692
1.500845
1.555681
1.644492
1.705885
1.725554
1.654625
1.721978
1.664758
1.709461
1.833439
1.752973
2.003908
2.166629
2.075434
2.167821
2.182722
2.370477
2.369881
2.599955
2.726912
2.563596
2.821684
3.045797
3.106594
3.231764
3.168583
3.529787
3.716946
4.068613
4.387498
4.840493
5.406737
5.650520
6.474853
7.100701
8.751750
19.834042
130.566955
374.783874
996.205807
1015.870571
1015.870571
1015.870571
1015.870571
1015.870571
1015.870571
1015.870571
1015.870571
1015.870571
1015.870571
1015.870571
619.102716
255.201459
55.423975
20.554662
16.855597
17.079711
19.385815
23.552775
33.871531
43.795705
60.029626
72.061419
84.529519
89.257956
87.871552
81.240535
66.229701
53.689480
37.882924
27.699471
18.475652
13.796687
9.965897
8.880496
8.068681
8.079410
7.698536
7.464886
7.523894
7.206798
7.147789
7.173419
7.140636
7.100701
7.298589
7.248521
7.383823
7.421970
7.095933
##ZVALUE=325
1.407862
1.396537
1.440644
1.492500
1.431704
1.463890
1.549721
1.362562
1.539588
1.553893
1.538992
1.683831
1.820922
1.635551
1.678467
1.580715
1.861453
1.728535
1.833439
2.083778
1.888871
2.074838
2.073646
2.209544
2.338886
2.494454
2.453923
2.560616
2.532601
2.653599
2.789497
2.946854
3.397465
3.311634
3.555417
3.883839
3.913641
4.329681
4.698634
5.031824
5.705953
6.224513
6.867647
8.193851
12.164712
79.327822
239.899755
729.296803
1015.871763
1015.871763
1015.871763
1015.871763
1015.871763
1015.871763
1015.871763
1015.871763
1015.871763
1015.871763
1015.871763
929.796696
430.024862
99.844933
28.563738
16.982555
15.976429
16.458631
18.777847
24.779439
32.467842
46.576858
57.657957
70.641637
78.396797
83.559752
81.119537
71.613789
61.462522
46.457648
35.282969
23.381710
16.776919
11.623502
9.669662
8.212924
7.865429
7.412434
7.224679
7.177591
7.320642
6.934404
7.034540
6.970763
7.069707
7.169843
7.069707
7.054806
##ZVALUE=330
1.360774
1.369715
1.253486
1.246929
1.228452
1.428723
1.400709
1.474619
1.516938
1.318455
1.542568
1.596808
1.505613
1.552701
1.738667
1.621842
1.640916
1.872778
1.767874
1.840591
1.841784
1.965761
2.095699
1.996756
2.251863
2.221465
2.270937
2.411604
2.578497
2.539754
2.846718
2.705455
2.874732
2.935529
3.212690
3.404617
3.400445
3.799796
3.979802
4.312992
4.518628
4.994869
5.444884
5.807877
6.400943
7.628798
8.896589
32.857656
120.190382
459.633470
944.916010
1015.870571
1015.870571
1015.870571
1015.870571
1015.870571
1015.870571
1015.870571
1015.870571
1015.870571
1015.870571
1015.870571
693.000555
207.191706
58.274865
17.880797
16.066432
15.660524
16.424656
19.990802
24.420619
32.943487
41.485429
54.378510
64.007640
72.351694
75.268745
73.149800
66.702962
54.284930
43.879747
31.174421
23.148656
16.435981
12.493730
9.288788
8.057952
7.346869
7.289648
7.112622
7.029772
7.220507
6.886721
6.986856
7.029772
7.191896
##ZVALUE=335
1.381636
1.370907
1.295805
1.301765
1.302958
1.452565
1.314878
1.474619
1.521707
1.432896
1.421571
1.515746
1.411438
1.564622
1.388788
1.691580
1.690984
1.749992
1.537800
1.785755
1.694560
1.890659
1.802444
2.053976
2.010465
2.112985
2.147555
2.322793
2.210736
2.410412
2.575517
2.524853
2.647638
2.857447
2.769828
3.087521
3.256798
3.345609
3.411770
3.569722
3.810525
4.112720
4.330873
4.980564
5.111694
5.760789
6.161928
7.078648
7.952452
14.593005
54.625869
269.040465
633.442998
1015.870571
1015.870571
1015.870571
1015.870571
1015.870571
1015.870571
1015.870571
1015.870571
1015.870571
1015.870571
1015.870571
1015.870571
387.328863
118.385553
22.366643
17.136931
16.473532
16.349554
17.482638
18.935800
23.045540
28.649569
38.688779
47.177672
58.155656
65.133572
69.231987
68.103671
61.055422
53.261518
41.159987
32.799840
22.577643
16.998649
11.539459
9.619594
7.769465
7.419586
6.952882
7.129908
7.121563
6.951690
7.112622
##ZVALUE=340
1.218915
1.212955
1.119971
1.257658
1.087785
1.321435
1.286864
1.199841
1.448989
1.389980
1.414418
1.440644
1.351833
1.482964
1.552701
1.547933
1.518726
1.473427
1.497865
1.595616
1.644492
1.792908
1.723766
1.667738
1.893640
1.906753
1.839995
1.884699
1.860857
2.124906
2.015829
2.324581
2.318621
2.286434
2.488494
2.569556
2.759695
2.875924
2.945662
3.150702
3.182888
3.490448
3.611445
3.866553
4.096627
4.522800
4.666448
5.114675
5.744696
6.513596
7.244945
9.153485
22.577643
136.023760
392.624736
1010.368466
1015.870571
1015.870571
1015.870571
1015.870571
1015.870571
1015.870571
1015.870571
1015.870571
1015.870571
1015.870571
1015.870571
526.181459
179.271698
31.880736
18.306971
16.952753
16.142726
15.156865
14.718771
15.890598
18.792748
25.434494
33.451915
44.579506
52.867532
61.454773
64.150691
63.429475
58.995485
49.732924
41.597486
30.555725
23.646951
16.183853
12.182593
9.219646
8.308887
7.505417
7.373691
7.229447
##ZVALUE=345
1.310706
1.307726
1.314878
1.268983
1.335740
1.211762
1.231432
1.289845
1.222491
1.298785
1.271963
1.235604
1.426935
1.276731
1.403689
1.431704
1.426935
1.444817
1.388788
1.462698
1.658797
1.646876
1.594424
1.715422
1.784563
1.832843
1.766682
1.720786
1.921654
1.921654
1.834631
2.005696
2.212524
2.115965
2.175570
2.125502
2.399683
2.469420
2.599955
2.726912
2.646446
2.900958
3.005862
3.311634
3.461838
3.645420
3.869534
4.048944
4.358888
4.657507
5.198717
5.760789
6.403923
7.321835
11.599660
73.705912
238.189697
739.468932
1015.871763
1015.871763
1015.871763
1015.871763
1015.871763
1015.871763
1015.871763
1015.871763
1015.871763
1015.871763
1015.871763
712.581873
293.102860
65.698624
23.781657
17.614961
15.538931
13.504624
12.521744
11.852980
12.861490
16.585588
21.813512
31.437874
39.125681
48.945546
54.311752
59.348941
59.169531
55.314898
49.208999
39.743781
31.953454
22.579432
17.405748
12.581944
10.254979
8.561611
##ZVALUE=350
1.319647
1.126528
1.196861
1.250505
1.349449
1.402497
1.329780
1.388788
1.373887
1.315475
1.427531
1.394749
1.401901
1.353621
1.395941
1.415610
1.537800
1.670718
1.505613
1.525879
1.464486
1.763701
1.659989
1.675487
1.732707
1.919866
1.864433
1.782775
1.954436
1.760721
1.858473
1.998544
1.971722
1.994967
2.099872
2.128482
2.272725
2.151728
2.229810
2.448559
2.575517
2.436638
2.684593
2.913475
2.908707
3.152490
3.414750
3.399849
3.634691
4.020929
4.319549
4.623532
4.941821
5.540848
5.999804
6.959438
8.567572
35.564899
129.856467
479.573011
959.326625
1015.871763
1015.871763
1015.871763
1015.871763
1015.871763
1015.871763
1015.871763
1015.871763
1015.871763
1015.871763
901.633501
388.628840
84.328651
25.618672
15.453696
13.174415
11.270642
10.301471
9.382963
10.041595
12.172461
14.777780
20.072460
25.523901
34.991503
41.895509
49.910545
53.918958
54.802895
52.563548
45.702457
39.376616
29.688478
23.763776
17.237663
##ZVALUE=355
1.349449
1.356602
1.404881
1.317859
1.260638
1.367927
1.358986
1.543760
1.486540
1.453757
1.541972
1.412630
1.563430
1.494884
1.451969
1.552701
1.520514
1.689792
1.640916
1.648664
1.699924
1.604557
1.741648
1.896620
1.832843
1.785755
1.808405
1.887679
1.846552
2.036691
2.059937
2.048612
2.025962
2.159476
2.206564
2.256632
2.327561
2.465844
2.445579
2.486706
2.651811
2.709627
2.754927
2.899766
2.821684
3.060699
3.065467
3.349781
3.461838
3.710985
3.956556
4.116893
4.424453
4.588962
5.058646
5.840659
6.008744
6.778836
7.794499
20.491481
90.484619
391.866565
836.451650
1015.870571
1015.870571
1015.870571
1015.870571
1015.870571
1015.870571
1015.870571
1015.870571
1015.870571
1015.870571
1010.685563
532.032847
136.879683
37.157536
14.760494
12.918711
11.553764
10.335445
9.893775
9.665489
9.842515
10.779500
13.922453
17.409921
24.287701
30.240417
38.477778
44.773817
50.326586
51.426888
49.524903
45.334697
38.225651
##ZVALUE=360
1.460910
1.536608
1.413822
1.358986
1.433492
1.539588
1.339912
1.492500
1.510978
1.553893
1.549721
1.621842
1.473427
1.580715
1.591444
1.691580
1.708865
1.712441
1.984835
1.886487
1.692772
1.870990
1.715422
1.911521
2.031922
2.023578
2.068877
2.061725
1.939535
2.152920
2.113581
2.149940
2.298951
2.110600
2.352595
2.329946
2.384782
2.471805
2.643466
2.630949
2.569556
2.719760
2.741814
2.952814
2.890825
3.094673
3.210902
3.374815
3.542900
3.619790
3.774762
4.070997
4.118681
4.518628
4.797578
4.889965
5.505681
5.754828
6.270409
7.531643
8.470416
11.799932
45.035481
299.177766
767.752528
1015.870571
1015.870571
1015.870571
1015.870571
1015.870571
1015.870571
1015.870571
1015.870571
1015.870571
1015.870571
1015.870571
807.598829
278.518796
85.664988
17.781854
13.344884
11.755824
10.817647
10.001659
9.397864
9.064674
9.098649
10.026693
11.590719
15.348792
20.086765
27.863979
33.646822
41.131973
45.272708
48.052669
##ZVALUE=365
1.350641
1.476407
1.401901
1.305938
1.537800
1.537800
1.465678
1.569986
1.541972
1.454949
1.504421
1.527667
1.515746
1.540780
1.670718
1.700521
1.655817
1.806617
1.708865
1.786947
1.793504
1.866817
1.756549
1.736879
1.922846
1.823902
2.013445
2.082586
2.185702
2.206564
2.049804
2.111793
2.197623
2.198815
2.282858
2.308488
2.381802
2.472997
2.403855
2.540946
2.605915
2.728701
2.775788
2.889633
2.850890
2.961755
3.028512
3.119707
3.191829
3.486872
3.579855
3.737807
3.720522
4.087687
4.229546
4.438758
4.777908
5.127788
5.385876
6.027818
6.366968
7.425547
8.544922
9.767413
15.590787
131.363869
453.150868
1015.870571
1015.870571
1015.870571
1015.870571
1015.870571
1015.870571
1015.870571
1015.870571
1015.870571
1015.870571
1015.870571
1015.870571
406.587720
140.629411
25.153756
13.239980
11.398792
10.587573
9.647608
9.059906
8.643866
8.284450
8.540750
9.350777
11.215806
13.688803
18.142462
22.828579
29.619932
##ZVALUE=370
1.268983
1.323819
1.224875
1.221895
1.255870
1.228452
1.204610
1.455545
1.205802
1.531839
1.374483
1.317859
1.484752
1.518726
1.251698
1.396537
1.486540
1.591444
1.569986
1.523495
1.568794
1.554489
1.551509
1.615882
1.622438
1.612902
1.763701
1.792908
1.738667
1.742840
1.915693
1.809597
1.910925
1.822710
1.982450
1.989603
1.954436
2.028942
2.218485
2.130866
2.210736
2.359748
2.419949
2.501607
2.460480
2.433658
2.621412
2.668500
2.618432
2.771616
2.915859
2.869964
3.035665
3.160834
3.242493
3.557801
3.482699
3.940463
4.102588
4.574656
4.736781
5.323887
5.551577
6.293654
6.909966
8.074641
9.739399
36.900640
145.200491
572.549701
1015.879512
1015.879512
1015.879512
1015.879512
1015.879512
1015.879512
1015.879512
1015.879512
1015.879512
1015.879512
1015.880108
553.518534
227.459669
49.762726
16.414523
10.730624
9.996891
9.299517
8.753538
8.401871
8.117557
8.242726
8.605719
9.057522
10.024905
12.440681
##ZVALUE=375
1.149774
1.085997
1.152754
1.196861
1.338720
1.093745
1.118779
1.246929
1.211762
1.170635
1.199841
1.160502
0.985861
1.094937
1.168847
1.143813
1.311898
1.254678
1.333952
1.369715
1.321435
1.347661
1.353621
1.377463
1.493692
1.313686
1.516938
1.566410
1.634955
1.611710
1.703501
1.642704
1.604557
1.695752
1.799464
1.790524
1.774430
1.920462
1.997948
1.788735
1.922846
1.866817
2.050996
2.033710
2.005696
1.997948
2.237558
2.208948
2.448559
2.322793
2.406836
2.516508
2.476573
2.678633
2.593994
2.802610
2.991557
2.965927
3.294945
3.458858
3.507733
3.873706
4.130602
4.635453
4.885793
5.779862
6.466508
7.667542
9.092689
17.782450
61.171055
286.870003
731.091499
1015.816927
1015.816927
1015.816927
1015.816927
1015.816927
1015.816927
1015.816927
1015.816927
1015.816927
1015.816927
977.903605
510.014892
138.548613
37.579536
12.023449
10.572672
9.806752
9.355545
8.925796
8.830428
8.598566
8.445978
8.502603
##ZVALUE=380
1.143813
0.831485
1.084805
0.984669
1.138449
0.934601
0.890493
0.864863
1.074672
0.984669
1.094937
1.072884
0.962615
1.120567
1.137853
1.067519
1.058578
1.126528
1.259446
1.220703
1.288652
1.167655
1.152754
1.264811
1.390576
1.462698
1.421571
1.347661
1.528859
1.433492
1.343489
1.401901
1.429915
1.583695
1.573563
1.675487
1.738667
1.686811
1.696944
1.741648
1.755953
1.689792
1.816750
1.840591
1.941919
1.943707
2.124906
2.190471
1.932979
2.271533
2.169609
2.232790
2.296567
2.328753
2.388954
2.575517
2.531409
2.721548
2.766848
2.942681
3.120899
3.429651
3.588796
3.938675
4.203916
4.923940
5.368590
6.205440
7.201433
8.322001
9.183884
12.188554
33.981800
194.860697
526.082516
1015.802622
1015.802622
1015.802622
1015.802622
1015.802622
1015.802622
1015.802622
1015.802622
1015.802622
1015.802622
1015.802622
793.706775
255.523920
83.312988
17.774701
11.364818
10.241866
9.726882
9.393692
9.083748
8.717775
##ZVALUE=385
0.887513
1.001954
0.957847
1.053810
0.950694
0.996590
0.983477
0.988841
1.133680
1.020432
1.013875
1.044869
0.960827
1.119971
0.978708
1.009703
1.063943
1.136661
1.046658
1.071692
1.182556
1.256466
1.329780
1.284480
1.335740
1.271963
1.280904
1.274943
1.369715
1.648664
1.455545
1.571774
1.663566
1.549721
1.571774
1.660585
1.780987
1.851916
1.810789
1.731515
1.799464
1.881719
1.876950
1.906753
1.952648
1.940727
2.112985
2.059937
2.125502
2.192855
2.292991
2.405643
2.339482
2.188683
2.430677
2.473593
2.484918
2.724528
2.711415
2.764463
2.987981
2.978444
3.190637
3.387928
3.824830
4.370809
4.986525
5.582571
6.276965
6.932616
7.262826
7.582903
8.100867
8.935928
16.083717
97.696781
297.130942
896.254778
1015.870571
1015.870571
1015.870571
1015.870571
1015.870571
1015.870571
1015.870571
1015.870571
1015.870571
1015.870571
1015.870571
524.126887
187.431574
32.777786
13.500452
10.867715
10.284781
9.793639
##ZVALUE=390
0.980496
1.139641
1.063943
1.012683
1.012683
0.949502
1.067519
1.141429
0.999570
1.208782
0.984669
1.038909
1.104474
1.051426
1.142621
1.262426
1.109838
1.061559
1.236796
1.259446
1.283884
1.339912
1.353621
1.365542
1.332760
1.415610
1.422763
1.509786
1.563430
1.555681
1.637936
1.920462
1.764894
1.704693
1.833439
1.736879
1.787543
1.873970
2.020597
1.952648
1.980662
1.965761
2.064705
2.042651
2.039671
2.107620
2.099872
2.177954
2.316833
2.158880
2.222657
2.430677
2.270937
2.404451
2.354980
2.649426
2.677441
2.744794
2.729893
2.794862
2.905726
3.097653
3.287792
3.463626
3.792644
4.514456
4.803538
5.430579
6.083846
6.662607
6.847978
6.792545
6.701946
6.897449
7.057786
7.782578
9.891987
46.073794
168.347955
620.959401
1015.970707
1015.970707
1015.970707
1015.970707
1015.970707
1015.970707
1015.970707
1015.970707
1015.970707
1015.970707
1015.970707
861.273408
382.353663
93.647838
24.111867
11.541843
##ZVALUE=395
0.988841
1.055598
0.959635
1.122952
1.202822
1.001954
1.150966
1.041889
1.109838
1.201630
1.109838
1.092553
0.953674
1.012683
1.156926
1.231432
1.186728
1.071692
1.045465
1.259446
1.216531
1.172423
1.170635
1.296997
1.409650
1.463890
1.400709
1.489520
1.648664
1.508594
1.581907
1.589656
1.711845
1.801848
1.835823
1.910925
1.878738
1.919866
1.956820
1.966953
1.981854
2.077818
2.189875
2.037883
2.057552
2.252460
2.082586
2.264977
2.133846
2.153516
2.248883
2.477765
2.589822
2.517700
2.465844
2.424717
2.530813
2.633929
2.739429
2.663732
2.890825
2.964735
3.210902
3.526807
3.867745
4.416704
4.793406
5.392432
5.848408
6.101727
6.182790
6.174445
5.893707
6.007552
5.875826
6.088614
6.681681
7.446408
8.432865
24.836659
106.194615
465.937853
954.778790
1015.976667
1015.976667
1015.976667
1015.976667
1015.976667
1015.976667
1015.976667
1015.976667
1015.976667
1015.976667
1015.976667
665.015578
188.748837
##ZVALUE=400
1.086593
1.151562
0.911951
0.860691
0.969768
0.955462
0.962615
0.946522
1.023412
1.101494
1.066923
1.009703
1.028776
1.040697
1.020432
1.058578
1.184940
1.143813
1.080632
1.056790
1.095533
1.041889
1.133680
1.215935
1.194477
1.302958
1.410842
1.372695
1.559854
1.498461
1.564622
1.602769
1.777411
1.747608
1.763701
1.651645
1.704693
2.007484
1.856685
1.832843
1.981854
2.000928
1.891851
1.995564
2.003908
2.032518
2.035499
2.100468
2.217889
2.147555
2.271533
2.107620
2.351999
2.343655
2.346635
2.340674
2.311468
2.481937
2.499819
2.661943
2.773404
2.748966
3.073812
3.331900
3.627539
4.107952
4.495978
4.869699
5.199909
5.349517
5.420446
5.393624
5.038977
4.925728
4.901886
4.927516
5.243421
5.693436
6.218553
6.899834
7.783771
14.167428
50.443411
240.079761
614.382625
1015.869975
1015.869975
1015.869975
1015.869975
1015.869975
1015.869975
1015.869975
1015.869975
1015.869975
1015.869975
1015.869975
##END
