##TITLE=C104_R5
##FORMAT=SPECTACLE-ASCII V-1.2
##DATA TYPE=ULTRAVIOLET SPECTRUM
##SECOND TYPE=ULTRAVIOLET SPECTRUM
##DATE=05/28/18
##TIME=14:32:52
##SPECTROMETER/DATA SYSTEM=SPECTACLE
##XUNITS=NM EM
##YUNITS=ENERGY
##YFACTOR=1
##FIRSTX=220
##LASTX=410
##NPOINTS=96
##3DDATA=Equidistant
##ZUNITS=NM EX
##FIRSTZ=210
##LASTZ=400
##ZPOINTS=39
##XYDATA=(Y..Y)
##ZVALUE=210
65.689683
64.318776
41.222572
34.212470
27.395487
23.873448
21.429658
17.835498
14.190674
12.563467
10.803938
9.212494
10.299683
9.791851
8.412600
10.476708
12.061000
10.856986
12.250543
12.668967
14.738441
15.357733
16.889572
21.348596
22.958517
27.501583
31.820536
33.713579
37.477612
38.721561
39.973855
43.176413
45.069456
47.394633
46.576858
47.351718
47.579408
47.213435
49.731731
51.298738
49.494505
50.621629
50.206780
51.598549
51.543713
52.738786
51.646829
52.440763
51.101446
52.177906
51.417947
54.602623
52.971840
52.317977
51.935911
49.744844
49.540997
51.612854
49.824715
50.056577
51.278472
50.281882
51.272511
53.898692
52.972436
60.697794
65.794587
73.662996
90.786815
97.951889
111.878514
122.139454
132.873654
143.416524
142.743587
144.667625
138.101578
125.932693
121.112466
106.101632
92.449784
78.153610
65.294504
57.070851
50.345659
42.597651
38.424730
38.711429
45.448542
50.983429
66.537857
84.994435
118.525624
153.852701
198.114514
238.984823
##ZVALUE=215
266.881585
248.690844
193.808675
127.227902
87.582469
60.913563
47.481656
37.259459
35.583973
32.620430
27.024746
21.978617
15.967488
13.417602
12.667775
10.346770
12.713671
11.679530
11.738539
13.849735
14.036894
17.417669
15.236735
21.167994
22.711754
28.122663
29.871464
33.312440
36.732554
41.401982
41.294694
44.429898
48.661828
49.331784
49.124956
50.973892
50.036907
53.909421
53.270459
57.700872
53.329468
56.574941
59.010983
58.133602
56.324601
55.555701
57.664514
57.790875
60.205460
60.167909
60.690641
60.435534
58.239698
62.781572
57.061911
60.272813
58.733821
57.871938
58.662891
57.320595
60.454607
57.243705
55.896640
55.247545
59.894919
62.462687
67.156553
77.542663
83.570480
95.156431
106.811523
113.730431
118.548870
127.716660
129.693747
122.587681
121.293664
110.687613
102.523565
93.754530
84.105730
72.023869
62.718987
54.687858
48.175454
43.836832
41.013956
40.945411
38.898587
39.451718
37.959814
38.272738
40.473938
47.252774
59.845448
87.084770
##ZVALUE=220
649.013519
651.525855
603.658557
485.175848
384.301543
246.957541
171.340704
96.472502
70.025921
55.619478
52.042603
45.800805
42.211413
35.806894
27.149916
20.730495
16.065836
13.235807
11.600852
13.069510
12.635589
13.279915
17.053485
17.411709
18.146634
21.560788
22.880435
28.434992
27.717948
31.475425
32.662749
35.425425
39.288998
38.958788
40.868521
45.668483
46.373606
48.828721
49.709678
53.754449
55.398941
54.040551
57.895780
54.676533
57.932734
58.321953
59.267879
62.531829
62.426925
64.167976
62.114000
65.798759
65.284967
65.287948
63.360929
65.180659
64.512491
65.398812
63.198805
62.716603
62.233806
62.773824
63.723922
60.995817
60.954690
66.345930
68.111420
71.019530
75.880885
85.385442
91.586709
96.554756
104.307532
108.285546
107.041597
104.715824
100.766420
94.487667
87.202787
74.560642
67.975521
59.654713
54.737926
49.157739
43.694973
40.916800
39.294958
37.461519
39.368868
39.070845
37.451982
37.866831
40.071607
39.659739
42.005777
41.953921
##ZVALUE=225
769.682527
812.947750
947.714448
1015.870571
992.823839
827.183723
654.544830
423.150659
280.251503
183.077455
100.071430
79.330802
68.126917
65.955520
62.071681
55.195689
41.802526
32.907724
24.477839
17.777681
14.102459
12.322664
11.975765
12.725592
13.258457
15.394688
16.256571
18.094778
18.591881
20.690560
23.545623
25.534630
27.817488
29.516816
34.513474
36.138892
42.134523
42.415857
44.696927
48.437715
49.213767
52.537918
56.633949
56.535602
57.753921
60.946941
61.651468
63.270926
61.155558
63.781738
67.080855
65.581799
66.979527
69.450736
66.577792
68.082809
66.258907
64.864755
66.079497
63.232780
63.166618
62.769651
61.146617
59.670806
60.912967
61.418414
63.158870
65.076947
69.310665
71.754456
78.005791
79.091787
81.863999
85.929632
81.277490
77.457428
72.853565
68.800449
62.984824
53.965449
48.855543
44.594407
40.110946
37.098527
34.194589
31.821728
30.528903
29.423833
29.722452
29.533505
28.649569
29.144883
27.385950
28.059483
27.973652
28.931499
##ZVALUE=230
391.061902
438.971519
674.628615
1007.998586
1015.870571
1015.870571
1015.870571
1015.870571
992.131829
764.402747
455.294847
286.546946
154.718757
111.396909
91.839433
88.810921
86.540580
79.845786
130.757689
52.231550
40.286779
27.200580
19.988418
15.736818
13.724566
14.420748
14.528632
14.815927
15.106797
17.035604
17.346740
19.967556
21.977425
25.140643
27.843714
31.796694
33.885837
41.179657
40.723681
45.041442
47.695637
51.339865
53.911805
54.885745
56.424737
57.309866
59.279799
60.277581
60.408711
61.399937
63.242912
62.996745
63.394904
65.445900
63.280463
65.477490
62.751770
61.448812
62.766671
62.040687
59.322715
59.552789
58.049560
56.682825
58.655739
54.360628
58.444738
58.838725
61.217546
65.425634
68.803430
70.129633
70.067644
71.955919
68.958998
65.863729
61.703920
55.676699
51.212907
44.436455
42.469501
36.397576
34.481883
32.765865
28.440952
28.237700
26.988983
25.639534
26.400685
24.815798
23.572445
23.928881
23.788810
22.432804
22.031665
22.560954
##ZVALUE=235
68.244934
77.584982
204.789639
381.764770
712.849498
988.361835
1015.870571
1015.870571
1015.870571
1015.870571
1015.870571
1015.870571
769.729614
438.126922
272.728801
147.443414
113.268495
106.267929
107.924938
104.820728
94.516873
80.108643
57.965517
45.713782
30.616522
22.239685
17.223954
14.962554
14.183521
14.011860
15.115738
16.823411
17.683506
19.177794
22.797585
25.434494
27.967691
29.970407
32.539964
34.650564
38.173795
38.814545
38.758516
41.556954
43.634772
45.002699
45.350790
46.226978
47.556758
47.899485
48.477650
48.869848
48.385859
48.785806
47.457814
49.663782
49.326420
49.417615
47.789812
47.654510
47.279596
45.652986
45.635700
45.499802
44.737458
44.400692
45.332909
48.104525
50.598979
54.513812
54.647923
57.816505
60.014725
58.223605
58.128834
53.049922
51.280856
46.058893
43.459535
35.817623
33.409595
30.609965
29.239655
25.816560
24.213791
24.480820
23.658872
23.180842
22.542477
22.569895
23.116469
21.501780
19.774437
21.165609
20.882487
20.674467
##ZVALUE=240
3.766418
4.320741
19.837618
58.413744
185.373425
351.432562
712.607503
1010.238528
1015.870571
1015.870571
1015.870571
1015.870571
1015.870571
1015.870571
1014.815569
631.490946
405.288935
212.982893
140.843987
114.192963
114.077926
120.702982
111.910701
101.023912
77.814460
64.340830
46.598911
33.381581
23.016930
19.131899
16.218424
15.924573
15.289783
17.676950
18.528700
19.847751
20.530820
22.895932
24.472475
26.177764
25.852919
27.460456
28.521419
30.106902
31.485558
31.442642
32.063723
32.011867
33.547878
32.462478
34.265518
34.325719
34.699440
33.605695
34.614801
33.814907
34.660697
32.816529
34.040809
34.594536
34.254789
33.112764
31.734705
32.589436
33.211708
33.710599
34.195781
36.495924
38.423538
41.226745
43.288469
48.272610
47.256947
46.154857
45.189857
43.675900
41.174889
37.086606
33.243895
30.609965
27.679801
25.519729
23.728609
21.465421
21.277666
21.014810
20.666718
20.293593
20.040870
18.856525
19.768476
18.689632
18.643737
18.753409
20.135641
18.012524
##ZVALUE=245
2.292991
2.654791
2.824664
3.410578
8.258820
41.392446
111.740828
316.049457
570.023656
922.939777
1015.870571
1015.870571
1015.870571
1015.870571
1015.870571
1015.870571
1015.870571
973.099470
663.400888
337.021947
192.615986
115.913749
110.674500
120.624900
122.346878
116.818547
104.166865
86.864829
69.687963
49.928427
37.029982
25.613904
19.989610
16.982555
16.745925
17.713904
17.957687
18.738508
18.697977
19.613504
20.800829
21.407604
21.898746
22.239685
23.619533
23.615956
24.310946
25.209785
24.864674
25.785565
25.168657
25.502443
26.558638
26.377439
26.772618
25.390983
25.084615
24.812818
25.971532
24.978518
25.192499
24.405718
24.200678
24.927855
24.852753
25.375485
26.037693
27.859807
29.863715
30.613542
32.554865
34.966469
35.879612
35.056472
34.420490
32.617450
30.327439
28.161407
25.881529
22.770762
21.781921
19.685626
18.098950
17.125607
17.257929
16.537905
15.500784
15.763640
15.378594
16.452670
16.177893
15.004873
15.265942
16.061664
15.667677
15.497804
##ZVALUE=250
2.220869
2.454519
2.417564
2.453923
2.976656
3.031492
4.724860
17.238855
85.044503
197.265744
501.985550
854.092836
1015.882492
1015.882492
1015.882492
1015.882492
1015.882492
1015.882492
1015.882492
1015.883088
871.343613
535.364747
247.069001
142.333508
103.991628
110.633969
125.126839
126.260519
121.995807
111.233592
96.711516
72.941780
56.134462
38.027763
28.646588
21.319985
19.445419
18.314719
18.400550
19.309521
19.678473
20.090938
20.924807
21.427870
22.228956
22.654533
22.548437
22.441745
22.251606
23.624897
23.357868
23.080707
23.190975
23.158789
23.259521
24.017692
23.442507
23.391843
22.516847
23.033619
22.513866
22.960901
21.830797
21.817684
21.905899
22.550821
22.492409
24.418831
25.973916
26.940703
28.002858
29.688478
30.004978
28.824806
28.577447
27.116537
25.039911
22.776723
21.057725
19.725561
17.560720
15.828609
15.954971
15.326738
14.361739
14.037490
13.763905
13.701916
13.037920
13.531446
13.498664
13.055801
13.302565
13.811588
13.212562
13.114810
##ZVALUE=255
1.920462
2.074838
2.054572
2.439618
2.484918
2.688766
2.867579
3.286600
3.752708
7.105470
43.043494
128.370523
363.339782
650.331974
1015.870571
1015.870571
1015.870571
1015.870571
1015.870571
1015.870571
1015.870571
1015.870571
1015.870571
646.020770
357.652903
160.495639
106.055737
97.848773
111.362934
124.279857
130.767822
127.536654
118.008852
97.103715
79.452991
58.259964
43.912530
31.097531
26.609898
22.593737
21.835566
22.377968
22.427440
23.004413
23.691654
23.794770
24.116635
24.773479
24.912953
25.496483
25.209785
25.050640
25.405884
25.491714
24.320483
26.091933
25.546551
24.919510
23.749471
24.500489
23.978949
24.129748
22.909641
22.247434
22.872686
22.342801
22.522807
24.062991
25.025606
25.278926
26.439428
26.898980
27.058721
27.201772
26.285648
23.967624
22.661686
20.784736
18.895864
17.005801
16.862750
14.761686
14.466643
13.621449
13.072491
13.174415
12.600422
12.453794
12.532473
11.964440
12.091994
12.127757
11.747479
11.254549
11.538863
11.791587
##ZVALUE=260
1.958609
1.952648
1.900792
2.136827
2.092719
2.099872
2.253652
2.752542
2.591610
3.032684
3.358722
5.851984
20.114779
93.684793
218.362808
543.015599
922.205448
1015.833616
1015.833616
1015.833616
1015.833616
1015.833616
1015.833616
1015.833616
1015.833616
986.549854
547.262430
299.679637
128.427744
89.355707
96.000433
112.454891
125.497580
135.685802
134.907961
122.906566
107.447505
84.819794
67.168474
48.815608
39.345622
32.669902
29.227734
28.349757
28.022528
28.651953
29.047728
29.382706
29.851794
30.225515
30.097961
29.916763
29.535890
29.961467
29.663444
29.819608
29.081702
28.914809
28.111935
27.984977
27.643442
26.604533
26.310682
26.556849
26.102662
25.357604
25.269985
25.912523
26.113987
26.890635
27.044415
27.152896
27.049780
26.649833
25.085807
23.222566
22.059679
20.612478
19.140840
17.606616
16.161799
14.894605
14.915466
13.825893
12.991428
12.765527
12.450814
12.409687
12.229681
11.572838
11.329651
11.254549
11.052489
11.043549
11.029840
10.915995
##ZVALUE=265
1.673698
1.851916
1.754761
2.058744
2.047420
2.168417
2.116561
2.272725
2.417564
2.621412
2.699494
2.975464
3.446937
3.840923
10.748506
44.689775
178.244710
374.012589
701.743960
1015.870571
1015.870571
1015.870571
1015.870571
1015.870571
1015.870571
1015.870571
1015.870571
1015.870571
885.979533
428.624749
224.155784
96.958876
80.110431
100.355744
117.452741
136.218667
143.585801
141.493678
131.032467
110.909939
94.589591
72.375536
58.898926
46.339631
40.446520
37.253499
36.408901
35.746694
35.731792
36.214590
37.350655
36.955476
36.677718
37.163496
37.136674
35.366416
34.741759
34.717917
33.665895
33.743978
32.871962
31.626821
31.082630
30.933619
30.155778
29.976964
29.605627
29.149652
29.997826
29.608607
29.753447
30.150414
29.214621
28.313994
27.884841
25.025606
23.890734
21.471977
20.670891
18.712878
16.746521
15.748739
15.233755
14.700890
13.808608
13.359785
12.950897
12.600422
12.183785
11.946559
11.881590
10.871887
11.695623
10.939837
10.888577
11.513829
##ZVALUE=270
1.585484
1.615882
1.784563
1.856685
1.853704
1.799464
2.026558
2.069473
2.241731
2.427697
2.334714
2.359748
3.016591
3.065467
3.293753
3.974438
4.915595
21.997690
73.409677
269.024968
565.445423
979.519486
1015.870571
1015.870571
1015.870571
1015.870571
1015.870571
1015.870571
1015.870571
1015.870571
1015.870571
749.713778
397.683978
146.659613
80.269575
81.349611
100.537539
124.456882
141.530633
151.499510
150.137544
139.672756
124.944448
102.061629
85.570812
66.209435
56.706667
49.492717
45.996904
43.861866
44.222474
43.561459
43.931603
42.918921
43.044686
42.096972
41.221976
40.739775
40.093660
39.324760
38.729906
36.844611
35.907626
34.548640
34.542680
33.436418
32.782555
32.949448
32.766461
32.954812
32.806993
32.397509
31.599998
30.116439
28.687716
26.154518
25.442839
22.722483
21.236539
19.740462
17.951727
17.271638
15.999675
15.336871
14.811754
14.081597
13.448000
13.187528
13.137460
12.801886
11.978745
11.970997
11.697412
11.592507
11.515617
11.074543
##ZVALUE=275
1.494884
1.550913
1.587868
1.732707
1.632571
1.764894
1.795888
1.848936
1.874566
2.202988
2.075434
2.243519
2.277493
2.449751
2.627969
2.894998
3.255606
3.658533
4.057884
9.398460
40.539503
132.327676
429.398417
847.078562
1015.855670
1015.855670
1015.855670
1015.855670
1015.855670
1015.855670
1015.855670
1015.855670
1015.855670
966.159701
569.008589
221.259594
107.926726
69.545507
81.996918
108.193755
126.760602
146.354437
154.957771
155.656934
147.348642
127.163529
110.093951
89.935660
75.916648
61.938763
54.192543
50.335526
47.634840
46.621561
46.430826
44.987798
45.160651
44.964552
43.998957
42.753816
41.970611
39.700866
39.756894
37.528872
36.818981
36.740899
35.396814
34.570694
35.081506
34.264922
34.588575
33.928752
33.512712
31.686425
29.950738
28.066635
25.657415
23.617744
22.260547
20.262599
19.181967
18.197894
16.916990
16.444921
15.597939
14.258623
14.046431
13.857484
13.339520
12.642741
12.685657
11.961460
11.439919
11.568666
11.581779
11.285543
##ZVALUE=280
1.558661
1.614690
1.508594
1.529455
1.776814
1.837611
1.627803
1.691580
1.768470
1.891851
2.043843
2.164841
2.159476
2.269745
2.569556
2.491474
2.497435
3.089905
3.301501
3.597736
3.970861
6.181002
20.465851
120.285749
313.679576
770.797729
1015.870571
1015.870571
1015.870571
1015.870571
1015.870571
1015.870571
1015.870571
1015.870571
1015.870571
1015.870571
802.150965
330.470800
154.902935
68.404675
66.220760
85.809827
104.834437
128.577948
143.459439
153.801441
152.848959
143.516660
128.800869
108.751655
90.803504
72.962642
61.768889
51.919818
48.281550
45.256615
44.132471
42.326450
42.182803
41.630864
41.208863
39.978623
39.405823
37.669539
37.616491
35.489798
35.494566
34.307837
34.411550
33.186674
33.166409
32.337904
31.854510
29.733777
29.227734
27.063489
24.821758
23.315549
22.014976
20.472407
19.042492
17.764568
17.278790
15.829802
15.578866
14.945865
14.658570
14.053583
13.270974
12.760758
12.194514
12.566447
11.819601
11.610985
11.336803
11.094809
##ZVALUE=285
1.504421
1.655817
1.449585
1.416802
1.438856
1.523495
1.602769
1.666546
1.713634
1.744628
1.702905
2.009869
1.912713
1.974702
2.134442
2.293587
2.182722
2.622604
2.884865
2.924800
3.294945
3.303885
3.914833
4.604459
11.800528
44.103861
180.658698
404.300690
935.620666
1015.876532
1015.876532
1015.876532
1015.876532
1015.876532
1015.876532
1015.876532
1015.876532
1015.876532
1015.876532
547.912717
265.596509
89.195967
52.534938
60.012937
74.802637
99.204779
114.409924
133.015513
142.512918
144.992471
137.350559
122.199655
105.921626
84.214807
69.543719
54.219961
45.925975
40.244460
38.215518
36.657453
35.905838
35.566688
33.902526
33.455491
32.838583
32.311678
32.334924
30.933619
31.181574
30.417442
30.324459
29.560924
28.728843
28.073788
26.126504
24.382472
23.029447
21.657944
19.879937
19.210577
18.034577
16.726851
16.419888
15.583634
15.077591
14.565587
13.891459
13.423562
13.012886
12.693405
12.207627
12.356639
11.841655
11.249781
11.315942
10.985732
##ZVALUE=290
1.322627
1.475811
1.293421
1.529455
1.349449
1.622438
1.548529
1.416802
1.651645
1.611710
1.738667
1.840591
1.630783
1.995564
2.118945
2.000928
2.093911
2.153516
2.419949
2.442598
2.657771
2.818704
3.176928
3.494620
4.279613
4.308820
5.975962
15.646815
88.073611
239.951611
517.887473
1015.870571
1015.870571
1015.870571
1015.870571
1015.870571
1015.870571
1015.870571
1015.870571
1015.870571
1015.870571
826.550722
422.285795
142.574906
57.315826
40.693879
49.167871
66.223741
82.543492
104.025602
118.322968
130.436420
133.362412
126.841664
113.475919
92.744827
75.828433
57.619810
46.766996
37.153959
32.326579
28.950572
28.127432
26.672482
26.734471
25.888681
26.205778
26.222467
25.714636
25.974512
25.852919
25.409460
24.575591
23.695827
22.462606
21.045804
20.105839
18.584728
18.021464
17.224550
16.043782
15.512705
14.847517
14.291406
13.798475
13.495684
12.819767
12.542605
12.106895
11.871457
11.521578
11.032820
11.341572
10.887980
10.877848
10.521412
##ZVALUE=295
1.245737
1.229644
1.370907
1.339912
1.469851
1.436472
1.476407
1.412630
1.459718
1.340508
1.616478
1.558661
1.798868
1.646876
1.632571
1.860857
1.787543
1.978874
2.050996
2.272725
2.405643
2.542734
2.552867
2.754927
3.139973
3.442764
3.838539
4.119873
4.930496
7.208586
25.509596
137.697458
354.920626
925.126672
1015.870571
1015.870571
1015.870571
1015.870571
1015.870571
1015.870571
1015.870571
1015.870571
1015.870571
1015.870571
623.202920
213.556886
85.477829
32.300949
31.378865
42.575002
54.837465
75.015426
89.594722
107.087493
117.048621
120.019913
114.656687
100.965500
85.836649
65.695643
51.212907
36.438704
29.423833
23.029447
21.607876
19.694567
19.519925
19.360781
19.660592
19.600987
20.130873
20.255446
19.791722
18.919706
18.408895
16.968846
16.142726
15.289783
14.525652
13.984442
13.388991
12.728572
12.551546
12.194514
11.947751
11.411905
11.155605
11.087656
10.767579
10.784864
10.872483
10.308623
10.123849
10.343790
10.017753
9.884834
##ZVALUE=300
1.250505
1.249909
1.171827
1.192689
1.220703
1.305938
1.315475
1.454949
1.324415
1.412630
1.368523
1.527667
1.482964
1.670718
1.514554
1.533628
1.668930
1.847744
1.909733
1.972914
1.969934
2.246499
2.181530
2.438426
2.655983
2.864599
3.102422
3.241897
3.571510
4.109740
4.631877
5.236864
16.368628
65.975785
263.797641
572.080612
1015.871763
1015.871763
1015.871763
1015.871763
1015.871763
1015.871763
1015.871763
1015.871763
1015.871763
1015.871763
867.560506
454.908609
149.338841
51.043630
23.020506
25.685430
35.478473
46.044588
64.299703
79.717636
97.914934
106.209517
110.426545
105.914474
93.487501
79.818964
60.636997
47.045946
31.791925
24.830699
18.290877
16.383529
15.148520
15.326738
15.788674
15.870929
15.850663
15.198588
14.631748
13.773441
13.296604
12.192726
11.951923
11.657476
11.158586
11.225939
10.767579
10.417700
10.423660
9.993911
9.852648
9.772778
9.683967
9.609461
9.456873
9.498596
9.264946
9.250641
9.346604
9.251833
##ZVALUE=305
1.077652
1.174808
1.017451
1.139641
1.249909
1.186728
1.322627
1.227856
1.273751
1.421571
1.414418
1.460910
1.280904
1.421571
1.540780
1.658797
1.624823
1.679659
1.648664
1.811981
1.929998
1.861453
2.080798
2.263784
2.351999
2.577901
2.642870
2.735853
3.152490
3.092885
3.280640
4.062653
4.222989
4.980564
7.031560
41.716695
137.819648
460.202694
896.350741
1015.876532
1015.876532
1015.876532
1015.876532
1015.876532
1015.876532
1015.876532
1015.876532
1015.876532
1015.876532
591.318011
275.017619
74.725747
26.266575
18.934608
22.545457
31.869411
42.378902
59.654713
72.774887
90.094805
98.088980
101.432800
98.517537
86.530447
73.935986
56.340694
43.260455
29.525757
22.295713
17.254949
15.395880
14.259815
13.801455
13.140440
12.502670
11.788607
11.116862
10.662675
10.358691
10.067821
10.079741
9.733438
9.724498
9.473562
9.422898
9.335876
9.160638
9.119511
8.838773
8.854866
8.874536
9.048581
8.949637
8.797646
9.074807
8.574724
##ZVALUE=310
1.007915
1.041889
1.089573
1.126528
1.185536
1.179576
1.089573
1.200438
1.368523
1.202822
1.333952
1.309514
1.361966
1.206994
1.417994
1.511574
1.489520
1.416802
1.562834
1.563430
1.645684
1.738667
1.727939
1.879930
2.095699
2.158880
2.286434
2.222657
2.596974
2.589822
3.001690
2.914667
3.322959
3.616810
4.017949
4.694462
5.506873
12.588501
77.983737
217.141509
626.008511
1015.870571
1015.870571
1015.870571
1015.870571
1015.870571
1015.870571
1015.870571
1015.870571
1015.870571
1015.870571
970.541835
416.496396
177.083015
42.901635
17.580986
16.562939
19.393563
26.976466
35.490990
50.748587
64.496994
80.568790
89.301467
95.421672
92.799664
83.753467
72.435737
54.740906
42.648911
29.471517
22.397637
17.097592
13.924837
11.624694
11.018515
10.098815
9.612441
9.609461
8.988976
8.840561
9.164810
8.860826
8.620620
8.323789
8.480549
8.394718
8.404851
8.466840
8.557439
8.041859
8.296967
8.374453
8.382797
8.140802
8.048415
##ZVALUE=315
0.978708
0.994802
1.072884
1.165867
1.088977
1.072884
1.143813
1.191497
1.186728
1.051426
1.045465
1.262426
1.220703
1.272559
1.393557
1.519918
1.372695
1.451969
1.504421
1.467466
1.454949
1.785755
1.583695
1.826882
1.732707
1.853704
2.068877
1.910925
2.191663
2.338886
2.558827
2.741814
2.709627
2.957582
3.185868
3.488660
4.024506
4.492998
4.958510
8.062720
28.387904
146.296620
366.051793
933.356881
1015.866995
1015.866995
1015.866995
1015.866995
1015.866995
1015.866995
1015.866995
1015.866995
1015.866995
1015.866995
693.928599
243.042707
84.332824
20.606518
14.567971
14.939904
17.593503
24.733543
33.146739
46.594739
58.817863
75.840950
84.801912
90.070963
88.619590
79.938769
69.534779
54.434538
42.003989
28.118491
20.188689
14.167428
11.543632
9.487867
8.921623
8.589625
8.275509
7.964969
8.194447
7.995963
7.786751
7.819533
7.645488
7.757545
7.857680
7.824898
7.669926
7.715821
7.745624
7.788539
7.889867
8.088946
##ZVALUE=320
1.029968
0.981688
0.980496
1.001954
1.063943
1.113415
1.021624
1.111627
1.006722
0.996590
1.145601
1.091957
1.110435
1.069903
1.237988
1.228452
1.229644
1.439452
1.366735
1.320839
1.327991
1.383424
1.492500
1.624823
1.886487
1.743436
1.785755
1.918674
1.909733
2.077818
2.515912
2.195835
2.302527
2.615452
2.816916
2.980828
3.129840
3.538728
3.770590
4.142523
4.572868
5.748868
13.574958
89.619756
262.287855
757.399797
1015.870571
1015.870571
1015.870571
1015.870571
1015.870571
1015.870571
1015.870571
1015.870571
1015.870571
1015.870571
941.141844
396.476984
164.326429
36.687851
15.067458
13.202429
13.687611
16.558766
21.515489
31.652451
41.534901
56.946874
68.450570
82.007647
85.968971
84.856749
78.626871
64.595938
51.948428
36.226511
26.301742
17.814636
13.163686
9.649992
8.203983
7.547736
7.684827
7.372499
7.278919
7.368922
7.113814
7.151961
7.125735
7.295609
7.355809
7.376671
7.475615
7.658601
7.658601
7.725954
##ZVALUE=325
1.047850
1.020432
0.956655
1.029968
0.896454
0.977516
0.995994
1.218915
1.082420
1.008511
1.090765
1.123548
1.123548
1.320839
1.189709
1.257658
1.447797
1.288652
1.278520
1.234412
1.283884
1.403689
1.389980
1.494884
1.494884
1.630783
1.711845
1.775622
1.699924
1.928806
2.178550
2.028942
2.140999
2.362728
2.418756
2.589822
2.739429
2.970695
3.243685
3.567934
3.843904
4.435778
4.772544
5.552769
8.107424
58.967471
191.752911
590.447783
1015.870571
1015.870571
1015.870571
1015.870571
1015.870571
1015.870571
1015.870571
1015.870571
1015.870571
1015.870571
1015.870571
577.406883
263.907909
64.327717
20.779967
12.634993
12.174845
13.031960
15.657544
21.357536
29.155612
42.691827
53.700805
67.120790
75.594783
80.713630
77.831745
69.994926
59.688687
45.803785
34.806728
22.401810
15.975833
10.887980
9.026527
7.743835
7.163882
7.095933
6.847978
6.998777
6.757975
6.749630
6.845593
7.098913
7.336736
7.153749
7.202625
7.382631
##ZVALUE=330
0.986457
1.022816
0.889897
0.956655
0.979900
1.114607
1.109838
1.129508
0.987649
1.022816
1.090765
0.840425
1.136661
1.106858
1.110435
1.282692
1.211762
1.229644
1.151562
1.279712
1.302958
1.271963
1.417994
1.635551
1.402497
1.461506
1.680851
1.667738
1.697540
1.656413
1.828671
2.013445
2.048612
1.956820
2.236962
2.451539
2.426505
2.561808
2.622604
2.886653
3.029704
3.238916
3.571510
3.960729
4.462600
5.227923
6.022453
18.387437
69.183707
306.927562
680.893660
1015.870571
1015.870571
1015.870571
1015.870571
1015.870571
1015.870571
1015.870571
1015.870571
1015.870571
1015.870571
819.054842
406.059623
126.079917
38.086772
13.187528
11.932850
11.796951
12.705922
15.723705
20.099878
28.796792
37.806630
51.243901
60.302615
69.997907
73.039532
71.182847
65.809488
53.956509
43.528676
30.751824
22.699833
15.069842
11.320710
8.438826
7.308722
6.711483
6.479621
6.473660
6.602407
6.900430
6.873608
7.072687
7.043481
7.145405
##ZVALUE=335
0.811815
0.945926
0.942945
0.856519
0.818968
0.815988
0.885725
0.945926
0.980496
0.966787
1.077652
1.014471
0.963807
1.154542
1.136661
1.166463
0.954866
1.299977
1.214743
1.239777
1.295805
1.239777
1.291633
1.381636
1.489520
1.321435
1.424551
1.535416
1.553893
1.503825
1.465678
1.610518
1.836419
1.812577
1.926422
1.912713
2.120733
2.303720
2.395511
2.545714
2.592802
2.780557
3.057718
3.377795
3.420711
3.922582
4.342794
4.783869
5.595684
9.202957
32.140017
171.987414
432.052612
1015.874743
1015.874743
1015.874743
1015.874743
1015.874743
1015.874743
1015.874743
1015.874743
1015.874743
1015.874743
1015.874743
603.439808
193.511844
64.094663
16.809702
12.340546
11.932850
12.132525
12.916923
14.554858
19.181967
24.992824
35.431981
44.071674
56.037903
63.301921
68.187714
66.755414
59.472919
51.876903
41.172504
32.356977
22.373796
16.198754
11.340976
8.989573
7.759929
7.382631
7.157922
6.783605
7.284880
7.285476
7.235408
##ZVALUE=340
0.677705
0.601411
0.740886
0.645518
0.767708
0.733733
0.731945
0.698566
0.760555
0.757575
0.861883
0.915527
0.953674
0.849962
0.924468
0.959635
0.845790
0.892878
1.052618
0.829697
1.012683
0.993609
1.194477
1.106858
1.367927
1.204610
1.154542
1.225471
1.471639
1.368523
1.323819
1.517534
1.457930
1.549721
1.666546
1.719594
1.889467
1.885891
1.888871
2.063513
2.145767
2.246499
2.461672
2.532601
2.643466
3.092885
3.100634
3.765821
3.800988
4.333854
4.726648
6.239414
14.987588
90.345740
267.637968
826.197863
1015.690565
1015.690565
1015.690565
1015.690565
1015.690565
1015.690565
1015.690565
1015.690565
1015.690565
1015.690565
785.579681
296.617746
103.527904
21.597743
13.484955
12.131929
11.854768
11.366606
11.321902
13.174415
15.840530
23.166537
30.881763
42.804480
51.059723
59.520602
63.000917
62.140822
57.890415
48.844814
40.501952
30.217767
22.867918
15.742779
11.846423
8.768439
8.054972
7.290840
7.077456
7.414818
##ZVALUE=345
0.980496
0.853539
0.875592
0.657439
0.893474
0.988841
0.792742
0.935793
0.949502
1.024604
1.012683
0.998974
0.997782
1.040697
1.075864
1.054406
1.117587
1.016855
0.960827
1.067519
1.142621
1.351833
1.266599
1.235604
1.111627
1.262426
1.394749
1.340508
1.440644
1.349449
1.432896
1.648664
1.596808
1.585484
1.667738
1.824498
1.809597
1.724958
1.654625
2.089739
2.164841
2.147555
2.248883
2.326965
2.361536
2.623796
2.820492
3.003478
3.213882
3.659725
3.823638
4.270673
4.399419
5.169511
8.153915
46.481490
151.647329
487.115979
939.628482
1015.870571
1015.870571
1015.870571
1015.870571
1015.870571
1015.870571
1015.870571
1015.870571
1015.870571
1015.871167
455.503464
178.764462
40.379763
16.849637
13.404489
11.815429
10.147691
9.498000
9.422898
10.676980
14.867783
20.306706
29.720664
37.251711
47.561526
53.073764
58.132410
58.337450
55.448413
49.162507
39.310455
31.190515
22.252798
17.238855
12.701750
10.507703
8.651614
##ZVALUE=350
1.087785
1.034737
1.214743
1.191497
1.159906
1.113415
1.093745
1.180768
1.182556
1.131892
1.224875
1.197457
1.269579
1.320839
1.319647
1.312494
1.380444
1.318455
1.313686
1.222491
1.397729
1.263618
1.368523
1.504421
1.412630
1.385808
1.604557
1.570582
1.497865
1.517534
1.642704
1.655817
1.707673
1.673698
1.765490
1.802444
1.742840
1.952648
2.072453
2.004504
2.046824
2.153516
2.243519
2.305508
2.425909
2.491474
2.642870
2.652407
3.014803
3.141761
3.394485
3.600717
3.578663
3.979802
4.311800
5.030632
5.822778
20.102859
74.489713
288.611650
618.933439
1016.063690
1016.063690
1016.063690
1016.063690
1016.063690
1016.063690
1016.063690
1016.063690
1016.063690
1016.063690
638.383031
278.959870
62.340498
19.372702
11.293888
10.057688
8.690953
8.123517
7.997751
8.522868
10.516644
13.252497
18.570423
24.330616
33.601522
41.026473
49.648881
53.189993
54.600835
52.226782
45.996904
39.334893
30.898452
24.033785
17.846823
##ZVALUE=355
0.981688
0.980496
0.940561
1.074672
1.024604
0.951886
1.014471
1.001954
0.930429
0.972748
1.172423
1.065731
1.057982
1.117587
1.140833
1.089573
1.092553
1.206994
1.163483
1.115799
1.111627
1.212955
1.190901
1.251698
1.337528
1.403689
1.313686
1.341701
1.370907
1.394749
1.554489
1.435876
1.548529
1.540780
1.671910
1.554489
1.715422
1.719594
1.775622
1.604557
1.815557
1.873970
1.904964
1.941919
2.116561
2.200603
2.396703
2.420545
2.534986
2.593994
2.609491
2.764463
3.031492
3.348589
3.515482
3.714561
4.133582
4.487634
5.149841
10.128617
36.550760
175.804496
405.163765
944.565535
1015.870571
1015.870571
1015.870571
1015.870571
1015.870571
1015.870571
1015.870571
1015.870571
1015.870571
790.416002
367.904902
94.041824
27.037859
10.738969
9.386539
8.315444
7.803440
7.284880
7.393956
7.862449
8.792877
11.914968
15.629530
22.397637
28.767586
37.224889
43.676496
49.671531
50.690770
49.041510
44.700503
37.345886
##ZVALUE=360
0.961423
0.850558
0.950694
0.972748
1.086593
1.003742
1.154542
1.045465
1.177788
0.945926
1.101494
1.110435
1.059771
1.101494
1.051426
1.049638
1.267791
1.189709
1.071692
1.124740
1.213551
1.107454
1.176596
1.451969
1.228452
1.163483
1.485944
1.283884
1.379848
1.480579
1.428723
1.491904
1.572967
1.510978
1.546741
1.712441
1.647472
1.695752
1.738667
1.753569
1.657605
1.739860
1.804829
1.885891
1.851916
2.065897
2.127886
2.145767
2.330542
2.436638
2.321601
2.686977
2.598763
2.786517
3.099442
3.115535
3.386736
3.722906
3.911853
4.562736
5.248785
6.764531
15.337467
81.787705
229.810476
662.430525
1015.875936
1015.875936
1015.875936
1015.875936
1015.875936
1015.875936
1015.875936
1015.875936
1015.875936
1007.319689
587.535501
200.765729
60.980916
12.535453
9.643435
8.244514
7.587671
7.210970
6.814599
6.647706
7.048845
8.294582
10.156631
13.898611
18.694997
26.596785
32.892823
40.633678
44.946671
47.270656
##ZVALUE=365
0.884533
0.943542
0.804663
0.893474
0.869632
0.986457
0.816584
0.920892
0.964999
0.844598
1.058578
1.084805
1.011491
1.015663
0.955462
1.038909
1.244545
1.035929
1.089573
1.069903
1.173615
1.255870
0.928640
1.214743
1.244545
1.278520
1.224875
1.325607
1.375675
1.359582
1.423955
1.267791
1.346469
1.359582
1.403689
1.336932
1.608729
1.527667
1.436472
1.628995
1.647472
1.604557
1.739860
1.789927
1.826882
1.836419
1.822710
1.986623
2.087951
2.037883
2.099872
2.167821
2.207756
2.438426
2.558827
2.592802
2.688766
2.943873
3.278852
3.616810
3.726482
4.315972
4.790425
5.600452
7.807612
42.684674
135.008693
421.338677
857.727528
1015.869975
1015.869975
1015.869975
1015.869975
1015.869975
1015.869975
1015.869975
1015.869975
1015.869379
778.737068
286.548734
104.563832
19.269586
9.268522
7.803440
7.397532
6.909966
6.561875
6.355643
6.280541
6.724596
7.650852
10.090470
12.349486
17.260909
21.954775
28.897524
##ZVALUE=370
0.855923
0.955462
1.031756
0.876784
0.861883
1.029968
0.861883
0.823736
0.983477
0.999570
0.717640
1.024604
0.890493
0.905991
1.003742
0.933409
0.756979
0.879765
1.227856
1.108646
0.965595
0.987649
1.046658
1.162887
1.145601
1.151562
1.192689
1.178980
1.115799
1.276731
1.176596
1.165867
1.193881
1.242757
1.282692
1.490712
1.371503
1.418591
1.335740
1.450777
1.290441
1.378655
1.540780
1.525879
1.574755
1.329780
1.686811
1.687407
1.543760
1.648664
1.859665
1.853704
1.852512
1.800656
2.015829
2.207756
2.237558
2.330542
2.564788
2.515912
2.758503
3.024936
3.492832
3.623962
4.112720
4.634857
5.709529
21.778941
85.074902
317.470431
663.349628
1015.870571
1015.870571
1015.870571
1015.870571
1015.870571
1015.870571
1015.870571
1015.870571
1015.870571
937.922597
379.405618
158.022642
35.446882
11.355877
7.659793
7.129908
6.711483
6.578565
6.323457
6.703734
7.017851
7.449985
8.167624
9.659529
12.072921
##ZVALUE=375
0.718832
0.665784
0.856519
0.919700
0.724792
0.768900
0.703931
0.772476
0.802875
0.946522
0.807643
0.923872
0.939965
0.797510
0.818968
0.795722
0.996590
0.916719
0.791550
0.839829
0.948906
0.847578
1.013875
0.886917
1.000762
1.099706
0.969768
0.943542
1.071692
1.093745
1.270771
1.056790
1.202822
1.090765
1.303554
1.196861
1.172423
1.284480
1.275539
1.360774
1.348853
1.366735
1.448989
1.416802
1.334548
1.551509
1.415610
1.382828
1.481771
1.531839
1.381636
1.712441
1.637936
1.589656
1.830459
1.861453
1.969934
1.999736
2.029538
2.110600
2.273917
2.252460
2.502799
2.798438
3.061891
3.450513
3.748536
4.488826
5.473495
9.273887
52.008629
156.712532
484.742522
939.396024
1015.870571
1015.870571
1015.870571
1015.870571
1015.870571
1015.870571
1015.870571
1015.870571
1015.870571
728.258491
281.715989
108.850598
20.794868
8.953810
7.602572
7.286668
7.269979
7.432699
7.674694
7.920861
7.951856
7.860661
##ZVALUE=380
0.663996
0.621676
0.821948
0.689626
0.713468
0.726581
0.740886
0.741482
0.798702
0.760555
0.849962
0.588894
0.645518
0.707507
0.560880
0.718832
0.807643
0.688434
0.796914
0.715852
0.856519
0.678897
0.821948
0.794530
0.948906
0.831485
1.112819
1.028776
1.024604
1.122952
0.851750
1.083612
1.227856
1.093745
1.163483
1.330972
1.235604
1.353621
1.179576
1.244545
1.110435
1.347661
1.302958
1.496673
1.539588
1.270771
1.381636
1.409650
1.467466
1.302958
1.471639
1.505613
1.564622
1.559854
1.646876
1.717806
1.577735
1.723766
1.777411
1.653433
1.949668
2.035499
2.203584
2.419949
2.591610
2.808571
3.222823
3.645420
4.317760
4.702806
5.341768
6.750822
18.161535
105.025768
289.617777
796.380639
1015.870571
1015.870571
1015.870571
1015.870571
1015.870571
1015.870571
1015.870571
1015.870571
1015.870571
893.428922
468.557477
155.671835
53.220987
12.247562
8.429885
8.123517
8.193851
8.204579
8.089542
7.814765
##ZVALUE=385
0.615716
0.681877
0.781417
0.720620
0.679493
0.592470
0.694990
0.762939
0.696778
0.628829
0.677705
0.716448
0.764728
0.759959
0.628829
0.676513
0.594854
0.708699
0.872612
0.671744
0.751615
0.741482
0.830889
0.718832
0.928640
0.986457
1.043677
0.955462
0.996590
1.018643
1.152754
1.227856
1.133680
1.276731
1.187921
1.188517
1.265407
1.227856
1.321435
1.303554
1.282692
1.323819
1.415610
1.302958
1.291633
1.217723
1.398921
1.466870
1.313686
1.329780
1.399517
1.422763
1.447797
1.467466
1.473427
1.427531
1.525879
1.477599
1.597404
1.649857
1.821518
1.744628
1.972914
2.164841
2.289414
2.600551
2.904534
3.229976
3.345609
4.040599
4.053712
4.248619
4.423857
4.946589
8.396506
51.690936
159.083009
486.479402
942.445993
1015.870571
1015.870571
1015.870571
1015.870571
1015.870571
1015.870571
1015.870571
1015.870571
1015.871167
770.125389
316.033959
119.765401
23.247600
9.820461
8.371472
8.219481
7.874966
##ZVALUE=390
0.585914
0.619888
0.744462
0.472665
0.686646
0.563860
0.709891
0.448823
0.667572
0.643730
0.631809
0.795722
0.718832
0.680685
0.700951
0.657439
0.771880
0.676513
0.716448
0.652671
0.842810
0.730753
0.695586
0.886917
0.872612
0.854731
0.935793
1.015663
1.024604
1.069903
1.162887
1.230836
1.029968
1.150966
1.263618
1.247525
1.169443
1.177788
1.343489
1.399517
1.331568
1.258850
1.331568
1.369715
1.483560
1.286864
1.435876
1.455545
1.467466
1.505613
1.469851
1.462698
1.589656
1.419783
1.652837
1.561642
1.593828
1.575947
1.502633
1.729727
1.757741
1.963973
1.970530
2.109408
2.404451
2.688766
2.765656
3.111959
3.536940
3.596544
3.769994
3.781915
3.659725
3.814697
3.970861
4.185438
5.386472
24.847388
91.226697
340.846777
721.029639
1015.870571
1015.870571
1015.870571
1015.870571
1015.870571
1015.870571
1015.870571
1015.870571
1015.870571
1015.870571
480.576754
219.526887
57.373643
16.721487
8.645654
##ZVALUE=395
0.587702
0.725985
0.614524
0.677705
0.608563
0.619888
0.672936
0.718832
0.725985
0.797510
0.599623
0.693798
0.657439
0.740886
0.724792
0.696778
0.604987
0.726581
0.704527
0.652671
0.767708
0.858903
0.805855
0.908971
0.853539
0.848770
1.064539
0.951886
0.954866
1.029968
1.136661
1.108646
1.244545
1.298785
1.283884
1.202822
1.357794
1.330972
1.326799
1.444817
1.370907
1.479983
1.502633
1.499653
1.560450
1.450777
1.586676
1.623631
1.481771
1.577735
1.439452
1.385808
1.611710
1.612902
1.588464
1.630783
1.654625
1.724958
1.717806
1.607537
1.741648
1.758933
1.837611
2.134442
2.216697
2.528429
2.710819
3.020763
3.270507
3.100634
3.361702
3.248453
3.245473
3.363490
3.312826
3.440976
3.670454
4.220605
4.738569
12.174845
50.814748
227.378607
509.497523
1015.871763
1015.871763
1015.871763
1015.871763
1015.871763
1015.871763
1015.871763
1015.871763
1015.871763
1015.871763
769.710541
375.233889
113.716722
##ZVALUE=400
0.750422
0.640750
0.676513
0.659823
0.471473
0.796914
0.713468
0.698566
0.544786
0.572801
0.609756
0.702739
0.688434
0.557899
0.739694
0.618696
0.644922
0.665784
0.729561
0.673532
0.641942
0.708699
0.753999
0.836849
0.886917
0.901818
1.052618
0.978708
1.201630
1.056790
1.244545
1.148582
1.304746
1.174808
1.292825
1.438856
1.344681
1.241565
1.393557
1.421571
1.427531
1.427531
1.477599
1.589656
1.456738
1.554489
1.476407
1.647472
1.533628
1.517534
1.517534
1.432896
1.609921
1.590848
1.629591
1.662970
1.463890
1.544952
1.585484
1.741648
1.743436
1.839995
1.810789
2.090931
2.397895
2.498627
2.724528
2.920628
3.091693
3.125668
3.102422
2.917647
2.934933
2.786517
2.717972
3.118515
2.963543
3.147721
3.520846
3.719926
4.287958
7.559657
24.869442
116.525888
296.657681
782.879591
1015.870571
1015.870571
1015.870571
1015.870571
1015.870571
1015.870571
1015.870571
1015.870571
1015.870571
1008.750796
##END
