##TITLE=C105_R1
##FORMAT=SPECTACLE-ASCII V-1.2
##DATA TYPE=ULTRAVIOLET SPECTRUM
##SECOND TYPE=ULTRAVIOLET SPECTRUM
##DATE=05/28/18
##TIME=14:36:08
##SPECTROMETER/DATA SYSTEM=SPECTACLE
##XUNITS=NM EM
##YUNITS=ENERGY
##YFACTOR=1
##FIRSTX=220
##LASTX=410
##NPOINTS=96
##3DDATA=Equidistant
##ZUNITS=NM EX
##FIRSTZ=210
##LASTZ=400
##ZPOINTS=39
##XYDATA=(Y..Y)
##ZVALUE=210
107.127428
104.758739
66.335797
43.833852
30.148625
28.951764
26.148558
22.609830
20.393729
18.175840
17.856956
15.398860
15.174747
15.863776
17.417669
18.623471
18.596649
20.781755
21.841526
24.407506
26.320815
28.847456
31.291842
37.017465
39.273500
45.616627
50.002933
56.559443
62.529445
67.141652
69.909692
75.553656
76.977611
82.688928
88.823438
89.238882
97.883940
104.264617
103.260875
112.543702
113.711953
121.053457
126.192570
127.605796
133.009553
138.227940
140.881538
147.635937
147.248507
154.415965
157.516003
158.050656
157.241821
162.594914
159.980655
166.893005
161.646605
165.982842
157.696009
154.701471
154.109001
152.414441
156.325698
156.623721
154.325962
165.154934
182.345510
198.611617
222.131610
252.173543
270.549655
296.994448
319.828987
334.144831
328.480005
326.745510
314.581990
282.402635
256.058574
220.194459
194.098949
158.650875
135.981441
115.516782
102.123618
93.213916
87.206960
86.135864
82.758665
92.877746
107.408762
133.645535
160.663724
212.880969
258.924961
338.477492
##ZVALUE=215
511.280894
491.383672
375.297666
239.391923
153.698921
92.973709
63.866973
44.840574
41.801929
39.930940
35.760999
29.445887
22.476912
22.507906
20.900965
18.999577
21.343827
20.879507
22.765994
23.758411
25.286674
27.195811
32.439828
37.061572
40.810704
49.010515
51.023960
55.855513
61.669946
65.625906
69.331527
74.706674
81.565976
84.696412
93.061924
96.674562
105.384588
110.876560
120.434761
123.340487
128.602982
137.266517
146.445632
159.612894
164.240003
169.451833
172.683597
177.691579
185.595751
195.746422
201.684833
205.484629
205.980539
207.045674
214.118958
215.272903
214.209557
215.477943
215.631723
204.165578
207.494497
205.083489
199.370980
199.009776
200.913548
203.454494
210.733414
220.822692
231.755972
248.895884
266.128778
278.035998
292.863846
299.217701
294.862986
289.599895
271.781683
251.004696
221.554637
200.964808
172.706842
153.745413
131.112933
120.050907
104.135871
100.131631
93.701482
86.836815
79.462528
83.992481
74.325800
76.724887
77.206492
83.169937
101.490617
127.643943
##ZVALUE=220
1015.870571
1015.870571
1015.870571
973.517895
789.685845
527.151823
357.369781
190.610886
115.504861
76.180696
57.563782
53.862929
51.835775
42.347908
35.305619
30.646920
24.403930
20.870566
22.354722
23.069978
24.948716
25.664568
26.000738
30.486584
31.515956
37.605762
40.505528
42.650700
46.219826
53.715706
55.871606
62.122941
66.055655
73.047876
82.902908
89.468956
97.527504
107.526779
120.009780
134.746432
143.214464
157.233477
164.262652
176.064968
190.247893
201.507807
211.323500
222.476721
234.760642
248.937607
244.206786
256.442428
270.485878
271.138549
271.968842
275.954008
269.843936
273.477435
271.226764
269.753933
261.694789
262.875557
253.228545
244.819522
244.653821
238.214731
247.002840
247.201920
252.391696
261.202455
267.706513
274.677873
281.590819
277.316570
270.820856
260.425806
239.803791
219.138861
199.665427
178.355575
163.695812
142.610669
131.403804
115.872622
107.991695
99.175572
88.910460
85.929632
81.441998
75.887442
76.835752
70.924759
69.042444
69.127679
67.496896
65.220594
##ZVALUE=225
1015.870571
1015.870571
1015.870571
1015.870571
1015.870571
1015.870571
1015.870571
995.600820
689.157844
430.295467
202.847719
112.675428
78.738928
76.887608
69.906712
61.536431
51.970482
43.092966
36.806464
29.422641
25.351644
24.139881
25.450587
27.487874
27.731657
30.406713
31.243563
35.003424
35.084486
40.678978
42.042732
48.914552
54.486990
68.601966
73.630810
87.480545
101.271868
117.458701
128.355622
146.819949
158.533454
175.130963
191.238523
209.903717
226.600766
244.472623
259.460807
271.591544
285.705924
303.544998
310.308933
320.982933
324.979424
331.946015
338.688493
338.695645
341.141820
340.803862
341.666937
334.119797
326.480865
317.201018
308.714509
305.187702
300.539732
291.386843
289.000869
286.445618
292.156935
290.740728
293.370485
293.816924
290.885568
282.656550
275.941491
250.520706
243.108869
219.116807
199.060440
177.787542
161.367655
143.265724
129.890442
116.887689
112.153888
101.227760
97.234845
94.156861
89.081526
81.660748
79.763532
78.612566
74.545741
70.518851
68.612695
66.621900
##ZVALUE=230
759.892464
842.800736
1015.870571
1015.870571
1015.870571
1015.870571
1015.870571
1015.870571
1015.870571
1015.870571
1015.870571
712.464452
329.626799
189.002752
112.060905
100.021958
97.223520
90.172887
79.192519
64.326525
52.936673
39.805770
34.044981
28.594732
26.712418
27.521849
27.864575
30.762553
32.543540
34.129620
37.154555
43.453574
47.829747
58.193803
70.387721
82.308650
98.901987
114.607811
130.585432
150.793791
161.345601
178.592801
201.273561
217.192769
228.976607
247.353911
262.467861
276.278853
291.159749
305.351615
317.560434
326.500535
334.948897
339.626670
341.387987
347.350836
350.209475
348.241925
340.368748
341.068506
331.745744
326.985717
318.608880
308.481455
301.089883
294.238925
287.781954
285.743475
283.876657
286.125541
283.778906
280.515552
272.654891
267.900825
255.724788
243.802667
221.774578
205.562711
185.103416
164.819956
149.457455
137.381554
124.174953
114.388466
106.402636
101.407766
92.686415
88.252425
83.673596
81.510544
77.360868
73.788762
70.208907
70.710778
67.359805
65.219998
##ZVALUE=235
146.743655
179.067850
396.692753
945.984721
1015.870571
1015.870571
1015.870571
1015.870571
1015.870571
1015.870571
1015.870571
1015.870571
1015.870571
1010.641456
552.916527
295.093656
145.405531
118.736625
116.526484
114.606619
105.497837
87.306499
74.057579
55.003762
42.638779
34.667850
31.460524
28.226972
30.184984
29.986501
31.340718
37.742853
40.298700
50.406456
56.633949
67.905784
78.163743
92.409849
101.884604
117.391944
127.100945
140.085816
153.699517
163.526535
174.862742
185.857415
194.710493
212.188959
218.354464
227.834582
235.442519
244.122744
244.635940
252.714753
252.416730
258.831978
261.006951
259.376764
257.208943
249.787569
243.418813
240.506530
238.867998
228.686929
227.307677
219.989419
217.182636
214.085579
215.914845
215.295553
216.852427
214.610696
211.740732
205.850601
196.997523
185.785890
173.166990
155.359507
144.189596
129.012465
116.287470
106.805563
97.684860
91.486573
86.628795
80.338717
78.523755
73.787570
69.419742
68.535805
64.369440
62.958002
61.796904
58.085918
57.725906
56.846738
##ZVALUE=240
6.872416
7.772446
39.921999
127.449632
414.456725
824.232697
1015.870571
1015.870571
1015.870571
1015.870571
1015.870571
1015.870571
1015.870571
1015.870571
1015.870571
1015.870571
889.002085
418.334603
227.312446
131.206512
127.446651
128.784776
125.860572
113.292933
90.930462
78.246593
60.942769
48.803687
37.516952
34.154654
32.431483
32.803416
33.634901
39.476752
43.726563
48.883557
54.664612
61.493516
65.610409
72.711706
77.529550
84.493756
93.699694
100.132823
104.424953
112.493634
115.957856
122.513771
127.286911
132.888556
138.033628
140.154958
143.147707
145.199895
151.352882
148.705840
148.535967
147.839785
146.828890
146.647692
141.797662
139.389634
138.064623
134.109855
132.494569
130.845904
131.660700
134.794712
135.380626
139.512420
141.559839
144.611597
145.948529
140.484571
132.788420
125.996470
117.507577
106.313825
96.983910
84.708929
78.672767
71.684718
67.909956
63.966513
60.688853
56.825876
55.371523
53.466558
51.146746
51.408410
49.051642
49.582720
47.559738
47.575831
46.781898
47.742724
##ZVALUE=245
4.818439
4.435778
5.557537
6.638765
19.428730
71.089864
279.987454
625.388026
1015.888453
1015.888453
1015.888453
1015.888453
1015.888453
1015.888453
1015.888453
1015.888453
1015.888453
1015.889049
1015.889049
646.913648
330.864787
174.500942
123.696923
128.479004
135.064721
131.209493
116.294622
101.019740
80.733895
66.654682
54.072738
42.386651
36.515594
33.866763
35.007000
38.724542
40.367842
42.879581
45.693517
49.191713
52.477717
58.509707
59.213638
65.104961
68.572760
71.859956
75.218678
79.828501
82.767606
86.442828
88.420510
92.803836
92.964768
95.463991
95.819831
95.450878
97.181797
96.774697
95.193982
95.013976
92.759728
92.742443
88.977814
88.643432
86.179972
88.257790
89.759827
89.702606
92.953444
96.269846
99.060535
103.203654
100.013614
100.512505
96.811652
89.784861
83.868504
76.193810
70.004463
61.035752
57.535768
51.465631
48.440695
47.087669
44.640899
43.009520
42.764544
41.466951
40.830970
40.244460
40.217638
39.258599
39.668679
39.209723
39.090514
40.175915
##ZVALUE=250
4.050732
4.184842
4.243851
5.167723
5.291700
6.169677
8.366704
43.782592
146.922469
369.100571
955.450535
1015.870571
1015.870571
1015.870571
1015.870571
1015.870571
1015.870571
1015.870571
1015.870571
1015.870571
1015.870571
955.212712
531.414747
211.523771
125.413537
124.134421
132.615566
139.563680
134.838820
123.121738
109.412670
86.467862
72.067976
53.896904
46.328902
41.073561
38.484931
41.266680
43.071508
46.145916
49.098730
52.989721
55.364966
58.720708
62.916875
66.972971
70.274472
73.966980
77.289939
81.928968
82.982779
86.264610
88.380575
89.005828
91.076493
90.896487
92.770457
91.175437
91.586709
89.398623
90.053678
86.607933
86.037517
84.810853
84.571838
82.066655
82.569718
83.805919
86.201429
88.143945
87.997913
92.117786
91.294646
89.537501
85.519552
80.340505
74.477792
66.652894
61.126947
55.891871
51.026940
46.750903
43.914914
40.569901
40.148497
38.874745
37.581921
36.934614
37.564635
36.026835
36.127567
35.534501
35.811663
35.353899
35.384893
35.707951
##ZVALUE=255
3.703833
3.398657
3.943443
4.397631
4.803538
4.759431
5.056858
5.882978
7.270575
15.844703
99.043846
280.658603
621.472597
1015.918851
1015.918851
1015.918851
1015.918851
1015.918851
1015.918851
1015.918851
1015.918851
1015.918851
1015.918851
1015.918851
714.977980
364.834666
157.314539
112.421513
123.098493
137.058496
142.659545
142.882466
132.476687
115.239620
98.265409
79.781413
66.822767
57.649612
53.482652
53.886771
56.017637
60.536861
63.804984
70.004463
73.448420
79.435706
83.701611
87.862611
92.559457
98.457932
99.263787
104.777813
106.046796
107.766986
108.604431
110.731721
111.011863
110.233426
110.351443
108.737946
107.104778
105.769634
102.789998
101.113915
99.791884
97.783804
96.233487
95.316768
94.609857
96.462965
94.538927
95.601678
93.002915
88.510513
85.673928
78.500509
74.135661
66.552758
62.023997
55.718422
50.973892
46.674609
44.718981
41.931868
40.464997
38.619637
38.152933
36.559701
36.518574
34.468770
34.360886
33.458471
33.067465
33.063889
34.212470
32.912493
##ZVALUE=260
3.359914
3.352761
3.651977
3.549457
3.951788
4.270673
4.606843
4.609823
5.453825
5.792975
6.565452
10.746717
37.132502
177.786946
424.790978
873.367786
1015.870571
1015.870571
1015.870571
1015.870571
1015.870571
1015.870571
1015.870571
1015.870571
1015.870571
1015.870571
1015.870571
605.605841
290.074944
125.006437
107.707977
125.785470
140.976906
153.820515
153.377652
146.752596
134.840608
115.677714
103.057623
89.309812
83.310604
82.292557
83.631873
88.365674
94.421506
103.360415
107.123852
116.307735
121.014714
128.197670
133.006573
134.406686
139.592886
143.034458
144.718885
146.867633
146.648884
145.692825
144.001842
142.208934
139.726996
136.660933
134.698749
131.741762
128.076673
125.318766
121.430755
118.220448
116.282701
114.821792
112.095475
109.305978
104.939938
99.658966
95.635653
87.727904
83.088875
75.215697
69.524646
63.536763
58.575869
55.101514
51.307678
47.807693
46.420693
43.392777
42.416453
39.302707
37.950873
36.997795
35.721660
34.141541
34.219623
33.620000
33.129454
33.336878
##ZVALUE=265
3.041625
3.350973
3.155470
3.422499
3.604889
3.819466
4.133582
4.413724
4.697442
5.216599
5.566478
5.907416
6.590486
8.288622
16.738772
68.365932
295.610428
672.792792
1015.870571
1015.870571
1015.870571
1015.870571
1015.870571
1015.870571
1015.870571
1015.870571
1015.870571
1015.870571
1015.870571
961.225033
496.484637
168.011785
103.745461
116.668940
135.834813
159.137845
171.728730
176.544785
175.179839
161.852837
149.344802
137.265921
128.892660
126.043558
126.670003
133.620501
138.855577
147.324800
153.151751
163.300633
168.820620
174.471736
179.093480
182.885528
184.555650
186.886787
187.151432
186.063647
186.180472
182.699561
180.417895
175.160766
170.433521
166.458488
161.262751
154.416561
152.438879
146.457553
144.907832
138.574839
135.567784
131.575465
126.215816
120.571852
112.693906
103.524923
96.079707
88.247657
81.497431
73.936582
68.267584
62.304735
59.097409
55.348873
52.734613
48.595667
46.086907
44.335723
43.226480
40.798783
38.751960
36.379695
36.442876
34.963489
34.894943
34.211874
##ZVALUE=270
2.894998
2.941489
3.184676
3.082752
3.268719
3.253818
3.943443
3.954768
4.015565
4.284978
4.459620
4.955530
5.567670
5.972981
6.449819
7.169843
9.226799
38.544536
134.989619
519.999862
1006.071568
1015.811563
1015.811563
1015.811563
1015.811563
1015.811563
1015.811563
1015.811563
1015.811563
1015.811563
1015.811563
1015.811563
919.687748
317.632556
142.965913
111.389756
134.575963
167.083740
189.212561
209.762454
216.747522
217.570662
212.433934
199.622512
192.209482
186.412930
184.491873
188.211799
190.568566
200.095773
206.309557
212.139487
218.511820
222.846866
226.088762
229.146481
230.107903
227.994919
227.459669
224.611759
218.595862
212.823749
207.145810
200.366974
195.750594
188.544989
180.414915
176.140666
170.345902
164.427757
157.835484
151.869655
145.690441
135.787725
127.764940
117.557645
111.693740
101.887584
93.659759
84.386468
78.862906
72.151423
67.686439
63.297749
59.226751
55.835843
52.292943
48.455596
46.722889
43.970942
42.621493
39.946437
38.355589
37.649870
36.904812
35.547614
##ZVALUE=275
2.974868
3.005862
3.119707
3.251433
3.279448
3.529787
3.624558
3.411770
3.965497
3.894567
4.390478
4.459620
4.871488
5.019903
5.391836
6.007552
6.737709
7.579923
8.417964
15.639663
66.493750
333.600044
795.868635
1015.870571
1015.870571
1015.870571
1015.870571
1015.870571
1015.870571
1015.870571
1015.870571
1015.870571
1015.870571
1015.870571
1015.870571
591.153502
260.665417
129.978657
138.973594
173.922777
198.905468
233.317614
250.720978
265.230536
269.649625
261.961818
256.159902
246.788859
242.412686
239.517689
241.150856
243.543983
247.499943
251.329541
255.151987
257.743001
258.975625
256.129503
252.751708
250.573754
246.186852
239.291787
232.192874
225.529671
219.304562
210.026503
201.830864
195.367932
189.917684
181.025863
173.796415
166.188478
160.099864
149.568915
139.605999
128.377676
121.033788
109.470487
101.945996
91.553926
85.458755
78.371763
73.647499
68.738461
64.799786
59.114695
56.076646
53.099990
50.349832
47.255754
44.774413
42.502880
40.672421
39.592981
39.596558
37.437677
##ZVALUE=280
2.931952
3.008842
2.994537
3.020763
3.306866
3.475547
3.326535
3.679991
3.534555
3.863573
4.029870
4.248619
4.465580
4.622936
4.903674
5.184412
5.578995
6.222725
6.630421
7.046461
8.819699
10.427833
51.491857
192.857385
703.129768
1015.878916
1015.878916
1015.878916
1015.878916
1015.878916
1015.878916
1015.878916
1015.878916
1015.878916
1015.878916
1015.878916
1015.878916
923.014879
435.496569
171.496868
145.790577
174.112916
201.440454
240.035653
262.930989
287.632942
298.265815
302.580595
300.015807
288.948417
281.866789
270.967484
265.265703
260.839462
261.046886
260.253549
261.482000
261.873007
258.296728
254.172683
250.476003
244.133472
236.714482
228.365660
222.840905
212.561488
205.115676
198.321939
190.455914
180.760622
175.127983
165.779591
158.578753
147.647858
137.634873
126.585960
118.985772
109.397769
101.496577
90.970993
86.106658
79.319477
74.388981
69.763660
65.142512
59.923530
57.070851
53.558946
50.275922
47.702789
44.971704
42.048693
40.911436
39.037466
38.366914
37.195683
##ZVALUE=285
2.847910
2.607703
2.844930
3.237724
3.178716
3.309846
3.141761
3.306866
3.488660
3.572702
3.714561
3.967881
3.983974
4.139543
4.474521
4.680753
4.872680
5.087852
5.402565
6.035566
6.430745
7.562637
8.549690
10.119677
17.504692
108.964443
320.831537
943.614841
1015.870571
1015.870571
1015.870571
1015.870571
1015.870571
1015.870571
1015.870571
1015.870571
1015.870571
1015.870571
1015.870571
1015.870571
784.592032
274.042487
153.193474
154.919624
177.332759
210.950971
239.064693
269.278884
287.072659
300.040841
303.344727
295.915008
287.186503
270.308852
260.569453
246.892571
240.703821
233.026743
231.242776
227.518678
222.856998
216.788650
213.416815
204.267502
200.323462
191.358924
185.212493
177.244544
169.874430
163.192749
156.204700
149.589777
143.018961
133.429766
124.984980
115.826726
107.348561
97.960830
91.645718
83.777905
78.590512
72.426796
67.856908
62.925816
60.198903
55.169463
52.651763
48.945546
46.849847
43.532848
41.108727
38.728714
37.487745
36.223531
35.084486
34.300685
##ZVALUE=290
2.693534
2.647638
2.770424
2.845526
2.567768
2.916455
2.979636
3.179908
3.282428
3.432631
3.674626
3.594756
3.594756
4.003644
3.928542
4.107952
4.185438
4.761815
4.945993
5.298853
5.385876
6.186962
6.860495
7.499456
8.515716
9.799600
12.122989
29.631853
177.049637
504.837632
1007.216573
1015.825868
1015.825868
1015.825868
1015.825868
1015.825868
1015.825868
1015.825868
1015.825868
1015.825868
1015.825868
1015.825868
1015.825868
445.802808
189.593434
125.437975
138.186812
161.918998
185.227990
216.944814
236.900449
258.041620
265.851617
263.318419
255.626440
236.840844
223.198533
204.116702
191.028714
179.013610
172.308683
165.178776
159.689784
155.209899
150.796771
144.341588
141.655803
135.246515
131.677985
125.567913
122.181773
115.060806
111.867785
102.981925
97.951889
89.907646
84.058642
77.158809
71.456432
65.856576
62.076449
56.988001
54.407716
51.091909
48.228502
44.909716
43.057799
39.929748
37.808418
35.864711
35.038590
32.432675
31.667948
30.671954
29.797554
28.854609
##ZVALUE=295
2.446771
2.599955
2.640486
2.768636
2.669692
2.996922
2.841949
2.972484
3.097653
3.232956
3.271699
3.324747
3.454685
3.573895
3.761649
3.760457
3.806949
4.278421
4.510880
4.479885
4.997849
5.246997
5.668998
6.713867
6.659627
7.659793
8.388758
9.294748
10.760427
14.557838
76.687932
261.347890
900.622606
1015.870571
1015.870571
1015.870571
1015.870571
1015.870571
1015.870571
1015.870571
1015.870571
1015.870571
1015.870571
1015.870571
1015.870571
791.185498
248.730779
112.103820
96.072555
107.023716
126.596689
142.970681
168.207884
184.016824
198.913813
204.037428
198.622942
188.932419
170.597434
154.938698
134.177804
120.318532
107.020736
100.585818
94.220638
90.369582
87.394714
84.646940
82.954764
80.036521
78.460574
75.821877
72.315931
68.933964
64.040422
59.181452
54.818988
51.280856
47.479868
45.167804
41.952729
39.379597
36.584735
35.088658
33.629537
32.153726
30.548573
29.300451
27.886629
27.259588
26.564598
25.469661
24.637580
24.380684
23.450851
23.932457
##ZVALUE=300
2.359748
2.410412
2.460480
2.459884
2.624989
2.486706
2.745986
2.856851
2.966523
2.823472
2.819896
3.096461
3.006458
3.263950
3.348589
3.531575
3.658533
3.613830
3.886819
4.235506
4.335642
4.357696
4.749894
5.078912
5.547404
6.054640
6.598830
7.176995
7.881522
9.129643
10.285974
11.839867
30.578375
134.792924
587.479472
1015.870571
1015.870571
1015.870571
1015.870571
1015.870571
1015.870571
1015.870571
1015.870571
1015.870571
1015.870571
1015.870571
1015.870571
1015.870571
423.417687
152.037740
62.405467
61.962605
71.597695
82.243681
100.131631
115.785003
134.232640
144.267678
148.418546
145.169497
131.976604
118.487477
97.429752
83.150864
66.297650
57.431459
50.323606
47.325492
44.900775
44.745803
44.162869
43.957829
41.882992
40.102601
37.538409
34.812689
32.307506
29.711723
27.962923
26.232600
24.790764
24.021864
23.342967
22.116899
21.028519
20.905733
20.308495
19.684434
19.362569
19.130707
19.008517
18.523932
18.410683
18.048882
17.942786
17.787814
##ZVALUE=305
2.414584
2.411604
2.250671
2.317429
2.361536
2.340674
2.487898
2.625585
2.573729
2.748966
2.802610
2.868772
2.920628
2.756715
2.851486
3.016591
3.350973
3.281832
3.384948
3.741980
3.827810
3.973842
4.254580
4.633665
4.711747
5.139709
5.474687
5.945563
6.605983
6.917715
7.521510
8.680820
9.591579
11.551976
15.544891
87.468624
298.642516
958.871841
1015.877724
1015.877724
1015.877724
1015.877724
1015.877724
1015.877724
1015.877724
1015.877724
1015.877724
1015.877724
1015.877724
1015.877724
783.854723
215.824842
68.718791
39.742589
41.739941
49.386621
59.360862
75.471997
88.856816
105.719566
114.896894
118.278861
114.430785
102.638602
90.404749
71.138740
58.332682
44.433475
37.185550
31.788945
29.831529
28.565526
27.733445
25.581717
24.217963
22.206903
20.437837
18.865466
18.074512
17.003417
16.653538
15.435815
15.671849
15.281439
15.135407
15.078783
14.972687
14.489889
14.472604
14.446974
14.689565
14.227629
14.164448
14.182925
14.490485
14.882684
##ZVALUE=310
2.131462
2.209544
2.116561
2.206564
2.059937
2.257824
2.252460
2.548695
2.475977
2.547503
2.390742
2.410412
2.684593
2.483726
2.809763
2.762675
2.950430
3.055930
3.109574
3.162622
3.434420
3.472567
3.721714
3.872514
4.166961
4.244447
4.844666
4.887581
5.623698
5.814433
6.222725
6.932616
7.423759
8.387566
9.238720
10.713935
12.473464
34.379363
134.044886
569.138527
1015.864611
1015.864611
1015.864611
1015.864611
1015.864611
1015.864611
1015.864611
1015.864611
1015.864611
1015.864611
1015.864611
1015.864611
1015.864611
435.591936
135.306716
33.329725
28.795600
30.712485
35.451651
46.186447
56.764483
73.915720
85.848570
97.493529
102.499723
100.748539
94.262958
80.163479
67.264438
50.953627
41.536689
31.731725
26.070476
21.633506
19.440651
16.423464
15.492439
13.858676
13.240576
12.676716
12.279749
12.098551
11.939406
11.892915
11.896491
11.978745
11.888742
11.962652
11.909604
11.558533
11.967421
11.885762
11.928678
11.956692
12.078881
12.335777
##ZVALUE=315
2.010465
1.942515
1.917481
2.094507
2.185702
2.233982
2.063513
2.219677
2.140999
2.388954
2.435446
2.573729
2.415776
2.450943
2.610683
2.698898
2.702475
2.744794
2.842546
3.034472
3.066659
3.303885
3.455877
3.509521
3.668666
3.963709
4.158616
4.465580
4.719496
5.079508
5.274415
5.815625
5.810857
6.590486
7.342696
8.563995
9.128451
10.463595
11.771917
17.266870
59.424043
326.697826
833.408833
1015.870571
1015.870571
1015.870571
1015.870571
1015.870571
1015.870571
1015.870571
1015.870571
1015.870571
1015.870571
1015.870571
1015.870571
664.690733
233.463645
47.543645
25.511980
24.608970
25.814772
31.564832
38.695931
51.219463
63.868761
79.516768
89.154840
96.732974
96.433759
88.303685
78.773499
62.993765
50.775409
35.520792
26.950836
19.169450
16.139746
13.127923
12.238622
11.342764
11.227727
10.617971
11.052489
10.755658
10.827780
10.415912
10.835528
10.703802
10.543466
11.010766
10.914803
10.916591
10.952950
10.789633
10.971427
11.157990
##ZVALUE=320
1.947880
1.726747
1.757741
1.846552
2.015829
1.892447
2.052784
1.973510
2.139807
2.125502
2.274513
2.237558
2.342463
2.334714
2.299547
2.286434
2.635717
2.724528
2.755523
2.751946
2.978444
2.800822
2.962947
3.050566
3.563762
3.492832
3.568530
3.996491
4.014969
4.064441
4.562736
4.728436
5.208850
5.548596
5.945563
6.722808
7.092953
7.972717
8.728504
9.770989
10.785460
13.147593
25.843978
162.858367
500.012636
1015.870571
1015.870571
1015.870571
1015.870571
1015.870571
1015.870571
1015.870571
1015.870571
1015.870571
1015.870571
1015.870571
1015.870571
980.771780
447.742939
93.198419
30.377507
22.119880
21.563768
23.197532
26.974678
35.821795
46.044588
62.114596
74.080825
87.871552
93.575716
93.173981
86.616874
72.504878
59.259534
42.507648
32.250881
22.011995
16.634464
13.066530
11.616945
10.818839
10.701418
9.909868
10.333657
10.295510
10.372996
10.279417
10.322928
10.120869
10.447502
10.545850
10.680556
10.702610
10.688901
11.053681
##ZVALUE=325
1.669526
1.622438
1.694560
1.710653
1.781583
1.716614
1.685619
1.789927
2.012849
1.928806
1.952648
2.042651
2.075434
2.102852
2.242923
2.169609
2.221465
2.335906
2.544522
2.513528
2.585649
2.578497
2.568960
2.713799
2.970695
3.093481
3.201962
3.363490
3.712773
3.888607
3.842711
4.232526
4.282594
4.613996
4.873872
5.189776
5.739927
6.116629
6.664991
7.631779
7.997751
9.417534
10.298491
11.724830
15.686750
92.792511
301.196575
927.527547
1015.752554
1015.752554
1015.752554
1015.752554
1015.752554
1015.752554
1015.752554
1015.752554
1015.752554
1015.752554
1015.752554
1015.753150
699.386597
169.030428
45.646429
21.969676
20.635724
20.109415
21.868944
27.393699
34.797788
48.767924
59.678555
73.724985
81.626773
87.255836
85.062981
76.231956
65.036416
51.094890
39.111972
26.555657
19.940734
14.377832
12.137890
11.034608
10.372996
9.845495
9.961724
10.240674
9.989738
10.241866
10.290742
10.258555
10.425448
10.526776
10.527968
11.057854
##ZVALUE=330
1.702905
1.685619
1.670718
1.586676
1.774430
1.762509
1.700521
1.762509
1.739860
1.838803
2.166629
2.081990
2.146959
2.042651
2.008677
2.114773
2.150536
2.333522
2.341866
2.330542
2.577901
2.475977
2.417564
2.741814
2.842546
3.075600
2.951622
3.279448
3.077984
3.631711
3.560781
3.782511
3.907681
4.211664
4.423857
4.771948
4.932880
5.208850
5.792975
6.172657
6.491542
6.917715
7.732511
8.573532
9.562969
11.092424
12.569427
35.790801
137.844086
592.097640
1015.870571
1015.870571
1015.870571
1015.870571
1015.870571
1015.870571
1015.870571
1015.870571
1015.870571
1015.870571
1015.870571
1015.870571
985.524058
333.597660
93.380809
23.897886
20.732880
20.087957
20.786524
24.176836
27.707815
35.865903
44.280887
56.543946
65.939426
74.918866
77.997446
76.298714
70.812702
59.038997
48.902631
35.655499
27.455688
19.454956
15.374422
12.481809
11.278987
10.489821
10.479689
10.093451
10.248423
10.217428
10.781884
10.659695
10.929704
11.144876
##ZVALUE=335
1.464486
1.580715
1.596808
1.609921
1.679659
1.649857
1.669526
1.895428
1.859665
1.803637
1.866817
1.746416
1.820922
1.851916
1.755953
1.918674
2.114773
1.968741
2.111793
2.241731
2.259612
2.242923
2.489686
2.461672
2.422929
2.651811
2.706647
2.866983
2.951622
2.969503
3.372431
3.359914
3.609657
3.469586
3.977418
4.117489
4.346967
4.495978
4.958510
5.411506
5.429983
5.887747
6.404519
6.720424
7.231832
7.990599
8.958578
10.035634
11.312962
17.857552
62.457919
328.584909
813.736916
1015.870571
1015.870571
1015.870571
1015.870571
1015.870571
1015.870571
1015.870571
1015.870571
1015.870571
1015.870571
1015.870571
1015.870571
519.148707
170.358419
35.242438
22.557974
21.489859
21.342635
21.104813
22.401810
26.126504
30.847788
40.099621
48.152804
59.852004
67.023635
71.908832
71.194768
65.061450
57.769418
46.888590
37.872791
27.005672
21.119714
15.613437
12.997985
11.472702
11.022687
10.777712
10.691881
10.764599
11.146665
11.334419
##ZVALUE=340
1.456738
1.522899
1.536608
1.660585
1.502633
1.675487
1.676679
1.662970
1.706481
1.785755
1.799464
1.833439
1.762509
1.824498
1.722574
1.843572
1.860857
2.006888
1.889467
2.036691
2.345443
2.192855
2.261996
2.312660
2.520680
2.307892
2.602935
2.559423
2.704859
2.877712
2.932549
3.104806
3.222823
3.464818
3.647804
3.867745
3.956556
4.257560
4.435778
4.435778
4.855990
5.085468
5.198717
5.724430
6.071925
6.560683
7.146597
7.828474
8.372664
9.533763
10.294914
13.065934
28.617382
180.065632
537.616611
1015.869975
1015.869975
1015.869975
1015.869975
1015.869975
1015.869975
1015.869975
1015.869975
1015.869975
1015.869975
1015.869975
1015.869975
792.346597
277.401805
48.183799
25.253892
22.966862
21.556616
19.961596
18.913746
19.368529
21.377802
27.526617
34.788847
46.333671
55.254698
64.296722
67.154765
66.811442
63.468814
54.766536
46.291947
35.745502
27.935505
20.501614
16.522408
13.150573
12.251735
11.602640
11.557937
11.664629
##ZVALUE=345
1.622438
1.690984
1.602769
1.649857
1.581907
1.660585
1.568794
1.665950
1.858473
1.678467
1.621842
1.900792
1.828671
1.800656
1.746416
1.779795
1.924634
2.049804
2.003908
1.862645
2.150536
2.065897
1.998544
2.213717
2.301931
2.296567
2.376437
2.550483
2.580881
2.729893
2.837777
2.965927
2.892613
3.298521
3.220439
3.413558
3.369451
3.650784
3.699660
4.090667
4.062653
4.453659
4.700422
4.727840
5.040765
5.485415
5.907416
6.254911
6.821752
7.243752
7.925630
8.706450
9.747744
11.176467
15.923381
91.840625
315.282941
957.522988
1015.870571
1015.870571
1015.870571
1015.870571
1015.870571
1015.870571
1015.870571
1015.870571
1015.870571
1015.870571
1015.870571
987.965465
451.462865
100.660920
34.626722
24.361610
22.505522
18.793941
16.763806
15.485883
15.767813
19.378662
24.276972
33.487678
41.339993
51.513910
57.592988
62.990785
63.618422
60.193539
54.298639
44.680834
36.730766
27.428865
22.202730
17.245412
14.795661
13.394952
##ZVALUE=350
1.880527
1.869798
1.744628
1.840591
1.742840
1.813769
1.789927
1.873970
1.955628
1.916885
1.965761
2.046824
2.167821
2.069473
1.988411
2.109408
1.925826
2.143979
2.333522
2.277493
2.200603
2.151728
2.176762
2.451539
2.481937
2.507567
2.421737
2.620816
2.616644
2.791882
2.740622
2.911687
3.037453
3.130436
3.062487
3.283620
3.556609
3.501773
3.597736
3.863573
3.944635
4.061460
4.557967
4.501939
4.731417
5.064607
5.240440
5.533695
5.792975
6.324649
6.577969
7.238984
7.522702
8.617640
9.374619
10.627508
12.414455
41.408539
158.824325
636.305809
1015.979648
1015.979648
1015.979648
1015.979648
1015.979648
1015.979648
1015.979648
1015.979648
1015.979648
1015.979648
1015.979648
1015.979648
705.484748
158.459544
43.830872
22.220612
19.252896
16.312599
14.944673
13.912916
13.966560
15.332699
18.163919
23.025870
28.318763
37.553906
45.128465
53.630471
57.502985
59.335828
57.536960
51.319599
45.293570
35.468936
28.994679
23.015738
##ZVALUE=355
1.884699
1.827478
1.766682
1.927614
1.861453
1.802444
1.874566
1.904964
1.904964
1.972914
2.029538
2.205968
2.041459
2.127886
1.937747
1.963973
2.124906
2.303720
2.131462
2.231598
2.505779
2.329946
2.364516
2.404451
2.556443
2.533793
2.596974
2.748966
2.873540
3.059506
2.909899
3.112555
3.133416
3.363490
3.244877
3.355742
3.423691
3.468990
3.758669
3.748536
3.900528
4.085898
4.143715
4.385710
4.611611
4.613996
4.879832
5.186796
5.389452
5.795956
5.972981
6.445646
6.672740
7.339716
7.749796
8.469820
9.226799
10.482669
11.751652
20.499825
76.007843
391.238928
919.653773
1015.870571
1015.870571
1015.870571
1015.870571
1015.870571
1015.870571
1015.870571
1015.870571
1015.870571
1015.870571
1015.870571
909.975767
246.636868
67.517757
22.110939
18.972754
16.227961
14.942884
14.248490
13.803840
13.782978
14.676452
17.557740
20.896792
26.906729
32.768846
41.982532
48.796535
54.207444
55.944920
54.714680
51.207542
44.016838
##ZVALUE=360
1.860857
2.021790
1.835823
1.953840
1.898408
1.799464
1.942515
2.081990
1.839995
2.148747
1.987815
2.063513
2.083778
2.051592
2.219677
2.142787
2.193451
2.188683
2.199411
2.356768
2.507567
2.476573
2.373457
2.595782
2.547503
2.733469
2.834797
2.814531
2.872944
2.982616
3.159642
3.022552
3.178716
3.335476
3.509521
3.315806
3.657937
3.579855
3.820658
3.881454
3.857613
3.914833
4.102588
4.354715
4.557967
4.421473
4.706979
4.917979
5.014539
5.494952
5.605817
6.032586
6.126761
6.782413
6.925464
7.469654
7.686615
8.574724
9.364486
10.567904
11.965632
14.979839
31.843781
174.321532
512.427688
1015.855670
1015.855670
1015.855670
1015.855670
1015.855670
1015.855670
1015.855670
1015.855670
1015.855670
1015.855670
1015.855670
1015.855670
492.622852
154.174566
28.257966
19.039512
16.768575
15.657544
14.543533
13.732910
13.290644
13.122559
13.826489
15.221834
19.005537
23.230910
30.567646
36.833882
44.088960
49.135685
51.988959
##ZVALUE=365
1.737475
1.787543
2.046824
1.995564
1.901984
2.005696
1.922846
2.099872
2.051592
2.078414
1.853704
2.077818
2.188683
2.101660
2.137423
2.173781
2.215505
2.117753
2.296567
2.012849
2.227426
2.453923
2.408624
2.447963
2.411604
2.546906
2.680421
2.858639
2.721548
2.825856
2.862811
2.877712
2.832413
3.131628
3.103614
3.172755
3.272891
3.421903
3.519654
3.554821
3.669858
3.721714
3.841519
3.995895
4.249811
4.349947
4.232526
4.307628
4.687905
4.761815
4.664660
5.002618
5.324483
5.536675
5.853772
6.083846
6.585717
7.083416
7.352829
8.145571
8.860826
10.152459
11.348724
13.228655
17.470717
82.252622
284.591913
932.283998
1015.870571
1015.870571
1015.870571
1015.870571
1015.870571
1015.870571
1015.870571
1015.870571
1015.870571
1015.870571
1015.870571
760.324597
276.516676
46.949983
19.742846
16.218424
15.067458
13.783574
13.095737
12.705922
12.272000
12.302995
12.816787
14.600754
16.692877
21.012425
25.742650
32.762885
##ZVALUE=370
1.776814
1.693964
1.694560
1.789927
1.814961
1.741648
1.813769
1.826882
1.916885
1.838803
1.969934
1.984835
1.821518
1.824498
1.985431
2.015829
1.963973
1.961589
2.018809
1.934767
2.102852
2.083778
2.033710
2.272725
2.332926
2.237558
2.376437
2.432466
2.497435
2.472997
2.574921
2.645850
2.729893
2.811551
2.772808
2.877712
2.812743
2.972484
3.009439
3.030896
3.144741
3.394485
3.275871
3.440976
3.577471
3.534555
3.614426
3.722906
3.960729
3.809929
4.173517
4.209876
4.460812
4.440546
4.606843
5.030632
5.037785
5.360842
5.778670
6.164908
6.647706
7.387996
7.990599
8.812547
9.472966
11.174679
13.088584
42.695999
164.592862
655.242801
1015.870571
1015.870571
1015.870571
1015.870571
1015.870571
1015.870571
1015.870571
1015.870571
1015.870571
1015.870571
1015.870571
972.329974
453.665853
99.572539
28.039813
15.911460
14.389753
13.374686
12.704730
12.297630
12.003779
11.608601
11.589527
12.214780
13.372898
15.645623
##ZVALUE=375
1.456738
1.451969
1.479983
1.401901
1.471639
1.490712
1.557469
1.633763
1.495481
1.628995
1.707673
1.636744
1.661777
1.671910
1.691580
1.584888
1.606941
1.701713
1.909733
1.739860
1.783967
1.837611
1.916885
2.022982
1.708865
1.924634
1.858473
2.119541
2.028942
2.140999
2.164841
2.098680
2.234578
2.438426
2.420545
2.300739
2.577901
2.486706
2.617836
2.571940
2.638698
2.743602
2.821684
3.105998
3.154874
3.039837
3.230572
3.135800
3.057718
3.445745
3.315806
3.451705
3.641844
3.749728
3.773570
3.976822
4.092455
4.440546
4.651546
4.813671
5.101562
5.533695
5.830526
6.557703
6.993413
8.007884
9.037852
10.714531
12.254715
22.076964
74.231029
344.063640
881.120563
1015.861630
1015.861630
1015.861630
1015.861630
1015.861630
1015.861630
1015.861630
1015.861630
1015.861630
1015.861630
1015.861630
890.010595
253.821015
70.157647
17.558932
14.899969
13.661981
13.081431
12.018681
11.985898
11.571646
11.344552
11.525750
##ZVALUE=380
1.268983
1.293421
1.305938
1.339912
1.342893
1.223683
1.380444
1.342893
1.323819
1.351833
1.572967
1.343489
1.412630
1.455545
1.371503
1.395941
1.439452
1.406670
1.498461
1.502633
1.581907
1.591444
1.705885
1.690984
1.750588
1.944900
1.761913
1.710653
1.943707
1.989603
1.909733
2.121925
2.241731
2.170801
2.337694
2.380610
2.364516
2.387762
2.590418
2.565980
2.475977
2.678633
2.779961
2.621412
2.763867
2.837777
2.890825
2.967715
3.096461
3.072619
3.112555
3.215671
3.370643
3.406405
3.470778
3.511906
3.940463
4.016757
3.936887
4.234910
4.326701
4.590750
5.073547
5.658865
5.816817
6.680489
7.506609
8.630753
9.826422
11.541843
12.505651
15.527010
38.020015
223.457813
619.117022
1015.870571
1015.870571
1015.870571
1015.870571
1015.870571
1015.870571
1015.870571
1015.870571
1015.870571
1015.870571
1015.870571
1015.870571
434.833765
148.404837
28.653741
15.614629
13.902783
12.997985
12.249947
11.917949
11.411905
##ZVALUE=385
1.194477
1.184940
1.141429
1.313686
1.255870
1.257658
1.285672
1.085997
1.277924
1.215935
1.320839
1.219511
1.339912
1.192689
1.349449
1.344681
1.299977
1.224875
1.308918
1.339912
1.320839
1.512766
1.439452
1.573563
1.605749
1.587868
1.700521
1.840591
1.916885
1.857877
2.103448
2.147555
2.020597
2.155900
2.265573
2.198815
2.308488
2.258420
2.422929
2.504587
2.414584
2.536774
2.596974
2.738833
2.609491
2.876520
2.882481
2.899766
2.866983
3.041625
3.055930
3.120899
3.333688
3.386736
3.380775
3.425479
3.466606
3.614426
3.747940
3.965497
3.973842
4.417896
4.644990
4.813671
5.380511
6.246567
6.747842
7.568598
8.487701
9.373426
9.964705
10.309815
10.637641
11.602640
18.084645
106.354952
341.392756
978.823900
1015.871763
1015.871763
1015.871763
1015.871763
1015.871763
1015.871763
1015.871763
1015.871763
1015.871763
1015.871763
1015.871763
893.523693
344.956517
61.461926
19.459724
13.841987
13.111830
12.384653
##ZVALUE=390
1.207590
1.059771
0.928640
0.911951
1.101494
1.049638
1.168847
1.197457
1.250505
1.200438
1.244545
1.142621
1.044869
1.195669
1.294613
1.255870
1.244545
1.246929
1.319647
1.282692
1.381636
1.368523
1.477599
1.466870
1.495481
1.631975
1.637936
1.710653
1.769662
2.009869
1.973510
2.103448
2.092719
2.127886
2.205968
2.333522
2.434850
2.304912
2.532601
2.762675
2.568960
2.978444
2.894998
2.984405
3.132820
3.001690
2.939701
3.012419
3.268719
3.121495
3.264546
3.446937
3.322959
3.539920
3.441572
3.683567
3.741980
3.655553
3.810525
3.945827
4.164577
4.170537
4.409552
4.943609
5.402565
5.939603
6.670952
7.500648
8.169413
8.737445
8.830428
9.144545
9.235740
8.960962
9.254813
9.966493
12.164712
49.452782
187.370777
742.464662
1015.870571
1015.870571
1015.870571
1015.870571
1015.870571
1015.870571
1015.870571
1015.870571
1015.870571
1015.870571
1015.870571
1015.870571
614.705682
161.213875
39.189458
14.985800
##ZVALUE=395
1.055598
1.057982
1.138449
1.111627
1.125932
1.159906
1.067519
1.028776
1.111627
1.150966
1.299977
1.309514
1.191497
1.121759
1.288652
1.145601
1.293421
1.240969
1.256466
1.231432
1.352429
1.571774
1.557469
1.407862
1.540780
1.579523
1.666546
1.671910
1.850724
1.866817
1.805425
1.955628
2.139807
2.195835
2.069473
2.397895
2.428889
2.412796
2.567768
2.650619
2.704859
2.987981
3.010631
3.024936
3.071427
3.193617
3.097653
3.289580
3.390908
3.381968
3.415942
3.377795
3.538728
3.474951
3.675818
3.737807
3.665686
3.839731
3.938675
3.902912
4.016757
4.280806
4.630685
4.951954
5.270839
6.159544
6.598830
7.282495
7.702708
7.883906
8.061528
7.991791
7.861853
7.702708
7.799864
7.935762
8.611679
9.435415
10.685921
26.754737
113.608837
523.361564
1015.875936
1015.875936
1015.875936
1015.875936
1015.875936
1015.875936
1015.875936
1015.875936
1015.875936
1015.875936
1015.875936
1015.875936
917.902589
286.684632
##ZVALUE=400
1.244545
1.290441
1.194477
1.165867
1.058578
1.149774
1.107454
1.264811
1.220703
1.171827
1.272559
1.153946
1.303554
1.310706
1.213551
1.147985
1.190901
1.297593
1.292825
1.284480
1.508594
1.369715
1.394749
1.340508
1.598597
1.540780
1.701713
1.826882
1.706481
1.900792
1.973510
1.914501
2.059937
2.042651
2.162457
2.419949
2.549887
2.583861
2.759695
2.935529
2.879500
2.937913
3.008842
3.118515
3.115535
3.275871
3.378987
3.175735
3.469586
3.319979
3.438592
3.442764
3.624558
3.745556
3.776550
3.809929
3.787875
3.721714
3.991723
4.073977
4.312992
4.413724
4.550815
4.984736
5.383492
5.876422
6.406903
6.971955
7.206798
7.490516
7.453561
7.215738
6.942749
6.675720
6.611943
6.785989
6.967783
7.550716
8.155704
9.098649
10.188818
15.987754
51.807761
255.446434
667.104721
1015.870571
1015.870571
1015.870571
1015.870571
1015.870571
1015.870571
1015.870571
1015.870571
1015.870571
1015.870571
1015.870571
##END
