##TITLE=C105_R3
##FORMAT=SPECTACLE-ASCII V-1.2
##DATA TYPE=ULTRAVIOLET SPECTRUM
##SECOND TYPE=ULTRAVIOLET SPECTRUM
##DATE=05/28/18
##TIME=14:42:53
##SPECTROMETER/DATA SYSTEM=SPECTACLE
##XUNITS=NM EM
##YUNITS=ENERGY
##YFACTOR=1
##FIRSTX=220
##LASTX=410
##NPOINTS=96
##3DDATA=Equidistant
##ZUNITS=NM EX
##FIRSTZ=210
##LASTZ=400
##ZPOINTS=39
##XYDATA=(Y..Y)
##ZVALUE=210
105.912685
94.769001
64.442754
43.393970
31.606555
26.016831
25.711656
21.719933
22.252798
18.955469
17.356873
15.909672
19.146800
16.869903
18.323660
17.485619
19.622445
20.903945
20.627975
22.703409
24.837852
28.793812
32.308698
35.611987
37.210584
44.408441
50.609708
53.668618
60.201883
63.551664
67.541599
69.093704
73.127747
77.904463
86.292624
87.867975
92.906952
96.226931
105.651617
107.902884
114.359856
114.524961
118.452907
126.029849
127.158761
132.050514
136.235952
138.889551
144.870877
145.323873
148.425698
149.254799
154.213905
152.939558
156.076550
152.847767
157.360435
151.274800
152.592659
148.545504
148.016810
146.066546
150.203705
147.582889
147.390962
162.048936
172.746778
187.525749
208.879709
231.771469
260.947943
280.459523
295.710564
299.718976
300.832987
300.740600
275.608897
259.898901
223.825574
198.674798
166.757703
143.399835
122.744441
105.346441
98.739862
87.413788
80.053806
77.047944
78.506470
84.148645
103.849769
124.114752
168.644786
210.673809
278.732777
339.532495
##ZVALUE=215
500.130653
475.211740
365.273952
227.313638
148.642659
89.335442
60.238838
44.341683
40.272474
38.883686
30.436516
27.194619
24.437904
21.645427
20.137429
18.644929
20.001531
20.122528
20.821691
21.864772
26.094913
26.233792
30.190945
34.453869
38.851500
43.838620
48.739910
52.800775
59.008598
62.342882
65.915585
71.379542
76.898932
83.266497
88.414550
95.352530
102.430582
108.148456
114.953518
124.440789
130.822659
139.532685
140.028596
151.855946
159.084797
167.599916
176.855922
177.084804
184.154510
194.239616
197.935700
200.024843
203.600526
205.551982
209.910870
204.876661
209.420919
207.704902
204.899907
199.866891
199.980736
194.539428
196.962953
194.637775
193.038583
193.850994
201.770663
215.501785
223.709941
241.704583
251.121521
266.642570
276.762843
284.913778
276.656747
254.104733
249.744654
227.415562
207.190514
186.865926
165.271759
136.253834
123.297572
108.130574
99.625587
89.202523
85.117817
82.397461
79.498887
75.976849
75.779557
72.781444
74.840784
80.496669
95.561743
127.292871
##ZVALUE=220
1015.870571
1015.870571
1015.870571
935.723782
746.947527
492.422581
336.225629
179.336667
107.364655
73.170662
57.515502
52.999854
47.070980
41.572452
33.329725
28.234720
23.184419
22.317767
21.097660
22.388697
21.170974
24.704933
25.954843
28.947592
33.249855
36.545992
37.890673
41.584969
45.850873
48.786998
53.565502
59.176683
63.651800
71.562529
79.115629
92.758536
101.560950
115.196705
119.639635
132.826567
141.339898
160.452724
165.907741
182.685852
192.903876
200.153589
211.343765
224.682689
226.799846
237.663984
249.857903
256.865621
265.004635
271.129608
271.361470
272.317529
270.009637
269.047618
263.041854
266.217589
262.903571
255.571008
252.810717
246.238708
240.480900
237.923861
239.058733
245.616436
247.269869
259.876847
267.075896
271.700621
272.832513
276.352763
263.311863
253.412724
238.562822
216.886997
196.471810
173.820853
155.524611
133.697987
129.953623
113.327503
108.493567
93.717575
90.838671
85.530877
83.477497
74.969530
73.190928
70.623755
68.501830
67.703724
65.673590
63.963532
##ZVALUE=225
1015.870571
1015.870571
1015.870571
1015.870571
1015.870571
1015.870571
1015.870571
948.954821
624.909997
392.428637
184.110999
111.301541
80.884695
76.092482
69.006681
61.171651
48.964620
43.192506
33.563972
28.884411
24.989843
23.903847
23.720860
25.461912
26.439428
28.315783
31.271577
31.829476
35.816431
39.142966
42.025447
49.933791
56.858659
66.583753
74.838996
89.076757
100.860000
122.130513
132.098794
150.159001
160.566568
178.622007
195.022821
216.553807
227.026939
241.916776
256.809592
272.100568
288.658738
299.795866
311.597586
322.880745
325.209498
335.074663
337.533951
336.401463
336.690545
340.428948
337.296724
328.967571
324.186683
319.485664
311.692953
309.067965
301.730633
294.058919
282.735825
288.875699
285.259485
287.737846
289.848447
286.149979
286.239982
273.534656
265.780687
249.829888
233.686566
210.689902
195.752978
171.212554
153.326988
135.857463
125.655532
117.523670
108.319521
98.910928
94.711781
88.579655
86.779594
79.314709
77.995658
74.010491
72.402954
68.855882
64.695477
64.466596
##ZVALUE=230
782.268643
869.779587
1015.870571
1015.870571
1015.870571
1015.870571
1015.870571
1015.870571
1015.870571
1015.870571
1011.344790
654.442906
300.593972
175.482631
106.386542
98.241568
95.102787
91.084838
80.136657
61.767697
49.838424
38.979650
32.475591
26.591420
26.296973
26.150942
27.904510
29.476881
30.502677
31.564832
37.314892
41.445494
50.123930
58.836937
71.603656
84.359646
102.398992
113.591552
132.015944
150.827765
159.628987
185.103416
199.372768
217.924714
232.025981
252.076983
260.418653
278.789997
292.549729
307.424664
321.071744
329.892635
334.714651
343.775749
347.865820
345.552564
351.718664
351.736546
345.718861
341.145992
339.803696
326.179862
315.599442
308.972597
302.019715
297.823548
289.818645
288.589597
285.037756
285.379887
284.136534
280.550718
275.607705
260.680914
250.169635
239.237547
224.760771
200.153589
180.926919
167.225599
147.291422
135.997534
122.160912
113.118887
105.449557
100.387931
94.856620
89.902878
84.447861
80.573559
76.093674
72.961450
69.065690
65.370798
65.500736
63.535571
##ZVALUE=235
160.885453
192.635655
429.444909
968.051553
1015.870571
1015.870571
1015.870571
1015.870571
1015.870571
1015.870571
1015.870571
1015.870571
1015.870571
999.944806
542.491674
285.439491
141.857862
117.905736
117.538571
113.781691
104.331970
86.157918
71.544647
53.244829
43.416619
35.915971
32.606721
28.594732
29.915571
30.261874
33.073425
36.737919
42.369962
50.862432
57.178736
69.003701
80.915689
93.096495
103.988647
116.325617
130.633712
143.858790
156.053901
166.449547
177.156925
191.160440
199.127793
211.583972
224.133730
233.606696
243.646502
243.366957
249.308944
254.678726
257.036686
259.540677
259.853005
261.106491
255.639553
255.270600
245.043635
240.145922
236.911774
229.556561
225.928426
218.245983
220.191479
216.812491
215.758681
219.305754
219.509602
214.697719
214.428902
205.770731
198.597908
182.238817
172.453523
157.681704
143.078566
128.584504
118.051767
105.707645
96.857548
87.549686
84.612966
79.649687
75.053573
72.436929
69.853663
66.846609
63.069463
59.650540
62.024593
59.875846
58.814883
57.590604
##ZVALUE=240
7.372499
7.612705
44.767857
140.044689
445.547700
853.657722
1015.669703
1015.669703
1015.669703
1015.669703
1015.669703
1015.669703
1015.669703
1015.669703
1015.669703
1015.669703
859.757662
400.396585
219.934583
129.773617
128.486753
128.843784
122.373700
110.780597
90.028644
77.563524
57.271719
47.599673
37.045479
32.435656
30.695796
33.284426
35.168529
38.504601
42.318702
48.240423
53.276420
59.758425
66.045523
74.236989
79.279542
89.842677
97.389817
101.179481
106.907487
114.919543
117.904544
124.336481
130.706429
133.789778
140.888691
145.142674
147.540569
149.923563
150.135756
151.597857
150.887966
150.984526
150.342584
146.295428
146.342516
146.577954
140.603781
135.891438
134.129524
133.485794
134.551525
135.068893
137.965679
141.397715
144.277811
145.515800
142.318606
141.429901
134.278536
126.246810
117.641687
106.461644
97.116828
86.870790
78.933835
73.143840
67.748427
64.916611
61.807632
57.816505
55.251718
53.178668
52.636862
50.479770
50.195456
47.627687
48.087835
47.670603
47.614574
48.661828
##ZVALUE=245
4.800558
4.767776
5.369782
6.612539
22.187829
78.740716
301.530957
661.595464
1015.684605
1015.684605
1015.684605
1015.684605
1015.684605
1015.684605
1015.684605
1015.684605
1015.684605
1015.684605
1015.684605
617.090464
313.961506
166.249871
124.352574
131.531954
133.438706
129.202604
116.380453
101.899505
81.040859
66.093802
53.259730
41.458607
36.936998
33.827424
33.924580
37.602782
39.895773
44.775605
45.698881
51.020980
52.930713
58.722496
61.387420
65.021515
69.187880
74.260831
76.761842
79.888701
84.954500
88.353753
90.785623
93.583465
93.854666
96.142888
97.511411
100.507736
98.559856
98.614693
96.949935
97.820759
94.176531
96.191764
92.930794
90.963840
90.502501
91.666579
91.608763
93.268752
95.314980
98.139644
101.067424
103.858709
104.353428
102.101564
98.999739
92.287660
85.321665
76.612830
70.139766
64.424872
59.467554
52.812696
49.868822
48.596859
45.454502
43.298602
43.225884
43.006539
41.981936
41.647553
41.082501
39.721727
40.048957
39.106607
40.285587
39.553642
##ZVALUE=250
4.071593
4.088879
4.269481
5.021691
5.229712
6.327629
9.069443
50.107837
158.624649
391.168594
977.284908
1015.870571
1015.870571
1015.870571
1015.870571
1015.870571
1015.870571
1015.870571
1015.870571
1015.870571
1015.870571
937.026739
502.650738
197.507739
123.641491
123.275518
131.177902
139.407516
134.639740
120.365620
107.304454
87.384582
69.280863
54.388642
47.380924
40.966868
39.441586
40.690899
43.489933
46.697855
50.316453
54.085851
55.360794
60.841441
63.081980
68.152547
71.960688
75.368881
79.658628
82.214475
84.906816
87.840557
89.384913
92.086792
92.966557
93.266964
92.646480
95.608830
94.588995
93.024969
91.648698
89.724660
89.660883
86.040497
85.860491
85.777640
85.080862
86.631775
88.292956
90.723634
92.997551
93.305707
94.932914
90.431571
88.115931
81.173778
74.853897
69.796443
63.021779
55.205822
52.220821
48.079491
45.147538
43.136477
41.470528
39.872527
38.576722
37.892461
38.253665
37.353635
37.654638
36.034584
37.179589
36.857724
35.965443
35.127997
##ZVALUE=255
3.568530
3.842711
4.053712
4.085898
4.279613
4.757643
5.573630
6.138682
7.104874
17.913580
111.746788
306.283832
670.132637
1015.875936
1015.875936
1015.875936
1015.875936
1015.875936
1015.875936
1015.875936
1015.875936
1015.875936
1015.875936
1015.875936
700.511932
355.561972
150.694847
113.291740
123.726726
136.153698
142.267942
140.407681
131.958723
113.285780
95.949769
77.170730
66.463947
56.650639
54.567456
54.222941
55.549741
61.540604
65.808892
71.435571
75.024962
80.813766
85.327625
90.454817
93.853474
99.784732
102.105737
105.160475
109.607577
111.004710
112.876892
113.485456
112.207532
113.186836
111.697912
112.072825
110.277534
108.105540
104.811788
103.794932
100.935698
99.935532
98.075867
97.834468
97.849965
97.556710
97.335577
97.409487
96.442699
92.147589
86.959600
80.437660
75.487494
69.305897
62.878728
56.444407
53.829551
48.821568
46.134591
42.592883
41.989684
40.305853
39.434433
37.219524
36.818981
35.984516
35.641789
34.383535
34.522414
34.075975
33.229589
33.246875
##ZVALUE=260
3.234744
3.378987
3.668666
3.915429
4.186630
4.417896
4.501939
5.177855
5.683899
6.044507
6.996989
9.477735
50.583482
160.391927
499.006510
968.118906
1015.870571
1015.870571
1015.870571
1015.870571
1015.870571
1015.870571
1015.870571
1015.870571
1015.870571
1015.870571
1015.871167
575.432777
278.854966
121.168494
107.220411
129.699707
142.570734
153.604746
152.983665
144.101977
132.935643
114.726424
100.993514
90.537667
84.459782
82.788467
85.974932
91.906786
96.352696
105.705857
110.621452
118.188858
124.910474
130.016804
135.545731
140.769482
142.793655
149.520636
148.895979
150.598884
150.112510
151.126981
150.177479
147.554874
144.724846
140.819550
139.012933
135.183930
131.653547
129.001737
125.658512
121.620893
120.362639
118.306875
117.279887
114.101768
108.726621
104.422569
98.855495
91.094971
86.156726
78.859925
71.614981
64.731836
61.126947
56.189895
52.613616
49.588680
47.218800
45.045614
43.303967
40.734410
39.933920
38.208961
37.530661
36.339760
34.924746
34.234524
34.741759
33.976436
##ZVALUE=265
3.010631
3.173947
3.492832
3.554821
3.797412
4.083514
4.216433
4.344583
4.487634
5.297661
5.726814
6.046891
6.986856
8.293986
22.538900
90.759397
373.012424
791.130662
1015.870571
1015.870571
1015.870571
1015.870571
1015.870571
1015.870571
1015.870571
1015.870571
1015.870571
1015.870571
1015.870571
949.653387
485.720634
162.380934
104.373693
120.883584
138.945580
164.447427
175.246000
177.688003
174.987912
160.906911
151.684880
139.509439
131.723881
128.708482
132.650733
137.322545
143.795609
152.355433
158.970952
168.429613
173.288584
181.327462
186.538696
190.173984
192.513466
194.090009
194.046497
194.522738
193.111897
190.593600
187.211633
181.381702
177.811980
173.132420
167.655945
162.823796
159.459710
154.553652
151.425004
146.083832
143.109560
138.440728
131.079555
124.682784
116.793513
107.391477
101.158619
92.687607
86.047649
76.729655
72.368979
64.469576
62.237978
57.461858
54.636002
52.387714
48.586726
46.430826
44.334531
41.446686
40.055513
38.081408
37.737489
36.625862
35.587549
34.930706
##ZVALUE=270
3.198981
2.988577
3.454685
3.472567
3.558993
3.858805
3.835559
3.950000
4.447699
4.662871
4.942417
5.639791
5.583763
6.083846
6.550550
7.888675
10.011792
45.562983
156.675577
585.196614
1015.870571
1015.870571
1015.870571
1015.870571
1015.870571
1015.870571
1015.870571
1015.870571
1015.870571
1015.870571
1015.870571
1015.870571
921.679735
311.779976
141.444802
116.777420
139.242411
172.432661
193.917751
214.160681
221.097469
223.722458
217.857957
205.749869
199.283957
194.195509
194.100738
196.649432
199.430585
210.249424
216.210485
225.347877
230.184793
235.432982
238.225460
240.383744
241.109729
237.855911
237.354636
233.067870
230.456591
224.313736
218.392611
212.041736
206.243992
197.871923
191.243887
184.439421
179.536939
172.853470
167.466998
160.930753
154.468417
143.737793
135.342479
125.301480
116.216540
106.777549
99.161863
89.706779
83.088875
76.084733
71.666837
66.926479
63.581467
58.645606
55.542588
52.098632
49.682856
46.380758
44.562817
41.835904
40.213466
38.950443
38.460493
37.021637
##ZVALUE=275
2.996922
2.981424
3.171563
3.165603
3.346801
3.547668
3.571510
3.770590
4.077554
4.012585
4.427433
4.918575
5.283952
5.327463
5.538464
6.088614
6.882548
7.730722
8.574724
20.470619
86.376667
290.500522
931.897759
1015.870571
1015.870571
1015.870571
1015.870571
1015.870571
1015.870571
1015.870571
1015.870571
1015.870571
1015.870571
1015.870571
1015.871167
549.352765
245.761871
132.580996
146.738887
181.201696
206.682682
242.096782
260.965824
273.529887
276.821852
272.275805
264.427662
256.458521
253.069997
253.774524
252.961516
255.542994
259.568691
265.479684
270.612836
272.075534
272.666812
272.225738
269.483924
265.337825
260.154605
253.931880
247.501731
239.044428
232.182741
222.833753
217.095613
207.026601
199.950933
191.666484
185.294747
176.898837
168.720484
156.701803
148.050785
136.216879
128.094554
116.044879
108.547807
97.703934
92.671514
84.036589
79.170465
72.396994
68.140626
63.556433
60.241818
56.001544
53.167939
49.815774
46.694875
44.004917
42.437911
40.550828
39.330721
38.441420
##ZVALUE=280
2.947450
2.955794
3.032684
3.181696
3.116727
3.135800
3.607869
3.809929
3.790855
3.661513
3.997684
4.144907
4.483461
4.583597
4.928708
5.397797
5.918741
6.033778
6.979704
7.469654
9.012818
11.729598
63.951612
225.326419
608.659983
1015.870571
1015.870571
1015.870571
1015.870571
1015.870571
1015.870571
1015.870571
1015.870571
1015.870571
1015.870571
1015.870571
1015.870571
883.225799
410.865545
172.054768
151.237845
183.644891
211.719871
246.822834
273.539424
301.016569
307.823420
312.537551
308.862925
301.533937
293.615460
285.301805
280.261636
276.589990
276.250839
277.009606
275.910497
276.268721
274.967551
269.661546
265.522003
257.584453
253.424644
244.498849
237.972736
226.178765
220.391750
211.419463
201.536417
193.153620
186.038613
177.284479
168.730617
157.395601
146.455765
136.604905
127.539635
116.791725
109.672546
99.701881
92.864633
84.408522
78.868866
73.350668
69.270730
64.528584
61.654449
55.890679
53.779483
49.971938
47.141910
44.663548
43.002963
41.042566
39.268732
38.397908
##ZVALUE=285
2.912879
2.953410
2.919436
3.089905
3.125668
3.231764
3.242493
3.494620
3.668666
3.675818
3.791451
3.880858
4.173517
4.282594
4.600883
4.742742
4.784465
5.319715
5.677938
6.469488
7.104874
7.810593
8.845925
10.102987
25.135875
96.645951
404.905677
924.971700
1015.870571
1015.870571
1015.870571
1015.870571
1015.870571
1015.870571
1015.870571
1015.870571
1015.870571
1015.870571
1015.870571
1015.870571
761.682987
266.583562
157.353878
163.178444
187.023878
224.741697
251.456499
280.619860
298.301578
313.497782
316.770673
309.782624
298.259854
285.387635
273.299813
261.912942
254.187584
248.600841
245.912671
242.547989
238.045454
232.166648
227.486491
219.531655
214.026570
204.751492
197.877884
189.731717
184.672475
175.729990
168.499947
161.277652
150.739551
141.802430
133.905411
122.397542
114.993453
105.642676
98.668933
89.464784
84.764957
77.367425
73.183775
67.554712
63.608885
58.511496
55.499673
51.989555
49.268603
46.701431
43.053627
40.584803
39.367676
37.150979
36.238432
35.261512
##ZVALUE=290
2.816916
2.724528
2.785921
2.900958
2.940893
2.981424
3.233552
3.226995
3.433824
3.707409
3.599524
3.780723
3.654957
3.904700
4.144907
4.248619
4.411936
4.530549
5.106926
5.321503
5.604625
6.036758
7.207990
7.853508
9.137988
9.966493
13.021827
34.841895
201.622248
565.173626
1015.879512
1015.879512
1015.879512
1015.879512
1015.879512
1015.879512
1015.879512
1015.879512
1015.879512
1015.879512
1015.879512
1015.879512
1015.880108
427.962542
185.163617
132.090449
146.726966
171.644688
194.910765
226.901770
246.929526
268.703699
275.365710
274.761915
266.342759
248.639584
231.932998
215.030909
202.396512
189.469457
182.895660
175.879002
172.403455
166.056752
161.375999
156.014562
150.439739
145.802498
141.058564
135.241747
130.753517
124.406815
118.217468
110.780001
104.056001
95.971823
89.365840
82.410574
78.455806
70.687532
66.953897
60.931444
58.071613
53.788424
50.806999
47.589540
44.968724
42.086840
40.277839
38.412809
35.950541
33.892989
32.779574
31.518936
30.231476
29.318929
##ZVALUE=295
2.507567
2.418756
2.560616
2.760887
2.631545
2.634525
2.936721
2.611876
2.881885
2.988577
2.977848
3.337860
3.396869
3.539920
3.422499
3.747940
3.935695
4.235506
4.274845
4.643798
5.026460
5.439520
6.059408
6.215572
6.979704
7.590652
8.540750
9.921789
11.315942
17.246604
32.885671
336.865783
870.844722
1015.752554
1015.752554
1015.752554
1015.752554
1015.752554
1015.752554
1015.752554
1015.752554
1015.752554
1015.752554
1015.752554
1015.752554
625.648499
256.952643
106.889606
99.219680
114.509463
130.668879
153.748989
172.191858
192.505717
205.754638
210.231543
205.882788
192.240477
177.024603
155.466795
140.796900
125.074983
114.640594
105.139613
100.621581
95.632672
92.784762
89.590549
87.887645
85.717440
82.729459
80.033541
76.701641
72.088838
68.062544
62.890649
58.011413
53.668618
49.732924
45.985579
43.906569
41.006804
38.871765
36.051869
34.818649
32.530427
31.652451
29.490590
28.374791
27.275681
26.599765
25.208592
24.165511
23.815632
23.598671
23.137927
##ZVALUE=300
2.528429
2.389550
2.571940
2.747774
2.633929
2.667904
2.622604
2.776980
2.820492
2.983809
3.042817
3.070831
3.101826
3.260970
3.395677
3.661513
3.678799
3.862977
3.913641
4.318953
4.277825
4.683733
5.027652
5.504489
6.163716
6.125569
6.939769
7.631779
8.684993
9.256601
11.064410
12.554526
40.561557
163.162947
672.752857
1015.871763
1015.871763
1015.871763
1015.871763
1015.871763
1015.871763
1015.871763
1015.871763
1015.871763
1015.871763
1015.871763
1015.871763
1015.871763
420.825481
146.369934
63.814521
64.367652
75.443983
86.161494
104.549527
119.915605
139.065981
148.193836
151.951909
147.825480
134.085417
119.384527
99.211931
85.194707
68.510771
59.730411
52.385926
49.527884
47.676563
47.157407
46.537519
45.364499
44.029951
42.198896
39.225817
36.751628
33.774972
31.101704
28.740764
27.521849
26.049614
24.789572
23.711920
22.750497
21.785498
21.383762
20.796657
20.226836
19.322634
19.176602
18.843412
18.720627
18.044710
17.905831
17.846823
18.115640
##ZVALUE=305
2.262592
2.187490
2.246499
2.346635
2.564788
2.386570
2.525449
2.700686
2.560616
2.591610
2.871752
2.730489
3.030896
2.813935
3.039837
3.137589
3.409982
3.279448
3.536940
3.848672
4.111528
4.515648
4.500747
4.638433
5.130768
5.094409
5.873442
6.304979
6.854534
7.216930
8.195639
9.273887
10.314584
12.449622
16.877651
100.860000
339.009762
1001.380682
1015.872955
1015.872955
1015.872955
1015.872955
1015.872955
1015.872955
1015.872955
1015.872955
1015.872955
1015.872955
1015.872955
1015.872955
760.445595
205.274820
66.271424
40.508509
43.849945
52.345991
62.341690
79.471469
91.567636
108.520985
116.178989
120.497942
115.824938
104.235411
91.760755
71.057677
58.593750
45.411587
38.161874
33.159852
31.195879
29.918551
28.693676
27.340651
25.601983
23.340583
21.596551
19.919872
18.996596
17.753839
17.292500
16.935468
16.391873
16.065836
15.772581
15.690923
15.325546
14.882684
15.195608
14.689565
15.058517
14.626980
14.549494
14.646649
14.656782
14.956594
##ZVALUE=310
2.260804
2.324581
2.318621
2.317429
2.439618
2.539754
2.409816
2.439618
2.548695
2.386570
2.570748
2.807975
2.762675
2.828836
2.963543
3.028512
3.159642
3.262758
3.382564
3.561974
3.602505
3.801584
4.070997
4.104972
4.562736
4.554987
4.910827
5.276799
5.794764
5.869865
6.751418
7.187724
8.067489
8.853674
10.057688
11.613965
13.187528
39.539933
154.386759
639.654994
1015.972495
1015.972495
1015.972495
1015.972495
1015.972495
1015.972495
1015.972495
1015.972495
1015.972495
1015.972495
1015.972495
1015.973091
1015.972495
420.878530
127.043724
33.606887
30.164719
32.622814
37.546754
48.087835
58.953762
75.816512
88.108778
99.690557
103.764534
102.051497
94.971657
80.951452
67.194700
51.149726
41.603446
32.909513
27.628541
22.668839
20.074844
18.041730
16.626716
14.945865
14.637709
13.619661
13.161898
13.075471
12.987852
13.073683
12.898445
12.708902
12.279749
12.576580
12.817979
12.925863
12.538433
12.479424
12.613535
12.520552
12.742877
12.966990
##ZVALUE=315
2.047420
2.009869
2.168417
2.107620
2.268553
2.240539
2.204776
2.337694
2.275705
2.362728
2.408624
2.400875
2.707839
2.635717
2.818704
2.632737
2.918839
2.932549
2.960563
3.296733
3.306866
3.232956
3.796816
3.691912
3.892779
3.968477
4.338622
4.567504
4.970431
5.210638
5.800724
5.955696
6.471872
7.167459
7.688999
8.704662
9.388924
10.913610
12.438893
19.428730
68.498850
363.790393
915.342569
1015.905738
1015.905738
1015.905738
1015.905738
1015.905738
1015.905738
1015.905738
1015.905738
1015.905738
1015.905738
1015.905738
1015.905738
659.738779
226.652622
45.289993
26.718974
25.678873
27.434826
33.232570
40.363669
53.397417
66.383481
82.208514
91.891885
97.818971
97.961426
89.571476
79.182982
63.914657
51.314831
36.444664
27.977824
20.360947
16.585588
14.040470
13.089776
12.160540
12.211800
12.029409
11.539459
11.468530
11.455417
11.744499
11.458993
11.649728
11.545420
11.839867
11.613965
11.773705
11.801720
11.617541
12.093782
11.781454
##ZVALUE=320
1.985431
1.877546
1.968741
2.021790
2.049804
2.126694
1.904964
2.176762
2.112985
2.182722
2.440810
2.347827
2.458692
2.486706
2.531409
2.470613
2.638698
2.717972
2.730489
2.859831
2.951622
2.979636
3.224611
3.312826
3.401637
3.860593
3.786683
3.827810
4.085898
4.412532
5.015731
5.047917
5.279779
6.098747
6.343722
6.636977
7.483959
8.145571
9.236932
9.960532
11.107922
13.273954
27.502775
178.268552
543.818474
1015.870571
1015.870571
1015.870571
1015.870571
1015.870571
1015.870571
1015.870571
1015.870571
1015.870571
1015.870571
1015.870571
1015.870571
1015.870571
372.976661
117.543936
28.765798
23.107529
22.394657
23.824573
29.454827
35.688877
49.282908
61.254501
78.217983
88.359714
94.766617
94.785690
84.991455
74.605942
58.394670
45.668483
31.490922
23.190975
16.752481
13.923645
11.874437
11.386871
11.235476
11.146665
10.916591
10.949969
10.920763
11.081696
11.301637
11.217594
11.262894
11.419654
11.187792
11.360645
11.672974
11.686683
##ZVALUE=325
1.845956
1.773834
1.750588
1.694560
1.974702
1.846552
1.904964
2.065897
1.951456
2.071857
2.163649
2.308488
2.203584
2.169609
2.303720
2.410412
2.480745
2.521873
2.486706
2.518892
2.709627
2.891421
2.958775
3.167987
3.193617
3.184676
3.435612
3.623962
3.807545
3.979802
4.013777
4.551411
4.675984
5.009770
5.335808
5.770922
6.144643
6.822944
7.148981
7.796884
8.539557
9.586811
10.512471
12.394786
17.379522
104.047656
343.495607
995.591879
1015.870571
1015.870571
1015.870571
1015.870571
1015.870571
1015.870571
1015.870571
1015.870571
1015.870571
1015.870571
1015.870571
1015.870571
683.604479
154.670477
42.820573
22.689700
21.307468
20.666718
23.032427
29.567480
36.894679
50.138831
61.890483
75.486898
82.788467
87.969899
85.539818
75.662732
65.911412
50.244927
39.038658
27.160645
20.652413
15.243888
12.854934
11.530519
11.192560
10.852814
10.644794
10.876656
10.891557
10.740757
11.123419
11.045933
11.283755
11.422634
11.522770
11.426806
##ZVALUE=330
1.791716
1.682639
1.689792
1.820922
1.767874
1.914501
1.586676
1.747608
1.727939
1.993775
1.986623
2.161860
2.097487
2.118945
2.304912
2.024770
2.120733
2.265573
2.188683
2.463460
2.591610
2.600551
2.446771
2.800822
3.007650
2.917647
3.198981
3.090501
3.476739
3.465414
3.812909
3.907681
4.008412
4.338622
4.672408
5.003810
5.130768
5.303621
5.914569
6.254911
6.736517
7.508993
8.383989
9.050965
9.994507
11.408925
13.529658
42.496920
160.940886
666.679740
1015.871763
1015.871763
1015.871763
1015.871763
1015.871763
1015.871763
1015.871763
1015.871763
1015.871763
1015.871763
1015.871763
1015.871763
965.453982
314.528942
86.834431
23.895502
21.337867
20.846725
21.460652
24.987459
29.252768
37.118793
45.464635
58.408976
67.461729
76.061487
78.613758
77.043772
70.812702
58.407784
48.209429
34.883618
27.283430
19.817948
16.164780
12.998581
11.737943
11.169910
10.839701
10.865927
10.828972
11.245608
11.037588
11.044741
11.438727
11.512637
##ZVALUE=335
1.754761
1.544952
1.724958
1.549721
1.647472
1.764894
1.662970
1.962781
1.754761
1.828671
1.882911
1.850724
2.016425
2.046824
2.170801
2.116561
1.974702
2.050996
2.183914
2.173781
2.295971
2.489686
2.547503
2.421737
2.695918
2.804995
2.885461
3.059506
2.984405
3.222823
3.345609
3.669858
3.778934
3.996491
3.984571
4.372597
4.541874
4.557967
4.940629
5.514622
5.653501
6.155968
6.456971
6.931424
7.726550
8.570552
9.531975
10.536909
11.764765
20.664930
74.137449
378.071666
908.066034
1015.870571
1015.870571
1015.870571
1015.870571
1015.870571
1015.870571
1015.870571
1015.870571
1015.870571
1015.870571
1015.870571
1015.870571
486.380458
155.426860
33.785701
23.088455
21.762848
21.847486
22.167563
23.471713
27.046800
31.949878
41.818619
50.397515
61.268806
68.225861
73.002577
71.358681
64.736605
57.167411
45.997500
37.557483
27.074814
21.265745
15.813708
13.698936
11.881590
11.361837
11.452436
11.541843
11.278987
11.597872
11.644959
##ZVALUE=340
1.532435
1.487732
1.602769
1.505613
1.474619
1.682639
1.595616
1.686811
1.791716
1.696944
1.701713
1.731515
1.713634
1.766682
1.930594
1.869798
1.969934
2.116561
2.180934
2.107620
2.253652
2.351999
2.154708
2.117753
2.510548
2.616644
2.685785
2.748966
2.820492
2.963543
3.316998
3.110766
3.198981
3.365874
3.692508
3.746748
3.945827
4.238486
4.404783
4.661679
4.951954
5.338788
5.679727
5.866885
6.150603
6.915927
7.372499
7.979870
8.768439
10.026693
11.017919
14.009476
33.848286
209.126472
605.395436
1015.870571
1015.870571
1015.870571
1015.870571
1015.870571
1015.870571
1015.870571
1015.870571
1015.870571
1015.870571
1015.870571
1015.871167
761.477947
261.094570
45.988560
25.681853
23.818612
22.249818
20.296574
19.429922
19.984841
22.344589
28.512478
35.942793
47.036409
55.942535
64.833760
67.798495
67.356825
63.917637
54.212809
46.507716
35.414696
28.187633
20.635724
16.675591
13.571978
12.673736
12.303591
11.900663
12.176633
##ZVALUE=345
1.471639
1.582503
1.539588
1.482964
1.735687
1.539588
1.765490
1.827478
1.719594
1.707673
1.821518
1.774430
1.767874
1.758933
1.837611
1.926422
1.854897
2.022982
1.887679
1.902580
1.985431
2.107620
2.245903
2.335906
2.340674
2.552867
2.528429
2.600551
2.659559
2.694726
2.887845
2.868772
3.129840
3.175735
3.554821
3.605485
3.584623
3.809929
4.005432
4.071593
4.260540
4.406571
4.715919
4.954934
5.257726
5.688667
5.991459
6.489754
6.814599
7.541776
8.319616
9.219646
10.111928
11.770725
17.530918
107.298493
358.699560
1009.548903
1015.854478
1015.854478
1015.854478
1015.854478
1015.854478
1015.854478
1015.854478
1015.854478
1015.854478
1015.854478
1015.854478
959.580541
429.954529
97.462535
34.647584
25.886893
22.946596
19.413829
17.432570
15.966892
16.673803
20.163655
25.689602
34.419894
42.290688
51.856637
58.595538
62.944889
63.633919
59.636831
54.030418
44.537783
37.058592
27.259588
22.350550
17.458797
15.142560
14.047623
##ZVALUE=350
1.750588
1.646876
1.670718
1.710653
1.715422
1.792908
1.771450
1.665950
1.748800
1.780987
1.903772
1.837611
2.025962
1.932979
2.057552
2.029538
2.032518
2.248883
2.140999
2.135634
2.341866
2.123713
2.206564
2.392530
2.407432
2.445579
2.463460
2.489686
2.588630
2.861619
2.818704
2.889633
2.961755
3.155470
3.235936
3.447533
3.495812
3.689528
3.553629
4.053712
3.928542
4.158616
4.379749
4.540682
4.760623
5.030632
5.224943
5.813837
6.005764
6.420612
7.075667
7.588863
7.802844
8.826852
9.579659
10.860562
13.258457
49.852729
178.707838
691.995025
1015.870571
1015.870571
1015.870571
1015.870571
1015.870571
1015.870571
1015.870571
1015.870571
1015.870571
1015.870571
1015.870571
1015.870571
674.404502
144.571662
40.711761
22.271872
19.147992
16.393661
14.856458
14.193654
14.207959
16.139746
18.852949
24.690628
30.044913
39.246678
46.446919
53.821802
58.135986
60.084462
57.949424
51.008463
44.686794
36.435723
30.159950
23.473501
##ZVALUE=355
1.909733
1.862645
1.901984
1.964569
2.063513
1.816750
2.023578
2.132654
2.050996
2.044439
2.177954
2.081990
2.001524
2.203584
2.228618
2.127886
2.247691
2.160668
2.409816
2.466440
2.297759
2.237558
2.694726
2.588630
2.718568
2.665520
2.817512
2.861619
2.894998
3.079772
2.978444
3.146529
3.058910
3.415942
3.313422
3.552437
3.462434
3.878474
3.871918
4.070997
4.062653
4.511476
4.318953
4.480481
4.750490
4.796982
5.036592
5.522966
5.830526
5.966425
6.141663
6.866455
7.105470
7.751584
8.168817
8.867979
9.788871
10.805726
12.518764
24.246573
88.973641
437.318683
960.996747
1015.934944
1015.934944
1015.934944
1015.934944
1015.934944
1015.934944
1015.934944
1015.934944
1015.934944
1015.934944
1015.934944
900.264978
235.799551
63.241720
22.478700
18.862486
16.787648
15.677810
14.264584
14.149547
14.319420
15.113950
18.018484
21.675825
28.412938
34.627914
43.223500
49.159527
55.299997
56.631565
54.841638
50.215721
43.675900
##ZVALUE=360
1.885891
1.884699
1.845956
1.947880
2.137423
2.086759
2.219677
2.156496
2.171993
2.102852
2.131462
2.192855
2.146959
2.195835
2.182722
2.192855
2.367496
2.336502
2.303720
2.463460
2.447963
2.555847
2.543926
2.637506
2.598763
2.796650
2.819896
2.952814
3.000498
2.964735
2.914667
3.191829
3.193617
3.376603
3.432631
3.539920
3.553629
3.686547
3.927946
3.820658
4.120469
4.055500
4.446507
4.552603
4.526973
4.845858
4.851818
5.089641
5.295873
5.570650
5.750656
6.149411
6.466508
6.843805
7.093549
7.846951
8.359551
8.816719
9.796619
11.190772
12.399554
16.089678
37.331581
200.224519
555.849671
1015.870571
1015.870571
1015.870571
1015.870571
1015.870571
1015.870571
1015.870571
1015.870571
1015.870571
1015.870571
1015.870571
1015.870571
466.127992
144.598484
27.996898
19.733906
17.158985
15.797615
14.560819
13.761520
13.399720
13.623834
14.233589
15.847683
19.986629
24.383664
32.027960
37.716627
45.154691
49.851537
52.782893
##ZVALUE=365
1.962781
1.858473
1.806617
1.858473
1.796484
2.047420
1.979470
2.195835
1.908541
2.063513
2.026558
2.130866
2.189875
2.077818
2.217889
1.993775
2.093911
2.178550
2.302527
2.307892
2.406836
2.470613
2.428889
2.433658
2.499819
2.639890
2.558827
2.813935
2.784729
2.847910
2.944469
3.105998
2.947450
3.062487
3.261566
3.337860
3.574491
3.399849
3.584623
3.602505
3.761649
3.840923
3.913641
4.021525
4.172921
4.308820
4.339814
4.626513
4.722476
4.769564
4.916787
5.124807
5.364418
5.718470
6.113648
6.405711
6.777644
7.096529
7.722974
8.484721
9.340644
10.640621
11.884570
13.452768
18.818974
92.768669
316.824913
970.603824
1015.870571
1015.870571
1015.870571
1015.870571
1015.870571
1015.870571
1015.870571
1015.870571
1015.870571
1015.870571
1015.870571
732.761621
261.474848
43.843985
19.789934
16.491413
15.311837
14.185905
13.325810
12.748837
12.529492
12.671947
13.093948
15.356541
17.503500
22.070408
27.218461
34.173727
##ZVALUE=370
1.733899
1.710653
1.579523
1.811981
1.813769
1.755953
1.858473
1.928806
1.964569
1.845956
1.829863
1.932979
1.932979
1.943707
1.975894
1.977682
2.057552
2.021790
2.128482
2.008677
2.181530
2.127886
2.251863
2.203584
2.303720
2.335906
2.324581
2.401471
2.569556
2.619624
2.597570
2.809763
2.789497
2.929568
2.884865
2.975464
2.976656
3.176928
3.224611
3.200769
3.353953
3.264546
3.348589
3.513694
3.586411
3.750920
3.795624
3.896952
3.745556
4.008412
4.121661
4.176497
4.427433
4.764795
4.777908
5.180836
5.342960
5.684495
5.785823
6.449819
6.814599
7.577538
8.296967
9.042621
10.068417
11.609793
33.690929
42.718649
242.731571
661.797523
1015.870571
1015.870571
1015.870571
1015.870571
1015.870571
1015.870571
1015.870571
1015.870571
1015.870571
1015.870571
1015.870571
1015.870571
394.135714
126.928687
24.184585
16.504526
14.727712
13.661981
13.023615
12.535453
12.134910
12.253523
12.213588
12.913942
14.501810
16.339421
##ZVALUE=375
1.488924
1.492500
1.574755
1.580715
1.634955
1.671910
1.609921
1.656413
1.543760
1.592636
1.642704
1.658797
1.651645
1.740456
1.799464
1.782775
1.693964
1.599789
1.811981
1.871586
1.834631
1.909733
1.927614
1.904964
2.012849
2.039671
1.998544
2.199411
2.139807
2.144575
2.308488
2.311468
2.361536
2.429485
2.392530
2.642870
2.684593
2.758503
2.626777
2.743602
2.758503
2.762675
2.990961
3.046989
3.045797
3.001690
3.176928
3.143549
3.572702
3.287792
3.397465
3.588796
3.664494
3.778934
3.942847
4.090667
4.362464
4.503727
4.783869
4.872680
5.243421
5.616546
6.188750
6.679893
7.370710
8.317828
9.702444
10.871887
13.671517
22.263527
119.770765
357.547998
990.237594
1015.870571
1015.870571
1015.870571
1015.870571
1015.870571
1015.870571
1015.870571
1015.870571
1015.870571
1015.870571
1015.871167
745.493770
285.981894
51.561594
18.979907
14.980435
14.118552
13.461709
12.790561
12.433529
12.015700
12.204647
12.202859
##ZVALUE=380
1.402497
1.396537
1.265407
1.348853
1.445413
1.363754
1.464486
1.440644
1.343489
1.432896
1.332760
1.428723
1.483560
1.343489
1.519918
1.563430
1.573563
1.603961
1.557469
1.731515
1.608729
1.496673
1.665950
1.710653
1.863837
1.903772
1.910925
1.910925
2.028942
1.990795
1.975894
2.061725
2.190471
2.273917
2.215505
2.215505
2.402663
2.420545
2.574921
2.598763
2.534986
2.574921
2.669692
2.758503
2.927780
2.961755
2.801418
2.958775
2.910495
3.158450
3.200769
3.330708
3.380775
3.678799
3.712773
3.585815
3.941655
3.998876
4.242659
4.437566
4.619956
4.722476
5.170703
5.542636
6.183982
6.761551
7.729530
8.987784
10.215640
11.944771
12.970567
16.605854
43.555498
252.707005
689.839721
1015.865803
1015.865803
1015.865803
1015.865803
1015.865803
1015.865803
1015.865803
1015.865803
1015.865803
1015.865803
1015.865803
1015.865803
416.901708
137.920976
27.080774
16.109943
14.258623
13.575554
12.696981
12.320876
12.024641
##ZVALUE=385
1.172423
1.325607
1.343489
1.183748
1.198649
1.303554
1.375675
1.169443
1.215935
1.100898
1.297593
1.138449
1.335740
1.273751
1.364946
1.267791
1.276731
1.316667
1.489520
1.360774
1.424551
1.273751
1.590848
1.524687
1.645684
1.826882
1.720786
1.828671
2.037883
1.871586
1.997948
2.017617
2.181530
2.191663
2.228618
2.315640
2.358556
2.525449
2.358556
2.578497
2.554655
2.667904
2.686977
2.759695
2.759695
2.867579
2.932549
3.001690
3.028512
3.041625
3.089905
3.054738
3.236532
3.356934
3.330708
3.608465
3.700852
3.750920
3.696680
4.005432
4.186630
4.494786
4.682541
5.053878
5.484819
6.261468
7.027984
8.244514
8.737445
9.815693
10.091662
10.526776
11.045933
11.714697
19.922853
123.074651
388.219953
1015.855670
1015.855670
1015.855670
1015.855670
1015.855670
1015.855670
1015.855670
1015.855670
1015.855670
1015.855670
1015.855670
1015.855670
850.786567
319.985747
55.674911
18.812418
14.488697
13.528466
12.724996
##ZVALUE=390
1.136661
1.291633
1.135468
1.158714
1.243949
1.211762
1.275539
1.100898
1.233816
1.103878
1.118779
1.103878
1.167655
1.245737
1.183748
1.306534
1.250505
1.239777
1.208782
1.374483
1.423955
1.314878
1.563430
1.632571
1.409650
1.609921
1.758933
1.696944
1.875758
1.807809
1.914501
2.046824
2.132654
2.249479
2.110600
2.389550
2.402663
2.693534
2.583861
2.639890
2.769828
2.774596
2.826452
2.787709
2.914667
2.997518
3.093481
3.205538
3.045797
3.170967
3.264546
3.466606
3.427863
3.490448
3.571510
3.610849
3.755689
3.882647
3.874898
4.005432
4.036427
4.310608
4.644990
4.968643
5.562901
6.067753
6.956458
7.597804
8.419752
9.146929
9.423494
9.300709
9.575486
9.272695
9.694695
10.133982
13.918877
46.110153
274.294019
746.625662
1015.856862
1015.856862
1015.856862
1015.856862
1015.856862
1015.856862
1015.856862
1015.856862
1015.856862
1015.856862
1015.856862
1015.856862
494.353771
158.273578
26.691556
15.667677
##ZVALUE=395
1.237988
1.140833
1.036525
1.048446
1.141429
1.177788
1.216531
1.286864
1.159906
1.342893
1.186728
1.271963
1.123548
1.329780
1.304746
1.186728
1.301765
1.331568
1.497865
1.377463
1.400709
1.454949
1.622438
1.585484
1.639724
1.810789
1.697540
1.799464
1.585484
1.903772
2.007484
2.162457
1.965761
2.214909
2.330542
2.343655
2.388954
2.666712
2.684593
2.868772
2.793670
2.874732
3.192425
3.145933
3.191829
3.336668
3.222823
3.340840
3.233552
3.435612
3.415942
3.581643
3.569722
3.904700
3.898740
3.881454
3.890991
3.922582
4.215837
4.274845
4.290938
4.452467
4.753470
5.113482
5.571842
6.093979
6.616712
7.501841
7.865429
8.414984
8.493662
8.333921
7.963777
7.825494
7.905960
8.293986
8.874536
9.902716
11.178851
30.169487
126.469731
574.828386
1015.870571
1015.870571
1015.870571
1015.870571
1015.870571
1015.870571
1015.870571
1015.870571
1015.870571
1015.870571
1015.870571
1015.870571
937.376022
291.349888
##ZVALUE=400
1.330972
1.194477
1.283884
1.114607
1.150966
1.256466
0.927448
1.133680
1.253486
1.181960
1.214743
1.202822
1.022816
1.274943
1.296997
1.276731
1.182556
1.384616
1.348853
1.180768
1.233816
1.344681
1.477599
1.557469
1.697540
1.681447
1.666546
1.813769
1.929998
1.900792
2.052784
1.938939
2.128482
2.322793
2.339482
2.364516
2.595782
2.808571
2.873540
2.927780
2.964735
2.891421
2.997518
3.115535
3.154874
3.221631
3.374815
3.237724
3.587604
3.618598
3.653765
3.557801
3.676414
3.726482
3.684759
3.871918
3.929734
4.108548
3.945827
4.118681
4.416704
4.521608
4.707575
5.111694
5.622506
6.054640
6.652474
7.399917
7.444620
7.786751
7.698536
7.603765
7.166862
6.894469
6.737709
7.004738
7.352829
7.848740
8.561611
9.446740
10.787845
18.025637
62.295794
296.851993
765.090585
1015.871763
1015.871763
1015.871763
1015.871763
1015.871763
1015.871763
1015.871763
1015.871763
1015.871763
1015.871763
1015.871763
##END
