##TITLE=C105_R5
##FORMAT=SPECTACLE-ASCII V-1.2
##DATA TYPE=ULTRAVIOLET SPECTRUM
##SECOND TYPE=ULTRAVIOLET SPECTRUM
##DATE=05/28/18
##TIME=14:53:57
##SPECTROMETER/DATA SYSTEM=SPECTACLE
##XUNITS=NM EM
##YUNITS=ENERGY
##YFACTOR=1
##FIRSTX=220
##LASTX=410
##NPOINTS=96
##3DDATA=Equidistant
##ZUNITS=NM EX
##FIRSTZ=210
##LASTZ=400
##ZPOINTS=39
##XYDATA=(Y..Y)
##ZVALUE=210
108.687878
94.849467
66.016912
39.503574
30.347705
26.712418
24.097562
21.899939
21.605492
17.777681
17.049909
18.126965
16.615987
16.657710
19.258857
18.447638
20.866990
21.135807
23.465753
24.486780
26.039481
30.122995
31.911731
38.205981
41.718483
46.835542
49.225688
53.386688
59.542656
62.421560
66.841841
71.296692
74.177980
79.440475
84.272623
87.238550
94.398856
99.228621
107.504725
109.497905
114.320517
117.391944
121.565461
130.460858
134.104490
136.000514
139.140487
143.053532
151.378512
146.198869
158.448815
153.173804
153.627992
158.086419
157.354474
160.952806
162.811875
158.101916
160.133839
153.816938
159.180760
157.647729
149.927735
155.948997
158.699751
165.642500
183.468461
198.530555
233.465433
251.994729
283.939838
302.256942
323.440433
332.894921
347.548723
334.036946
321.101546
299.922824
264.736414
238.394737
195.789933
171.556473
144.440532
125.904679
108.984709
100.880861
87.988973
88.371634
88.450909
93.868971
114.866495
138.556957
181.226730
235.219002
298.171639
366.751552
##ZVALUE=215
530.836582
499.026775
384.673476
240.045786
158.910751
88.513494
62.407851
45.681000
41.792989
37.850738
37.070513
31.081438
25.282502
23.523569
22.054911
20.797849
23.143888
23.074746
24.450421
25.654435
27.523637
30.157566
33.159852
37.486553
42.682886
46.357512
50.661564
54.400563
62.341690
67.933798
71.385503
75.259805
80.307722
85.428953
90.408921
96.632838
103.113651
117.066503
118.849874
130.852461
135.276914
140.465498
150.032640
155.752897
162.084699
169.535875
178.564787
185.627937
192.449689
198.129416
201.797485
206.574798
212.946534
210.828781
211.883783
216.237903
214.812756
216.117501
211.027861
202.717781
203.983784
202.140808
205.163956
197.937489
199.875832
202.773809
209.450722
228.778720
235.252976
258.692503
269.361734
289.791822
299.775004
306.104422
311.466455
294.438601
280.958414
261.043906
240.559578
207.162499
181.858540
156.384706
138.658881
122.568607
106.672645
99.028945
95.903873
90.210438
89.282990
82.197785
84.068775
79.832673
81.538558
93.618631
107.566714
146.983862
##ZVALUE=220
1016.005874
1016.005874
1016.005874
993.569493
795.081854
535.682440
362.173915
184.110999
113.103986
75.323582
59.992671
55.167675
47.288537
42.293668
34.864545
32.208562
26.306510
25.112629
23.116469
24.044514
24.347901
27.214885
28.026700
33.049583
34.980774
36.397576
41.831732
45.047998
47.038794
52.367449
56.192875
62.524676
66.698790
76.112747
84.157586
95.679760
102.991462
117.582679
126.215816
139.495730
150.790811
160.156488
169.951916
186.224580
195.228457
202.747583
214.099884
228.264928
236.735940
243.592858
250.786543
259.814858
261.733532
270.393491
275.321603
271.988511
268.080831
280.274749
268.355608
268.262625
264.198780
265.137553
254.287720
251.281857
245.657563
244.417787
249.571800
255.845785
257.558823
272.566676
282.639861
288.110971
300.027728
295.517445
288.824439
274.470448
265.116692
236.230493
217.587948
196.595788
174.570680
150.247812
134.841800
120.711923
112.508535
104.571581
99.596977
92.569590
87.136626
82.210898
81.721544
79.065561
76.536536
75.520873
73.181987
71.908832
##ZVALUE=225
1016.005874
1016.005874
1016.005874
1016.005874
1016.005874
1016.005874
1016.005874
988.382697
674.595833
420.424938
194.021463
111.139417
78.576803
76.167583
69.558620
61.866641
52.410960
43.893456
34.294724
29.662848
27.654767
26.105642
26.483536
28.090477
31.463504
34.757853
34.194589
37.379861
39.417744
44.511557
46.967864
55.283904
60.944557
68.679452
79.574585
93.929768
108.105540
127.550960
137.106776
154.555440
167.840719
184.559822
199.921727
216.094851
229.076743
250.029564
257.718563
273.358822
285.286903
299.612880
309.799910
319.273472
325.333476
334.404707
333.931446
340.293646
343.080759
344.567895
335.834622
331.522822
323.209763
319.828987
313.291550
304.760933
301.938653
295.200944
295.314789
288.318992
293.482542
297.619700
298.785567
305.420756
301.530957
293.968916
283.158422
269.559622
250.273943
231.101513
211.219788
180.380940
168.645978
150.390863
134.348869
122.614503
112.276673
105.254650
101.754665
95.104575
90.660453
87.179542
82.699656
79.664588
77.199936
74.114799
71.652532
70.265532
##ZVALUE=230
870.851874
960.356593
1016.005874
1016.005874
1016.005874
1016.005874
1016.005874
1016.005874
1016.005874
1016.005874
1016.005874
715.860724
326.820016
185.097456
110.710859
99.011660
98.001957
91.256499
78.848600
65.229535
52.755475
40.238500
35.651922
32.021999
28.960705
31.375885
32.568574
33.186674
35.986900
38.166642
40.375590
47.709942
53.400993
64.283609
75.859427
91.556907
102.698803
121.269822
140.933990
154.843926
168.676972
189.815760
202.223659
218.272805
234.588981
249.366760
265.918970
282.309651
292.050838
303.759575
315.322876
329.040885
334.931612
342.705846
343.738794
350.551605
349.370837
348.041654
342.745781
338.459015
335.626006
328.270793
320.165753
311.907530
305.948853
301.514864
297.092795
290.733576
291.117430
288.546681
292.540789
293.893814
291.246772
279.894471
268.918872
253.458619
238.664746
213.536620
193.523765
175.262690
159.872770
141.239762
132.123828
117.476583
110.295415
103.988647
96.879601
94.305873
89.026690
84.391832
81.625581
77.569485
73.825717
73.356628
69.155693
69.327950
##ZVALUE=235
180.717707
218.319893
484.795570
1016.005874
1016.005874
1016.005874
1016.005874
1016.005874
1016.005874
1016.005874
1016.005874
1016.005874
1016.005874
1016.005874
585.356951
308.071971
152.202845
120.679736
120.542645
115.100741
103.475451
90.837479
75.148940
58.426857
46.352744
37.575960
34.243464
34.798980
33.483505
35.243630
37.917495
40.369630
46.922565
53.463578
63.741803
73.689818
86.118579
96.486807
110.802650
122.876763
131.291747
144.531727
158.977509
166.997910
180.900693
195.134878
200.473666
213.270783
224.675536
233.476758
239.007473
247.598886
251.150727
257.197618
261.279941
261.320472
260.743499
255.438685
258.084536
256.514549
248.941779
245.074630
239.900947
231.151581
226.671696
223.886967
220.093727
225.237608
226.858854
227.359533
231.176615
231.399536
229.244828
222.460628
214.902759
203.111768
186.729431
171.370506
155.117512
141.872764
124.136806
113.518834
103.596449
97.101927
90.894699
87.149739
80.382824
79.956651
73.015690
71.550608
68.447590
66.573620
64.672828
63.297749
62.693954
63.150525
##ZVALUE=240
8.276701
9.733438
38.581491
192.537904
456.357598
997.813940
1016.005874
1016.005874
1016.005874
1016.005874
1016.005874
1016.005874
1016.005874
1016.005874
1016.005874
1016.005874
842.834711
466.403961
210.927725
136.469603
130.824447
130.980611
126.821995
111.479759
98.152757
74.749589
62.839985
48.906803
41.829944
37.365556
35.597682
36.329627
38.593411
43.219924
46.532750
53.109527
58.069825
64.915419
71.005821
78.116655
83.746910
90.455413
95.394850
105.419755
109.752417
118.202567
123.296976
127.447844
134.270787
139.849782
141.540766
145.517588
149.910450
153.111815
153.209567
153.294802
153.090954
152.567625
152.654648
151.565671
148.889422
146.304965
145.252943
139.599442
140.483975
135.414600
141.048431
142.736435
147.128701
151.194930
153.621435
158.717632
157.735944
153.794885
152.252913
140.717626
130.654573
120.746493
108.808875
94.091892
87.807775
78.898668
72.885752
67.903996
65.500736
61.832666
60.479641
58.865547
56.661963
54.425001
54.049492
52.613616
52.579641
52.374601
51.960945
50.987601
##ZVALUE=245
5.144477
5.347729
5.070567
7.530451
20.489693
109.409690
293.656588
838.648677
1016.005874
1016.005874
1016.005874
1016.005874
1016.005874
1016.005874
1016.005874
1016.005874
1016.005874
1016.005874
1016.005874
774.403811
326.259732
168.167949
127.097964
135.486722
137.372613
133.135915
121.159554
103.223920
85.821748
66.526532
54.533482
42.760968
39.171576
36.325455
38.899779
41.279793
42.322874
45.120716
49.533844
52.967668
56.913495
60.788989
63.769817
68.434477
72.330832
77.147484
78.485608
83.876848
84.571838
89.535713
93.353987
97.428560
96.963644
102.519989
101.143718
98.930597
102.390647
98.865628
101.866722
98.995566
100.123882
98.007917
95.248818
93.358755
94.408989
93.962550
95.234513
99.196434
104.539990
107.095838
109.993815
111.206770
115.685463
112.421513
109.945536
103.038549
94.438791
86.189508
78.443885
70.216656
65.440536
58.745742
54.186583
51.625967
50.946474
46.904683
47.195554
45.763850
43.915510
43.632984
42.665601
43.914914
43.028593
42.245984
43.297410
42.494535
##ZVALUE=250
4.695654
4.306436
4.505515
5.189776
5.699992
6.496906
11.534691
45.211911
230.417848
534.965396
1016.005874
1016.005874
1016.005874
1016.005874
1016.005874
1016.005874
1016.005874
1016.005874
1016.005874
1016.005874
1016.005874
1016.005874
494.985580
228.078961
120.982528
124.384761
136.719942
141.819715
137.713552
124.698877
111.354589
89.974999
73.279738
57.107806
49.508810
43.268800
41.725636
43.838620
45.498610
48.683882
51.024556
55.228472
58.798790
61.720610
64.399838
70.525408
73.887706
78.041553
79.686642
82.922578
86.546540
88.615417
91.870427
94.405413
93.686581
95.794797
96.656680
94.189644
94.077587
93.292594
93.059540
91.723800
90.788603
88.206530
89.060664
87.568760
88.212490
91.154575
91.224909
96.500516
99.513531
100.862980
100.652575
99.752545
95.428824
88.412762
82.468987
76.777935
69.227815
60.776472
55.995584
50.822496
48.647523
45.653582
44.102669
42.787790
42.075515
40.693879
39.294958
38.469434
38.418770
39.279461
37.841797
36.948919
38.117766
39.193630
##ZVALUE=255
3.853440
3.797412
4.451871
4.484653
5.033612
5.324483
6.035566
6.744862
8.131862
21.640658
136.488676
368.383527
806.748867
1016.005874
1016.005874
1016.005874
1016.005874
1016.005874
1016.005874
1016.005874
1016.005874
1016.005874
1016.005874
1016.005874
748.518705
369.652510
155.319571
116.777420
130.292773
138.016939
145.721436
143.561959
134.792924
114.446878
98.702908
78.896880
67.949891
59.129596
56.155920
55.914521
58.566928
62.513947
66.797733
72.499514
75.475574
82.085729
85.708499
91.753602
95.346570
101.175904
102.943778
106.059909
109.441876
111.037493
112.354755
114.638805
113.619566
115.668774
112.633705
112.199783
110.540986
108.243823
106.423497
103.164911
103.602409
101.651549
101.497769
99.651814
100.502968
100.716949
103.951693
103.277564
101.832747
98.956823
93.396902
86.438656
80.642700
72.937608
67.521930
60.733557
56.537986
52.118897
50.159693
45.886636
44.801831
41.922927
42.111874
39.468408
38.417578
37.409663
36.979914
36.395788
36.282539
34.796596
35.142899
36.183596
##ZVALUE=260
3.788471
3.524423
3.723502
4.021525
4.364848
4.728436
5.108714
5.366802
6.250739
6.621480
7.844567
11.591911
62.724948
193.105936
596.101880
1016.005874
1016.005874
1016.005874
1016.005874
1016.005874
1016.005874
1016.005874
1016.005874
1016.005874
1016.005874
1016.005874
1016.005874
631.971955
297.590494
126.062632
110.957623
130.884647
144.950747
155.942440
155.574679
147.669911
135.248899
116.311908
103.024840
91.336966
86.748600
84.052682
86.770654
92.151761
98.495483
106.085539
110.303760
117.283463
123.297572
130.566955
133.833885
139.255524
143.710971
147.799850
147.986412
150.074959
150.121450
150.221586
148.201585
146.471858
144.424438
141.345859
138.026476
133.790970
131.997466
128.886700
127.210617
123.621821
123.897791
120.495558
119.800568
118.577480
113.963485
107.590556
103.080869
95.743537
90.347528
81.078410
74.136853
68.836808
62.475801
58.238506
54.896474
51.805973
49.391985
46.961904
44.257641
42.961836
40.715933
39.111972
39.154887
37.499666
37.486553
35.966635
35.355687
34.761429
##ZVALUE=265
3.406405
3.453493
3.470778
3.892779
3.916621
4.212856
4.543662
4.929900
5.321503
5.815625
6.555915
6.829500
7.603765
9.595752
22.642612
135.182738
370.764732
962.103605
1016.005874
1016.005874
1016.005874
1016.005874
1016.005874
1016.005874
1016.005874
1016.005874
1016.005874
1016.005874
1016.005874
1016.005874
572.521687
186.733603
109.656453
122.078657
141.690969
165.351629
175.975561
180.140734
174.468756
164.462924
153.721571
139.142871
132.721663
129.132867
129.280686
136.728883
141.818523
150.439739
159.495473
165.280700
170.941949
179.451704
181.955695
185.532570
190.824866
190.916657
189.954638
190.601945
189.824700
184.933543
184.669495
179.862976
174.909830
170.183778
167.106986
160.849690
156.641603
153.460503
151.127577
146.302581
144.507885
138.957500
134.461522
126.492977
121.086836
110.450983
102.642775
93.409419
85.643530
79.092979
72.577596
66.258907
62.376857
59.027672
56.039691
52.871704
49.969554
46.110749
44.453740
42.591691
41.492581
39.774776
38.018823
37.423968
37.150979
36.175847
##ZVALUE=270
3.265738
3.598928
3.433824
3.408790
3.741980
4.189610
4.476905
4.438758
4.864931
4.823804
5.040765
5.672574
6.238818
6.584525
7.768869
8.615851
13.380647
45.847893
163.871646
637.804866
1016.005874
1016.005874
1016.005874
1016.005874
1016.005874
1016.005874
1016.005874
1016.005874
1016.005874
1016.005874
1016.005874
1016.005874
921.112895
315.918922
144.856572
119.205713
141.075850
175.769925
197.167993
214.711428
222.827792
223.490596
217.310786
205.724835
196.922421
190.889835
188.308954
193.224549
196.120739
204.331875
212.568641
220.341682
225.881934
229.424834
232.529640
234.505534
235.440731
233.805776
231.904984
228.132606
225.749612
219.523907
213.172436
206.153989
202.111602
194.656849
188.559890
182.684660
177.193880
171.843767
168.061852
160.305500
154.418945
144.365430
137.090683
126.461983
117.793679
107.073784
99.563599
89.810491
83.398819
75.012445
71.075559
65.453649
63.034892
58.467984
54.817796
51.742792
49.974918
46.638846
45.550466
43.159723
42.164922
40.526986
39.426684
37.739873
##ZVALUE=275
3.400445
3.363490
3.449917
3.651977
3.627539
3.833771
3.958941
4.015565
4.416704
4.641414
4.674792
5.149841
5.615950
5.904436
6.344914
6.806850
7.961988
8.644462
9.918809
19.481778
124.137402
384.242535
1016.005874
1016.005874
1016.005874
1016.005874
1016.005874
1016.005874
1016.005874
1016.005874
1016.005874
1016.005874
1016.005874
1016.005874
1016.005874
601.354837
260.833502
136.300921
146.545768
181.387663
208.413601
239.683986
257.144570
269.291997
273.422003
265.967846
260.524750
251.488686
245.405436
243.207812
246.697664
248.109698
254.995823
258.597732
259.631872
264.547467
263.575912
262.209773
260.880589
253.521800
251.323581
244.815946
238.757730
230.221748
222.907662
216.035843
210.982561
201.511979
196.207762
188.202858
183.012486
174.868703
167.123675
157.945752
147.465467
134.832859
126.600862
114.272833
106.922984
97.412467
91.074705
82.506537
77.105761
72.208643
67.803860
62.291622
59.008598
55.664778
52.933693
49.609542
47.543645
45.179725
43.782592
41.027665
41.262507
39.748549
##ZVALUE=280
3.058910
3.117919
3.365874
3.269911
3.435612
3.435612
3.576875
3.774762
3.961921
4.444718
4.466772
4.737973
4.961491
5.327463
5.432963
5.968809
6.288886
6.910563
7.356405
8.553863
9.779930
12.452602
62.726736
247.347951
902.307034
1016.005874
1016.005874
1016.005874
1016.005874
1016.005874
1016.005874
1016.005874
1016.005874
1016.005874
1016.005874
1016.005874
1016.005874
931.703448
438.169837
176.353455
152.821541
181.504488
209.119916
246.627927
270.334482
295.262933
304.389596
305.868983
301.418900
291.827917
283.126831
276.383758
271.340609
268.845558
265.720487
266.392827
267.740488
266.514421
264.035463
258.714557
256.074667
248.718858
244.273543
235.656500
228.828788
219.070911
213.004947
204.219818
196.940899
188.182592
183.444619
173.105597
165.593624
154.641867
146.931410
133.703947
125.585794
115.635991
106.101632
96.877813
89.950562
83.280802
78.317523
71.936846
68.523884
63.254833
60.498714
55.806637
53.055882
49.580932
47.845840
44.678450
43.054819
41.183829
39.912462
39.017797
##ZVALUE=285
2.996922
3.055930
3.256798
3.267527
3.294945
3.723502
3.646612
3.906488
3.593564
4.074574
4.257560
4.220605
4.344583
4.790425
4.820824
4.967451
5.662441
5.847812
6.140471
7.003546
7.647872
8.352995
9.758472
11.188984
29.463768
112.591386
468.264818
976.337790
1016.005874
1016.005874
1016.005874
1016.005874
1016.005874
1016.005874
1016.005874
1016.005874
1016.005874
1016.005874
1016.005874
1016.005874
797.462463
275.506973
159.426928
162.801743
186.289549
220.739841
247.466564
274.058580
292.692780
306.471586
308.418870
300.114751
288.703442
275.163651
264.433622
251.462460
244.790912
240.423679
236.386657
231.777430
228.746533
222.209692
217.385888
210.147500
204.238892
197.059512
190.407634
183.135867
176.444650
168.402791
164.544582
155.714750
148.778558
139.622688
130.763650
120.087862
111.952424
103.788972
95.927715
88.265538
82.801580
75.480938
72.263479
66.072941
62.256455
58.461428
55.164695
51.160455
48.718452
45.518875
43.729544
40.967464
39.425492
38.248897
37.115812
36.348701
##ZVALUE=290
2.904534
2.986789
3.118515
3.140569
3.269911
3.323555
3.296733
3.592968
3.536940
3.600717
3.640652
4.188418
4.304647
4.236698
4.574656
4.488826
5.034804
5.207658
5.585551
6.067753
6.773472
7.197857
8.027554
8.696914
10.414720
11.330843
13.420582
53.604841
192.575455
723.327994
1016.005874
1016.005874
1016.005874
1016.005874
1016.005874
1016.005874
1016.005874
1016.005874
1016.005874
1016.005874
1016.005874
1016.005874
1016.005874
440.093875
188.092589
130.125880
143.840909
168.312788
191.507936
222.864747
242.978930
260.775685
269.210935
266.288519
256.067514
239.454508
222.618580
204.936862
193.840861
180.754662
175.279975
167.804956
164.097548
159.427524
156.538486
149.823427
145.348907
140.322447
136.319995
130.746961
126.196742
122.257471
116.311908
108.938813
102.605820
94.308853
88.474751
80.549717
75.455904
69.175959
64.686537
60.278773
56.696534
52.976608
50.590634
47.405958
44.595599
41.600466
40.480494
37.709475
35.992861
34.078956
33.125877
32.180548
31.136870
30.049682
##ZVALUE=295
2.829432
2.796650
2.719760
2.961755
2.994537
3.123879
3.224611
3.227592
3.305674
3.469586
3.583431
3.837943
3.679991
3.710985
4.091859
4.199743
4.430413
4.441738
4.944801
5.367994
5.523562
6.005764
6.423593
7.280707
7.737875
8.953810
9.786487
11.269450
12.612939
23.909807
88.829398
446.076989
985.083580
1016.005874
1016.005874
1016.005874
1016.005874
1016.005874
1016.005874
1016.005874
1016.005874
1016.005874
1016.005874
1016.005874
1016.005874
665.861964
263.259411
104.883909
98.307729
113.559961
128.121972
152.117610
169.510841
190.131664
201.978683
206.943750
202.318430
187.705755
173.262954
151.989460
136.612654
119.090676
110.066533
101.746917
97.249746
93.192458
90.350509
88.806748
87.269545
84.550977
81.914663
79.786777
76.632500
71.988702
67.435503
62.219501
57.764649
53.414702
50.518513
46.287775
43.940544
40.973425
38.828850
36.653876
35.348535
33.217669
32.209754
30.703545
29.338598
27.933717
27.583838
26.373863
25.686622
25.132895
24.655461
24.425983
##ZVALUE=300
2.565980
2.509952
2.533793
2.807975
2.775788
2.752542
3.146529
2.898574
3.034472
3.350973
3.461838
3.330708
3.575683
3.553629
3.747940
3.972650
4.160404
4.284978
4.267693
4.520416
5.024672
5.301833
5.421638
5.924702
6.523728
6.784797
7.898808
8.342862
9.453893
10.553598
12.454987
14.667511
46.177506
188.083649
766.867995
1016.005874
1016.005874
1016.005874
1016.005874
1016.005874
1016.005874
1016.005874
1016.005874
1016.005874
1016.005874
1016.005874
1016.005874
1016.005874
447.148681
151.499510
65.265894
66.620708
76.887608
86.296797
104.693770
120.095611
139.756799
148.885846
151.159763
147.424936
133.873820
118.822455
98.881721
84.004998
67.884922
58.961511
52.811503
49.943924
48.985481
49.097538
47.979951
47.598481
46.441555
43.439865
41.061640
38.445592
35.612583
32.752752
30.425787
28.445721
27.297735
26.078820
24.744868
24.287701
23.396611
22.746921
22.017956
21.363497
20.866990
20.505786
20.321608
19.753575
19.739866
19.632578
19.487739
19.548535
##ZVALUE=305
2.544522
2.510548
2.722740
2.652407
2.745986
2.794862
2.745986
2.900958
3.047585
3.098845
3.122687
3.184676
3.342628
3.409982
3.694892
3.548861
3.888607
3.780723
4.127622
4.124641
4.463792
4.708767
5.125999
5.402565
5.836487
5.977750
6.457567
7.092953
7.799864
8.175969
9.633899
10.263920
11.600852
14.159679
20.091534
120.791793
395.447612
1016.124487
1016.124487
1016.124487
1016.124487
1016.124487
1016.124487
1016.124487
1016.124487
1016.124487
1016.124487
1016.124487
1016.124487
1016.124487
827.984810
218.891501
70.829988
44.312477
46.497583
54.443479
64.507723
81.220865
93.839765
108.895898
118.021965
120.801926
117.656589
105.286837
91.528893
73.148608
60.027838
47.204494
40.578842
35.618544
34.010410
33.111572
31.561852
30.066967
28.308630
25.697947
23.910999
21.821856
20.791888
19.480586
19.079447
18.496513
17.876625
17.609596
17.455816
17.106533
17.021894
16.641617
16.416907
16.455650
16.343594
16.212463
15.965700
16.149879
16.308427
16.350746
##ZVALUE=310
2.480745
2.462864
2.332926
2.523661
2.388954
2.583861
2.722740
2.892613
2.844930
2.930760
2.926588
2.930760
3.022552
3.098845
3.188848
3.336668
3.322959
3.689528
3.926754
3.856421
3.889799
4.105568
4.324913
4.748702
4.822612
4.979968
5.583763
5.740523
6.332994
6.713867
7.419586
7.982850
8.781552
10.097623
10.869503
12.918711
15.134811
45.552850
179.100633
741.432905
1016.112566
1016.112566
1016.112566
1016.112566
1016.112566
1016.112566
1016.112566
1016.112566
1016.112566
1016.112566
1016.112566
1016.112566
1016.113162
455.893874
137.652755
36.532879
33.074617
35.411716
40.165782
50.666928
61.572790
77.945590
90.684891
101.862550
105.814934
103.264451
96.211433
82.439780
69.752932
53.829551
44.642687
35.184622
30.452609
25.171638
22.963881
20.326972
18.533468
17.016530
15.992522
15.409589
14.977455
14.692545
14.470816
14.254451
14.444590
14.231801
13.927817
13.970733
13.985634
14.276505
13.890862
14.348626
13.951659
13.593435
14.264584
14.516711
##ZVALUE=315
2.282858
2.042651
2.089739
2.266765
2.285838
2.349615
2.210736
2.112985
2.538562
2.437830
2.453923
2.529621
2.682805
2.970695
2.855659
2.996922
2.899766
2.973676
3.240705
3.369451
3.602505
3.693700
3.780723
4.005432
4.417896
4.476905
4.696846
4.854798
5.208850
5.573630
6.056428
6.632805
7.246733
7.896423
8.527637
9.451509
10.432601
12.025833
13.684630
22.926927
82.816482
444.139838
987.942815
1016.006470
1016.006470
1016.006470
1016.006470
1016.006470
1016.006470
1016.006470
1016.006470
1016.006470
1016.006470
1016.006470
1016.006470
693.484545
235.761404
48.885942
29.357672
28.117895
29.468536
35.299659
43.189526
56.024790
68.237782
84.051490
93.291998
99.621415
99.095702
90.918541
81.248879
65.907836
53.581595
38.562417
29.384494
22.287965
18.166900
15.747547
14.716983
13.657808
13.239980
13.066530
12.697577
12.958646
13.023615
12.699962
12.489557
12.420416
12.514591
12.609959
12.873411
12.705922
12.881756
12.978911
12.874603
12.946725
##ZVALUE=320
1.921654
2.012849
2.010465
2.282858
2.146959
2.192855
2.161860
2.312660
2.222657
2.260804
2.253652
2.405643
2.536774
2.477765
2.548695
2.658963
2.711415
2.859831
2.926588
2.994537
3.241897
3.343821
3.243685
3.757477
3.862977
4.012585
4.052520
4.407763
4.521608
4.814863
5.193949
5.679727
5.978942
6.525517
6.838441
7.519722
8.284450
9.323955
10.123849
11.214614
12.688637
15.679598
36.154985
229.583979
653.531551
1016.005874
1016.005874
1016.005874
1016.005874
1016.005874
1016.005874
1016.005874
1016.005874
1016.005874
1016.005874
1016.005874
1016.005874
999.631882
470.128655
98.928809
33.178926
25.092959
24.820566
26.214719
30.564666
39.542913
50.183535
66.068769
78.562498
91.037750
96.221566
95.958710
88.778734
74.018836
60.695410
43.702722
33.735633
23.418665
18.411875
14.373660
13.202429
12.541413
12.446642
11.964440
12.189746
11.931658
12.044907
11.855960
12.056828
12.236834
12.026429
12.386441
12.547970
12.936592
12.846589
13.010502
##ZVALUE=325
1.944900
1.951456
1.827478
1.892447
1.949668
2.072453
2.060533
2.147555
2.312660
2.295971
2.178550
2.214909
2.366900
2.289414
2.274513
2.532601
2.592802
2.669692
2.780557
2.786517
2.862811
2.739429
3.045797
3.230572
3.539920
3.483891
3.757477
3.999472
4.099607
4.322529
4.644990
4.956722
5.108714
5.609989
5.866885
6.222725
6.822944
7.292628
8.029938
8.681417
9.666681
10.885000
12.034774
14.072657
20.704865
136.392713
421.176553
1015.999913
1015.999913
1015.999913
1015.999913
1015.999913
1015.999913
1015.999913
1015.999913
1015.999913
1015.999913
1015.999913
1015.999913
1015.999913
735.166073
171.656609
47.261715
25.059581
23.512840
23.494959
25.196671
31.282902
39.320588
53.229928
63.846707
77.604651
85.275769
89.927912
87.267756
77.177882
66.801906
51.538944
40.388703
27.992725
21.359921
15.858412
13.892651
12.595654
11.981726
11.745691
11.735559
11.771917
11.843443
11.711717
11.915565
12.182593
12.006760
12.635589
12.589693
12.623668
##ZVALUE=330
1.840591
1.734495
1.827478
1.928806
1.916885
1.857877
1.809597
1.854897
2.054572
2.012849
2.047420
2.384782
2.288818
2.091527
2.338886
2.328753
2.439618
2.463460
2.646446
2.494454
2.830625
2.711415
3.018975
2.956986
3.251433
3.119707
3.454685
3.418922
3.508925
3.901720
3.938675
4.390478
4.503727
4.848838
5.234480
5.453825
5.660653
6.473660
6.314516
7.140636
7.695556
8.504987
9.126663
9.905696
11.101961
12.938976
15.285611
53.433776
205.713511
814.062953
1016.005874
1016.005874
1016.005874
1016.005874
1016.005874
1016.005874
1016.005874
1016.005874
1016.005874
1016.005874
1016.005874
1016.005874
1016.005874
351.449847
98.314881
27.319789
23.968816
23.300648
23.918748
27.578473
31.727552
39.986968
48.560500
60.593486
69.334507
77.785850
80.424547
77.910423
71.826577
59.852600
49.203634
35.793781
28.137565
20.435452
16.502738
13.669729
12.516975
11.807680
11.523962
11.764765
11.787415
12.043715
12.136698
12.390614
12.710690
12.664795
##ZVALUE=335
1.719594
1.693964
1.620650
1.769662
1.718998
1.628995
1.875758
1.869798
1.767874
1.831651
1.952648
2.220869
1.945496
1.981854
2.229810
2.088547
2.079606
2.160668
2.391934
2.323985
2.398491
2.615452
2.608895
2.836585
3.021955
2.973676
3.040433
3.271699
3.338456
3.425479
3.660917
3.885627
3.849864
4.199743
4.328489
4.563928
4.755855
5.355477
5.506873
5.831718
6.166697
6.818771
7.325411
7.506609
8.591413
9.215474
10.360479
11.760592
13.314486
23.624301
85.712075
445.979834
982.129574
1015.992761
1015.992761
1015.992761
1015.992761
1015.992761
1015.992761
1015.992761
1015.992761
1015.992761
1015.992761
1015.992761
1015.992761
541.721582
172.249675
37.407875
25.741458
24.451613
24.361610
24.671555
25.624633
29.322505
33.814907
43.388605
51.614642
61.979890
68.998933
73.351860
72.521567
65.335631
57.209730
46.277642
37.665963
27.621984
21.598935
16.234517
14.200807
12.637973
12.174845
12.201667
12.081861
12.475848
12.681484
12.889504
##ZVALUE=340
1.690984
1.648664
1.578927
1.612902
1.734495
1.686811
1.835823
1.794696
1.799464
1.701713
1.828671
1.883507
1.983643
1.940727
1.957417
1.923442
2.013445
1.982450
2.138615
2.268553
2.321601
2.522469
2.232790
2.665520
2.537966
2.890825
2.721548
2.933741
3.082752
3.168583
3.343821
3.392696
3.771782
3.759861
4.004836
4.101992
4.436970
4.543662
4.766583
5.006790
5.370975
5.750656
6.166697
6.444454
6.892681
7.733703
8.169413
9.028912
9.801984
11.143684
12.171865
15.937686
40.298700
246.652961
708.872676
1016.005874
1016.005874
1016.005874
1016.005874
1016.005874
1016.005874
1016.005874
1016.005874
1016.005874
1016.005874
1016.005874
1016.005874
854.468942
291.478634
51.236749
28.675795
26.420951
24.851561
22.617579
21.669865
21.702647
23.899674
29.961467
37.043691
48.382878
56.746602
65.230727
68.233609
67.293644
63.348413
54.323673
46.254992
34.918785
28.148890
20.990968
17.490983
14.304519
13.480783
13.511777
13.442636
13.483763
##ZVALUE=345
1.606941
1.764894
1.664758
1.831651
1.716614
1.665950
1.968741
1.752973
1.683831
1.691580
1.791716
2.034903
1.855493
1.979470
1.983643
2.001524
2.120733
2.157688
2.203584
2.167821
2.335906
2.248883
2.380610
2.414584
2.716780
2.560616
2.665520
2.911687
2.839565
3.042817
3.214478
3.159642
3.334880
3.574491
3.713965
3.777742
3.962517
4.054904
4.285574
4.434586
4.738569
4.912615
5.116463
5.494952
5.994439
6.474853
6.550550
7.441640
7.550716
8.564591
9.192824
10.163784
11.455417
13.105869
20.245910
123.624802
411.201715
1016.005874
1016.005874
1016.005874
1016.005874
1016.005874
1016.005874
1016.005874
1016.005874
1016.005874
1016.005874
1016.005874
1016.005874
1016.005874
500.667691
109.077692
38.947463
28.940439
25.871992
21.759868
19.091964
17.353892
17.958879
21.348000
26.548505
35.362840
43.275952
53.178668
59.112906
64.216852
63.688755
60.035586
54.919720
45.488477
37.106872
28.120875
23.089647
18.540621
16.605854
15.086532
##ZVALUE=350
1.652837
1.738667
1.761913
1.698732
1.891851
1.889467
1.921654
1.834631
2.073646
1.900792
2.008677
1.956820
1.972914
1.968741
2.019405
2.112985
2.103448
2.185702
2.180934
2.228618
2.352595
2.398491
2.467632
2.401471
2.601743
2.586842
2.710819
2.773404
2.944469
3.010631
3.032684
3.044605
3.285408
3.442764
3.502965
3.668666
3.779531
3.769994
3.925562
4.150867
4.448891
4.615784
4.881620
5.084872
5.232692
5.743504
5.963445
6.268620
6.444454
7.131696
7.607937
8.239746
8.922815
10.064840
10.917783
12.377501
14.972687
56.703687
214.164853
831.439495
1015.967727
1015.967727
1015.967727
1015.967727
1015.967727
1015.967727
1015.967727
1015.967727
1015.967727
1015.967727
1015.967727
1015.967727
783.861876
169.259906
46.642423
25.257468
21.488667
18.192530
16.920567
15.350580
15.549660
17.460585
19.889474
25.384426
31.177998
39.904714
47.355890
55.317879
59.338808
60.218573
58.824420
52.049756
45.760870
37.206411
30.935407
24.749637
##ZVALUE=355
1.971722
1.967549
2.047420
2.057552
1.943707
2.061725
2.180934
2.086759
2.222657
2.125502
2.396703
2.216697
2.107620
2.141595
2.318621
2.234578
2.340674
2.474785
2.558827
2.394915
2.485514
2.543926
2.592802
2.591610
2.724528
2.688766
2.775788
2.931952
3.126860
3.205538
3.089905
3.289580
3.197789
3.577471
3.602505
3.786683
3.825426
4.115701
4.128814
4.184842
4.369617
4.674792
4.845858
4.892945
4.955530
5.364418
5.614758
5.955696
6.096959
6.594658
6.978512
7.414818
7.764697
8.472800
9.148717
9.905696
10.826588
12.397766
13.666749
27.825832
104.061961
509.558916
1016.005874
1016.005874
1016.005874
1016.005874
1016.005874
1016.005874
1016.005874
1016.005874
1016.005874
1016.005874
1016.005874
1016.005874
947.943926
264.317989
70.343614
24.735928
21.221638
18.293858
16.840696
15.840530
15.243888
15.467405
16.275644
19.102693
23.000836
29.711723
35.684705
44.422746
50.421953
56.028962
57.458878
55.762529
52.490830
45.735836
##ZVALUE=360
1.870990
1.821518
1.907945
1.882911
1.830459
2.028942
1.903772
1.942515
1.977682
2.075434
2.048612
2.227426
2.290606
2.361536
2.376437
2.334714
2.384782
2.339482
2.309680
2.464652
2.506971
2.570748
2.543926
2.563000
2.796650
2.734661
2.862811
3.015995
3.008842
3.048778
3.170967
3.399849
3.347993
3.328919
3.659725
3.789663
3.746748
3.772974
3.989935
4.243851
4.320741
4.370809
4.656911
4.638433
4.760623
4.991889
5.297661
5.417466
5.369782
6.053448
6.328821
6.774664
7.195473
7.338524
7.769465
8.491874
8.950830
10.008812
10.817647
12.382865
14.048815
18.305779
42.476058
230.742693
672.377944
1015.842557
1015.842557
1015.842557
1015.842557
1015.842557
1015.842557
1015.842557
1015.842557
1015.842557
1015.842557
1015.842557
1015.842557
530.674458
161.817670
30.204654
21.500587
18.746853
17.245412
15.800595
15.303493
14.565587
14.752746
15.330911
16.949773
20.981431
25.425553
32.974482
39.084554
46.882629
51.432848
54.442883
##ZVALUE=365
2.102852
2.072453
1.917481
2.093911
2.033710
2.040863
2.030730
2.164841
2.276897
2.201796
2.244711
2.249479
2.393723
2.327561
2.569556
2.544522
2.408624
2.376437
2.505779
2.563596
2.642870
2.614856
2.596974
2.684593
2.798438
2.784729
3.050566
3.095865
2.998710
3.137589
3.176928
3.269911
3.343821
3.473759
3.458858
3.622770
3.705621
3.875494
3.888607
4.101992
4.189610
4.316568
4.321933
4.532933
4.885793
4.905462
4.892945
4.831553
5.095601
5.384684
5.632639
5.899668
6.135702
6.709695
6.949902
7.266998
7.615685
8.079410
8.780956
9.652972
10.441542
12.178421
13.370514
15.671849
22.094846
109.844804
373.901725
1016.005874
1016.005874
1016.005874
1016.005874
1016.005874
1016.005874
1016.005874
1016.005874
1016.005874
1016.005874
1016.005874
1016.005874
827.751756
294.470787
48.685670
22.071600
18.343925
17.194748
15.545487
14.777780
14.124513
13.647676
13.853908
14.513731
16.468763
18.894672
23.789406
28.445721
35.776496
##ZVALUE=370
1.914501
1.906753
1.866817
1.950860
1.915693
2.047420
2.068877
2.193451
2.120733
2.026558
2.019405
2.132654
1.949668
2.098680
2.236962
2.073646
2.283454
2.184510
2.206564
2.272725
2.271533
2.162457
2.522469
2.293587
2.594590
2.540946
2.534986
2.740622
2.716780
2.872944
2.908707
2.916455
2.969503
2.871752
3.266931
3.184676
3.169775
3.205538
3.325939
3.445745
3.681779
3.653765
3.860593
3.839731
3.913641
3.815889
4.006624
4.196763
4.246831
4.581809
4.595518
4.670620
4.889965
5.043745
5.227923
5.593896
5.953908
6.267428
6.645918
7.208586
7.813573
8.785725
9.273887
10.158420
11.327863
13.267994
16.071796
58.762431
219.847560
833.442807
1016.005874
1016.005874
1016.005874
1016.005874
1016.005874
1016.005874
1016.005874
1016.005874
1016.005874
1016.005874
1016.005874
1014.072895
484.469533
102.061629
29.561520
17.780662
16.735792
15.349984
14.755726
14.026761
13.604760
13.625622
13.732910
14.402866
15.494823
18.066764
##ZVALUE=375
1.691580
1.542568
1.628995
1.638532
1.840591
1.576543
1.581907
1.741648
1.768470
1.681447
1.704693
1.729727
1.708865
1.806617
1.823902
2.014637
1.944900
1.831651
1.931787
1.918674
1.871586
2.198815
2.031922
2.159476
2.245903
2.134442
2.033710
2.150536
2.275705
2.423525
2.340674
2.301931
2.491474
2.804995
2.422929
2.731681
2.764463
2.774596
2.906919
3.212690
3.026724
2.989769
3.148913
3.142953
3.248453
3.349781
3.434420
3.580451
3.768802
3.637671
3.897548
3.942847
4.026890
4.121661
4.547834
4.404783
4.834533
5.094409
5.277991
5.593896
5.906820
6.508827
6.870627
7.688999
8.125901
9.565949
10.621548
12.818575
14.841557
29.683709
103.640556
463.852882
1003.332734
1016.005874
1016.005874
1016.005874
1016.005874
1016.005874
1016.005874
1016.005874
1016.005874
1016.005874
1016.005874
1016.005874
910.387635
254.270434
69.221854
19.698739
17.025471
15.811920
14.964938
14.183521
13.958812
13.771653
13.779998
13.687611
##ZVALUE=380
1.336932
1.386404
1.434684
1.369715
1.537800
1.439452
1.524687
1.433492
1.405478
1.571774
1.636744
1.489520
1.308918
1.440644
1.513958
1.641512
1.576543
1.632571
1.598597
1.886487
1.610518
1.679659
1.790524
1.689792
1.844764
1.869798
1.733899
1.980662
2.064705
2.186894
2.012849
2.309680
2.411604
2.427697
2.362728
2.389550
2.574921
2.572536
2.530813
2.613664
2.759695
2.910495
2.698898
2.996922
3.042817
3.153682
3.060699
3.156662
3.295541
3.398657
3.452897
3.494620
3.658533
3.873706
3.908873
3.931522
4.285574
4.372597
4.541874
4.922748
5.056858
5.345941
5.734563
6.274581
6.737709
7.787943
8.836985
10.110736
11.557937
13.475418
15.037656
19.251704
52.648783
306.438804
823.189020
1016.002893
1016.002893
1016.002893
1016.002893
1016.002893
1016.002893
1016.002893
1016.002893
1016.002893
1016.002893
1016.002893
1016.002893
471.647978
155.154467
30.344725
18.017888
15.975833
15.033484
14.471412
13.793707
13.493896
##ZVALUE=385
1.251698
1.218915
1.407862
1.206994
1.228452
1.204610
1.333952
1.267791
1.296997
1.345873
1.280904
1.553893
1.341701
1.477599
1.392961
1.475811
1.420975
1.363754
1.303554
1.546741
1.542568
1.546741
1.686811
1.655817
1.742840
1.795888
1.791716
1.815557
1.946688
2.006888
2.004504
2.013445
2.272725
2.253652
2.253652
2.391934
2.477765
2.537966
2.605915
2.701879
2.855659
2.784729
2.925992
3.020763
3.023744
2.946854
3.152490
3.147721
3.066659
3.427863
3.573895
3.482699
3.646612
3.732443
3.918409
3.852844
3.971457
4.204512
4.191995
4.389882
4.525781
4.873872
5.210638
5.681515
6.154776
7.213950
7.981658
8.905530
10.031462
10.859966
11.608601
12.230873
12.624860
13.962984
23.840666
147.840977
463.591814
1016.007662
1016.007662
1016.007662
1016.007662
1016.007662
1016.007662
1016.007662
1016.007662
1016.007662
1016.007662
1016.007662
1016.007662
932.410955
370.057821
63.783526
21.531582
16.151667
15.266538
14.213920
##ZVALUE=390
0.985861
1.230836
1.061559
1.059771
1.098514
1.135468
1.012683
1.317859
1.026988
1.048446
1.093745
1.209974
1.189709
1.197457
1.304746
1.159906
1.238585
1.261830
1.213551
1.301765
1.427531
1.402497
1.475811
1.464486
1.483560
1.448989
1.649857
1.650453
1.784563
1.947880
2.097487
2.077818
2.110600
2.327561
2.282858
2.235770
2.409816
2.467632
2.609491
2.684593
2.789497
2.767444
2.911687
2.898574
3.022552
3.196597
3.215671
3.313422
3.212690
3.351569
3.467798
3.539920
3.505945
3.743768
3.570914
3.869534
3.890991
4.150867
4.092455
4.350543
4.450679
4.835725
4.857779
5.484819
5.991459
6.734729
7.867813
8.677840
9.363890
10.090470
10.238886
10.511875
10.732412
11.024475
11.135936
12.042522
15.115738
68.324804
269.114971
949.032903
1015.898585
1015.898585
1015.898585
1015.898585
1015.898585
1015.898585
1015.898585
1015.898585
1015.898585
1015.898585
1015.898585
1015.898585
667.280555
142.374635
35.473704
17.406940
##ZVALUE=395
1.267791
1.138449
1.267791
1.222491
1.186728
1.163483
1.141429
1.040697
1.264811
1.284480
1.176596
1.300573
1.287460
1.381636
1.271963
1.351833
1.387596
1.239777
1.342893
1.167655
1.396537
1.449585
1.439452
1.587868
1.536608
1.733899
1.827478
1.864433
1.881719
1.930594
2.093911
2.096891
2.228618
2.312660
2.590418
2.585649
2.606511
2.825856
2.795458
2.819896
3.059506
3.020763
3.091693
3.344417
3.263950
3.482699
3.452897
3.352761
3.578663
3.515482
3.740788
3.820658
3.782511
3.917813
3.939867
4.033446
4.121661
4.213452
4.173517
4.336834
4.335642
4.602671
4.921556
5.391836
5.922914
6.791949
7.219911
8.315444
8.854866
9.203553
9.323955
9.182692
9.102821
8.825660
8.807778
9.395480
9.871721
11.157990
12.698770
34.557581
147.517920
674.384832
1016.005874
1016.005874
1016.005874
1016.005874
1016.005874
1016.005874
1016.005874
1016.005874
1016.005874
1016.005874
1016.005874
1016.005874
998.722315
334.379673
##ZVALUE=400
1.339912
1.171827
1.213551
1.257658
1.186728
1.247525
1.306534
1.228452
1.280904
1.193881
1.250505
1.323819
1.131892
1.186728
1.348853
1.189709
1.313686
1.231432
1.159906
1.389980
1.499653
1.508594
1.499653
1.546741
1.689792
1.638532
1.722574
1.752973
2.043843
1.905560
2.026558
2.050996
2.101660
2.412796
2.316833
2.442598
2.748966
2.725720
2.828836
2.817512
3.023744
3.035665
3.115535
3.188848
3.338456
3.484488
3.498793
3.601909
3.642440
3.714561
3.741980
3.897548
3.830791
3.923774
4.072785
3.952980
4.189610
4.193783
4.281998
4.390478
4.555583
4.866719
5.037785
5.460978
6.071925
6.797910
7.073879
8.050799
8.416772
8.633733
8.366704
8.178949
8.025765
7.729530
7.478595
7.938743
8.068681
8.745790
9.356737
10.683537
12.164712
20.700693
71.946979
347.129703
881.823897
1016.023755
1016.023755
1016.023755
1016.023755
1016.023755
1016.023755
1016.023755
1016.023755
1016.023755
1016.023755
1016.023755
##END
