##TITLE=C105_R4
##FORMAT=SPECTACLE-ASCII V-1.2
##DATA TYPE=ULTRAVIOLET SPECTRUM
##SECOND TYPE=ULTRAVIOLET SPECTRUM
##DATE=05/28/18
##TIME=14:50:45
##SPECTROMETER/DATA SYSTEM=SPECTACLE
##XUNITS=NM EM
##YUNITS=ENERGY
##YFACTOR=1
##FIRSTX=220
##LASTX=410
##NPOINTS=96
##3DDATA=Equidistant
##ZUNITS=NM EX
##FIRSTZ=210
##LASTZ=400
##ZPOINTS=39
##XYDATA=(Y..Y)
##ZVALUE=210
83.600879
79.702735
52.488446
33.062696
25.570989
22.463799
20.858645
19.146800
18.041730
15.347600
14.091730
14.169812
13.218522
14.721751
15.028715
16.222596
16.982555
18.673539
17.902851
21.112561
22.034645
23.501515
26.636720
30.245781
33.828616
36.063790
42.618513
47.085881
49.682856
53.107738
53.979754
61.160922
64.470768
67.874789
71.819425
76.285601
80.969930
85.581541
88.066459
94.686747
97.151995
100.921988
104.993582
110.181570
110.824704
119.408965
115.724802
121.474862
123.012662
129.755735
126.688480
134.564638
132.895708
135.104656
137.109756
137.037635
134.232640
137.650967
128.473639
131.950974
130.440593
127.839446
126.358867
132.362843
132.474899
139.936805
153.696537
164.231658
183.014870
204.643607
224.284530
245.637894
261.119604
268.382430
266.561508
260.272622
248.006582
224.884748
206.127763
175.687671
151.723623
125.360489
110.024810
92.178583
81.223845
72.343946
67.738891
72.138906
71.108937
76.435804
91.944933
114.156604
146.272779
190.400481
240.326524
302.142501
##ZVALUE=215
443.561673
426.595807
329.279900
202.108622
134.018660
79.433918
52.655935
42.817593
37.231445
35.135746
28.604865
26.227832
20.943880
21.051764
18.616915
19.112825
18.510818
19.369721
20.407438
21.343827
23.590922
26.600957
29.182434
33.147931
35.211444
41.162968
44.369698
50.406456
53.484440
61.161518
61.726570
68.497658
70.347786
77.193975
80.859661
92.008710
96.408725
102.760792
109.463930
113.299489
119.976997
130.982995
131.981969
140.016675
146.469474
160.254836
162.265897
169.577599
174.499750
178.330541
183.441639
182.026625
189.256668
191.309452
190.379620
195.915699
191.708803
196.452737
191.587806
192.282796
185.508728
180.559754
183.020830
175.331831
178.006887
182.177424
185.731649
198.593736
208.953619
227.781534
239.666700
250.105858
264.515877
262.431502
255.341530
252.526999
244.435668
213.089585
198.720694
173.641443
152.770877
130.620003
114.212632
105.014443
96.473694
86.921453
85.384846
77.716708
72.854757
70.939660
69.099665
66.502690
69.315434
76.890588
90.987682
122.355819
##ZVALUE=220
1016.005874
1016.005874
1016.005874
941.470861
702.626705
511.181951
303.531885
187.965631
94.584823
67.629814
55.971742
50.970912
50.696731
40.150881
34.682751
28.803945
25.052428
22.123456
22.252798
21.696687
23.117661
23.081899
27.228594
28.872490
32.491684
35.024881
40.453672
41.965842
44.795871
48.518777
51.084757
55.847764
62.774420
72.115660
75.477958
89.018941
96.825957
112.440586
116.951466
131.719708
136.313438
152.757764
160.600543
172.026753
184.201002
194.706917
207.057595
214.175582
220.831633
229.979753
240.943432
240.470767
247.742534
253.856778
255.565643
260.077715
260.766745
261.426568
256.485939
252.497792
245.774984
243.984461
236.071944
233.597755
232.557654
226.520896
229.464769
234.648585
239.408612
246.737003
260.171890
263.344646
265.938640
266.296864
258.588791
241.560936
226.936936
208.896995
191.795826
167.968869
151.387453
134.772658
122.714639
108.688474
104.470849
91.493726
87.892413
83.387494
77.619553
75.687766
70.408583
71.534514
66.399574
66.284537
66.668987
61.955452
##ZVALUE=225
1016.005874
1016.005874
1016.005874
1016.005874
1016.005874
1016.005874
1016.005874
937.111974
627.565980
385.113955
183.052421
103.257895
76.039433
72.688460
66.736937
58.552623
49.734712
42.834878
33.872724
28.124452
24.893880
24.490952
23.742914
24.867654
28.134584
30.500889
30.521750
33.587813
36.555529
38.761497
41.950941
48.625469
53.779483
63.773990
73.279738
86.135864
99.625587
119.625926
130.818486
143.930912
158.370733
174.176693
187.867880
202.940702
215.760469
236.293674
248.418450
258.850455
277.868509
285.598636
295.614600
303.952694
317.868590
318.990946
321.628451
324.593782
324.821472
317.705870
322.455764
312.363505
308.566689
304.320455
290.195942
285.367966
284.732580
281.419754
274.844766
273.328424
279.198885
280.832648
280.475616
276.700854
275.298953
265.909433
255.294442
240.834951
223.424435
202.304721
189.227462
167.149901
150.311589
133.027434
124.158859
110.911727
103.566647
95.487833
91.804862
86.378455
82.770586
76.577663
76.255798
72.582960
69.682002
66.212416
65.373778
64.728856
##ZVALUE=230
770.694017
859.871507
1016.005874
1016.005874
1016.005874
1016.005874
1016.005874
1016.005874
1016.005874
1016.005874
1001.290679
638.529658
294.508934
168.698430
104.589462
95.711946
94.017982
88.995695
76.294541
60.645938
50.601959
38.135648
31.227469
26.982427
26.891828
27.318597
28.268695
30.727983
30.395985
31.581521
36.490560
41.209459
48.456788
57.658553
68.449974
83.556771
99.499822
111.928582
131.216645
142.117739
157.127976
175.357461
190.176964
209.568739
223.299861
239.837766
252.322555
266.675949
277.856588
289.181471
303.999782
316.354632
322.922468
325.550437
329.626799
331.121683
334.488750
331.702828
333.032012
323.766470
314.636827
313.588977
302.062631
294.014812
286.472440
284.085870
278.645754
273.918509
272.852778
270.912647
267.431736
266.812444
258.153677
250.232816
245.086551
231.793523
210.455656
195.193887
172.643661
162.075758
138.822794
131.696463
117.905736
107.761621
102.885962
92.780590
88.543892
84.300637
79.644918
77.868700
74.064732
71.044564
68.230629
64.203739
63.652992
61.826706
##ZVALUE=235
157.431960
187.762976
414.936543
960.756540
1016.005874
1016.005874
1016.005874
1016.005874
1016.005874
1016.005874
1016.005874
1016.005874
1016.005874
980.799794
521.079898
279.050469
135.884881
114.958882
118.646622
109.905601
104.085803
85.271001
69.444776
52.403808
42.581558
32.421947
30.107498
28.248429
28.288960
30.726790
32.543540
37.646890
41.463971
49.043894
55.422783
68.307519
77.856779
92.839599
99.762678
115.871429
123.134851
140.325427
149.305463
159.503818
173.693895
186.180472
190.693736
202.552676
212.974548
218.749642
227.141976
234.846473
243.355632
242.334604
242.591500
250.398517
248.131752
250.051618
245.888829
240.839720
238.733888
233.772993
227.985978
224.085450
214.586854
210.488439
210.675597
206.411481
207.435489
210.544467
208.345652
204.959512
204.743743
196.644664
190.906525
176.481009
164.700747
149.611831
137.149692
123.089552
111.602545
101.207495
94.477534
85.959435
79.579949
77.765584
73.745847
69.610476
67.290664
65.721869
62.459707
60.510635
58.182478
56.475997
56.234002
57.041645
##ZVALUE=240
7.105470
8.881688
34.153461
169.567466
399.321914
934.938788
1016.005874
1016.005874
1016.005874
1016.005874
1016.005874
1016.005874
1016.005874
1016.005874
1016.005874
1016.005874
728.879571
409.127474
231.962800
127.923489
124.578476
125.470757
121.705532
105.720758
93.178749
71.333647
57.862997
44.281483
37.237406
31.547546
31.308532
31.694770
33.862591
37.843585
43.690801
47.839880
54.313540
62.187910
64.020753
73.230863
76.874495
87.301731
89.741945
95.683932
104.251504
109.779835
113.465786
120.678544
125.849843
131.891966
133.929849
137.956738
139.675736
143.419504
144.257545
146.390796
145.346522
146.010518
145.135522
144.451857
139.956474
139.127970
135.382414
132.851005
130.963922
129.091740
128.779411
130.857825
133.488774
137.291551
138.535500
139.544606
140.471458
138.095617
133.364797
120.663643
115.655661
104.374886
92.181563
82.903504
77.884793
70.014596
66.777468
60.480833
59.360862
54.151416
53.336620
53.167939
50.367713
49.187541
47.292709
47.670603
48.339963
47.570467
46.151876
46.876669
##ZVALUE=245
4.432797
4.319549
4.755855
5.787611
22.542477
80.991983
307.641625
668.350458
1015.797853
1015.797853
1015.797853
1015.797853
1015.797853
1015.797853
1015.797853
1015.797853
1015.797853
1015.797853
1015.797853
592.566729
303.436518
159.931779
121.216774
128.987432
131.544471
126.172900
114.516616
96.960664
78.594685
63.901544
49.412847
41.274428
35.089850
34.024715
34.554601
37.116408
38.587451
42.452812
45.647621
49.729943
51.422715
55.916905
59.004426
62.573552
66.110492
70.348978
74.029565
78.195930
80.556870
83.664656
87.986588
89.214444
91.501474
94.794631
93.838573
96.204877
93.482733
95.136762
93.993545
93.281865
92.710853
90.365410
88.927746
88.906884
87.109804
87.769628
87.990761
91.650486
94.449520
98.531842
98.442435
100.252628
102.059841
98.559856
95.724463
89.333653
84.123611
74.851513
68.000555
61.092973
57.825446
51.222444
49.107671
45.608878
43.208599
42.831898
41.577816
39.732456
40.993690
40.487647
40.274858
39.152503
39.177537
39.364696
37.646890
38.331747
##ZVALUE=250
3.828406
3.758669
3.901720
5.103946
5.187988
5.785823
8.941889
52.577853
169.415474
414.406657
997.371674
1016.005874
1016.005874
1016.005874
1016.005874
1016.005874
1016.005874
1016.005874
1016.005874
1016.005874
1016.005874
917.673707
478.531718
192.703009
121.271610
123.732686
132.110715
138.298869
134.361982
119.957924
106.213689
83.554983
68.765879
53.789616
45.059919
39.910674
38.927794
39.881468
42.350888
46.174526
48.495531
52.381754
55.577755
58.831573
62.482953
67.144632
69.250464
74.309707
77.938437
79.975724
81.924796
85.044503
86.880922
88.558793
89.839697
92.355609
91.304779
93.014836
90.075731
89.538693
89.623928
87.897778
87.012649
85.640550
83.812475
83.167553
84.385872
84.813833
85.381866
88.978410
91.124773
91.862679
92.375875
88.052750
86.508989
78.056455
73.994994
66.900849
61.073899
54.529905
50.758719
46.537519
44.110417
41.805506
41.294694
38.592815
38.177967
37.051439
34.976602
35.787821
36.489964
34.688711
34.975410
35.083890
35.008788
35.568476
##ZVALUE=255
3.578663
3.638864
3.553629
3.760457
4.393458
4.945993
5.095601
5.909801
7.048845
22.913814
89.438558
353.652835
764.366984
1016.004682
1016.004682
1016.004682
1016.004682
1016.004682
1016.004682
1016.004682
1016.004682
1016.004682
1016.004682
1016.004682
670.011640
338.971615
145.862699
111.729503
126.023889
135.020614
142.310858
139.657855
130.915642
112.826824
96.744895
77.314973
64.993501
57.083964
54.291487
53.198934
56.092739
60.416460
66.582561
69.548488
73.550940
78.882575
83.362460
89.991689
94.085932
97.308755
101.230741
102.988482
107.299685
107.636452
111.073852
112.402439
112.132430
113.046765
111.332536
108.348727
107.947588
106.461644
104.386806
100.125670
99.557638
97.190738
96.833706
96.388459
96.212626
98.423958
97.114444
95.681548
94.862580
91.045499
87.434649
79.178810
76.063871
67.526698
62.934756
57.031512
52.940845
49.011707
45.901537
42.681694
41.182637
39.872527
37.834644
37.214756
36.253929
35.980940
35.746694
34.315586
33.993721
34.245849
33.885837
33.894777
##ZVALUE=260
3.039837
3.398657
3.278852
3.555417
3.569722
4.052520
4.163980
5.013943
5.455613
5.645752
7.097721
9.935498
53.072572
165.229440
518.414974
981.861949
1016.005874
1016.005874
1016.005874
1016.005874
1016.005874
1016.005874
1016.005874
1016.005874
1016.005874
1016.005874
1016.005874
567.584634
268.334746
119.482875
107.316971
128.031969
142.954588
153.203607
153.265595
142.688751
132.167935
113.102794
101.560950
89.010596
83.230734
83.630681
86.119771
91.168880
96.206665
103.625655
111.045837
116.928816
122.504830
129.217505
132.373571
139.108896
141.641498
143.580437
145.626664
149.081945
149.971843
148.685575
146.847963
146.184564
143.512487
139.785409
137.864947
133.720636
131.262541
125.905871
124.290586
120.609999
119.137764
117.585659
115.658641
113.253593
110.329986
104.558468
99.257827
92.016459
86.157918
78.118443
71.298480
65.238476
60.469508
55.483580
53.309798
48.693419
47.211647
44.708848
42.726994
41.427612
40.577650
37.545562
37.166476
36.612749
34.754872
34.553409
33.843517
34.085512
##ZVALUE=265
3.219843
3.446937
3.178716
3.421903
3.628731
3.709793
3.956556
4.419684
4.647970
5.416870
5.673766
6.448627
7.128716
8.801818
20.958781
121.912360
328.877568
909.478664
1016.174555
1016.174555
1016.174555
1016.174555
1016.174555
1016.174555
1016.174555
1016.174555
1016.174555
1016.174555
1016.174555
977.720618
415.170789
181.698799
107.407570
121.421814
141.288638
162.725449
174.203515
177.770853
174.475908
162.478685
151.907802
138.790607
132.179856
128.699541
130.520463
136.675835
141.226649
151.654482
159.665942
168.861747
173.698664
179.305673
184.250474
188.127756
189.650655
193.422437
193.130970
191.926956
191.008449
188.153982
184.976459
179.475546
176.399946
171.043873
165.748596
159.497857
157.684684
152.041912
148.322582
144.037604
140.739679
136.495829
130.284429
122.476816
116.874576
106.733441
100.599527
90.826750
84.482431
75.359941
71.507692
64.247847
60.894489
58.640838
54.549575
50.978661
48.283935
46.422482
44.858456
41.432977
40.568709
38.813949
36.955476
36.183000
35.426617
36.308765
##ZVALUE=270
3.045797
2.908707
3.130436
3.166795
3.189445
3.513694
3.912449
3.902912
4.209876
4.325509
4.813671
5.092621
5.459785
5.996823
6.644726
7.528663
10.045767
47.621727
163.064599
598.127842
1016.005874
1016.005874
1016.005874
1016.005874
1016.005874
1016.005874
1016.005874
1016.005874
1016.005874
1016.005874
1016.005874
1016.005874
892.863870
296.390653
138.521791
117.420554
141.539574
171.730518
192.419887
212.978721
219.920874
220.636725
215.597749
203.823447
198.749900
191.222429
190.464854
193.106532
196.423531
206.032991
214.495659
221.094489
226.239562
231.675506
234.810710
237.060785
236.821771
235.354900
233.922005
230.918527
228.209496
218.593478
215.546489
209.001899
202.117562
192.526579
189.824700
180.691481
177.273750
169.602633
165.462494
156.967640
152.833462
143.227577
133.238435
123.796463
115.770698
104.705691
96.658468
88.670850
82.298517
73.962808
71.378946
65.297484
61.957836
58.008432
55.032969
50.981641
49.096942
45.703650
44.007897
41.533709
40.267706
39.423704
38.233995
36.900640
##ZVALUE=275
2.932549
2.930760
3.190637
2.988577
3.490448
3.243685
3.367662
3.824830
3.623962
4.010797
4.105568
4.605651
4.730821
5.162954
5.718470
6.330609
6.678700
7.399917
8.905530
21.348596
91.602802
300.920606
942.548513
1016.005874
1016.005874
1016.005874
1016.005874
1016.005874
1016.005874
1016.005874
1016.005874
1016.005874
1016.005874
1016.005874
1016.005874
531.617999
237.381458
131.101608
144.989491
182.138681
207.838416
238.704681
257.261992
271.919966
273.724794
269.399881
261.024833
256.510973
250.263810
249.195695
249.082446
253.273845
256.288648
260.975957
266.321898
268.507600
268.957615
266.348720
266.337991
261.792541
257.084966
249.243975
244.106650
235.547423
229.686499
220.179558
214.417577
202.741623
197.597742
189.929008
182.900429
175.275803
166.855454
155.702829
147.098899
135.257840
126.546621
115.845799
107.135773
98.180771
91.187954
83.834529
78.000426
72.291493
67.535639
62.601566
59.114695
56.165457
52.834749
49.745440
47.282577
44.310689
42.033792
40.570498
39.448738
38.454533
##ZVALUE=280
2.653599
2.523661
2.762675
2.818704
3.135800
2.993941
2.999902
3.561974
3.496408
3.508925
3.853440
4.093647
4.339814
4.559755
4.761815
4.989505
5.484819
6.182790
6.475449
7.615685
8.611679
10.748506
53.516626
211.976767
778.477788
1015.871763
1015.871763
1015.871763
1015.871763
1015.871763
1015.871763
1015.871763
1015.871763
1015.871763
1015.871763
1015.871763
1015.871763
879.932642
403.547883
169.872642
151.961446
182.704926
209.897757
247.719884
271.471739
298.295617
307.824612
311.822891
307.628512
296.664834
291.193724
279.908776
275.717974
274.068713
273.780823
274.681449
277.252793
275.039673
271.266699
267.362595
263.852477
256.887674
251.279473
240.831971
234.023929
225.766897
217.425823
209.554434
202.788711
191.235542
186.917782
174.979568
167.518854
155.647993
146.617889
134.884715
126.596689
116.707683
108.313560
98.067522
92.642903
83.663464
78.768730
73.693991
69.081783
63.655972
60.635805
56.076646
53.293705
49.711466
46.930909
44.242740
43.228865
40.800571
38.971901
38.019419
##ZVALUE=285
2.645850
2.929568
2.892613
2.967715
2.979636
3.211498
3.134608
3.393888
3.376603
3.581643
3.668666
3.873706
3.914833
3.976822
4.665852
4.533529
4.748702
5.136728
5.792975
6.008744
6.856918
8.006692
8.851886
10.740757
21.068454
131.444931
376.069546
998.016596
1016.005874
1016.005874
1016.005874
1016.005874
1016.005874
1016.005874
1016.005874
1016.005874
1016.005874
1016.005874
1016.005874
1016.005874
728.524923
257.162452
156.787634
163.588524
187.279582
221.942663
249.588490
280.986428
298.400521
311.895609
313.887596
305.789709
298.224688
282.887816
271.048546
260.123610
253.160596
247.658491
243.702531
240.484476
237.666965
230.458975
224.950910
219.253898
212.139487
204.595923
197.543502
189.052820
183.209777
172.872543
166.851878
160.092711
152.643919
140.543580
133.650899
121.833682
114.865899
105.914474
97.930431
89.647770
84.728003
77.475905
72.136521
67.420602
63.256621
59.105754
55.546761
51.495433
49.813986
45.496821
43.448806
40.957928
39.045811
37.567616
36.599636
34.700632
##ZVALUE=290
2.705455
2.589822
2.453923
2.795458
2.811551
2.949834
2.914667
3.189445
3.087521
3.378987
3.588796
3.603697
3.565550
3.713965
4.022717
4.329681
4.613996
4.421473
4.918575
5.241632
5.703568
6.336570
6.886721
7.539988
9.002686
10.029674
13.202429
37.012696
211.187601
584.135652
1016.005874
1016.005874
1016.005874
1016.005874
1016.005874
1016.005874
1016.005874
1016.005874
1016.005874
1016.005874
1016.005874
1016.005874
1016.005874
410.547853
181.560516
132.028461
146.218538
171.721578
194.179416
226.682425
247.704983
265.950561
274.103880
272.292495
263.244510
246.612430
231.562853
212.996602
203.264952
188.659430
184.473991
175.742507
171.189904
165.403485
160.827637
155.028701
150.413513
144.939423
142.028928
135.497451
130.290985
124.037862
118.194818
110.666752
104.693770
95.837712
89.707971
83.443522
76.731443
70.871711
66.225529
61.225891
57.608485
53.803921
50.655603
47.941804
45.170784
42.046905
39.541721
37.594438
35.550594
33.901930
32.892823
31.457543
30.452609
29.614568
##ZVALUE=295
2.349615
2.503991
2.596974
2.600551
2.712607
2.753735
2.634525
2.733469
3.067851
3.020763
3.258586
3.299713
3.236532
3.645420
3.625751
3.669858
3.944635
4.094839
4.330873
4.334450
5.116463
5.181432
5.780458
6.140471
7.095933
7.548928
8.677840
9.694695
11.534691
17.910004
66.112876
353.788733
898.730755
1016.005874
1016.005874
1016.005874
1016.005874
1016.005874
1016.005874
1016.005874
1016.005874
1016.005874
1016.005874
1016.005874
1016.005874
587.675571
243.436694
106.342435
100.141764
115.492940
130.533576
154.585838
172.333717
194.543004
204.685926
209.840536
205.550790
190.362930
176.128745
154.964924
140.699744
123.335719
114.118457
105.205774
100.643635
95.474720
93.768835
90.272427
88.629723
85.441470
83.478689
80.186725
77.494979
73.269606
68.601966
62.526464
58.577657
54.684877
50.925612
47.194958
44.131875
40.548444
38.964748
36.584735
34.890771
33.084750
31.374693
29.572845
28.569698
27.293563
26.348829
25.426745
25.033951
24.139881
23.541451
23.368001
##ZVALUE=300
2.210736
2.410412
2.448559
2.460480
2.345443
2.454519
2.610683
2.726912
2.689958
2.925992
2.849698
3.018975
2.949834
3.118515
3.415942
3.460646
3.538728
3.800988
3.766418
4.072785
4.218817
4.571676
4.831553
5.208850
5.803704
6.226897
6.808639
7.331967
8.316636
9.448528
10.819435
12.680888
28.705597
198.925734
576.973557
1016.005874
1016.005874
1016.005874
1016.005874
1016.005874
1016.005874
1016.005874
1016.005874
1016.005874
1016.005874
1016.005874
1016.005874
978.993773
468.100905
125.143528
66.168904
66.389441
73.870420
89.136958
103.482604
124.164820
137.020946
149.043798
152.207613
145.529509
135.537982
116.220713
100.637674
81.920624
70.573688
59.227943
53.560734
50.063729
48.496723
48.250556
47.884583
46.490431
44.705868
42.161942
40.110946
36.744475
34.802556
31.154752
29.734969
27.564764
26.205778
24.763942
24.041533
23.081899
22.366643
21.832585
20.908713
20.500422
19.897819
19.331574
19.097924
18.656850
18.382668
18.600821
18.253922
18.219948
##ZVALUE=305
2.230406
2.044439
2.206564
2.426505
2.269745
2.214909
2.344847
2.455711
2.468824
2.630949
2.749562
2.707839
2.749562
2.879500
3.148913
3.123879
3.217459
3.540516
3.548861
3.628731
3.860593
3.729463
4.405975
4.668832
4.882812
5.211830
5.693436
6.100535
6.750822
7.275939
7.907748
9.091496
10.120869
11.927485
18.098950
110.034347
359.287858
1016.005874
1016.005874
1016.005874
1016.005874
1016.005874
1016.005874
1016.005874
1016.005874
1016.005874
1016.005874
1016.005874
1016.005874
1016.005874
734.536052
194.467902
64.341426
41.907430
44.430494
52.675605
63.099861
78.883767
91.729760
107.545853
116.133690
119.555593
115.228891
103.848577
90.650916
70.689917
57.917833
45.142770
38.207769
33.425689
31.472445
30.429959
29.415488
27.649999
26.298761
24.002790
22.401810
20.207763
19.083619
18.110871
17.736554
17.066598
16.551614
16.161799
16.012788
15.619993
15.576482
15.206933
15.354753
14.731884
15.319586
14.877915
14.515519
14.822483
14.979839
14.987588
##ZVALUE=310
1.975894
1.874566
2.100468
2.089739
2.040863
2.056956
2.167821
2.163649
2.324581
2.377629
2.466440
2.517700
2.588630
2.690554
2.597570
2.689958
2.780557
2.999902
3.243685
3.236532
3.351569
3.585815
3.730655
3.837943
4.345775
4.486442
4.806519
5.086660
5.477667
5.963445
6.215572
6.816983
7.527471
8.845925
9.887815
11.725426
13.328791
43.279529
165.675879
670.862794
1016.005874
1016.005874
1016.005874
1016.005874
1016.005874
1016.005874
1016.005874
1016.005874
1016.005874
1016.005874
1016.005874
1016.005874
1016.005874
406.848788
121.911764
33.094883
30.325651
33.101439
38.279891
48.958659
59.700608
76.340437
88.342428
99.491477
104.104877
100.277662
92.968941
79.886913
67.123771
51.060915
41.242838
32.537580
27.589798
23.147464
20.671487
18.063784
16.682744
15.030503
14.489889
14.006495
13.516545
12.984872
12.907982
13.013482
13.050437
12.858510
12.906790
12.521744
12.692809
12.651682
12.434721
12.456775
12.668967
12.504458
12.714863
12.639761
##ZVALUE=315
1.925826
1.701713
1.937747
1.955628
1.927614
2.060533
2.035499
2.218485
1.963973
2.522469
2.362728
2.384782
2.356768
2.504587
2.546906
2.459884
2.577901
2.778769
2.824664
2.926588
3.019571
3.169775
3.488660
3.605485
3.684759
3.960729
4.035830
4.354715
4.772544
4.848838
5.506873
5.582571
5.992651
6.996989
7.550716
8.478761
9.503961
10.789633
12.145638
20.307899
73.696375
383.358598
922.936797
1016.005874
1016.005874
1016.005874
1016.005874
1016.005874
1016.005874
1016.005874
1016.005874
1016.005874
1016.005874
1016.005874
1016.005874
630.276799
214.408636
43.874979
26.143789
25.754571
27.315617
33.070445
40.766001
53.756833
66.526532
81.978440
91.373920
97.864866
96.891522
88.174939
78.066587
62.654614
50.415993
36.074519
27.579665
19.781590
16.979575
14.281869
13.225675
11.923909
11.963844
11.638999
11.860728
11.555552
11.577606
11.462569
11.542439
11.517406
11.462569
11.620522
11.806488
11.614561
11.472702
11.986494
12.040734
12.214780
##ZVALUE=320
1.735687
1.878738
1.717806
1.659989
1.614690
1.954436
1.883507
1.918674
1.946688
1.957417
1.991987
2.208948
2.218485
2.188683
2.214909
2.516508
2.474785
2.530813
2.358556
2.722740
2.771616
2.924800
2.992749
3.097653
3.230572
3.589988
3.765821
3.685951
4.095435
4.216433
4.673600
4.681945
5.450845
5.687475
6.068945
6.638765
7.139444
8.121729
9.006858
10.451674
11.342764
14.155507
32.495856
206.413865
584.781766
1016.004682
1016.004682
1016.004682
1016.004682
1016.004682
1016.004682
1016.004682
1016.004682
1016.004682
1016.004682
1016.004682
1016.004682
933.299661
403.050780
86.930990
29.876828
23.140907
22.543669
24.479628
28.302670
38.126707
48.510432
63.475966
75.907707
89.227557
93.661547
92.951655
86.627603
71.917772
58.403611
42.049885
31.235814
22.106767
16.778708
13.562441
12.024641
11.574626
11.192560
11.161566
10.967851
10.888577
11.186600
11.069775
11.099577
11.312962
11.235476
11.248589
11.237860
11.691451
11.833906
11.687875
##ZVALUE=325
1.801848
1.620650
1.789927
1.637936
1.739860
1.753569
1.725554
1.793504
1.730919
1.853704
1.812577
2.102852
2.023578
2.173781
2.103448
2.218485
2.217889
2.429485
2.573729
2.436638
2.656579
2.633929
2.778769
3.003478
3.084540
3.415942
3.323555
3.564954
3.619790
3.989935
4.035830
4.306436
4.507899
5.071759
5.128980
5.423427
5.862713
6.468892
7.073879
7.780790
8.355975
9.569526
10.909438
12.594461
18.677711
115.296841
355.391502
984.101892
1016.005874
1016.005874
1016.005874
1016.005874
1016.005874
1016.005874
1016.005874
1016.005874
1016.005874
1016.005874
1016.005874
1016.005874
654.403567
154.655576
42.339563
22.808909
20.853877
21.057725
23.285747
29.444695
37.402511
50.256848
61.598420
75.221658
82.930923
87.470412
85.100532
74.835420
64.330697
49.558878
38.752556
26.749969
20.561814
15.055537
12.965798
11.217594
11.069775
11.209846
10.717511
10.660887
10.751486
10.813475
10.961890
10.992885
11.061430
11.312962
11.195540
11.584759
##ZVALUE=330
1.701713
1.721978
1.614690
1.629591
1.671910
1.602769
1.837611
1.714826
1.682639
1.946688
1.849532
1.985431
1.901984
1.793504
2.054572
2.015829
1.996756
2.098680
1.948476
2.340674
2.313852
2.523661
2.471805
2.566576
2.700686
2.745986
3.053546
3.146529
3.289580
3.392696
3.664494
3.687739
3.927946
4.317760
4.558563
4.920959
5.082488
5.113482
5.946755
6.296635
6.686449
7.164478
7.987618
8.798838
9.552836
11.488795
13.488531
44.171810
166.831613
678.563714
1016.005874
1016.005874
1016.005874
1016.005874
1016.005874
1016.005874
1016.005874
1016.005874
1016.005874
1016.005874
1016.005874
1016.005278
953.224897
304.375887
83.208680
23.821592
21.485686
20.642877
21.383762
24.959445
28.973818
37.671924
45.964718
58.823824
67.281723
75.630546
78.424811
75.389743
70.100427
57.832599
47.199726
34.484863
26.511550
19.613504
15.825629
12.837648
11.629462
10.961890
10.616779
10.745525
11.045933
10.754466
10.971427
11.299849
11.320710
11.464953
##ZVALUE=335
1.420975
1.482964
1.581907
1.483560
1.481771
1.550913
1.608729
1.617670
1.691580
1.813769
1.604557
1.767874
1.676679
1.792908
1.885891
1.838803
1.940727
2.091527
2.035499
2.118945
2.221465
2.163649
2.261996
2.404451
2.607703
2.557635
2.693534
2.720952
2.966523
3.029704
3.060699
3.514886
3.641844
3.918409
3.954768
4.145503
4.369617
4.526973
4.881620
5.164742
5.562901
6.129742
6.429553
6.794930
7.684827
8.364916
9.336472
10.492802
11.732578
21.223426
76.516867
386.587977
918.521881
1016.005874
1016.005874
1016.005874
1016.005874
1016.005874
1016.005874
1016.005874
1016.005874
1016.005874
1016.005874
1016.005874
1016.005874
513.896942
158.149004
30.581951
22.860765
21.885633
21.954775
22.429824
23.251772
27.335882
31.751990
41.667819
49.716830
60.823560
67.835450
71.657896
71.462989
64.040422
56.074858
44.778585
35.830736
26.411414
20.414591
15.587807
13.300776
11.729598
11.206865
11.104941
11.192560
11.414886
11.557937
11.685491
##ZVALUE=340
1.531839
1.408458
1.535416
1.321435
1.546741
1.343489
1.601577
1.505613
1.654625
1.625419
1.448989
1.607537
1.694560
1.610518
1.773834
1.744628
1.720786
1.893640
1.873970
2.035499
2.016425
2.044439
2.204776
2.175570
2.243519
2.386570
2.646446
2.795458
2.787709
2.690554
2.774596
3.068447
3.146529
3.517866
3.641844
3.638864
3.685951
4.173517
4.301667
4.404783
4.852414
5.055666
5.063415
5.903840
6.107688
6.713867
7.250905
7.947683
8.842945
9.895563
10.816455
13.960600
35.351515
217.810869
623.767972
1016.005874
1016.005874
1016.005874
1016.005874
1016.005874
1016.005874
1016.005874
1016.005874
1016.005874
1016.005874
1016.005874
1016.005874
747.436881
253.114700
44.832826
25.358796
23.174882
21.802783
20.250678
19.234419
19.770861
22.429824
28.459430
35.817623
47.404766
55.956841
64.520836
67.156553
66.796541
62.365532
53.352714
45.161843
34.404993
27.366877
20.450950
16.461611
13.269782
12.682676
12.066960
12.168884
12.003779
##ZVALUE=345
1.411438
1.290441
1.426935
1.567602
1.422763
1.408458
1.625419
1.604557
1.476407
1.607537
1.421571
1.636744
1.692772
1.606941
1.735687
1.750588
1.834631
2.003908
1.836419
1.922846
2.036691
1.949668
2.020597
2.144575
2.325773
2.420545
2.349615
2.393723
2.375841
2.635717
2.929568
2.799630
2.891421
2.981424
3.038645
3.364682
3.472567
3.731847
3.894567
4.202724
4.053712
4.484653
4.528761
4.974604
5.194545
5.526543
6.022453
6.186962
6.649494
7.473826
7.902980
8.982420
10.000467
11.623502
17.823577
112.741590
370.759964
1016.005874
1016.005874
1016.005874
1016.005874
1016.005874
1016.005874
1016.005874
1016.005874
1016.005874
1016.005874
1016.005874
1016.005874
950.948596
420.309901
95.029473
34.609437
25.506616
22.677779
18.950701
17.121434
15.805960
16.505718
20.214915
25.012493
34.749508
42.261481
51.919818
58.103800
62.935948
62.931776
59.241652
53.596497
44.157505
35.869479
26.917458
21.912456
17.384887
15.256405
13.839602
##ZVALUE=350
1.673698
1.457930
1.593828
1.733899
1.589656
1.570582
1.573563
1.805425
1.747608
1.689792
1.881719
1.877546
1.782775
1.662970
1.956820
1.828671
1.948476
1.957417
1.611710
2.069473
2.105832
2.093911
2.150536
2.212524
2.296567
2.300739
2.414584
2.596974
2.615452
2.732873
2.658963
2.659559
2.886653
2.951622
3.047585
3.196597
3.276467
3.452897
3.772974
3.831983
3.957748
4.122853
4.219413
4.500747
4.652739
5.007982
5.247593
5.747676
5.865693
6.396770
6.487966
7.161498
7.800460
8.536577
9.463429
10.789633
13.049841
52.962899
189.240575
719.859004
1016.005874
1016.005874
1016.005874
1016.005874
1016.005874
1016.005874
1016.005874
1016.005874
1016.005874
1016.005874
1016.005874
1016.005874
672.616959
144.279599
40.039420
22.261739
19.029975
16.303658
14.854670
13.911724
14.094710
15.897751
18.691421
24.147630
30.050874
39.404631
46.314001
53.936839
58.383942
59.764981
57.423711
50.207973
44.283867
36.079884
29.415488
23.011565
##ZVALUE=355
1.671910
1.648664
1.645684
1.696944
1.476407
1.482964
1.682639
1.864433
1.705885
1.827478
1.701713
1.812577
1.854897
1.784563
1.979470
1.985431
2.113581
2.058744
1.955628
2.080798
2.076626
2.151728
2.103448
2.135634
2.344847
2.463460
2.416968
2.613664
2.552867
2.539754
2.711415
2.833605
2.791882
3.170967
3.187656
3.295541
3.208518
3.378987
3.509521
3.668666
3.725886
3.957748
4.023910
4.305840
4.417896
4.540682
4.756451
5.064607
5.484819
5.642772
5.946755
6.257892
6.719828
7.379651
7.840991
8.708835
9.398460
10.702610
12.023449
24.644732
93.028545
451.721549
974.470973
1015.887856
1015.887856
1015.887856
1015.887856
1015.887856
1015.887856
1015.887856
1015.887856
1015.887856
1015.887856
1015.887856
895.881653
232.350826
62.205791
21.703839
18.705726
16.286969
15.204549
14.287829
13.793707
13.902783
14.826655
17.893910
21.332502
28.429627
34.391880
42.828918
48.832893
54.333806
55.800676
54.032803
50.243735
43.291450
##ZVALUE=360
1.593828
1.812577
1.879930
1.880527
1.699924
1.903772
1.888871
1.866817
1.872778
1.921654
1.944900
2.081990
1.981854
2.091527
2.033710
2.245903
2.099872
2.090931
2.110600
2.335906
2.327561
2.535582
2.405643
2.456903
2.585649
2.581477
2.666712
2.655983
2.719760
2.914667
3.015995
2.910495
2.960563
3.191829
3.158450
3.369451
3.428459
3.542900
3.862977
3.737807
3.820658
3.897548
4.011989
4.281998
4.486442
4.628897
5.006790
4.890561
5.031824
5.424619
5.698800
6.225705
6.272793
6.695986
7.200837
7.523894
8.142591
9.026527
9.580851
10.958910
12.544990
16.162992
39.834380
209.676623
579.988956
1016.005874
1016.005874
1016.005874
1016.005874
1016.005874
1016.005874
1016.005874
1016.005874
1016.005874
1016.005874
1016.005874
1016.005874
458.393693
140.793920
27.373433
19.509792
17.134547
15.738606
14.617443
13.937950
13.259649
13.544559
14.155507
15.850663
19.756556
24.584532
32.259822
38.122535
45.117736
49.372911
52.757859
##ZVALUE=365
1.744628
1.709461
1.766682
1.817942
1.973510
1.890659
1.854897
1.836419
1.875758
1.935959
1.940727
2.176762
2.157688
2.014637
2.031922
2.081990
1.985431
2.237558
2.243519
2.290606
2.263784
2.231598
2.429485
2.508759
2.464652
2.523661
2.498627
2.666712
2.836585
2.752542
3.104806
2.753735
2.945662
2.987981
3.081560
3.206730
3.271699
3.494620
3.423691
3.614426
3.768802
3.713965
3.598928
3.958941
4.149675
4.109740
4.437566
4.376769
4.366636
4.511476
4.690886
5.264878
5.467534
5.771518
5.903840
6.273985
6.542802
7.215738
7.836819
8.482933
9.381771
10.827780
11.858940
13.754964
20.063519
106.413960
338.003635
972.552896
1016.040444
1016.040444
1016.040444
1016.040444
1016.040444
1016.040444
1016.040444
1016.040444
1016.040444
1016.040444
1016.040444
687.548518
237.962008
39.569736
19.437671
16.653538
15.284419
13.911724
13.321638
13.052821
12.397766
12.656450
13.149977
15.492439
17.928481
23.291707
27.812719
34.624934
##ZVALUE=370
1.658797
1.723766
1.587868
1.683831
1.694560
1.599789
1.774430
1.683831
1.718998
1.539588
1.779795
1.559854
1.850724
1.825690
1.744628
1.809597
1.987815
1.925826
1.934767
2.100468
2.047420
1.988411
2.143979
2.039671
2.151728
2.222657
2.291799
2.267957
2.293587
2.440810
2.594590
2.551675
2.492666
2.660751
2.765656
2.686977
2.831817
2.869964
2.916455
3.090501
3.221631
3.403425
3.384948
3.479719
3.539920
3.532767
3.620982
3.602505
3.866553
3.827810
4.123449
4.154444
4.305840
4.609823
4.876852
4.882812
5.138516
5.421638
5.766749
6.057620
6.618500
7.224679
8.265972
8.990765
10.148883
11.137724
14.793873
39.303899
241.796970
685.444474
1016.004682
1016.004682
1016.004682
1016.004682
1016.004682
1016.004682
1016.004682
1016.004682
1016.004682
1016.004682
1016.004682
1016.004682
380.693674
121.863484
23.467541
16.168952
14.466643
13.649464
13.025999
12.413859
12.245774
12.184978
12.330413
13.168454
14.720559
16.457438
##ZVALUE=375
1.380444
1.397729
1.507998
1.387596
1.401901
1.389980
1.438856
1.337528
1.349449
1.492500
1.483560
1.377463
1.548529
1.596808
1.704693
1.522899
1.619458
1.586676
1.669526
1.645684
1.735687
1.693964
1.780987
1.826882
1.740456
1.768470
1.980662
1.979470
2.159476
1.985431
2.260804
2.130866
2.204776
2.360940
2.373457
2.463460
2.447963
2.440810
2.762675
2.652407
2.572536
2.655983
2.927780
2.921820
3.013611
3.094673
3.106594
3.122687
3.062487
3.298521
3.287792
3.468990
3.508925
3.773570
3.970861
4.137754
4.206896
4.584789
4.521608
5.160570
5.053878
5.621910
6.067753
6.985664
7.118583
8.261800
9.270906
11.066794
13.153553
26.583672
91.296434
406.651497
942.078829
1016.000509
1016.000509
1016.000509
1016.000509
1016.000509
1016.000509
1016.000509
1016.000509
1016.000509
1016.000509
1016.001105
784.999728
216.718912
58.435798
17.329454
15.110970
13.955832
13.155937
12.961626
12.673736
12.463927
12.145638
12.178421
##ZVALUE=380
1.170635
1.242757
1.284480
1.321435
1.234412
1.221895
1.242757
1.328588
1.393557
1.155734
1.454949
1.251698
1.203418
1.306534
1.469851
1.399517
1.371503
1.466870
1.329780
1.600981
1.424551
1.507998
1.584888
1.771450
1.821518
1.759529
1.813769
1.841784
1.888871
1.833439
2.046824
2.191663
2.227426
2.117753
2.208948
2.189875
2.362728
2.303720
2.338886
2.437830
2.504587
2.542734
2.640486
2.583861
2.606511
2.672672
2.753735
2.902746
2.939701
3.001690
3.148913
3.128648
3.130436
3.424883
3.523827
3.631711
3.666878
3.901720
4.055500
4.191995
4.370809
4.673600
5.099773
5.457997
6.132722
7.020831
7.768869
8.949637
10.212660
11.900663
12.891889
16.901493
45.672655
260.877609
706.369877
1016.005874
1016.005874
1016.005874
1016.005874
1016.005874
1016.005874
1016.005874
1016.005874
1016.005874
1016.005874
1016.005874
1016.005874
407.476425
133.811831
26.675463
15.940666
14.213920
13.712645
13.015866
12.744665
12.062788
##ZVALUE=385
1.001954
0.975728
1.013875
0.981688
1.040697
1.043677
1.029968
1.000762
1.142621
1.186728
1.080632
1.164675
1.113415
1.149774
1.144409
1.139641
1.369715
1.293421
1.236796
1.287460
1.291633
1.334548
1.314878
1.506805
1.638532
1.667738
1.670718
1.693964
1.821518
1.840591
1.865625
1.858473
1.968741
1.943707
2.112985
2.144575
2.063513
2.135634
2.445579
2.397895
2.371669
2.477765
2.676845
2.711415
2.548695
2.693534
2.866983
3.010631
2.889633
3.091693
3.160834
3.112555
3.270507
3.202558
3.325939
3.367662
3.569722
3.551841
3.772974
4.107952
4.250407
4.457831
4.524589
4.919767
5.451441
6.219745
6.964803
7.853508
8.603930
9.342432
10.034442
10.606647
11.171699
12.132525
20.971894
129.069090
402.621627
1016.001701
1016.001701
1016.001701
1016.001701
1016.001701
1016.001701
1016.001701
1016.001701
1016.001701
1016.001701
1016.001701
1016.001701
823.441744
310.154557
53.185821
18.398762
14.503598
13.669729
12.813807
##ZVALUE=390
0.989437
0.901818
0.949502
1.109838
0.996590
0.934601
1.154542
1.023412
1.095533
1.022816
1.012683
1.038909
1.073480
1.140833
1.126528
1.221895
1.227856
1.165867
1.053810
1.252890
1.226664
1.205802
1.289845
1.408458
1.409650
1.432896
1.555681
1.610518
1.683831
1.719594
1.741648
1.941919
1.937747
2.001524
2.053976
2.244711
2.382994
2.458692
2.567768
2.524853
2.688766
2.811551
2.722740
2.694726
2.872944
2.821684
3.088713
2.967715
3.036857
3.052950
3.223419
3.320575
3.189445
3.263950
3.480911
3.771782
3.601909
3.770590
3.788471
3.937483
4.072785
4.222989
4.616976
4.857779
5.282760
5.993843
6.635785
7.682443
8.221865
9.022951
9.196997
9.280443
9.305477
9.203553
9.655952
10.394454
13.090968
60.515404
233.627558
890.080929
1016.005874
1016.005874
1016.005874
1016.005874
1016.005874
1016.005874
1016.005874
1016.005874
1016.005874
1016.005874
1016.005874
1016.005874
546.090603
115.851760
29.820800
15.120506
##ZVALUE=395
0.930429
0.863671
0.815988
1.072884
0.765920
0.834465
0.951886
0.929832
0.890493
0.913739
0.966787
0.922680
0.952482
0.971556
1.039505
0.955462
1.102686
0.828505
1.204610
1.180768
1.160502
1.035929
1.049638
1.149774
1.258850
1.364946
1.436472
1.372695
1.508594
1.547933
1.706481
1.689792
1.614690
1.928806
2.172589
2.025962
2.273917
2.306700
2.376437
2.428889
2.578497
2.584457
2.662539
2.890825
2.794862
3.009439
2.874732
3.017783
3.124475
2.919436
3.219843
3.321767
3.333688
3.384948
3.428459
3.595948
3.584623
3.762841
3.849864
3.597736
3.707409
4.198551
4.415512
4.838705
5.182624
5.847812
6.520748
7.235408
7.691979
8.126497
8.179545
8.097887
7.742643
7.588863
7.797480
8.032918
8.308887
9.738803
10.882616
32.251477
136.832595
605.647564
1015.857458
1015.857458
1015.857458
1015.857458
1015.857458
1015.857458
1015.857458
1015.857458
1015.857458
1015.857458
1015.857458
1015.858054
882.912874
258.587599
##ZVALUE=400
1.003742
0.984669
0.871420
1.012683
0.993609
0.868440
1.077652
1.086593
0.926852
0.907779
1.041889
0.842810
1.135468
1.042485
0.999570
1.063943
1.015663
1.191497
0.987649
1.227856
1.191497
1.032948
1.246929
1.245737
1.392961
1.526475
1.437664
1.539588
1.691580
1.723766
1.747608
1.811981
1.951456
2.146959
2.079606
2.194643
2.315640
2.639890
2.497435
2.826452
2.684593
2.657771
2.947450
2.991557
2.929568
3.130436
3.079772
3.232956
3.366470
3.344417
3.403425
3.422499
3.582835
3.396869
3.558993
3.598928
3.732443
3.646612
3.782511
3.827810
3.877878
4.375577
4.499555
4.874468
5.259514
6.118417
6.437898
7.018447
7.206798
7.438660
7.336736
7.138848
6.844997
6.725788
6.687641
6.877780
7.131696
7.722974
8.388758
9.355545
10.267496
18.294454
63.683987
303.469896
773.302913
1015.959978
1015.959978
1015.959978
1015.959978
1015.959978
1015.959978
1015.959978
1015.959978
1015.959978
1015.959978
1015.959978
##END
