##TITLE=C10_R3
##FORMAT=SPECTACLE-ASCII V-1.2
##DATA TYPE=ULTRAVIOLET SPECTRUM
##SECOND TYPE=ULTRAVIOLET SPECTRUM
##DATE=05/28/18
##TIME=11:55:36
##SPECTROMETER/DATA SYSTEM=SPECTACLE
##XUNITS=NM EM
##YUNITS=ENERGY
##YFACTOR=1
##FIRSTX=220
##LASTX=410
##NPOINTS=96
##3DDATA=Equidistant
##ZUNITS=NM EX
##FIRSTZ=210
##LASTZ=400
##ZPOINTS=39
##XYDATA=(Y..Y)
##ZVALUE=210
53.821802
51.233768
39.024949
29.236674
25.101900
23.815632
18.963814
16.433001
14.979839
10.412931
9.687543
7.881522
7.578731
7.634759
7.516742
8.378625
8.846521
9.329915
10.085702
11.283755
10.774732
12.685657
14.479756
16.044974
19.653440
19.674897
23.570657
24.271607
29.478669
31.046867
31.291842
31.747818
34.356713
33.408999
32.452941
33.190846
33.748746
33.132434
34.163594
35.898685
33.357739
32.742620
30.873418
33.127666
32.020807
33.129454
30.613542
31.479597
33.554435
30.887723
31.717420
30.915737
33.891797
30.890703
31.090975
30.078888
29.999614
29.953718
30.485988
29.537678
29.842854
29.419661
27.108788
31.518936
33.795834
36.839843
38.553476
47.952533
50.347447
62.489510
72.154999
81.335902
86.800456
90.043545
95.194578
94.182491
94.709992
84.646940
82.127452
67.696571
62.607527
49.466491
44.280887
36.176443
32.469630
28.409958
27.879477
27.418733
30.963421
38.514733
53.658485
74.448586
95.044971
137.992501
165.908933
217.601657
##ZVALUE=215
203.880668
193.560719
142.246485
93.937516
69.425702
52.588582
43.165684
38.468838
32.337904
28.812885
25.131702
18.864870
13.405681
12.014508
10.922551
8.238554
8.460879
8.781552
9.735823
10.405779
10.311604
13.128519
14.122725
15.071630
19.018650
20.117760
21.469593
24.292469
27.670860
27.364492
31.757951
32.225847
32.669902
32.256842
32.351613
35.515428
35.961866
36.358833
32.920837
34.616590
33.367872
33.819675
31.731725
32.923818
34.221411
33.961535
32.737851
35.112500
34.037828
34.487844
34.285784
34.149885
35.130978
35.068989
32.949448
32.501817
33.990741
32.612681
31.196475
31.275749
31.896830
31.153560
31.254888
30.997992
34.741759
36.796927
40.513873
43.004751
51.129460
55.803657
64.616799
67.157745
75.742602
78.507662
79.308748
79.297423
73.374510
66.739917
61.773658
58.105588
48.416853
44.812560
36.364794
35.555959
30.001998
27.909875
25.762916
25.073886
25.211573
23.127794
22.545457
23.778677
24.234653
31.214952
42.907000
59.092641
##ZVALUE=220
447.670817
444.812775
406.757593
331.992507
261.102915
170.968771
122.803450
78.760982
61.176419
52.469969
48.217773
44.998527
39.043427
32.718778
25.016665
18.852949
13.255477
11.016726
10.685921
9.456873
10.016561
10.920763
11.326671
12.725592
13.121963
15.186667
17.267466
19.049644
20.747781
22.940636
23.306608
24.193525
24.657845
25.664568
26.478767
28.440952
28.613806
31.158924
28.518438
31.888485
32.193661
29.330850
30.358434
30.719638
31.760931
32.252669
33.405423
32.050610
31.696558
33.037663
32.009482
31.895638
31.807423
32.615662
32.258630
32.282472
32.390952
31.108856
31.297803
30.395985
30.820966
29.310584
29.680729
30.180812
30.835867
36.135912
36.452413
40.288568
43.830872
49.893856
52.304864
56.149960
59.546828
62.906742
62.717795
61.603785
58.161616
55.383444
50.231814
45.752525
40.454865
33.449531
31.033754
27.453899
25.546551
22.659898
21.010637
19.348860
20.043850
19.248724
18.640757
19.313693
19.059777
18.792748
17.978549
18.861890
##ZVALUE=225
492.422581
503.551960
589.710474
643.358827
616.542697
525.134802
435.949564
298.727751
201.413631
136.202574
84.777474
71.164966
63.569546
63.864589
58.301687
50.735474
38.949847
30.587912
22.664666
15.635490
12.605786
10.026693
10.348558
10.906458
11.472702
11.701584
12.342930
14.275908
14.806986
16.387701
16.689897
17.489791
19.008517
20.735860
21.695495
23.022890
22.616982
24.362803
25.747418
27.962923
27.544498
28.698444
28.504729
28.230548
28.590560
30.180812
29.451847
29.656887
30.487776
29.858947
30.346513
30.601621
30.442476
29.774904
28.662682
30.046701
29.390454
29.527545
27.759671
28.711557
27.915835
27.847886
27.054548
27.395487
28.952956
28.258562
32.331944
33.209920
38.407445
41.307807
43.576956
47.379732
49.601793
52.480698
50.628781
50.670505
45.109987
42.314529
38.167834
33.253431
29.771924
26.338696
24.338961
22.829771
20.758510
19.028783
18.247962
17.314553
15.913844
17.811656
16.266704
17.835498
16.351938
16.868711
16.473532
16.818643
##ZVALUE=230
255.729556
283.482671
425.673723
637.784600
791.773796
904.960632
904.023647
808.554888
694.082975
535.515547
325.971842
211.545825
122.720003
95.073581
86.838603
86.914897
84.395409
74.726939
64.397454
48.882961
35.968423
25.031567
17.534494
13.659596
11.549592
11.066794
10.392666
11.308789
12.337565
12.376904
13.274550
13.474822
14.640689
16.209483
17.673969
18.803477
20.646453
20.577908
22.318959
23.311973
23.879409
24.966598
26.480556
25.335550
26.027560
27.156472
27.169585
25.554895
26.491880
26.635528
26.806593
26.934743
25.721788
26.405454
26.712418
26.292801
24.671555
24.844408
24.969578
24.229884
24.655461
24.212599
24.523735
23.793578
23.688674
24.911761
27.033687
28.522611
31.702518
34.720898
37.696958
38.510561
44.810772
41.956902
40.166974
39.362907
37.622452
33.389926
30.433536
27.181506
24.687648
21.942854
19.484758
18.911958
17.341971
17.284751
16.648769
15.326738
16.428828
15.536547
15.448928
15.460849
15.056729
14.633536
14.720559
14.267564
##ZVALUE=235
49.931407
62.470436
130.480528
294.337869
469.353795
728.046894
907.046795
1015.870571
1015.870571
1015.870571
908.045769
702.292919
440.993905
298.620462
178.689957
121.245980
101.244450
101.332664
104.987621
99.996924
90.413690
72.624683
57.224631
40.131807
26.953816
18.105507
14.252663
10.810494
10.315776
10.716915
11.047721
11.218786
12.313724
13.543963
13.623834
14.192462
15.151501
16.483665
17.814636
18.038750
19.615889
20.500422
19.151568
19.964576
20.584464
21.381974
20.778775
21.343827
20.315647
21.044612
20.195842
20.050406
20.306706
20.495653
20.697713
20.166636
19.999743
20.511746
19.115806
19.383430
20.405650
19.416809
19.129515
19.424558
19.547939
20.850897
21.961927
23.516417
24.968982
27.509928
28.372407
31.538606
32.779574
34.311414
33.425689
32.594800
30.677915
28.298497
25.001764
22.299886
19.884706
18.297434
17.019510
15.969872
14.169812
14.974475
14.784932
13.820529
13.980865
14.034510
13.567805
12.451410
12.720823
13.760924
13.334751
12.855530
##ZVALUE=240
2.788901
3.043413
13.605952
39.781928
116.936564
225.669742
456.205606
686.058998
994.966626
1015.865803
1015.865803
1015.865803
1015.865803
975.138545
735.441446
436.972976
289.011002
164.944530
121.708512
106.740594
112.693906
113.719702
107.275844
95.059872
74.395537
59.655905
41.750669
29.983521
20.889640
15.259981
12.437701
12.007952
11.586547
11.786819
12.092590
11.946559
14.123917
13.685822
14.144778
14.266968
15.329719
16.046762
16.459823
17.495751
16.560555
17.141700
16.696453
17.464757
16.781688
16.458631
17.050505
16.977787
17.035604
16.295910
16.803741
16.611814
16.522408
15.910864
16.386509
15.811920
15.767813
16.639829
16.379952
16.487837
15.829802
17.462969
18.837452
19.697547
22.081733
23.823977
24.760962
27.422905
27.948618
30.365586
29.022694
27.219653
27.208924
24.665594
22.847652
19.438863
18.554926
16.672611
15.228987
14.523864
13.785958
13.505816
12.559891
13.470650
12.851954
12.687445
12.795925
11.873841
12.573600
11.784434
11.658669
12.306571
##ZVALUE=245
2.304912
2.528429
2.504587
2.885461
7.183552
24.281740
84.933639
180.277824
412.590504
645.253658
1005.948782
1015.870571
1015.870571
1015.870571
1015.870571
1015.870571
1015.870571
735.986829
484.622717
250.068903
151.467919
110.659599
107.751489
116.371512
118.325949
116.947889
101.292729
83.849430
62.498450
48.231483
32.357574
23.209453
16.981959
14.171600
12.138486
12.368560
12.948513
12.883544
12.950897
13.458729
13.910532
13.935566
13.991594
14.282465
14.259815
14.519691
14.361739
14.827847
14.527440
15.248656
14.563799
14.387965
13.465881
14.091730
14.621615
13.161898
13.912916
13.871789
14.312863
13.488531
13.666749
14.366508
13.419986
14.085770
14.018416
14.960766
15.993714
17.593503
18.332601
20.728707
22.315979
23.600459
25.057793
24.922490
25.757551
24.149418
22.725463
21.348596
18.703938
16.705990
15.048981
13.882518
13.481975
13.005733
12.438893
11.376739
11.587739
11.077523
10.685921
11.055470
11.406541
10.801554
10.767579
10.267496
10.838509
10.811687
##ZVALUE=250
1.962781
2.113581
2.232790
2.203584
2.408624
2.865791
4.131794
13.037920
60.040951
136.341453
344.898701
588.847399
888.117552
1015.871763
1015.871763
1015.871763
1015.871763
1015.871763
1015.871763
952.273607
625.092983
373.955965
170.148611
108.175874
97.188950
108.432770
118.345618
123.621821
116.950870
107.280612
92.144608
70.324540
51.663518
34.930706
26.218891
18.519759
15.353560
14.343858
13.985634
14.034510
13.675690
14.181733
13.954639
14.080405
14.170408
14.490485
14.292598
14.475584
14.343858
14.712811
14.040470
13.886690
14.357567
13.976693
13.645887
13.423562
13.453960
12.605786
13.566613
12.668967
12.953877
12.729764
12.675524
12.768507
13.871789
13.746619
14.169812
15.504956
17.057657
18.986464
20.252466
21.748543
22.569895
22.308826
22.957921
21.370649
19.557476
18.080473
16.740561
15.136600
14.025569
12.172461
11.794567
10.859966
10.627508
10.318756
10.387897
10.041595
9.775758
9.627938
10.164976
9.668469
9.729862
9.433627
9.852648
9.804964
##ZVALUE=255
1.852512
1.900792
1.783967
1.939535
2.140999
2.283454
2.360940
2.393723
2.814531
25.331974
36.897659
174.531937
340.191722
563.012958
856.653452
1015.867591
1015.867591
1015.867591
1015.867591
1015.867591
1015.867591
706.668496
526.611805
235.357881
197.005868
124.052763
85.778832
90.901852
108.377934
120.033622
127.093792
122.940540
112.670660
90.891719
74.589849
51.237941
38.084984
24.955869
18.888712
15.248656
14.084578
12.910962
13.868809
13.983846
13.963580
13.495684
13.891459
13.678670
13.757944
12.939572
13.230443
12.618899
12.549758
12.467504
12.293458
11.904836
12.097955
11.677742
11.547804
10.945797
11.169910
10.553598
11.166930
11.002421
10.863543
11.666417
11.619925
12.545586
13.066530
14.183521
15.716553
16.479492
16.708970
17.303824
16.461611
15.786886
14.971495
13.291836
11.927485
11.111498
9.739995
9.341836
9.258986
8.605719
8.336902
8.376837
8.035898
7.996559
8.202791
7.633567
8.012652
7.777810
7.893443
7.632971
7.987618
8.081794
##ZVALUE=260
1.673698
1.632571
1.537800
1.661777
1.746416
1.863837
1.660585
2.023578
2.003908
2.260804
2.758503
3.826618
11.723638
61.409473
150.314569
390.008688
655.542016
1015.879512
1015.879512
1015.879512
1015.879512
1015.879512
1015.879512
1015.879512
929.681063
619.447827
334.092975
184.375644
90.747476
75.675845
84.249973
106.402636
120.887756
129.481554
127.152801
113.242865
98.680854
75.431466
58.488846
38.755536
29.499531
20.952821
17.619729
16.192794
16.071796
15.436411
14.722943
15.496612
14.806986
14.321804
14.356971
14.540553
14.349818
13.428926
12.627840
12.799501
12.729764
12.143850
11.633635
11.686683
11.197925
11.069775
10.741949
10.005832
10.464787
10.984540
10.747910
11.725426
11.822581
13.065934
13.271570
13.976693
14.413595
14.074445
13.468862
12.772679
11.667609
10.784864
9.856820
9.449720
8.698702
8.277893
7.910728
7.312894
6.895661
6.952882
6.966591
6.443858
6.408691
6.772876
6.599426
6.680489
6.433725
6.695986
6.898642
6.451607
##ZVALUE=265
1.551509
1.548529
1.553893
1.624823
1.606941
1.743436
1.752973
1.783967
1.826882
1.930594
2.140999
2.240539
2.695918
2.913475
6.656647
41.087866
113.245845
296.043754
516.775846
953.194499
1015.870571
1015.870571
1015.870571
1015.870571
1015.870571
1015.870571
1015.870571
876.906514
474.628806
266.617537
141.775608
73.465705
69.024563
91.398954
109.730959
126.888752
132.758617
129.039884
118.615627
98.177791
79.834461
57.816505
43.936968
30.329823
23.797750
19.317865
17.849803
17.218590
17.358661
16.388893
16.451478
16.296506
15.851855
15.220642
14.532804
13.936758
13.746619
13.183951
13.011694
12.250543
12.021661
11.011958
11.200905
11.029840
10.687709
10.722876
10.953546
11.028647
11.955500
12.458563
13.066530
13.253689
12.954473
13.059974
12.061596
11.712909
10.702610
10.128617
9.175539
8.265972
7.565618
7.231832
6.608963
6.793737
6.729960
6.499887
6.558895
6.140471
6.052852
6.005764
5.746484
6.019473
5.805492
5.838871
5.889535
5.807877
##ZVALUE=270
1.479983
1.408458
1.466870
1.460910
1.445413
1.647472
1.544952
1.585484
1.871586
1.891851
1.870990
1.944900
2.053976
2.155900
2.152920
2.954602
3.565550
13.591647
45.153499
160.244703
332.719684
608.964562
1015.870571
1015.870571
1015.870571
1015.870571
1015.870571
1015.870571
1015.870571
1015.870571
826.069713
416.543484
218.404531
87.436438
59.355497
69.991946
88.791847
111.916661
125.560760
134.866834
134.164691
120.929480
105.273724
81.832409
63.330531
44.213533
33.822656
26.376843
22.197962
19.775629
18.951893
17.418861
17.494559
16.299486
16.426444
15.591979
15.360713
14.565587
14.038682
13.318658
13.359785
12.366772
11.962652
12.291670
11.589527
10.672808
11.124611
11.139512
11.710525
12.535453
12.612939
12.436509
12.679696
12.491941
12.221932
11.073947
10.348558
9.792447
8.864999
8.066893
7.472634
7.060766
6.877780
6.467700
6.384850
6.226897
6.167889
6.046891
5.926490
5.883574
5.862713
5.564690
5.894899
5.759597
5.492568
5.423427
##ZVALUE=275
1.356602
1.301765
1.388788
1.236796
1.267791
1.263618
1.536608
1.605749
1.702905
1.554489
1.636744
1.749992
1.998544
1.951456
2.030730
2.110600
2.307892
2.606511
2.807975
6.260872
25.280714
80.368519
254.008770
491.538048
959.819555
1015.868783
1015.868783
1015.868783
1015.868783
1015.868783
1015.868783
1015.868783
1015.868783
631.616712
350.216627
137.592554
69.972873
54.081678
67.492723
91.172457
108.670592
125.697851
134.371519
131.798983
121.846795
102.938414
85.877776
63.398480
49.603581
34.950972
26.829839
22.100806
19.042492
17.109513
16.611814
16.136765
15.650988
15.115738
14.706850
13.864636
13.675690
12.778640
13.022423
12.316704
11.662841
11.539459
11.469722
11.483431
11.705756
11.758804
12.303591
12.634993
12.723804
12.288690
11.971593
10.942817
10.197759
9.713769
8.922815
7.942915
7.718801
6.985664
6.809831
6.448627
6.442666
6.187558
6.014705
5.923510
5.945563
6.052852
5.734563
5.765557
5.550981
5.644560
5.266666
5.441904
##ZVALUE=280
1.303554
1.194477
1.176000
1.440644
1.276731
1.387596
1.389980
1.428723
1.435876
1.399517
1.734495
1.567602
1.562834
1.707673
1.743436
1.961589
1.880527
2.178550
2.184510
2.694726
2.737641
3.314614
14.003515
53.282976
189.145803
368.358493
735.703707
1015.870571
1015.870571
1015.870571
1015.870571
1015.870571
1015.870571
1015.870571
1015.870571
821.730494
489.797592
213.396549
102.866888
48.775673
49.798489
68.069696
86.441636
107.952952
120.461583
129.580498
128.353834
117.629766
102.300644
79.778433
62.933564
44.283867
33.036470
22.773743
18.477440
15.781522
14.546514
13.448596
13.220906
12.530684
12.833476
12.312531
11.764765
11.766553
11.248589
10.769963
10.696650
10.980964
11.394620
11.503696
11.283755
11.536479
10.915995
11.085868
10.392666
10.172725
9.448528
8.499622
8.365512
7.700920
7.398725
6.962419
6.818771
6.371737
6.381869
6.230474
6.053448
5.696416
5.696416
5.719662
5.863905
5.553961
5.454421
5.653501
5.321503
5.329847
##ZVALUE=285
1.178980
1.118779
1.130700
1.237988
1.126528
1.248717
1.442432
1.224875
1.348853
1.327991
1.537800
1.371503
1.478791
1.369715
1.569986
1.621842
1.723766
1.605749
1.919866
2.209544
2.171993
2.252460
2.827644
3.298521
7.184744
25.511980
109.606981
260.655880
603.640676
957.486629
1015.847921
1015.847921
1015.847921
1015.847921
1015.847921
1015.847921
1015.847921
1015.847921
733.215809
344.929695
170.296431
59.712529
36.195517
43.685436
58.004856
80.608726
96.469522
112.925768
119.863749
120.628476
115.618706
96.812844
81.680417
58.781505
43.614507
28.558969
20.582676
14.734864
12.723804
11.446476
10.632873
10.285974
10.317564
10.053515
9.978414
9.703636
9.968877
10.135770
10.260940
10.377765
10.427833
10.612607
10.342598
10.012984
9.726882
9.340644
8.707643
8.232594
7.937551
7.205606
6.889701
6.614923
6.557703
6.297827
5.857944
6.343722
6.127954
5.830526
6.144643
5.792975
6.054640
5.537868
5.727410
5.557537
5.716681
5.741715
##ZVALUE=290
1.097918
1.206994
1.315475
1.059771
1.407862
1.057982
1.192689
0.991821
1.353621
1.287460
1.189709
1.387596
1.404881
1.450777
1.594424
1.629591
1.404881
1.703501
1.673698
1.740456
1.977682
2.029538
2.241731
2.408624
2.653599
2.841949
3.798604
8.866787
47.350526
130.820870
293.950438
684.560537
1015.861630
1015.861630
1015.861630
1015.861630
1015.861630
1015.861630
1015.861630
1015.861630
943.436027
482.236743
251.219869
87.823868
36.481619
27.922988
36.185980
52.387714
66.319704
88.483691
102.263689
113.375783
114.676952
107.035637
94.328523
72.676539
56.615472
37.996769
27.129650
16.727448
12.757778
9.773970
8.969903
8.589625
8.467436
8.152723
8.461475
8.601546
9.006858
9.478927
9.664893
9.787679
9.496808
9.077787
8.889437
8.161664
8.095503
7.526875
7.342696
6.754994
6.748438
6.216764
6.270409
6.079674
6.093979
5.998611
5.941987
5.790591
5.987883
5.807877
5.631447
5.687475
5.487800
5.696416
5.793571
5.461574
##ZVALUE=295
1.069903
1.023412
1.111627
1.228452
1.095533
1.097918
1.132488
1.222491
1.282692
1.221895
1.160502
1.195669
1.231432
1.356602
1.308918
1.416802
1.543760
1.526475
1.548529
1.643896
1.622438
1.848936
2.106428
2.140999
2.227426
2.370477
2.681613
2.895594
3.120899
4.886985
23.201704
74.888468
192.843676
518.629551
902.233720
1015.870571
1015.870571
1015.870571
1015.870571
1015.870571
1015.870571
1015.870571
1015.870571
612.310767
332.494974
119.119883
48.097968
20.710826
22.091866
33.066869
44.626594
63.704848
78.188777
96.542835
105.508566
107.864738
101.356506
87.958574
72.189569
52.137971
38.787723
24.005771
17.044544
11.369586
9.148717
7.675886
7.509589
7.465482
7.755756
8.208752
8.477569
8.830428
8.505583
8.680820
8.064508
7.743835
7.525682
6.891489
6.432533
6.093979
6.139874
6.049871
6.180406
5.816817
5.829930
5.874634
5.831718
5.501509
5.586743
5.734563
5.616546
5.385876
5.299449
5.521774
5.242825
5.242825
##ZVALUE=300
1.106858
1.135468
1.197457
1.149774
1.032948
1.022816
1.076460
1.081824
1.210570
1.142621
1.226664
1.140833
1.177788
1.239777
1.332760
1.245737
1.330972
1.450777
1.383424
1.438856
1.641512
1.538992
1.585484
1.806617
1.826882
1.952648
2.204776
2.334714
2.673864
2.590418
2.867579
3.645420
6.772876
40.748715
115.122795
339.694619
635.989904
1015.871763
1015.871763
1015.871763
1015.871763
1015.871763
1015.871763
1015.871763
1015.871763
849.751830
502.501726
219.263434
95.719695
26.413798
16.219616
20.156503
27.345419
41.479468
55.941939
75.837970
88.359714
98.751783
101.548433
96.589923
87.729692
69.023967
54.631829
37.511587
26.402473
16.057491
11.599660
8.913875
8.116961
8.026958
8.275509
8.011460
8.085966
7.869601
7.333755
6.912947
6.611943
6.051660
6.176829
6.147623
5.782843
5.978942
5.748868
5.901456
5.784631
5.417466
5.271435
5.281568
5.513430
5.240440
5.063415
5.455613
5.198717
5.276799
5.329847
5.199909
##ZVALUE=305
0.994802
0.957847
0.968575
1.012683
0.938773
1.040697
0.881553
1.168847
1.130700
1.043677
1.090765
1.269579
1.079440
1.171827
1.281500
1.277924
1.209974
1.085997
1.340508
1.401901
1.593828
1.524687
1.612902
1.574755
1.775622
1.560450
1.886487
1.946688
1.955628
2.238750
2.205968
2.542734
2.749562
3.167987
4.385710
22.375584
71.125627
236.645937
461.524725
938.877463
1015.907526
1015.907526
1015.907526
1015.907526
1015.907526
1015.907526
1015.907526
1015.907526
707.211494
318.152905
150.622725
43.177605
17.323494
13.966560
17.690659
27.179718
37.318468
54.670572
68.550706
84.405541
93.079805
96.274614
92.861652
81.606507
68.849921
49.811602
37.435889
24.320483
16.901493
11.099577
9.277463
8.109808
7.702708
7.151961
6.746650
6.342530
6.140471
5.739927
5.484819
5.675554
5.343556
5.124807
5.192757
5.262494
5.309582
5.065799
5.144477
5.118847
5.045533
5.135536
5.074739
4.997849
4.920959
4.993677
4.946589
4.975796
##ZVALUE=310
0.865459
0.800490
0.901818
0.979900
0.947714
0.904799
0.905991
0.968575
1.039505
1.012683
1.111627
0.964999
0.997782
1.092553
1.183748
1.090765
1.059771
1.011491
1.209974
1.319647
1.308918
1.261830
1.309514
1.463890
1.518726
1.509786
1.551509
1.537800
1.710653
1.803637
1.892447
1.947880
2.187490
2.292991
2.457500
2.794862
3.168583
8.841753
31.256676
126.411915
278.861523
640.223622
994.228721
1015.868783
1015.868783
1015.868783
1015.868783
1015.868783
1015.868783
1015.868783
966.930389
497.576594
260.667801
86.077452
29.062629
11.206865
11.754632
15.624762
21.744967
33.727884
45.469999
62.772632
74.924827
85.892677
90.351701
87.399483
80.567002
66.076517
52.482486
35.750866
25.910735
16.945601
11.667609
8.402467
7.092953
6.135702
5.771518
5.351901
5.294681
5.098581
5.117655
4.749894
4.853606
4.811883
4.871488
4.795790
4.759431
4.864931
4.689693
4.846454
4.804730
4.849434
4.684925
4.621744
4.578829
4.595518
##ZVALUE=315
0.859499
0.862479
0.966787
0.922680
0.973940
0.866652
0.837445
0.940561
1.078844
0.892878
0.821948
1.046658
0.975728
0.902414
0.972748
0.982881
1.170635
1.212955
1.151562
1.165867
1.136661
1.186728
1.230836
1.162887
1.236796
1.388788
1.498461
1.378655
1.459718
1.664758
1.466870
1.676679
1.904964
1.986623
2.042651
2.248883
2.466440
2.681613
2.779961
4.476905
14.164448
72.670579
178.768635
459.781885
813.030005
1015.872955
1015.872955
1015.872955
1015.872955
1015.872955
1015.872955
1015.872955
1015.872955
673.722625
365.993977
129.981637
48.151612
13.319850
9.758472
10.998845
14.184713
21.178722
29.055476
42.575598
55.015683
71.652532
79.224706
84.909797
84.031820
74.301958
63.744783
49.004555
36.294460
23.297668
15.803576
9.892583
7.334948
5.710721
5.216599
4.902482
4.601479
4.588962
4.511476
4.708767
4.474521
4.491806
4.515648
4.392862
4.424453
4.480481
4.588962
4.407763
4.681945
4.622936
4.445910
4.334450
##ZVALUE=320
0.812411
0.936985
0.869632
0.750422
0.872612
0.932813
0.786781
0.902414
0.834465
0.852942
0.888705
1.034737
0.914931
0.947714
0.940561
0.944734
0.994802
0.818968
1.064539
0.956655
1.089573
1.206994
1.275539
1.092553
1.126528
1.257658
1.256466
1.384616
1.289845
1.230836
1.521707
1.516938
1.469851
1.621842
1.655817
1.761913
1.794696
2.068877
2.324581
2.453923
2.748966
3.069639
8.144975
30.292869
126.896501
280.085802
628.484488
974.546671
1015.867591
1015.867591
1015.867591
1015.867591
1015.867591
1015.867591
1015.867591
947.217941
451.024771
232.721567
78.038573
26.926994
9.854436
8.969903
10.019541
11.904836
18.013716
25.682449
38.471818
50.399899
66.879988
75.442791
81.670880
79.400539
71.900487
61.358809
45.732856
34.583807
22.311807
15.097857
9.257793
6.639957
5.329847
4.732609
4.654527
4.432797
4.263520
4.249811
4.112720
4.085898
4.252791
4.096627
4.287958
4.213452
4.418492
4.333854
4.253983
4.440546
##ZVALUE=325
0.715852
0.792742
0.804663
0.926852
0.882745
0.677705
0.827909
0.836849
0.940561
0.896454
0.953674
0.814795
0.871420
0.962615
0.942945
0.861883
1.011491
1.075864
1.260638
1.086593
1.070499
1.030564
1.069903
1.002550
1.212955
1.173615
0.924468
1.199841
1.202822
1.344681
1.231432
1.399517
1.369715
1.438856
1.534820
1.639724
1.672506
1.687407
1.981854
1.844764
2.010465
2.191663
2.476573
2.871752
4.065633
22.137761
69.763660
221.581459
430.001616
868.139863
1015.870571
1015.870571
1015.870571
1015.870571
1015.870571
1015.870571
1015.870571
993.195772
659.724474
301.510692
136.383772
34.134984
12.195706
8.113980
8.040667
9.046793
11.596680
17.665625
25.134683
38.129687
49.102902
62.741637
70.473552
75.084567
73.226690
65.273643
55.783987
41.657686
31.560659
19.687414
13.523698
8.086562
6.127954
4.654527
4.412532
4.158616
4.011989
4.055500
4.029870
4.043579
4.213452
3.972650
4.016757
4.139543
4.151464
4.202724
##ZVALUE=330
0.712872
0.760555
0.784993
0.659823
0.760555
0.838637
0.729561
0.781417
0.802875
0.865459
0.681877
0.686646
0.768900
0.921488
0.850558
0.908971
0.966787
0.887513
0.875592
1.014471
0.934601
0.872612
0.785589
1.109838
1.165867
1.123548
1.071692
1.066923
1.076460
1.268983
1.127720
1.253486
1.193881
1.266599
1.458526
1.392961
1.523495
1.658797
1.567602
1.748800
1.860857
1.917481
2.245903
2.259612
2.315640
2.615452
3.192425
9.374619
33.656955
132.211447
282.649994
631.467700
976.545811
1015.871763
1015.871763
1015.871763
1015.871763
1015.871763
1015.871763
1015.871763
845.836997
404.373407
202.006698
64.387918
20.390749
8.067489
7.520914
7.473826
8.376837
11.747479
15.770793
23.982525
33.175945
47.016740
56.520700
65.766573
69.544911
67.941546
62.091947
50.372481
40.143728
27.272701
19.905567
13.022423
9.146929
6.083846
5.009770
4.221797
4.064441
3.976822
3.946424
3.890991
3.745556
3.923774
4.121661
4.032850
##ZVALUE=335
0.765920
0.677705
0.771880
0.814795
0.754595
0.780821
0.796914
0.892878
0.693798
0.701547
0.735521
0.777841
0.618696
0.871420
0.875592
0.798702
0.817776
0.944734
0.982881
1.016855
0.761747
0.815988
0.903606
1.040697
0.941753
1.113415
0.935793
0.940561
1.118779
0.937581
0.937581
1.276731
1.117587
1.176000
1.246929
1.245737
1.284480
1.385808
1.316667
1.476407
1.361966
1.714826
1.767874
1.839995
1.856685
2.216697
2.427697
2.551675
2.746582
4.517436
15.722513
76.518059
182.976723
462.346673
805.145502
1015.870571
1015.870571
1015.870571
1015.870571
1015.870571
1015.870571
1015.870571
1003.489494
580.659509
315.630436
107.746720
35.866499
9.272695
7.750988
7.477999
7.407665
8.293986
10.324717
15.727878
21.629930
32.356977
41.129589
53.157806
60.112476
64.588785
63.844919
56.686997
49.346685
37.770867
29.191971
19.413829
13.766885
9.299517
6.599426
4.696846
4.361868
4.226565
4.092455
3.984571
4.044771
4.109740
##ZVALUE=340
0.703931
0.683665
0.775456
0.783801
0.649691
0.734925
0.647902
0.804663
0.645518
0.718832
0.754595
0.907779
0.811815
0.845790
0.871420
0.871420
0.854731
0.818968
0.938773
0.827909
0.878572
0.953674
0.945926
0.792742
0.840425
0.799894
1.019835
1.017451
0.978708
1.112819
1.019835
0.921488
1.065731
1.163483
0.916719
0.967979
1.083612
1.126528
1.202822
1.355410
1.398921
1.376867
1.463890
1.616478
1.515746
1.778603
1.837611
2.030730
2.163649
2.491474
2.594590
3.205538
7.403493
43.389797
122.803450
347.781777
644.048452
1015.871763
1015.871763
1015.871763
1015.871763
1015.871763
1015.871763
1015.871763
1015.871763
702.174902
396.597981
157.749653
56.508780
12.423992
8.286834
7.182956
7.075667
7.100701
7.452965
9.723902
13.076663
20.734668
28.418899
40.405989
48.714876
57.451725
60.271621
59.036613
55.533648
38.252473
37.407875
27.699471
20.727515
13.016462
9.360909
6.585717
5.145669
4.529953
4.407763
4.383922
##ZVALUE=345
0.755787
0.671744
0.789762
0.691414
0.702739
0.687838
0.720620
0.767708
0.713468
0.768900
0.758767
0.739694
0.820756
0.643730
0.600815
0.759959
0.875592
0.802875
0.806451
0.695586
0.778437
0.885725
0.887513
0.919700
0.922680
0.922680
0.913739
0.881553
0.868440
0.765920
0.988841
0.935793
0.847578
1.155734
0.987649
1.131892
0.990629
1.137853
1.144409
1.178980
1.302958
1.356602
1.312494
1.311898
1.468658
1.566410
1.610518
1.667738
1.689792
1.940727
2.082586
2.336502
2.470613
2.864003
3.848672
24.295449
77.296495
236.654878
456.835032
901.386738
1015.870571
1015.870571
1015.870571
1015.870571
1015.870571
1015.870571
1015.870571
879.406929
515.510440
215.719938
89.256763
22.162795
9.666681
7.718801
7.022619
6.285906
6.160736
6.683469
8.349419
12.546778
18.001795
26.982427
34.758449
44.898987
50.735474
55.633783
55.831671
51.603913
45.928955
36.775470
28.694868
19.192696
14.514923
9.637475
7.210970
5.447865
##ZVALUE=350
0.831485
0.800490
0.618696
0.776649
0.702739
0.785589
0.752807
0.716448
0.753999
0.795722
0.845790
0.856519
0.761747
0.741482
0.798702
0.862479
0.793934
0.907779
0.783801
1.006722
0.872612
0.823736
0.925660
0.788569
0.971556
0.954866
0.905991
0.947714
1.026988
1.049638
1.032948
1.077652
1.034737
0.939965
0.989437
1.194477
1.091957
0.935793
1.082420
1.261830
1.164675
1.136661
1.159906
1.274943
1.416802
1.360774
1.448989
1.433492
1.503825
1.480579
1.790524
1.805425
1.954436
2.103448
2.341866
2.536774
3.349781
8.792877
47.625899
125.710964
349.689722
629.531741
1015.870571
1015.870571
1015.870571
1015.870571
1015.870571
1015.870571
1015.870571
1014.519930
569.483638
316.146016
116.766691
40.713549
10.447502
7.053614
6.019473
5.619526
5.272627
5.158782
6.116629
7.673502
11.237860
15.552640
23.157597
30.469894
39.581656
45.645833
50.672889
51.774979
48.467517
43.540597
35.295486
28.136969
19.370914
14.700890
##ZVALUE=355
0.833869
0.863671
0.757575
0.725985
0.759959
0.772476
0.620484
0.722408
0.809431
0.771880
0.829697
0.901818
0.765920
0.800490
0.759959
0.917912
0.794530
0.862479
0.851750
0.898838
0.971556
0.980496
1.020432
0.894666
0.816584
0.957847
1.091957
0.920892
1.007915
1.203418
1.043677
0.968575
1.033545
1.142621
1.166463
0.886917
1.000762
1.121759
1.093745
1.196861
1.191497
1.077652
1.201630
1.303554
1.258850
1.194477
1.263618
1.521707
1.509786
1.624823
1.769662
1.674891
1.728535
1.877546
1.847744
2.160668
2.285838
2.477765
2.726912
5.350709
19.440651
92.465878
215.579867
510.876775
862.496495
1015.871763
1015.871763
1015.871763
1015.871763
1015.871763
1015.871763
1015.871763
827.317834
378.381014
179.256797
48.368573
15.073419
7.025599
6.168485
5.529523
5.284548
5.043745
4.852414
5.625486
6.689429
10.092854
13.687611
20.365715
26.712418
34.902692
41.058660
46.762824
47.359467
45.716763
41.816831
34.373999
##ZVALUE=360
0.862479
0.746846
0.761747
0.823736
0.813603
0.774860
0.763535
0.927448
0.876784
0.715852
0.801682
0.834465
0.706911
0.863671
0.708699
0.935793
0.921488
0.973940
0.958443
0.864863
0.871420
0.961423
0.847578
0.934601
0.961423
1.050830
0.865459
0.953674
0.988841
0.998974
1.027584
1.012683
0.976920
0.966787
1.070499
1.015663
1.127720
1.124740
1.097918
1.160502
1.190901
1.272559
1.176000
1.151562
1.405478
1.396537
1.536608
1.493692
1.427531
1.423955
1.579523
1.729727
1.764894
1.767874
1.964569
1.986623
2.096891
2.285838
2.379417
2.544522
2.947450
4.040599
8.629560
44.080615
121.691823
349.565744
630.953908
1015.870571
1015.870571
1015.870571
1015.870571
1015.870571
1015.870571
1015.870571
989.280939
530.570745
280.499458
98.108649
31.781793
7.773638
6.276965
5.514622
5.263686
5.016923
4.709959
4.767776
5.133748
6.147623
7.812977
11.923909
16.313791
23.568869
29.501915
37.267804
41.411519
44.122934
##ZVALUE=365
0.792742
0.783801
0.804663
0.780821
0.803471
0.941753
0.768900
0.826716
0.882745
0.798702
0.897646
0.604987
0.915527
0.919700
0.810623
0.849962
0.850558
0.850558
0.917912
0.935793
0.928640
0.941753
0.873804
1.001954
0.997782
0.855923
0.930429
1.010895
0.963807
0.963807
1.051426
1.017451
0.894666
1.066923
1.079440
1.033545
1.088977
1.018643
1.206994
1.289845
1.082420
1.133680
1.198649
1.268983
1.225471
1.272559
1.287460
1.134872
1.225471
1.307726
1.452565
1.510978
1.452565
1.518726
1.611710
1.823902
1.884699
1.909733
2.175570
2.131462
2.265573
2.613664
2.801418
3.207922
4.346967
21.509528
71.476698
231.845379
462.363958
918.898582
1015.870571
1015.870571
1015.870571
1015.870571
1015.870571
1015.870571
1015.870571
722.199678
404.988527
149.147511
55.418611
11.478662
6.352663
5.444884
5.058646
4.779696
4.595518
4.346967
4.334450
4.805923
5.665421
7.710457
10.069609
14.699697
19.111633
26.234984
##ZVALUE=370
0.681877
0.614524
0.664592
0.731945
0.675917
0.864863
0.719428
0.856519
0.840425
0.729561
0.719428
0.756979
0.874996
0.717640
0.741482
0.858903
0.857711
0.788569
0.734925
0.714660
0.699759
0.790954
0.911951
0.978708
0.720620
0.776649
0.805855
0.736713
0.987649
0.976920
0.833869
0.851750
0.985861
1.009703
1.027584
0.949502
1.049638
0.982881
1.026988
0.977516
1.098514
0.974536
1.082420
1.229644
1.112819
1.116991
1.095533
1.114607
1.087785
1.237988
1.193881
1.296997
1.319647
1.336932
1.416802
1.359582
1.469851
1.453757
1.627803
1.790524
1.635551
1.905560
2.117753
2.042651
2.527833
2.910495
3.342628
10.848641
40.779710
160.230994
341.917872
736.968517
1015.841961
1015.841961
1015.841961
1015.841961
1015.841961
1015.841961
1015.841961
865.405798
503.097773
197.618604
85.543990
23.425817
8.178949
5.313754
5.011559
4.754663
4.613996
4.337430
4.454851
4.599690
4.798770
5.630851
6.787777
9.468794
##ZVALUE=375
0.886917
0.889897
0.931621
0.713468
0.868440
0.878572
0.772476
0.894666
0.787973
0.885725
0.935793
0.945926
0.943542
0.911951
0.859499
1.005530
0.925660
0.940561
0.957847
0.755787
0.908971
0.919700
0.930429
0.963807
0.990629
0.827909
1.015663
1.058578
1.092553
0.944734
0.884533
0.962615
1.118779
0.997782
1.122952
1.016855
1.066923
0.966787
1.018643
1.127720
1.069903
1.143813
1.103878
1.115799
1.187921
1.154542
1.115799
1.148582
1.126528
1.154542
1.186728
1.231432
1.302958
1.437664
1.428723
1.315475
1.378655
1.471639
1.404881
1.399517
1.470447
1.637936
1.677871
1.927614
2.090931
2.337694
2.513528
2.974868
3.275871
5.989671
19.445419
83.397627
207.428932
528.291464
889.678001
1015.999913
1015.999913
1015.999913
1015.999913
1015.999913
1015.999913
1015.999913
731.665492
369.037986
183.110833
51.413774
15.409589
5.745888
5.274415
5.130768
5.006790
5.171895
5.155802
5.118847
5.053878
5.098581
##ZVALUE=380
0.610948
0.545979
0.623465
0.802875
0.657439
0.683665
0.815988
0.614524
0.674725
0.758767
0.627637
0.599623
0.664592
0.808835
0.705719
0.729561
0.643730
0.640750
0.753999
0.683665
0.673532
0.636578
0.709891
0.662804
0.670552
0.808835
0.718832
0.838637
0.991821
0.916719
0.892878
0.877976
0.922680
0.975728
1.002550
1.054406
0.890493
0.930429
0.951886
1.037717
0.914931
0.827909
0.797510
1.043677
0.960827
1.092553
1.021624
1.015663
0.951886
1.133680
1.118779
1.098514
1.154542
1.036525
1.073480
1.085997
1.063943
1.311898
1.303554
1.383424
1.269579
1.521707
1.331568
1.579523
1.706481
1.762509
1.908541
2.137423
2.558827
2.788901
3.163815
3.760457
10.052919
56.750774
151.345730
406.431556
711.030960
1015.874743
1015.874743
1015.874743
1015.874743
1015.874743
1015.874743
1015.874743
960.424542
509.977937
271.229744
91.100931
31.348467
7.992983
5.726814
5.251765
5.288720
5.384684
5.206466
5.019903
##ZVALUE=385
0.540614
0.455976
0.423789
0.385642
0.624657
0.542998
0.436902
0.589490
0.609756
0.589490
0.626445
0.620484
0.594854
0.522733
0.573993
0.582933
0.835657
0.612736
0.558496
0.697970
0.719428
0.618696
0.497699
0.670552
0.691414
0.776649
0.776649
0.838637
0.871420
0.845790
0.881553
0.936985
0.887513
1.168847
0.879765
0.830889
0.804663
1.060963
0.962615
0.923872
0.919700
0.941753
0.934601
0.914931
0.942945
0.953674
1.125932
1.061559
0.967979
0.910759
0.884533
1.008511
0.985861
1.045465
1.053810
1.052618
1.063943
1.125932
1.211762
1.179576
1.218915
1.194477
1.351833
1.459718
1.449585
1.676679
1.821518
1.790524
2.065897
2.471805
2.440810
2.424717
2.768636
3.056526
4.909635
27.983785
86.503625
259.909630
509.716868
973.885655
1015.829444
1015.829444
1015.829444
1015.829444
1015.829444
1015.829444
1015.829444
731.697679
431.811810
180.125833
70.034862
14.256835
6.358624
5.529523
5.114675
5.158782
##ZVALUE=390
0.672936
0.643730
0.625849
0.565648
0.659823
0.514984
0.734925
0.648499
0.551939
0.612736
0.553727
0.570416
0.539422
0.681877
0.734925
0.640750
0.606775
0.776649
0.603795
0.573993
0.690818
0.574589
0.658631
0.700951
0.674725
0.760555
0.793934
0.698566
0.837445
0.836849
0.801682
0.894666
0.882745
1.085997
0.937581
0.933409
1.046658
0.978708
0.881553
0.979900
1.043677
1.054406
1.174808
1.117587
0.947714
0.953674
0.938773
1.105666
0.978708
0.972748
1.042485
1.171827
0.958443
1.174808
1.173615
1.133680
1.081824
0.948906
0.996590
1.084805
1.118779
1.103878
1.204610
1.333952
1.283884
1.550913
1.684427
1.739860
1.868606
2.226830
2.314448
2.227426
2.305508
2.208948
2.242923
2.536774
3.095865
12.987852
48.052669
183.861852
387.805700
822.049975
1015.834808
1015.834808
1015.834808
1015.834808
1015.834808
1015.834808
1015.834808
981.865525
623.181462
263.623595
116.985440
27.587414
9.094477
5.626678
##ZVALUE=395
0.689626
0.762939
0.629425
0.600815
0.461936
0.669956
0.513792
0.744462
0.627637
0.519753
0.563860
0.761747
0.644922
0.682473
0.725985
0.664592
0.752807
0.574589
0.706911
0.714660
0.650883
0.653863
0.778437
0.712872
0.767708
0.761747
0.907779
0.988841
0.933409
0.896454
0.894666
0.826716
1.018643
1.007915
1.022816
1.019835
1.038909
0.910759
1.154542
0.970960
0.957847
1.107454
1.058578
0.931621
1.051426
1.057982
1.050830
0.961423
0.979900
1.131892
1.079440
1.252890
1.202822
1.043677
1.199841
1.101494
1.041889
1.101494
1.059771
1.020432
1.216531
1.281500
1.311898
1.518726
1.414418
1.641512
1.661777
1.893640
2.009869
2.049804
2.225637
2.142787
1.982450
2.061725
1.994967
2.028942
2.173781
2.456903
2.880692
7.265806
28.763413
126.429796
273.520947
588.184595
948.728919
1015.884876
1015.884876
1015.884876
1015.884876
1015.884876
1015.884876
1015.884876
827.710629
386.162996
187.218785
56.893826
##ZVALUE=400
0.762939
0.891685
0.747442
0.633597
0.703931
0.595450
0.585914
0.636578
0.674725
0.602603
0.665784
0.624657
0.747442
0.600815
0.810623
0.612736
0.649691
0.545979
0.638962
0.669956
0.514984
0.562668
0.772476
0.816584
0.779629
0.732541
0.942945
0.794530
0.976920
0.888705
0.976920
0.818968
1.042485
0.999570
1.069903
1.147985
0.965595
0.972748
1.133680
0.873804
1.337528
1.161695
1.098514
1.062751
1.291633
1.123548
1.052618
1.051426
0.966787
1.155734
1.183748
1.148582
1.048446
1.084805
1.092553
1.131892
1.113415
1.158714
1.049638
1.179576
1.250505
1.229644
1.328588
1.432896
1.395941
1.705885
1.725554
1.764894
1.929998
1.872778
1.983643
1.871586
1.834631
1.810789
1.840591
1.725554
1.945496
2.097487
2.032518
2.452731
2.573729
4.267693
13.572574
61.192513
153.544545
404.960513
712.243915
1015.896797
1015.896797
1015.896797
1015.896797
1015.896797
1015.896797
1015.896797
972.640514
546.286702
##END
