##TITLE=C10_R4
##FORMAT=SPECTACLE-ASCII V-1.2
##DATA TYPE=ULTRAVIOLET SPECTRUM
##SECOND TYPE=ULTRAVIOLET SPECTRUM
##DATE=05/28/18
##TIME=11:58:32
##SPECTROMETER/DATA SYSTEM=SPECTACLE
##XUNITS=NM EM
##YUNITS=ENERGY
##YFACTOR=1
##FIRSTX=220
##LASTX=410
##NPOINTS=96
##3DDATA=Equidistant
##ZUNITS=NM EX
##FIRSTZ=210
##LASTZ=400
##ZPOINTS=39
##XYDATA=(Y..Y)
##ZVALUE=210
49.529672
49.964786
35.783648
31.505823
25.210977
21.952987
19.567609
16.752481
13.858676
11.049509
8.699894
6.835461
7.068515
8.284450
7.803440
8.280873
8.005500
7.102489
9.233952
9.128451
10.315776
11.096597
11.825562
14.681816
16.239882
20.713806
22.402406
23.943782
25.315881
26.798844
29.494762
30.027628
33.792853
33.024549
33.545494
30.841827
33.848882
31.589866
30.625463
31.284690
29.881001
29.707551
30.738711
30.202866
28.769970
28.932691
32.438636
29.778481
31.329989
28.798580
29.284954
27.690530
28.271675
27.140975
29.437542
28.075576
26.180744
29.028654
26.543736
27.190447
26.671886
24.596453
27.348995
27.948618
28.944612
30.105710
35.226941
40.768981
47.990680
55.048466
66.375732
67.361593
77.193975
77.950954
84.240437
78.942776
78.234673
74.604750
62.706470
60.040951
47.952533
44.839978
37.301779
30.857921
29.115677
24.349689
24.080873
23.390651
26.876926
32.048821
43.123960
57.337880
86.986423
106.503963
138.659477
166.503787
##ZVALUE=215
166.650414
163.697004
115.996003
87.753534
62.476993
46.478510
41.781664
37.045479
33.569932
28.700829
23.649931
18.534660
14.430881
11.203885
9.703636
8.786917
7.541776
7.865429
7.840991
9.840727
9.645820
11.559725
13.006926
13.207793
16.326904
18.532872
19.717813
23.363829
25.111437
27.347803
28.971434
29.889941
29.310584
31.157732
31.321645
32.166839
33.320785
32.797456
30.083656
31.046867
34.120679
30.869842
32.376647
30.393600
32.075644
30.875802
32.409430
30.169487
30.251741
30.450821
30.269623
30.498505
30.047894
30.064583
31.435490
28.914809
30.094981
28.840899
30.070543
29.259920
28.769970
28.101802
29.554963
29.724836
28.936863
31.132698
35.037994
36.722422
44.799447
48.102736
54.052472
58.017969
65.316558
68.379641
66.718459
64.359903
63.268542
59.623718
54.304600
48.895478
40.126443
34.367442
32.449961
28.019547
25.174618
23.285747
19.900799
18.985868
19.365549
20.518899
20.135641
19.048452
21.280646
26.097894
36.306977
50.736666
##ZVALUE=220
383.679867
380.967855
361.541510
297.048688
239.049792
166.841745
116.632581
82.106590
60.188770
51.139593
47.046542
44.702888
36.918521
31.583905
24.980903
18.787980
12.693405
11.101961
9.067655
8.808970
8.845925
9.452701
10.032654
11.822581
11.835694
13.709664
16.007423
16.734600
18.559694
20.048618
21.097660
23.150444
23.332834
25.599599
25.252700
26.116967
27.653575
28.984547
30.394793
29.442906
29.604435
30.754805
28.997660
29.760599
30.836463
30.180812
29.116869
32.100677
32.079816
32.179952
32.492876
31.684637
31.758547
31.346679
30.754805
28.516650
29.851794
30.966997
30.312538
29.995441
29.822588
28.690696
28.094649
27.975440
29.878616
30.848980
32.518506
35.055876
40.995479
40.555000
48.725605
54.673553
55.880547
56.386590
57.200789
55.365562
52.741766
51.444769
44.284463
39.936900
36.377907
29.967427
29.121637
23.705959
22.933483
21.103621
19.511580
18.328428
17.794967
19.478798
17.292500
17.403960
17.118454
18.375516
15.871525
18.359423
##ZVALUE=225
435.954928
444.622636
544.685721
575.400591
552.348495
482.687950
403.972864
269.783735
185.750723
118.870735
85.593462
69.716573
67.997575
63.936710
58.985949
48.375726
39.324760
28.128624
21.662712
15.047789
11.616945
10.592937
10.502934
9.957552
10.437965
10.923743
11.631846
12.899637
14.197826
14.524460
15.214682
17.090440
17.321706
18.219948
19.270778
22.164583
21.782517
24.737716
24.884939
26.896000
25.772452
27.705431
27.904510
27.657747
28.362870
28.600693
28.121471
28.322935
29.682517
29.341578
29.130578
29.925704
27.986765
27.619600
28.263927
27.307868
27.463436
26.359558
27.547479
26.164651
26.363730
25.410652
25.420785
27.063489
25.207996
27.685761
27.871728
32.004714
34.507513
37.009716
39.971471
44.155717
44.717789
45.106411
46.396852
43.167472
42.445660
37.798882
33.996701
29.550791
27.540922
23.520589
21.140575
20.653605
18.359423
17.424822
17.373562
17.008781
16.415715
16.812682
15.734434
15.739799
14.934540
14.718771
14.956594
14.285445
##ZVALUE=230
240.853429
257.219672
386.033654
573.378801
701.688528
793.097615
792.156458
724.307895
614.917874
475.475788
293.441415
189.142823
119.733810
93.978643
85.914731
85.983872
84.681511
77.425838
67.137480
50.989985
36.347508
24.781823
17.444491
12.064576
9.998679
9.737611
9.520650
10.253787
10.873675
11.409521
11.399984
12.827516
14.756918
15.055537
16.595721
16.780496
18.873811
20.515919
21.167994
22.847652
22.961497
23.586750
25.229454
25.186539
24.719834
24.358630
24.957657
25.449991
24.568439
27.026534
24.821758
25.259852
24.178624
23.599863
23.824573
24.090409
23.729801
23.010969
24.105906
22.653937
23.888946
22.718906
22.248626
22.023916
22.567511
21.831989
23.160577
27.568936
28.662682
31.459928
33.733845
36.236644
37.542582
39.345622
36.505461
35.511851
33.820868
30.005574
27.383566
24.278760
22.266507
19.954443
17.578602
16.689897
16.500950
15.053749
14.708638
14.345646
13.649464
13.602972
13.991594
12.640953
13.781786
13.104677
13.272762
13.263822
##ZVALUE=235
45.458674
54.787397
115.885735
268.282890
420.236588
644.759536
808.767676
982.242823
1015.870571
947.167873
809.627771
630.411506
399.136543
273.385644
167.698860
119.707584
99.213719
100.250840
102.833509
99.738836
87.170601
75.551867
51.366687
39.275885
24.719834
17.647743
13.720989
10.439754
9.225607
10.482669
10.434985
10.389686
10.595918
12.032986
12.841821
13.885498
14.969707
15.242696
16.484857
17.101765
17.914772
18.865466
19.704700
20.111799
19.636750
20.626783
19.215941
20.438433
19.208789
19.955635
19.583702
20.252466
19.669533
19.376874
20.356774
19.189715
18.103719
18.061996
18.968582
18.607974
18.514991
17.533898
16.876459
18.873811
17.947555
19.389987
20.260811
21.479726
23.483634
24.383664
25.973916
27.802587
28.629899
29.240847
29.888749
27.009845
24.713874
22.688508
21.460652
19.069910
17.383695
16.028881
15.346408
13.182759
12.739897
12.214780
13.063550
12.537837
13.106465
11.262894
11.501908
12.364984
11.740923
11.913776
11.780858
11.650920
##ZVALUE=240
2.954006
3.234744
12.211800
38.151741
91.579556
228.341818
392.679572
667.764544
878.520012
1015.870571
1015.870571
1015.870571
1005.702019
774.567723
578.990579
354.798436
235.764980
144.841671
111.395717
106.568933
111.760497
112.612844
109.360814
96.407533
76.250434
58.603883
41.264892
29.178858
17.888546
14.022589
10.439754
9.988546
10.320544
9.965897
10.786653
11.403561
12.265444
12.562871
13.489723
13.471842
13.709664
14.154911
14.837980
14.698505
14.995933
15.328526
15.478730
15.580654
15.860796
15.719533
15.463829
15.129447
15.355945
14.879704
15.149713
13.951659
14.324784
14.160872
14.373660
13.566613
13.918877
14.303923
13.773441
14.565587
14.552474
15.007854
15.273690
16.239882
18.008947
19.209981
21.046996
21.645427
23.219585
23.451447
21.836758
21.082759
20.349622
19.533634
16.351938
15.476942
14.172792
13.533831
12.057424
11.533499
11.177659
11.100769
10.355711
10.885000
10.383725
10.464787
9.966493
10.240674
10.932684
10.329485
9.619594
10.013580
##ZVALUE=245
2.083778
2.034903
2.182722
2.917647
5.533695
24.942756
66.305399
181.682706
333.915949
536.860824
867.369771
1015.870571
1015.870571
1015.870571
1015.870571
1014.378667
747.931004
533.835888
363.525748
193.920732
128.747821
98.976493
104.003549
115.634799
116.517544
110.268593
98.642707
80.248713
64.291954
44.061542
32.626987
20.422935
15.512705
11.640787
10.760427
11.264682
11.194944
11.855960
11.435747
11.573434
11.781454
12.340546
13.259649
12.847781
12.352467
12.636781
12.482405
12.428761
12.311935
12.312531
12.246966
12.288690
12.436509
12.412667
11.873841
11.522770
12.026429
11.769533
11.606812
11.121631
11.534691
11.537671
10.898709
11.542439
11.227727
12.374520
12.756586
12.671947
13.875961
15.559793
16.746521
17.581582
17.974973
17.624497
17.261505
16.636848
15.147924
13.860464
13.173819
11.973977
11.157990
10.325909
9.968877
8.685589
9.009838
8.950830
8.582473
8.732677
8.196831
8.435845
8.191466
8.423924
8.673668
7.751584
8.363724
8.135438
##ZVALUE=250
1.858473
1.762509
1.845956
1.778603
1.914501
2.212524
3.412962
10.675788
52.053928
119.622946
301.543474
504.625440
742.659569
1015.812755
1015.812755
1015.812755
1015.812755
1015.812755
1009.843946
707.846880
467.264652
290.213823
143.904686
98.983645
94.256997
104.581714
117.585659
119.050741
116.254687
105.555654
85.850954
68.548918
52.489638
33.057928
23.297668
15.633702
12.520552
11.678934
11.484623
11.771917
11.435747
11.423826
11.740923
11.772513
11.631846
11.610985
11.919737
11.870861
12.232661
11.946559
11.061430
11.413693
11.429787
10.783672
10.946989
10.733604
10.320544
10.475516
10.343790
9.725690
10.086894
9.894967
9.780526
9.608865
9.044409
10.457635
11.102557
11.304617
11.794567
12.624860
13.744831
14.462471
14.700890
13.945699
14.222860
13.076663
12.731552
11.574626
10.978580
9.268522
8.664727
8.679628
8.177757
7.591844
7.184744
7.591844
7.809997
7.216930
7.283688
7.330775
7.053614
7.028580
7.268786
7.008910
7.314682
6.873608
##ZVALUE=255
1.614690
1.586676
1.615882
1.755953
1.916885
2.183914
2.145767
2.107620
2.585649
5.150437
28.234720
76.287985
217.280984
378.984809
679.329634
957.541466
1015.870571
1015.870571
1015.870571
1015.870571
1015.870571
939.121842
651.746988
353.403687
204.888582
105.221868
84.504485
92.508793
105.523467
118.701458
126.262903
119.738579
110.212564
90.207458
73.571801
51.139593
35.421848
23.252964
17.920732
13.848543
13.107657
12.799501
12.751818
13.398528
12.600422
12.961626
12.890697
12.703538
12.483597
11.795759
12.480617
11.902452
12.111664
11.467934
11.608601
10.857582
10.772943
10.284781
10.343790
10.009408
10.064840
10.378957
9.902716
9.873509
10.038614
9.803772
9.827614
11.063814
11.500716
12.245774
12.994409
13.429523
13.210773
13.183951
12.729764
11.979938
11.155605
10.877848
9.498596
8.596778
8.240938
7.555485
7.078648
7.185936
6.709695
6.907582
7.049441
6.715655
6.757975
6.778836
6.902814
6.378889
6.285906
6.357431
6.599426
6.219745
##ZVALUE=260
1.687407
1.633763
1.595616
1.479983
1.605749
1.708865
1.653433
1.966953
2.176762
2.385974
2.505779
3.366470
10.671616
49.574971
120.365024
302.616954
516.735911
876.305699
1015.871763
1015.871763
1015.871763
1015.871763
1015.871763
1015.871763
832.158923
562.876463
306.445956
174.823999
90.320706
76.252818
85.132718
104.881525
118.378997
127.940774
127.907991
112.822652
98.467469
74.604750
56.595802
39.618611
29.276609
20.412803
17.631650
14.961958
14.921427
15.062690
14.783740
14.863610
14.276505
13.789535
13.990998
13.590455
13.091564
12.912750
12.655854
12.162924
11.735559
11.499524
11.316538
10.612607
10.649562
10.189414
9.814501
9.765625
9.986758
10.115504
10.625720
10.628700
11.158586
11.347532
12.213588
12.597442
12.348890
12.152791
11.334419
11.202693
10.252595
9.512901
8.299947
7.871985
7.319450
6.815791
6.656647
6.606579
6.467700
6.222725
6.118417
6.313920
5.927682
6.052852
6.043911
5.849600
6.043911
5.826950
5.834699
5.664825
##ZVALUE=265
1.405478
1.335740
1.432896
1.523495
1.628995
1.577735
1.576543
1.748800
1.710653
1.684427
2.176762
2.279878
2.561808
2.850890
7.163882
26.195645
102.014542
207.495689
330.246687
760.169029
1015.870571
1015.870571
1015.870571
1015.870571
1015.870571
1015.870571
1015.870571
742.229819
475.598574
234.704614
127.526522
69.071651
69.642663
92.577934
107.978582
125.936866
131.393671
128.092766
117.846727
98.095536
79.623461
57.551861
43.036938
30.065775
24.120808
19.019842
18.076897
16.289949
16.374588
16.424656
15.857816
16.016960
15.522838
14.620423
14.508963
13.649464
13.855696
13.260841
12.374520
12.132525
11.504889
11.144876
10.991693
10.976791
10.807514
10.897517
10.682940
10.714531
11.156797
11.648536
12.029409
12.126565
12.417436
11.394620
11.167526
10.678768
9.760857
9.107590
8.303523
7.665753
7.339716
6.718636
6.443858
6.385446
5.973577
6.150603
5.835891
5.882978
6.092787
5.625486
5.744696
5.691648
5.496740
5.352497
5.768538
5.598664
##ZVALUE=270
1.429915
1.318455
1.376867
1.262426
1.472831
1.308918
1.465678
1.355410
1.639724
1.732707
1.847744
1.946688
1.966953
1.991987
2.029538
2.571940
3.002882
12.192726
41.558743
148.570538
308.426023
558.695793
988.934636
1015.867591
1015.867591
1015.867591
1015.867591
1015.867591
1015.867591
1015.867591
761.547685
389.415622
207.534432
84.284544
58.885813
70.589781
88.122487
111.958981
125.465989
133.872628
133.947730
120.561719
104.556680
81.026554
64.010620
43.948889
34.237504
25.962591
22.716522
19.588470
18.197894
18.240809
17.692447
16.864538
16.577840
15.510917
15.595555
14.324784
14.474988
13.586879
13.189912
12.490749
11.889935
11.717677
11.757612
11.510849
11.462569
11.388659
11.452436
11.756420
12.199879
11.867881
11.902452
11.901855
11.512637
10.701418
9.967685
9.283423
8.594990
7.492900
7.343888
6.935596
6.667972
6.551743
6.162524
5.980730
5.878806
5.859733
5.842447
5.571842
5.507469
5.534887
5.463958
5.445480
5.448461
5.702972
##ZVALUE=275
1.281500
1.327991
1.275539
1.364946
1.081824
1.407862
1.246929
1.361966
1.594424
1.439452
1.535416
1.631975
1.787543
1.859665
1.922846
1.977682
2.341866
2.560616
2.577901
6.009936
23.423433
74.033737
234.803557
455.931425
890.048742
1015.867591
1015.867591
1015.867591
1015.867591
1015.867591
1015.867591
1015.867591
975.421667
535.223484
302.100778
120.346546
64.237714
53.977966
67.231655
89.230537
107.152462
125.829577
133.600831
131.087899
122.281909
102.949739
85.367560
64.024925
48.918724
33.914447
26.829839
21.093488
18.639565
17.432570
16.081929
16.315579
15.949607
14.831424
14.549494
13.971925
13.470650
12.739897
12.629628
12.240410
11.871457
11.321902
11.612773
11.237860
11.540651
11.977553
12.176633
11.898875
12.000799
11.357665
10.939837
10.128617
9.757876
9.165406
8.400679
7.486939
7.106662
7.050633
6.496906
6.362796
5.774498
5.810857
5.882978
5.780458
5.672574
5.854964
5.711913
5.252957
5.308986
5.135536
5.175471
5.348921
##ZVALUE=280
1.136661
1.293421
1.295805
1.267791
1.258850
1.223683
1.293421
1.324415
1.485944
1.369715
1.468658
1.603961
1.474619
1.663566
1.631975
1.719594
1.893640
2.183914
2.247691
2.342463
2.620816
3.096461
14.286637
52.675605
179.184675
344.876051
675.918460
993.666649
1015.873551
1015.873551
1015.873551
1015.873551
1015.873551
1015.873551
1015.873551
697.211027
418.587923
182.486773
86.535811
44.908524
48.070550
68.077445
84.538460
107.291937
121.164918
130.238533
127.874613
117.072463
103.239417
80.506802
63.729882
44.317842
32.924414
23.158789
18.894672
15.685558
14.907718
13.761520
13.456941
12.811422
12.473464
12.485981
11.943579
11.544824
11.401772
10.957718
11.159778
11.220574
10.836720
10.981560
11.127591
11.221766
11.189580
10.207891
10.214448
9.887815
9.032488
8.432865
8.062720
7.367730
7.243752
7.028580
6.580949
6.328821
6.095767
6.254911
6.054640
5.800724
5.980730
5.715489
5.434752
5.562901
5.647540
5.381703
5.323887
5.413890
##ZVALUE=285
1.200438
1.065731
1.192689
1.062751
1.111627
1.192689
1.389980
1.140833
1.289845
1.157522
1.330972
1.487732
1.386404
1.306534
1.496673
1.668930
1.506805
1.619458
1.971722
1.954436
1.979470
2.231598
2.582669
2.766848
6.673932
23.354888
91.594458
202.884674
469.095707
780.608654
1015.871763
1015.871763
1015.871763
1015.871763
1015.871763
1015.871763
1015.871763
962.675810
618.583560
292.002559
144.572854
51.516891
34.259558
42.862892
57.747960
80.157518
96.431971
112.294555
119.998455
121.212602
113.436580
96.551776
80.927610
58.582425
43.713450
28.362870
20.687580
15.044808
12.549758
11.402965
10.980964
10.721684
9.953976
10.100603
9.782910
9.812713
9.441972
9.743571
10.177493
10.272861
9.997487
10.351539
10.069609
9.799600
9.306669
8.806586
8.496642
7.786751
7.988811
7.061958
6.567836
6.836653
6.128550
6.188750
6.061792
5.951524
5.793571
5.846620
5.684495
5.603433
5.613565
5.511642
5.161762
5.492568
5.534887
5.377531
##ZVALUE=290
1.025796
1.147985
1.155734
1.205802
1.181960
1.136661
1.088977
1.093745
1.345873
1.216531
1.178980
1.304746
1.321435
1.375675
1.481771
1.272559
1.418591
1.553893
1.588464
1.701713
1.941919
1.872778
2.040863
2.309680
2.398491
2.597570
3.475547
8.995533
49.123764
124.894977
259.165764
588.473678
953.713655
1015.870571
1015.870571
1015.870571
1015.870571
1015.870571
1015.870571
1015.870571
854.294896
433.424711
222.066641
72.007775
31.773448
27.099848
35.295486
51.422715
66.901445
88.435411
101.472735
112.475753
114.226937
107.041597
93.657970
72.854757
56.314468
37.968755
27.282834
17.109513
13.047457
9.966493
9.012818
8.462667
8.265972
8.111596
8.361936
8.477569
8.713603
8.938909
9.351969
9.284616
9.262562
8.758903
8.735657
8.136630
7.568598
7.414818
7.044673
6.647706
6.387830
6.236434
6.045699
6.110668
5.784631
5.856752
5.769730
5.558729
5.666614
5.600452
5.506873
5.550981
5.595684
5.383492
5.516410
5.117655
##ZVALUE=295
1.069903
1.024604
0.965595
1.213551
0.955462
1.008511
1.128912
1.174808
1.078844
1.134872
1.115799
1.147985
1.130700
1.117587
1.248717
1.322627
1.410842
1.261830
1.427531
1.576543
1.621842
1.549721
1.695752
2.003908
1.929998
2.136827
2.431870
2.654791
3.193617
4.267693
14.324784
71.581602
180.020928
465.714931
793.016553
1015.870571
1015.870571
1015.870571
1015.870571
1015.870571
1015.870571
1015.870571
1013.832688
583.764911
314.788818
108.064413
45.144558
19.382834
21.356940
32.769442
44.890642
63.798428
78.758597
96.665621
105.145574
107.403994
101.954937
86.745620
73.098540
51.569939
38.457513
24.188757
16.817451
11.157990
8.700490
7.574558
7.342696
7.536411
7.600784
7.885695
8.133650
8.373857
8.236766
7.967949
7.817745
7.329583
7.224679
6.552935
6.818771
6.094575
6.134510
6.092787
6.189942
5.621910
5.840659
5.658865
5.445480
5.483627
5.427599
5.496740
5.261898
5.294681
5.376935
5.014539
5.435944
5.305409
##ZVALUE=300
0.981688
1.052618
0.964999
0.993609
1.095533
0.943542
1.031756
1.024604
1.023412
1.122952
1.042485
1.012683
1.030564
1.255870
1.144409
1.090765
1.314878
1.304746
1.407862
1.202822
1.481771
1.525879
1.553893
1.667738
1.801848
1.897812
1.879930
2.087951
2.376437
2.641678
2.850890
3.138781
8.722544
33.389926
130.742788
281.676650
632.230639
983.451605
1015.871763
1015.871763
1015.871763
1015.871763
1015.871763
1015.871763
1015.871763
868.541598
440.456867
234.260559
78.926682
28.885603
15.167594
18.714666
28.415918
38.866997
56.917667
72.428584
90.798736
99.142790
101.971626
98.255873
85.431933
71.659684
52.732825
39.027929
25.116801
16.932487
10.825992
9.027719
7.543564
7.568598
7.374883
7.723570
7.515550
7.497668
7.409453
6.565452
6.380677
6.428957
6.200671
6.045699
5.739927
5.745888
5.647540
5.867481
5.518794
5.533695
5.522966
5.531907
5.344748
5.178452
5.196929
5.078912
5.228519
5.271435
5.196929
5.228519
##ZVALUE=305
0.855923
0.837445
0.947714
1.051426
0.820756
0.952482
1.014471
0.946522
1.155734
0.943542
1.017451
0.951886
1.149774
1.211762
1.086593
1.116991
1.075864
1.189709
1.246929
1.240969
1.191497
1.296997
1.473427
1.536608
1.678467
1.750588
1.607537
1.828671
1.803637
2.030730
2.129674
2.547503
2.647638
3.012419
4.146695
21.001697
66.656470
223.390460
435.494781
873.396993
1015.870571
1015.870571
1015.870571
1015.870571
1015.870571
1015.870571
1015.870571
1014.467478
690.553784
313.003659
148.775578
42.096972
16.571879
13.792515
17.464757
26.691556
37.592649
53.591728
67.455769
84.566474
92.994571
95.883608
92.260838
81.126690
68.772435
50.704479
37.310719
23.336411
16.566515
11.442900
8.791685
7.893443
7.306933
7.140636
6.714463
6.207824
6.310940
5.704761
5.757809
5.637407
5.506873
5.459785
5.360842
5.364418
5.105734
5.195737
5.408525
5.178452
5.154610
5.158782
5.023479
5.056858
5.028844
4.832745
5.029440
5.296469
##ZVALUE=310
0.932813
0.811815
0.994802
0.876784
0.945926
0.793934
1.112819
0.956655
0.949502
0.977516
0.876784
0.997782
0.986457
0.907779
1.025796
1.062751
1.153946
1.075864
1.160502
0.987649
1.229644
1.329780
1.275539
1.211762
1.368523
1.259446
1.491904
1.634955
1.704693
1.687407
1.674891
1.915693
2.218485
2.278686
2.588630
2.821684
3.028512
8.399487
31.014681
123.428702
268.504620
620.867610
975.070000
1015.870571
1015.870571
1015.870571
1015.870571
1015.870571
1015.870571
1015.870571
963.740945
506.962538
270.403624
90.026855
30.045509
11.459589
11.759996
15.948415
21.919608
33.769608
45.096874
62.760711
74.461699
86.104870
90.363622
87.857842
79.681873
66.337585
52.160621
35.705566
26.484728
16.808510
12.166500
8.399487
7.048845
6.188750
5.885959
5.524755
5.398989
5.112886
5.053878
4.861951
5.015731
5.040765
4.814863
5.297661
4.976988
4.918575
4.841685
5.140901
4.694462
4.624724
4.697442
4.837513
4.878640
4.748702
##ZVALUE=315
0.831485
0.940561
0.902414
0.810623
0.843406
0.933409
0.897646
0.796914
0.935793
0.963807
0.980496
0.957847
0.932813
0.981688
0.985861
1.103878
1.123548
1.153946
1.126528
1.151562
1.189709
0.987649
1.162887
1.039505
1.125932
1.292825
1.461506
1.294613
1.515746
1.568794
1.539588
1.676679
1.679659
1.919866
2.097487
2.170801
2.177954
2.542734
2.957582
4.429817
14.170408
72.657466
176.466703
450.132489
786.759853
1015.872955
1015.872955
1015.872955
1015.872955
1015.872955
1015.872955
1015.872955
1015.872955
686.969757
381.610990
136.348605
49.646497
13.414621
9.739995
11.315942
13.761520
21.034479
28.895736
42.692423
55.103898
70.908666
80.026984
85.927844
84.010959
74.591637
64.555407
49.009919
36.659837
22.864938
16.033649
10.022521
7.601976
5.923510
5.267859
4.871488
4.827976
4.860759
4.763603
4.716516
4.575849
4.599690
4.446507
4.423857
4.680753
4.726648
4.671812
4.747510
4.716516
4.567504
4.697442
4.415512
##ZVALUE=320
1.018643
0.968575
0.910759
0.953674
1.044869
0.932813
0.997782
0.977516
1.142621
1.133680
1.221895
1.234412
0.975728
1.043677
1.278520
1.118779
0.994802
1.128912
1.118779
1.060963
1.220703
1.164675
1.309514
1.207590
1.273751
1.405478
1.346469
1.352429
1.435876
1.648664
1.598597
1.614690
1.685619
1.796484
1.916885
1.935959
1.992583
2.239943
2.274513
2.715588
2.699494
3.300905
6.562471
37.169456
108.560920
324.150920
574.885607
995.348692
1016.047597
1016.047597
1016.047597
1016.047597
1016.047597
1016.047597
1016.047597
874.173641
515.232682
217.323899
90.657473
21.976829
10.312796
8.876920
9.901524
12.766719
17.120838
27.007461
37.198663
52.969456
64.814687
76.645613
80.755949
79.448819
73.283911
59.378743
47.596693
32.487512
23.051500
14.461875
10.156631
6.627440
5.448461
4.913807
4.779696
4.664660
4.444718
4.394650
4.393458
4.432797
4.567504
4.559755
4.468560
4.564524
4.709959
4.538894
4.587770
4.795790
##ZVALUE=325
0.741482
0.740886
0.811815
0.804663
0.770688
0.900626
0.827909
0.763535
0.791550
0.816584
0.840425
1.039505
0.831485
0.897646
0.845790
0.930429
0.945926
0.937581
0.954866
0.894666
1.098514
1.048446
1.036525
1.195669
0.999570
1.220703
1.219511
1.130700
1.256466
1.373887
1.291633
1.466870
1.500845
1.495481
1.658797
1.533628
1.658797
1.755953
1.818538
2.043843
2.018809
2.189875
2.573729
2.913475
4.114509
22.182465
67.596436
211.541057
410.243869
844.725966
1015.883684
1015.883684
1015.883684
1015.883684
1015.883684
1015.883684
1015.883684
1005.734801
664.139986
296.129584
137.588978
35.130978
12.656450
8.035898
7.992983
9.095669
11.317730
17.171502
25.002956
38.252473
49.207807
61.797500
70.317984
75.361729
73.671937
64.899921
55.944920
41.716695
31.164885
19.313693
13.134480
8.176565
6.303787
4.954934
4.419684
4.218817
3.909469
4.135966
3.919601
4.032850
4.360676
4.093647
4.148483
4.132986
4.317760
4.397631
##ZVALUE=330
0.683665
0.769496
0.685453
0.800490
0.845790
0.784993
0.673532
0.838637
0.657439
0.938773
0.858903
0.766516
0.865459
0.722408
0.907779
0.886917
0.806451
0.804663
0.960827
0.820756
0.904799
0.854731
1.127720
1.018643
0.939965
1.168847
1.172423
1.131892
1.050830
1.118779
1.086593
1.213551
1.233816
1.255870
1.271963
1.492500
1.518726
1.576543
1.559854
1.732707
1.830459
1.798868
2.117753
2.221465
2.333522
2.480745
2.975464
9.445548
33.706427
133.104920
283.535719
627.585649
972.135663
1015.870571
1015.870571
1015.870571
1015.870571
1015.870571
1015.870571
1015.870571
859.221816
413.933992
208.575726
65.464973
20.628572
8.143783
7.591844
7.530451
8.371472
11.584759
15.898943
24.943948
33.764839
47.662854
56.704879
66.055655
69.446564
68.625808
62.214732
50.217509
40.404797
27.246475
20.114779
12.970567
9.353757
6.231666
5.066991
4.385710
3.859997
4.010797
4.016757
3.985763
4.027486
4.028678
4.130602
4.204512
##ZVALUE=335
0.715852
0.581741
0.794530
0.750422
0.739694
0.801682
0.761747
0.819564
0.669956
0.852942
0.816584
0.836849
0.722408
0.779629
0.863671
0.860691
0.805855
0.898838
0.787973
0.861883
0.940561
0.820756
1.010895
1.003742
1.060963
0.950694
1.079440
0.901818
1.054406
0.999570
1.177788
1.015663
1.172423
1.235604
1.407862
1.323819
1.231432
1.503825
1.462698
1.436472
1.395941
1.653433
1.619458
1.812577
2.030730
2.069473
2.228618
2.536774
2.833605
4.517436
15.411973
75.571537
180.482864
453.206897
784.613490
1015.878916
1015.878916
1015.878916
1015.878916
1015.878916
1015.878916
1015.878916
998.357534
569.368601
302.507877
99.180937
34.210682
10.106564
7.564425
7.225871
7.298589
8.332729
10.236502
15.395880
21.476746
32.018423
41.416883
52.588582
60.251951
64.208508
63.469410
56.764483
49.372911
38.348436
29.912591
19.877553
13.946891
8.675456
6.290674
4.945993
4.444718
4.307628
4.115701
4.094839
4.266500
4.201531
##ZVALUE=340
0.789762
0.672936
0.762939
0.747442
0.549555
0.677705
0.748634
0.780821
0.800490
0.783801
0.691414
0.840425
0.821948
0.673532
0.688434
0.783801
0.677705
0.731945
0.773668
0.723600
0.883937
0.822544
0.919700
0.919700
0.789762
0.931621
0.629425
0.914931
0.910759
0.904799
0.866652
1.101494
1.039505
1.071692
0.970960
1.160502
1.040697
1.284480
1.143813
1.255870
1.343489
1.344681
1.390576
1.483560
1.582503
1.681447
1.738667
1.990795
2.066493
2.178550
2.677441
3.091693
7.076859
42.118430
119.473934
340.435505
622.228980
1015.850902
1015.850902
1015.850902
1015.850902
1015.850902
1015.850902
1015.850902
1015.850902
672.722459
381.549001
149.265528
53.423643
11.956692
7.814765
7.180572
6.817579
6.871819
7.428527
9.626746
13.112426
20.661950
28.414726
39.998889
49.047470
57.693720
59.922934
58.888793
55.190921
46.575665
38.340688
27.509928
20.685792
13.354421
9.354949
6.425977
5.146861
4.594922
4.498959
4.359484
##ZVALUE=345
0.598431
0.718832
0.684857
0.668764
0.621676
0.796914
0.700951
0.634789
0.676513
0.778437
0.710487
0.714660
0.935793
0.718832
0.669956
0.765920
0.690818
0.789762
0.702739
0.815988
0.786781
0.800490
0.830889
1.000762
0.930429
0.878572
1.068711
0.992417
0.818968
0.868440
0.954866
0.962615
1.065731
1.130700
1.017451
1.034737
1.034737
1.098514
1.183748
1.070499
1.151562
1.316667
1.336932
1.343489
1.491904
1.453757
1.569986
1.638532
1.730919
1.847744
2.042651
2.202988
2.351999
2.612472
3.884435
22.226572
71.798563
223.947763
438.853502
880.689025
1015.862823
1015.862823
1015.862823
1015.862823
1015.862823
1015.862823
1015.862823
875.765681
512.823462
205.668807
87.423921
21.946430
9.450912
7.389784
7.009506
6.216764
5.956888
6.517768
8.053780
12.403727
17.865896
27.359724
34.980774
44.490695
50.335526
55.452585
55.786967
51.654577
46.339631
36.531687
28.723478
19.214749
14.219880
9.193420
7.109642
5.487800
##ZVALUE=350
0.777841
0.783801
0.917912
0.823736
0.781417
0.794530
0.974536
0.861883
0.969768
0.835657
1.020432
0.928640
0.955462
0.992417
0.901818
0.866652
0.761747
0.904799
0.988841
0.872612
1.014471
0.919700
0.999570
1.001954
0.840425
1.079440
0.982881
0.996590
1.029968
1.099706
1.050830
0.995994
1.076460
1.005530
0.993609
1.035929
1.084805
1.136661
1.229644
1.362562
1.280904
1.285672
1.266599
1.495481
1.524687
1.558661
1.670718
1.494884
1.655817
1.747608
1.838803
1.939535
2.042651
2.118945
2.337694
2.633929
3.170967
8.470416
44.512749
117.128491
327.961445
592.687726
1015.979648
1015.979648
1015.979648
1015.979648
1015.979648
1015.979648
1015.979648
999.375582
555.911660
309.754610
114.823580
39.614439
10.159612
7.168651
6.178617
5.677938
5.263686
5.319715
5.958676
7.613897
11.180639
15.388727
23.237467
29.994845
39.714575
45.586824
50.513744
51.401854
48.792958
43.496490
34.969449
27.952790
19.589663
14.868975
##ZVALUE=355
0.701547
0.629425
0.728965
0.736713
0.774860
0.733733
0.776649
0.696778
0.543594
0.859499
0.732541
0.909567
0.779629
0.722408
0.843406
0.807643
0.838637
0.816584
0.783801
0.679493
1.009703
0.799894
0.828505
0.777841
0.979900
1.041889
0.893474
0.907779
0.967979
0.830889
0.929832
0.931621
0.982881
1.053810
1.061559
1.019835
1.094937
1.092553
1.067519
1.155734
1.145601
1.181960
1.187921
1.063943
1.333952
1.216531
1.290441
1.297593
1.402497
1.451969
1.578927
1.724958
1.774430
1.753569
1.945496
2.017617
2.030730
2.402663
2.867579
4.187822
22.609830
71.378946
223.958492
434.237719
874.318480
1015.870571
1015.870571
1015.870571
1015.870571
1015.870571
1015.870571
1015.870571
732.649565
417.309999
162.075758
63.729882
14.284849
7.218719
6.006956
5.638599
5.055666
4.785657
5.012751
5.284548
6.855726
9.043813
14.098883
19.231439
27.750731
34.250617
41.525960
45.547485
47.601461
46.171546
40.761828
35.020709
##ZVALUE=360
0.708699
0.625849
0.728965
0.644922
0.779629
0.678897
0.837445
0.688434
0.671744
0.667572
0.816584
0.731945
0.668764
0.750422
0.709891
0.743866
0.850558
0.697970
0.845790
0.870824
0.811815
0.904799
0.914931
1.125932
0.973940
0.887513
0.983477
0.918508
0.855923
0.959635
1.029968
1.023412
1.025796
1.062751
0.891685
1.108646
1.126528
1.129508
1.125932
1.140833
1.295805
1.054406
1.251698
1.103878
1.243949
1.271963
1.339912
1.286864
1.407862
1.467466
1.475811
1.543760
1.519918
1.701713
1.817942
1.901984
1.997948
2.039671
2.136827
2.665520
2.745986
3.545880
8.465648
41.969419
115.323663
326.381922
602.923632
1015.870571
1015.870571
1015.870571
1015.870571
1015.870571
1015.870571
1015.870571
957.768559
495.367646
262.084007
92.594624
30.837655
7.908940
6.058812
5.377531
5.067587
4.837513
4.795790
4.584789
4.741549
5.768538
7.519722
11.938810
16.207695
23.992658
29.648542
36.595464
40.751696
43.662786
##ZVALUE=365
0.773668
0.782609
0.715852
0.830889
0.812411
0.878572
0.766516
0.664592
0.827909
0.724792
0.784993
0.664592
0.638962
0.744462
0.760555
0.806451
0.736713
0.913739
0.825524
0.732541
0.823736
0.871420
1.049638
1.064539
0.936985
0.952482
0.974536
0.907779
0.847578
1.021624
0.843406
0.853539
0.976920
0.940561
0.990629
1.000762
1.064539
1.010895
1.090765
1.114607
1.110435
1.196861
1.199841
1.326799
1.054406
1.095533
1.150966
1.384616
1.272559
1.421571
1.238585
1.273751
1.439452
1.582503
1.480579
1.593828
1.668930
1.732707
1.861453
2.017617
2.299547
2.338886
2.662539
3.231764
4.361868
21.077991
66.477656
210.180879
429.427624
879.711509
1015.870571
1015.870571
1015.870571
1015.870571
1015.870571
1015.870571
1015.870571
676.520467
381.124616
139.241815
50.369501
10.694861
6.099939
5.369782
4.941821
4.699826
4.299879
4.270673
4.310608
4.561543
5.429983
7.349849
10.141730
14.974475
19.726753
26.313663
##ZVALUE=370
0.730753
0.693798
0.805855
0.817776
0.767708
0.882745
0.766516
0.629425
0.637770
0.799894
0.664592
0.704527
0.867844
0.654459
0.754595
0.810623
0.687838
0.804663
0.795722
0.795722
0.810623
0.753999
0.713468
0.917912
0.773668
0.733733
0.801682
0.919700
0.812411
0.992417
0.887513
0.723600
0.894666
0.895858
0.945926
0.874996
1.035929
0.939965
0.973940
1.008511
0.964999
0.985861
0.942945
0.998974
0.964999
1.207590
1.162887
1.010895
1.248717
1.115799
1.114607
1.198649
1.165867
1.409650
1.222491
1.251698
1.311898
1.523495
1.543760
1.557469
1.658797
1.820922
2.016425
2.091527
2.305508
2.665520
3.090501
10.548830
38.562417
144.454837
307.979584
662.760735
993.665457
1015.870571
1015.870571
1015.870571
1015.870571
1015.870571
1015.870571
844.027400
502.755642
205.507874
88.070631
20.486712
7.542968
5.172491
4.765987
4.557967
4.585981
4.354715
4.220605
4.758835
4.638433
5.370975
6.611943
9.026527
##ZVALUE=375
0.529885
0.727773
0.633597
0.624657
0.572801
0.659823
0.598431
0.662804
0.668764
0.652671
0.660419
0.571609
0.805855
0.849962
0.581741
0.863671
0.766516
0.812411
0.676513
0.720620
0.643730
0.613928
0.540614
0.639558
0.688434
0.863671
0.761747
0.879765
0.851750
0.769496
0.883937
0.814795
0.740886
0.857711
0.907779
0.819564
0.802875
0.900626
0.835657
0.973940
0.951886
1.015663
0.825524
0.918508
1.016855
1.023412
0.937581
0.952482
0.953674
0.987649
1.097918
1.142621
1.176000
1.157522
1.123548
1.246929
1.246929
1.404881
1.297593
1.352429
1.440644
1.443624
1.610518
1.746416
1.877546
2.086759
2.231598
2.402663
3.008842
5.513430
18.064976
78.826547
194.313526
492.521524
826.630592
1015.871763
1015.871763
1015.871763
1015.871763
1015.871763
1015.871763
988.123417
677.469969
346.895456
173.077583
49.640536
15.108585
5.667806
5.013943
4.508495
4.679561
4.597902
4.985929
4.870892
4.751682
4.976988
##ZVALUE=380
0.568628
0.648499
0.640750
0.636578
0.588894
0.737906
0.666976
0.485778
0.596642
0.676513
0.594854
0.675917
0.564456
0.707507
0.660419
0.659823
0.641942
0.587702
0.711679
0.521541
0.725985
0.709891
0.690818
0.649691
0.728965
0.789762
0.807643
0.666976
0.849962
0.966787
0.944734
0.895858
0.799894
0.881553
0.841618
0.872612
0.969768
0.868440
0.841618
0.789762
1.044869
0.984669
0.962615
0.951886
0.883937
0.892878
0.928640
1.019835
0.955462
0.809431
1.039505
0.949502
1.050830
1.020432
1.044869
1.033545
1.262426
1.200438
0.937581
1.067519
1.107454
1.260638
1.393557
1.499653
1.369715
1.729727
1.935959
2.148747
2.331734
2.644658
2.925992
3.552437
12.081861
42.464733
156.291723
321.630836
683.264732
1011.928916
1015.871763
1015.871763
1015.871763
1015.871763
1015.871763
1015.871763
841.913819
520.366430
224.050879
101.366639
23.846626
7.947683
5.331635
5.210638
5.100965
5.036592
5.115867
4.829764
##ZVALUE=385
0.546575
0.571609
0.679493
0.548959
0.472665
0.622869
0.643730
0.519753
0.531673
0.528693
0.675917
0.602603
0.802875
0.671744
0.572801
0.649691
0.696778
0.526905
0.666976
0.726581
0.512600
0.588894
0.755787
0.590682
0.708699
0.700951
0.837445
0.874996
0.823736
0.816584
0.961423
0.931621
0.822544
0.868440
0.880957
0.974536
0.983477
0.868440
0.946522
0.817776
1.008511
0.978708
0.903606
0.925660
0.998974
0.877976
0.924468
0.927448
0.990629
0.991821
1.017451
0.961423
1.019835
0.891685
0.994802
1.074672
0.908971
1.025796
1.135468
1.246929
1.223683
1.204610
1.146793
1.328588
1.369715
1.569986
1.665950
1.688600
1.947880
2.261996
2.172589
2.401471
2.413988
2.745986
4.272461
25.310516
78.431964
237.623453
470.666885
930.515528
1015.866995
1015.866995
1015.866995
1015.866995
1015.866995
1015.866995
1015.866399
672.673583
398.039818
167.761445
65.394640
13.358593
6.251931
5.319715
5.080700
5.038977
##ZVALUE=390
0.462532
0.568628
0.529885
0.583529
0.509620
0.500679
0.469685
0.502467
0.531673
0.564456
0.611544
0.534654
0.596642
0.647902
0.619888
0.584722
0.463724
0.521541
0.710487
0.615716
0.615716
0.790954
0.737906
0.701547
0.642538
0.723600
0.773668
0.712872
0.801682
0.792742
0.880957
0.811815
1.005530
0.983477
0.973940
1.000762
0.880957
1.016855
0.961423
1.061559
1.114607
0.848770
1.119971
1.037717
1.032948
0.873804
1.022816
0.992417
0.872612
1.035929
1.079440
1.186728
1.064539
0.910759
1.070499
1.101494
0.935793
1.023412
1.132488
1.178980
1.078844
1.063943
1.260638
1.169443
1.380444
1.468658
1.519918
1.838803
1.963973
2.082586
2.032518
2.029538
1.998544
2.246499
2.328753
2.469420
2.861619
11.971593
44.304729
167.793632
358.123779
762.634873
1015.871763
1015.871763
1015.871763
1015.871763
1015.871763
1015.871763
1015.871763
950.200558
581.596494
248.949528
112.344623
26.890635
8.791685
5.391836
##ZVALUE=395
0.596642
0.628829
0.581741
0.611544
0.600815
0.614524
0.475645
0.568628
0.635982
0.476837
0.600815
0.406504
0.515580
0.628829
0.550747
0.501871
0.605583
0.639558
0.677705
0.603795
0.701547
0.649691
0.644922
0.597835
0.587702
0.795722
0.643730
0.665784
0.776649
0.867844
0.976920
0.783801
1.026988
0.879765
0.975728
1.030564
0.949502
0.920892
0.962615
1.002550
0.953674
1.185536
0.971556
1.027584
0.969768
1.111627
0.995994
0.964999
0.984669
1.085997
1.013875
1.127720
1.128912
0.960827
0.959635
1.026988
1.099706
1.063943
1.051426
1.146793
1.095533
1.117587
1.256466
1.188517
1.302958
1.350641
1.662970
1.780987
1.739860
1.930594
1.935959
2.032518
1.956820
1.904964
1.854897
1.938939
1.952648
2.239943
2.624989
6.360412
25.142431
110.341907
248.298645
562.344790
895.866752
1015.870571
1015.870571
1015.870571
1015.870571
1015.870571
1015.870571
1015.870571
762.034655
380.775928
186.593533
58.381557
##ZVALUE=400
0.712872
0.692606
0.537634
0.575781
0.487566
0.587702
0.535846
0.418425
0.484586
0.568628
0.589490
0.606775
0.555515
0.608563
0.618696
0.641942
0.597835
0.562668
0.503659
0.595450
0.651479
0.685453
0.814795
0.622869
0.668764
0.732541
0.817776
0.865459
0.940561
0.885725
0.858903
0.808835
1.087785
0.781417
1.157522
0.805855
0.950694
1.085997
1.046658
1.102686
1.076460
1.061559
1.011491
0.971556
1.113415
1.042485
0.947714
1.081824
1.041889
1.033545
1.093745
1.108646
1.013875
0.973940
1.060963
1.005530
1.225471
0.966787
1.037717
0.952482
1.050830
0.957847
1.209974
1.102686
1.384616
1.663566
1.494884
1.705885
1.923442
1.711845
1.832843
1.800656
1.717806
1.806617
1.652837
1.630783
1.579523
1.900792
1.961589
2.177954
2.460480
3.749728
12.887716
58.997869
146.586895
384.640694
676.392913
1015.871763
1015.871763
1015.871763
1015.871763
1015.871763
1015.871763
1015.871763
929.285884
501.390696
##END
