##TITLE=C10_R5
##FORMAT=SPECTACLE-ASCII V-1.2
##DATA TYPE=ULTRAVIOLET SPECTRUM
##SECOND TYPE=ULTRAVIOLET SPECTRUM
##DATE=05/28/18
##TIME=12:01:34
##SPECTROMETER/DATA SYSTEM=SPECTACLE
##XUNITS=NM EM
##YUNITS=ENERGY
##YFACTOR=1
##FIRSTX=220
##LASTX=410
##NPOINTS=96
##3DDATA=Equidistant
##ZUNITS=NM EX
##FIRSTZ=210
##LASTZ=400
##ZPOINTS=39
##XYDATA=(Y..Y)
##ZVALUE=210
51.868558
53.606629
39.511919
30.146837
24.031997
23.437738
20.173788
19.224882
13.118982
11.852980
8.599758
8.592606
8.343458
8.416772
8.769631
8.602738
10.535717
9.854436
10.179877
12.110472
11.948943
14.156699
14.472604
16.971827
18.814802
22.573471
23.960471
25.914907
30.527711
31.036735
31.411648
32.668710
34.074783
33.876896
35.533905
36.029816
36.894679
37.341714
34.436584
33.486485
33.802986
35.995841
38.130879
34.899712
35.538673
35.246611
37.077665
36.155581
35.182834
35.837889
34.354925
36.633611
34.496784
36.468506
34.865737
34.947991
35.248995
35.761595
38.323998
35.845637
33.927560
36.305785
36.020875
38.295984
39.584637
42.944551
47.842860
58.426857
64.900517
74.705482
84.335804
96.516609
105.493665
116.262436
117.722750
118.111968
114.267468
112.356544
100.969672
85.855722
73.927641
62.940717
54.930449
45.272708
40.329695
35.573840
30.933619
31.556487
35.360456
42.921901
55.180788
80.041885
105.816722
145.723820
179.500580
236.883759
##ZVALUE=215
211.591721
207.508802
149.798989
103.432536
75.263977
52.489638
42.503476
40.039420
34.376979
30.008554
23.486614
20.618439
14.443994
12.277961
10.950565
10.131598
9.217858
11.092424
10.641813
11.472702
13.019443
13.288856
15.069842
17.618537
18.468499
21.668673
23.473501
25.419593
28.625727
29.071569
31.780601
32.383800
34.512877
35.181642
36.285520
37.322640
37.275553
36.827922
37.497878
37.151575
39.227605
39.632916
37.617683
36.296844
37.299991
38.608909
37.592649
35.979748
37.189722
36.462545
36.744475
38.695931
39.715767
38.499832
39.612651
37.275553
36.721826
38.542747
39.040446
36.648512
36.266446
36.748648
36.761761
34.596920
36.575794
39.937496
44.107437
46.390891
55.825710
58.481693
66.797733
71.966648
84.218979
81.766844
86.295605
87.431669
80.593824
73.614717
69.477558
59.921741
51.530600
45.453906
40.663481
36.481619
31.392574
28.557777
27.467608
25.323629
26.159883
24.491549
25.272965
25.034547
27.008653
32.372475
43.273568
60.714483
##ZVALUE=220
457.084775
456.413627
419.538617
344.944596
281.562805
186.429620
136.814713
84.185600
67.015886
53.350925
50.585866
45.662522
39.042830
31.540990
24.664998
18.059611
13.699532
12.095571
10.560751
10.028481
10.174513
11.061430
12.156963
12.949705
13.428926
14.683604
17.231703
18.802881
19.637942
22.655725
23.125410
25.233626
25.853515
28.588772
28.479695
29.232502
29.491782
31.431913
33.060908
33.292770
33.684969
30.613542
32.429695
33.595562
32.975674
32.382607
32.065511
33.189654
33.421516
32.332540
31.968951
32.072663
33.390522
32.825470
32.912493
32.311678
32.656789
31.227469
29.575825
31.433702
31.053424
29.507875
28.782487
29.177666
29.494762
31.386614
32.107830
34.946799
40.553808
44.918656
49.639940
53.793788
54.053664
53.668618
56.477785
54.470897
51.987767
46.399832
41.473508
38.200617
33.126473
29.376745
26.800632
24.572611
22.366643
21.971464
19.268990
18.930435
17.887950
18.190742
17.465949
18.192530
17.762780
18.160939
16.773939
17.227530
##ZVALUE=225
497.078896
524.449944
604.281425
671.682954
654.332638
572.744012
469.451547
318.817496
217.051506
147.682428
91.304779
71.562529
69.238544
67.029595
58.497787
52.340627
36.820769
30.910969
25.263429
15.658736
12.575984
9.652972
10.786653
9.889603
10.730624
11.040568
11.985898
12.959838
14.290810
14.773607
15.880466
17.378926
17.414689
19.975901
20.476580
24.319887
23.873448
24.827719
25.489926
28.390884
29.563904
28.727651
28.440952
28.600693
28.843880
28.116703
30.522943
30.240417
30.373931
31.814575
30.797720
29.497743
30.597448
29.147863
29.601455
29.939413
26.963949
29.349923
27.374625
28.022528
27.231574
27.333498
25.702715
27.065873
26.684999
28.064847
30.899644
31.357408
34.475923
37.942529
42.259693
45.243502
46.075583
45.975447
46.081543
43.163896
39.642453
36.186576
33.478737
29.576421
24.617910
24.152994
20.464659
18.707514
20.485520
17.907619
17.768741
17.615557
16.011000
16.321540
15.338659
14.986992
15.623569
15.462637
15.039444
14.648438
##ZVALUE=230
261.232853
285.111666
427.919626
639.408827
768.955946
882.169008
900.243521
810.873508
682.798028
530.303717
322.823524
211.447477
122.722983
96.038580
86.002946
85.735917
83.148479
74.962974
67.681670
48.608780
36.977530
24.749637
18.221736
12.448430
10.111928
9.997487
10.434985
11.229515
10.758638
12.297630
13.421774
13.263822
14.965534
16.233921
17.430782
19.121766
19.690990
21.083951
23.457408
23.697615
24.383664
25.060773
26.226640
27.784705
25.758743
26.248693
27.089715
26.913881
26.455522
26.761889
27.250648
26.215911
26.773810
26.358962
25.297999
24.860501
25.868416
26.020408
24.763942
24.906993
25.681853
25.633574
24.526715
24.067760
23.966432
24.210811
26.587844
28.595924
30.722618
34.992695
35.851598
38.698912
39.687753
39.569736
38.396716
36.783814
33.574700
30.617714
26.806593
25.608540
23.372769
20.812750
19.602776
17.554760
16.830564
17.123818
16.495585
15.679598
14.457703
14.996529
14.555454
14.281869
14.397502
14.071465
13.779998
14.442801
##ZVALUE=235
50.500631
60.355663
129.854679
296.341777
466.708541
712.912679
905.256867
1015.870571
1015.870571
1015.870571
907.906890
701.918602
440.032482
289.561749
177.565813
125.315785
98.941922
102.634430
103.872418
101.271868
91.120601
71.932673
57.144761
39.246678
27.218461
17.351508
12.799501
12.004972
10.020733
10.805726
10.438561
11.508465
12.098551
12.655854
13.349652
13.972521
15.028715
16.951561
18.301606
17.348528
18.643737
18.924475
20.873547
21.239519
21.220446
20.681620
21.733642
20.843744
21.310449
20.884871
21.277666
21.565557
20.803809
21.041632
19.700527
20.236969
20.412803
19.430518
20.575523
19.442439
18.966794
18.674731
20.178556
19.923449
19.008517
20.687580
21.443963
22.468567
25.532842
26.845932
28.441548
30.528903
30.358434
32.560825
31.031966
29.489994
27.420521
25.011897
23.514628
20.311475
18.652678
16.425848
16.545653
14.463663
14.283657
14.349818
13.419986
14.679432
13.631582
12.472868
12.915730
12.781620
12.824535
11.741519
12.438893
13.100505
##ZVALUE=240
2.870560
3.132820
10.425448
46.934485
107.476711
254.200697
422.949791
718.954802
950.321555
1015.870571
1015.870571
1015.870571
1015.870571
908.100605
626.567602
421.030521
231.369734
151.403546
116.702914
105.090737
112.006664
117.334723
110.485554
94.058514
77.405572
57.020783
42.356849
27.322769
20.500422
13.382435
11.845827
10.172725
10.860562
11.137724
11.317730
12.493730
12.984872
13.554692
13.544559
14.659762
14.430881
14.944673
15.889406
15.472770
15.813708
16.053915
15.256405
15.574694
15.829802
16.381741
16.362667
16.060472
15.250444
15.746951
15.153885
15.506744
15.144944
15.824437
15.588999
15.421510
15.893579
14.567971
14.902949
15.556812
16.227961
15.880466
17.204881
18.575788
18.470883
21.295547
23.613572
23.967624
25.095940
25.453568
24.880767
23.637414
22.713542
20.622611
19.028783
16.769767
16.443729
13.030767
13.131499
13.200641
11.999607
12.232661
11.421442
11.357665
10.706782
11.009574
10.991693
10.873675
11.479855
11.051893
10.671616
11.079907
##ZVALUE=245
2.339482
2.195835
2.335906
2.624989
5.072951
26.344657
71.364641
200.288892
363.533497
655.110478
925.612450
1015.870571
1015.870571
1015.870571
1015.870571
1015.870571
883.326530
567.368865
374.182463
194.298625
128.863454
103.914738
106.381774
114.749670
118.813515
113.337636
99.074841
83.205700
62.006712
47.120452
31.520724
23.137927
17.176867
12.569427
11.002421
11.018515
10.878444
11.414886
11.890531
12.364984
12.620687
12.398958
13.011694
13.707876
12.555718
13.149977
13.832450
13.834834
14.477968
13.797879
13.806820
12.802482
13.246536
12.878776
13.777614
12.870431
12.992620
12.784600
13.209581
12.969971
12.828708
12.983680
12.821555
13.020635
12.950897
13.114810
14.329553
15.015602
16.298890
17.749667
18.717647
19.220710
19.794703
19.977689
20.277500
19.083619
18.257499
16.752481
15.097857
13.720989
12.376904
11.062622
11.357665
10.438561
10.370612
9.458661
9.555817
9.915829
9.109974
9.194613
9.795427
9.088516
9.601712
10.035634
9.705424
8.979440
##ZVALUE=250
1.812577
1.978874
2.159476
1.999736
2.460480
2.508759
3.605485
16.146898
50.558448
120.710731
308.665633
539.691448
905.144811
1015.870571
1015.870571
1015.870571
1015.870571
1015.870571
1015.870571
820.356607
545.240641
283.515453
168.889761
102.460980
93.943477
109.304786
117.997527
121.041536
118.846893
103.607774
90.351701
66.513419
49.966574
33.297539
24.132729
16.494989
13.546944
12.325644
11.895895
12.579560
12.305975
13.226867
12.947917
12.935996
12.902617
12.745857
12.811422
12.878776
12.818575
13.321638
12.539625
11.893511
12.059808
11.814833
12.190938
11.545420
11.200905
11.359453
11.599660
11.420846
11.649728
11.020899
10.780692
10.561943
10.886788
11.528730
10.935664
12.171865
13.491511
14.638901
15.338659
15.910864
16.333461
16.067624
16.610622
15.459657
13.936758
12.976527
12.702942
11.021495
10.108948
9.932518
8.994937
8.678436
8.341670
8.158684
8.105636
8.011460
7.955432
8.119941
7.712841
7.777810
8.347631
7.545948
7.731915
8.101463
##ZVALUE=255
1.712441
1.558661
1.813769
1.815557
1.818538
1.947880
2.105832
2.559423
3.002882
6.528497
35.520792
93.054771
200.187564
447.100997
706.465840
1015.909910
1015.909910
1015.909910
1015.909910
1015.909910
1015.909910
1015.909910
710.311532
440.773964
210.807920
124.816895
85.901618
89.086890
106.839538
118.812919
125.583410
123.664737
112.707615
90.157986
72.662830
51.139593
36.565661
24.798512
18.242598
14.770627
13.842583
13.354421
13.192892
13.441443
13.386607
13.493896
13.072491
13.471842
13.188720
12.327433
12.623668
12.625456
12.330413
12.639761
11.523962
11.517406
11.265874
11.370778
11.268854
10.832548
11.118650
10.781884
10.734797
10.032654
10.191798
10.781884
10.948777
11.242628
12.082458
12.815595
12.764931
14.444590
14.011860
13.807416
13.629794
13.444424
11.840463
11.191964
10.437965
9.340644
8.484721
7.774830
7.759929
7.379651
7.534623
6.956458
7.006526
6.855726
7.006526
7.064939
7.370710
6.868839
6.444454
6.749630
6.640553
6.735921
##ZVALUE=260
1.587868
1.548529
1.561642
1.576543
1.940727
1.882911
1.943707
1.986623
2.325773
2.249479
2.730489
3.408790
11.551976
54.932833
132.611394
338.946581
571.248531
965.623856
1015.870571
1015.870571
1015.870571
1015.870571
1015.870571
1015.870571
936.592817
630.337596
341.094732
189.542770
93.927979
75.417757
84.559917
107.443929
118.788481
129.979849
126.218796
113.140941
98.760724
75.252652
57.519674
39.313436
29.531717
21.886826
17.992854
15.540719
15.245676
15.570521
15.322566
14.877915
15.386939
14.581680
14.249682
14.505982
13.842583
13.669729
13.482571
12.889504
12.978911
12.035966
11.417866
11.227727
11.001825
10.834932
11.107922
10.691881
10.724664
11.203885
11.125803
11.508465
12.157559
12.160540
13.052821
12.977719
13.366938
12.446642
12.234449
11.702776
11.211634
10.333657
9.524822
8.933544
8.495450
7.404685
7.210970
7.172823
6.414652
6.785989
6.516576
6.699562
6.471872
6.488562
5.738735
6.552935
6.316900
6.032586
6.605983
6.341934
##ZVALUE=265
1.571774
1.361966
1.650453
1.556873
1.675487
1.697540
1.865625
1.851916
1.735687
2.031922
2.055764
2.115965
2.211928
2.855659
6.173849
34.110546
92.801452
248.772502
454.926491
873.996615
1015.870571
1015.870571
1015.870571
1015.870571
1015.870571
1015.870571
1015.870571
866.442919
468.080640
266.590714
150.464773
75.664520
70.250630
92.256665
109.606981
127.240419
132.324696
129.287839
118.467808
98.305941
81.204772
58.084726
44.344664
30.876994
24.950504
19.705892
18.673539
17.898679
17.318726
17.563701
16.898513
16.460419
16.127825
15.705824
15.255809
14.911890
14.562607
13.984442
13.523698
12.827516
12.733936
11.939406
11.607409
11.485815
11.515617
11.284947
11.589527
12.059808
11.741519
12.333989
13.007522
14.044642
13.096929
12.559891
12.825727
11.480451
11.367798
10.429621
8.923411
8.022785
8.043647
7.322431
7.243752
6.730556
6.897449
6.487966
6.519556
5.994439
6.340742
6.464720
6.231666
6.173849
5.945563
6.030798
6.184578
5.821586
##ZVALUE=270
1.268983
1.320839
1.293421
1.369715
1.474619
1.458526
1.573563
1.628995
1.779795
1.708865
1.665950
1.921654
2.030730
2.085567
2.455711
2.774000
3.463626
14.958978
49.550533
174.202919
355.371833
637.802482
1015.870571
1015.870571
1015.870571
1015.870571
1015.870571
1015.870571
1015.870571
1015.870571
840.491056
432.891846
233.359933
91.999769
60.749650
71.260929
89.327693
112.625957
125.349760
135.335922
133.640766
121.948719
106.567740
82.842708
66.279769
45.304894
35.669804
26.823878
23.081899
20.624995
19.357800
18.706918
18.197894
17.849803
17.114878
16.224980
15.918612
15.294552
14.821887
14.524460
13.870597
13.309717
12.907982
12.568831
12.333989
12.617707
12.608767
12.410879
12.543797
12.995601
12.976527
12.959838
13.905764
12.876987
12.234449
11.646748
10.681748
9.731650
9.406805
8.369684
8.194447
7.548928
7.125735
6.919503
6.801486
6.759763
6.581545
6.098747
5.996823
6.243587
6.256700
6.063581
6.119609
5.911589
5.849600
5.366802
##ZVALUE=275
1.299977
1.126528
1.245737
1.326799
1.483560
1.405478
1.339912
1.444817
1.547933
1.526475
1.652837
1.706481
1.824498
1.852512
1.996756
2.297759
2.207756
2.804995
2.804995
6.450415
28.235912
87.598562
277.750492
529.479980
984.028578
1015.861630
1015.861630
1015.861630
1015.861630
1015.861630
1015.861630
1015.861630
1015.861630
586.051941
328.393579
131.284595
68.860650
55.243969
67.276955
91.911554
108.874440
126.031637
132.928491
133.021474
123.094916
102.818608
85.941553
64.336658
49.520731
35.333633
27.541518
22.663474
20.418763
18.771887
18.293858
16.991496
16.895533
16.283989
16.214848
15.310645
14.945865
14.144778
14.038682
13.741851
13.091564
12.926459
12.830496
13.000965
13.428926
12.985468
13.580918
13.761520
13.207793
12.593865
12.468696
11.902452
10.848641
9.959936
9.418726
8.460879
8.077621
7.420778
7.272959
6.882548
6.437898
6.395578
6.601810
6.165504
6.137490
6.078482
5.960464
5.675554
6.016493
5.687475
5.736947
5.657673
##ZVALUE=280
1.220703
1.243949
1.444817
1.322627
1.260638
1.271963
1.404881
1.406670
1.435876
1.438856
1.468658
1.653433
1.633763
1.649857
1.598597
1.991987
1.949668
2.126694
2.259612
2.612472
2.832413
3.258586
15.273690
58.129430
217.015743
426.162481
830.129981
1015.870571
1015.870571
1015.870571
1015.870571
1015.870571
1015.870571
1015.870571
1015.870571
769.925714
457.101464
195.159912
92.587471
46.557784
49.654841
68.513751
86.676478
107.856989
122.265816
130.858421
129.607916
118.280649
103.955865
81.126690
65.079927
45.107603
34.448504
24.619699
19.629598
16.888976
15.923977
15.157461
14.791489
13.848543
13.707876
13.334751
13.202429
12.889504
12.927651
12.334585
12.436509
12.132525
12.183785
12.266636
12.328625
12.278557
12.518764
11.844635
11.452436
10.997653
9.957552
9.625554
8.672476
8.218884
8.246899
7.731915
7.224679
6.830692
6.659627
6.710887
6.367564
6.320477
6.082654
5.997419
5.928874
5.721450
5.688667
5.640984
5.716681
5.422831
##ZVALUE=285
1.250505
1.056790
1.207590
1.144409
1.213551
1.333952
1.279712
1.406670
1.334548
1.381636
1.277924
1.389980
1.466870
1.500845
1.710653
1.693964
1.771450
1.995564
2.007484
1.951456
2.202988
2.499819
2.762675
3.102422
7.305741
26.063919
113.504529
262.158513
607.270002
967.848897
1015.870571
1015.870571
1015.870571
1015.870571
1015.870571
1015.870571
1015.870571
1006.747484
681.187510
317.309499
154.650807
54.446459
35.435557
43.392777
58.249831
81.628561
96.722841
113.323927
120.968819
121.355653
115.082860
97.342730
81.793666
59.645772
44.298768
28.656721
21.111965
15.312433
13.289452
12.017488
12.122989
11.405945
11.496544
10.915995
10.890961
11.077523
11.069775
11.053681
11.103749
11.419654
11.937618
11.553764
11.401772
11.150837
10.439754
9.916425
9.437799
8.528829
8.181930
7.756948
7.425547
7.158518
6.983876
6.662607
6.773472
6.231666
6.191730
6.478429
6.241798
5.696416
5.886555
5.623698
5.788803
5.388856
5.471706
5.640984
##ZVALUE=290
1.101494
1.124740
1.200438
1.060963
1.232624
1.148582
1.257658
1.298785
1.333952
1.187921
1.276731
1.331568
1.250505
1.291633
1.496673
1.570582
1.462698
1.631975
1.752973
1.725554
1.972914
2.203584
2.152920
2.505779
2.812743
2.909899
3.815889
9.750724
55.256486
151.967406
410.476923
746.795535
1015.871763
1015.871763
1015.871763
1015.871763
1015.871763
1015.871763
1015.871763
1015.871763
929.310918
474.045873
241.764784
77.551603
33.603907
27.535558
36.066771
52.798986
67.669749
88.833570
102.072954
113.969445
115.555525
106.565952
95.264912
73.928833
57.458878
38.058758
27.218461
17.901659
13.756752
10.786653
9.488463
9.048581
9.082556
8.949637
9.432435
9.407997
9.743571
10.467768
10.235906
10.140538
10.233521
9.993911
9.240508
8.965731
8.603930
7.744431
7.609725
7.240772
7.019639
6.652474
6.459951
6.670952
6.086826
6.414652
6.050467
6.062984
5.915761
5.829930
5.566478
5.409718
5.575418
5.718470
5.543828
5.467534
##ZVALUE=295
1.133680
1.118779
0.990629
1.082420
1.119971
1.064539
0.960827
1.069903
1.156926
1.257658
1.276731
1.238585
1.287460
1.307726
1.283884
1.632571
1.514554
1.305938
1.690984
1.647472
1.506805
1.758933
1.969934
2.148747
2.172589
2.320409
2.547503
2.990961
3.202558
4.791617
23.964643
81.659555
217.104554
574.950576
956.733823
1015.871763
1015.871763
1015.871763
1015.871763
1015.871763
1015.871763
1015.871763
1015.871763
622.479916
343.078971
123.989582
48.995614
20.197630
21.940470
32.948852
44.451952
63.173771
78.534484
96.553564
105.274916
107.929707
103.103518
87.602735
73.303580
52.438974
39.607882
24.460554
17.365813
12.235641
9.528995
8.160472
8.002520
8.366704
8.438826
8.517504
9.208918
9.245872
8.968711
8.694530
8.534789
7.998943
7.599592
7.444620
6.934404
6.708503
6.544590
6.147623
6.320477
5.874634
5.852580
5.804896
5.663633
5.407929
5.433559
5.567670
5.616546
5.753636
5.438924
5.223751
5.143881
5.496740
##ZVALUE=300
0.935793
1.022816
0.961423
0.955462
1.052618
1.018643
1.133680
1.034737
1.038909
1.053810
1.051426
1.103878
1.064539
1.120567
1.296997
1.144409
1.248717
1.263618
1.358986
1.510978
1.439452
1.812577
1.715422
2.091527
1.892447
1.959801
2.017617
2.355576
2.551675
2.545714
2.982616
3.354549
9.407997
37.093759
157.326460
344.440937
775.349736
1015.871763
1015.871763
1015.871763
1015.871763
1015.871763
1015.871763
1015.871763
1015.871763
923.270583
469.091535
250.530839
84.243417
30.031800
15.780926
19.224882
28.953552
39.369464
57.475567
72.245598
90.100765
98.705888
102.234483
99.095702
85.681677
72.600842
53.186417
39.593577
25.505424
17.650723
11.645555
9.687543
8.383989
8.177757
8.055568
8.075833
8.422732
8.180737
7.698536
7.594824
7.173419
6.634593
6.768703
6.253719
6.122589
5.880594
6.120801
5.701780
5.704761
5.721450
5.670786
5.447865
5.477667
5.256534
5.283952
5.259514
5.246997
5.325675
5.231500
5.357862
##ZVALUE=305
0.857711
0.965595
0.965595
0.979900
0.878572
0.990629
0.957847
0.988841
1.176000
0.929832
1.085997
1.162887
1.143813
1.197457
1.104474
1.090765
1.258850
1.176000
1.250505
1.364946
1.220703
1.467466
1.421571
1.529455
1.335740
1.727939
1.786947
1.885891
2.053976
2.158880
2.232790
2.586842
2.929568
3.168583
4.556775
23.487806
78.257918
276.802778
538.184643
1001.826525
1015.870571
1015.870571
1015.870571
1015.870571
1015.870571
1015.870571
1015.870571
1015.870571
708.388686
318.128467
150.100589
43.587685
17.108917
13.885498
17.757416
27.651787
37.528872
55.116415
68.367720
84.443688
93.123913
95.840693
93.072653
81.277490
69.278479
51.102638
37.871599
24.095774
17.559528
11.753440
9.745955
8.786917
7.967949
7.624626
7.282495
6.864667
6.481409
6.018877
6.043911
5.903840
5.678535
5.599856
5.591512
5.324483
5.466938
5.606413
5.444884
5.378723
5.239844
5.206466
5.331635
5.055666
5.142689
5.112886
5.091429
5.243421
##ZVALUE=310
1.000762
0.929832
0.873804
1.019835
0.861883
1.004934
1.053810
0.828505
0.971556
1.051426
1.070499
1.024604
1.010895
1.082420
1.014471
1.078844
1.004934
1.260638
1.158714
1.144409
1.303554
1.186728
1.435876
1.342893
1.373887
1.577735
1.636744
1.710653
1.951456
1.840591
2.071857
2.104640
2.416968
2.331734
2.589822
2.965927
3.439784
9.855628
35.848618
149.522424
332.383513
763.198733
1015.878916
1015.878916
1015.878916
1015.878916
1015.878916
1015.878916
1015.878916
1015.878916
968.763828
501.969457
263.731480
86.567998
29.444695
11.494756
11.850595
16.381741
22.187829
34.075975
45.852661
63.243508
75.005889
87.288618
90.713501
88.311434
80.136657
66.339970
53.506494
35.918951
26.498437
17.476678
12.511611
8.718967
7.838607
6.525517
6.171465
5.822778
5.618930
5.233884
5.374551
5.389452
5.126595
5.224943
5.225539
5.032420
5.206466
5.072951
5.031824
4.868507
4.999638
5.148649
4.744530
5.028844
5.016923
5.014539
##ZVALUE=315
0.940561
0.959635
0.927448
0.776649
0.888705
0.862479
0.900626
0.932813
0.962615
0.982881
0.945926
0.959635
0.956655
1.045465
0.955462
1.081824
1.041889
1.035929
1.028776
1.337528
1.265407
1.122952
1.123548
1.334548
1.255870
1.377463
1.490712
1.504421
1.726747
1.684427
1.655817
1.800656
1.792908
1.876950
2.095699
2.401471
2.408624
3.029704
3.144741
4.903674
17.191768
88.065863
218.969584
551.424026
948.971510
1015.873551
1015.873551
1015.873551
1015.873551
1015.873551
1015.873551
1015.873551
1015.873551
700.982809
378.586650
133.935809
49.329400
13.799667
10.170937
11.657476
14.030933
21.193624
29.317737
43.004751
55.876970
72.016716
80.499649
86.116791
84.263682
75.617433
64.509511
49.471855
37.552714
23.770928
16.619563
10.247827
7.894635
6.104708
5.399585
5.384684
5.120635
5.004406
5.087852
4.776716
4.841685
4.841685
4.810691
4.808903
4.712939
4.833937
4.838705
4.869699
4.933476
4.782677
4.852414
5.036592
##ZVALUE=320
0.870824
0.837445
0.814795
0.848770
0.782609
0.817776
0.851750
0.835657
0.821948
0.784993
0.969768
0.960827
0.878572
0.942945
0.926852
0.972748
0.920892
0.921488
1.045465
1.006722
1.239777
1.103878
1.237988
1.180768
1.364946
1.308918
1.130700
1.294613
1.346469
1.483560
1.512766
1.470447
1.559854
1.661777
1.807809
1.928806
2.088547
2.238750
2.352595
2.480745
2.870560
3.517866
7.714629
47.341585
134.955645
390.146375
697.053671
1015.851498
1015.851498
1015.851498
1015.851498
1015.851498
1015.851498
1015.851498
1015.851498
924.455523
535.556674
225.723982
94.160438
22.756457
10.507703
9.169579
10.212660
13.010502
17.565489
27.970672
38.263798
52.999854
64.420700
77.115893
81.302524
80.404878
74.168444
59.973598
47.871470
32.557845
23.323894
14.725924
10.355711
6.711483
5.479455
5.016923
4.914999
4.638433
4.458427
4.500747
4.244447
4.357696
4.479885
4.369617
4.708767
4.578829
4.491806
4.600883
4.850626
4.868507
##ZVALUE=325
0.782609
0.796914
0.767708
0.876784
0.765920
0.960827
0.721812
0.879765
0.841618
0.804663
0.850558
0.916719
0.860691
0.952482
0.987649
0.914931
0.884533
0.880957
1.093745
1.037717
1.049638
1.125932
1.112819
1.180768
1.156926
1.271963
1.267791
1.227856
1.309514
1.173615
1.440644
1.385808
1.352429
1.393557
1.552701
1.618862
1.695752
1.888871
1.969934
2.157688
2.321601
2.508759
2.652407
3.137589
4.646778
26.889443
83.080530
252.985954
497.480631
976.441503
1015.867591
1015.867591
1015.867591
1015.867591
1015.867591
1015.867591
1015.867591
1015.867591
702.821612
311.487913
144.897699
37.658811
13.207793
8.709431
8.426905
9.587407
12.029409
18.542409
25.842786
38.172603
49.194694
63.281655
70.682764
76.064467
74.134469
65.955520
55.854917
42.174459
31.764507
19.926429
13.912916
8.660555
6.415844
5.096793
4.587770
4.432797
4.288554
4.201531
4.344583
4.120469
4.327893
4.426837
4.423857
4.583597
4.526973
4.657507
##ZVALUE=330
0.855923
0.908971
0.905991
0.867844
0.918508
0.798702
0.808835
0.819564
0.829697
0.847578
0.880957
0.998974
0.753999
0.876784
0.806451
0.862479
1.035929
0.946522
0.922680
0.868440
0.861883
1.085997
1.039505
0.935793
1.119971
1.148582
1.153946
1.110435
1.250505
1.241565
1.247525
1.265407
1.303554
1.214743
1.395941
1.529455
1.568794
1.591444
1.771450
1.808405
1.994967
1.921654
2.259612
2.439618
2.565980
2.995729
3.280640
10.462999
38.666725
154.265761
332.283378
741.559863
1015.868783
1015.868783
1015.868783
1015.868783
1015.868783
1015.868783
1015.868783
1015.868783
930.432677
444.767475
223.184824
70.520639
22.524595
8.449554
8.184910
7.991791
9.086728
12.240410
16.096830
24.625659
33.638477
47.049522
57.080984
66.933632
69.991946
68.620443
62.613487
50.748587
40.411949
27.565956
20.425916
13.390779
9.244680
6.378889
5.156994
4.565716
4.292727
4.186630
4.370809
4.269481
4.368424
4.473925
4.649758
4.276633
##ZVALUE=335
0.549555
0.561476
0.489950
0.365973
0.628829
0.496507
0.495911
0.478625
0.470877
0.597835
0.554919
0.502467
0.465512
0.621676
0.582933
0.581741
0.671744
0.737906
0.720620
0.618696
0.745654
0.653863
0.795722
0.700951
0.749826
0.722408
0.804663
0.753999
0.947714
0.980496
1.215935
1.029968
1.122952
1.078844
0.873804
1.074672
1.138449
1.246929
1.211762
1.305938
1.591444
1.467466
1.581907
1.737475
1.812577
2.078414
2.154708
2.418756
2.783537
4.890561
17.550588
88.650584
213.781595
538.060665
932.385921
1015.622616
1015.622616
1015.622616
1015.622616
1015.622616
1015.622616
1015.622616
1015.622616
635.743737
333.331823
107.979774
36.859512
10.462999
8.091927
7.543564
7.497668
8.612871
10.318756
15.780926
21.671653
32.490492
41.538477
53.331852
59.988499
64.373612
63.207746
56.710839
49.693584
38.127899
29.536486
19.609928
13.951659
8.730888
6.445646
5.018711
4.392862
4.204512
4.159808
4.159808
4.240870
4.256964
##ZVALUE=340
0.475645
0.628829
0.565648
0.313520
0.534654
0.524521
0.488758
0.497699
0.636578
0.489950
0.706911
0.550747
0.554919
0.493526
0.591874
0.671744
0.512600
0.618696
0.638962
0.550747
0.664592
0.739694
0.762939
0.668764
0.804663
0.798702
0.672936
0.845790
0.858903
0.839829
0.848770
0.902414
0.851750
0.847578
0.907779
0.971556
0.886917
1.029968
1.063943
1.264811
1.114607
1.361966
1.199841
1.417994
1.529455
1.629591
1.769662
2.040863
2.044439
2.332926
2.661943
3.264546
8.165836
49.184561
141.709447
407.729745
742.386580
1015.638709
1015.638709
1015.638709
1015.638709
1015.638709
1015.638709
1015.638709
1015.638709
752.975941
423.736572
166.091919
58.526993
12.919903
8.195639
7.418990
7.337928
7.056594
7.655621
9.859800
13.290644
20.461679
28.108954
40.358901
48.893690
57.273507
60.256720
59.559941
55.787563
46.639442
38.159490
27.646422
20.536780
13.295412
9.239912
6.531477
5.416870
4.684925
4.403591
4.442930
##ZVALUE=345
0.612736
0.568628
0.600815
0.569820
0.592470
0.612736
0.628829
0.596642
0.711679
0.660419
0.631809
0.756979
0.736713
0.606775
0.647902
0.687838
0.698566
0.785589
0.746846
0.740886
0.745654
0.708699
0.750422
0.914931
0.850558
0.874996
0.691414
0.822544
0.779629
0.781417
0.886917
0.812411
1.041889
0.834465
0.901818
1.044869
1.166463
1.114607
1.060963
1.171827
1.205802
1.219511
1.385808
1.316667
1.289845
1.464486
1.551509
1.725554
1.791716
2.011657
2.159476
2.265573
2.472997
3.014803
4.548430
25.613904
83.858967
264.957547
519.081950
985.289812
1015.743017
1015.743017
1015.743017
1015.743017
1015.743017
1015.743017
1015.743017
966.549516
581.151843
229.422450
95.420480
23.848414
10.124445
8.033514
7.414818
6.661415
6.328821
6.671548
8.299947
12.826920
18.271804
27.378798
34.880638
44.704676
50.613880
55.632591
55.701733
51.920414
46.559572
36.970973
28.851628
19.688606
14.368892
9.716749
7.361770
5.861521
##ZVALUE=350
0.770688
0.727773
0.771880
0.866652
0.697970
0.752807
0.789762
0.675917
0.797510
0.706911
0.854731
0.770688
0.841618
0.856519
0.821948
0.792742
0.700951
0.901818
0.926852
0.871420
0.743866
0.752807
0.964999
0.901818
0.840425
1.035929
0.994802
0.923872
0.984669
0.975728
0.987649
0.997782
1.174808
1.062751
1.202822
1.128912
1.178980
1.086593
1.067519
1.211762
1.246929
1.429915
1.160502
1.291633
1.390576
1.557469
1.484752
1.584888
1.769662
1.794696
1.989603
2.072453
2.181530
2.395511
2.623796
2.940893
3.447533
12.117624
44.330955
167.455673
352.443457
784.813762
1015.870571
1015.870571
1015.870571
1015.870571
1015.870571
1015.870571
1015.870571
1015.870571
721.840858
325.437784
145.750642
33.989549
11.836886
7.416606
6.592870
5.846620
5.343556
5.421638
6.061792
8.359551
11.080503
16.967654
22.423863
31.620860
38.829446
46.747923
50.645471
51.678419
49.300790
43.361783
36.430955
27.836561
21.655560
14.426708
##ZVALUE=355
0.642538
0.775456
0.848770
0.812411
0.805855
0.726581
0.832677
0.868440
0.864863
0.865459
0.814795
0.904799
0.877976
0.841618
0.780821
0.782609
0.865459
0.828505
0.960827
0.907779
0.933409
1.045465
0.883937
0.973940
0.826716
0.977516
0.918508
0.988841
0.949502
0.984669
0.941753
1.128912
1.163483
1.120567
1.112819
1.167655
1.049638
1.131892
1.214743
1.300573
1.195669
1.176596
1.297593
1.236796
1.380444
1.376867
1.351833
1.618862
1.694560
1.894832
1.612902
1.783967
1.854897
2.094507
2.244711
2.245903
2.435446
2.728701
2.983809
6.054640
21.577477
102.287531
236.098766
557.026863
944.266915
1015.871763
1015.871763
1015.871763
1015.871763
1015.871763
1015.871763
1015.871763
900.688767
411.092639
195.729733
52.587986
16.471744
7.129908
6.369948
5.650520
5.346537
5.115867
5.157590
5.802512
6.812811
10.000467
13.915896
20.700693
26.742816
35.394430
41.545630
46.854615
47.938824
46.094656
41.758418
34.869909
##ZVALUE=360
0.750422
0.705719
0.749826
0.865459
0.758767
0.923872
0.838637
0.829697
0.857711
0.878572
0.893474
0.782609
0.727773
0.921488
0.710487
0.826716
0.937581
0.853539
0.968575
0.919700
0.756979
0.717640
0.860691
1.010895
0.874996
0.917912
0.984669
1.020432
0.908971
1.123548
1.141429
1.176000
1.048446
1.108646
1.089573
1.158714
1.152754
1.105666
1.174808
1.233816
1.158714
1.360774
1.317859
1.295805
1.265407
1.307726
1.329780
1.478791
1.504421
1.617670
1.648664
1.702905
1.822710
1.898408
1.926422
2.291799
2.095699
2.234578
2.354980
2.766848
3.116727
4.164577
9.251833
47.950745
134.260058
384.009480
688.671470
1015.870571
1015.870571
1015.870571
1015.870571
1015.870571
1015.870571
1015.870571
1015.870571
561.053753
294.241905
101.544857
32.599568
8.514524
6.589890
5.849600
5.353689
5.017519
4.827976
4.754663
5.098581
6.193519
8.090734
11.835694
16.500950
24.097562
30.356646
37.677884
41.840672
44.651628
##ZVALUE=365
0.712872
0.798702
0.654459
0.690818
0.698566
0.672936
0.753999
0.718832
0.743866
0.799894
0.884533
0.881553
0.929832
0.812411
0.909567
0.845790
0.855923
0.700951
0.886917
0.832677
0.723600
0.875592
0.925660
0.922680
0.994802
0.859499
0.861883
1.071692
0.924468
0.892878
0.944734
0.983477
1.042485
1.070499
0.967979
1.020432
0.962615
0.995994
1.144409
1.096725
1.179576
1.262426
1.100898
1.215935
1.308918
1.207590
1.317859
1.421571
1.462698
1.452565
1.528859
1.560450
1.591444
1.649857
1.703501
1.754761
1.794696
1.988411
2.131462
2.251863
2.373457
2.844930
2.907515
3.277659
4.702806
24.209619
75.630546
237.878561
481.218696
964.748859
1015.870571
1015.870571
1015.870571
1015.870571
1015.870571
1015.870571
1015.870571
754.332542
415.052772
147.089958
52.557588
11.006594
6.509423
5.920529
5.368590
4.930496
4.721880
4.528761
4.572868
4.930496
5.671978
7.791519
10.518432
15.491843
20.177960
26.822686
##ZVALUE=370
0.760555
0.670552
0.825524
0.709891
0.681877
0.870824
0.710487
0.628829
0.893474
0.765920
0.822544
0.731945
0.752807
0.651479
0.749826
0.967979
0.826716
0.900626
0.704527
0.805855
0.927448
0.697970
0.756979
0.785589
0.780821
0.848770
0.888705
1.011491
0.925660
0.862479
0.860691
0.842810
1.002550
0.936985
0.995994
1.107454
1.046658
0.963807
1.134872
1.013875
1.114607
1.097918
0.992417
1.308918
1.065731
1.184940
1.138449
1.224875
1.184940
1.322627
1.320839
1.339912
1.361966
1.315475
1.586676
1.436472
1.403689
1.595616
1.740456
1.752973
1.946688
2.143979
2.191663
2.499819
2.469420
2.922416
3.608465
11.620522
43.852925
171.539783
355.376005
748.276711
1015.871763
1015.871763
1015.871763
1015.871763
1015.871763
1015.871763
1015.871763
908.583999
527.533889
207.552910
90.311766
24.355650
8.649826
5.368590
5.011559
4.931688
4.746914
4.691482
4.714727
5.022883
5.166531
6.078482
7.322431
9.791851
##ZVALUE=375
0.610948
0.669956
0.714660
0.781417
0.707507
0.676513
0.727773
0.785589
0.749826
0.800490
0.622869
0.745654
0.785589
0.721812
0.621676
0.676513
0.660419
0.710487
0.828505
0.717640
0.770688
0.870824
0.904799
0.861883
0.829697
0.673532
0.838637
0.990629
0.977516
0.887513
0.773668
0.859499
0.933409
0.763535
0.921488
0.878572
0.922680
0.926852
0.901818
0.987649
0.870824
0.909567
0.945926
1.100898
0.963807
1.105666
0.998974
0.986457
1.107454
1.097918
1.149774
1.082420
1.252890
1.180768
1.258850
1.309514
1.259446
1.253486
1.289845
1.525879
1.576543
1.618862
1.518726
1.674891
1.931787
2.308488
2.359748
2.857447
3.191829
6.380677
21.724701
96.074939
230.240822
581.499934
956.099033
1015.870571
1015.870571
1015.870571
1015.870571
1015.870571
1015.870571
1015.870571
739.552975
349.453688
171.647668
48.803687
15.516877
6.224513
5.368590
5.135536
5.099773
5.293489
5.284548
5.469918
5.440712
5.494952
##ZVALUE=380
0.657439
0.665784
0.764728
0.676513
0.627637
0.709891
0.550747
0.663996
0.744462
0.679493
0.523925
0.712872
0.753999
0.718832
0.745654
0.623465
0.663996
0.798702
0.744462
0.667572
0.724792
0.693798
0.672936
0.794530
0.722408
0.885725
0.761747
0.729561
0.844598
0.931621
0.984669
0.841618
0.944734
0.871420
0.917912
0.924468
0.980496
0.920892
0.964999
0.805855
0.866652
0.949502
0.853539
0.954866
0.846982
0.947714
0.867844
1.043677
0.933409
0.997782
1.119971
0.962615
1.123548
1.110435
1.198649
1.036525
1.313686
1.258850
1.097918
1.231432
1.326799
1.193881
1.374483
1.590848
1.647472
1.840591
2.064705
2.264977
2.600551
2.931952
3.213882
3.904700
10.868907
60.765743
160.717964
431.940556
755.259991
1015.870571
1015.870571
1015.870571
1015.870571
1015.870571
1015.870571
1015.870571
973.895788
517.776608
271.971822
92.042685
32.222867
8.327961
6.055832
5.462766
5.562901
5.689859
5.578995
5.364418
##ZVALUE=385
0.582933
0.521541
0.641942
0.640750
0.640750
0.528693
0.532866
0.581741
0.555515
0.629425
0.561476
0.672936
0.691414
0.642538
0.621676
0.709891
0.568628
0.661612
0.687838
0.622869
0.730753
0.669956
0.674725
0.798702
0.880957
0.925660
0.937581
0.802875
0.899434
0.873804
0.749826
0.962615
0.911951
0.918508
1.062751
1.013875
0.939965
0.988841
1.074672
0.949502
0.885725
0.935793
0.973940
1.028776
0.927448
0.962615
1.012683
0.846982
1.116991
1.149774
1.176596
1.141429
1.123548
1.040697
1.080632
1.130700
0.937581
1.118779
1.161695
1.237988
1.241565
1.261830
1.621842
1.386404
1.477599
1.693964
1.861453
2.104640
2.340674
2.498627
2.536774
2.766848
2.763867
3.003478
5.356669
30.617714
92.419982
276.354551
533.386469
994.222760
1015.870571
1015.870571
1015.870571
1015.870571
1015.870571
1015.870571
1015.870571
777.788758
458.191633
190.969706
73.597431
14.866590
6.941557
6.092787
5.753636
5.331635
##ZVALUE=390
0.613928
0.724792
0.601411
0.550747
0.700951
0.794530
0.586510
0.700951
0.433922
0.736713
0.722408
0.560880
0.631809
0.603795
0.681877
0.800490
0.806451
0.573993
0.698566
0.646710
0.726581
0.612736
0.656843
0.644922
0.719428
0.615716
0.883937
0.752807
0.821948
0.948906
1.028776
0.801682
0.924468
0.823736
0.970960
0.989437
1.029968
1.134872
1.081824
1.030564
0.911951
1.103878
1.055598
1.139641
1.198649
1.029968
1.041889
1.007915
1.110435
1.086593
1.124740
1.140833
1.052618
1.172423
1.093745
1.159906
1.107454
1.022816
1.091957
1.042485
1.109838
1.229644
1.315475
1.367927
1.514554
1.750588
1.938939
2.024770
2.193451
2.356768
2.317429
2.369881
2.489686
2.432466
2.542734
2.741814
3.211498
13.951659
52.095652
194.988847
410.704017
869.447589
1015.870571
1015.870571
1015.870571
1015.870571
1015.870571
1015.870571
1015.870571
1015.870571
674.082637
286.208987
128.435493
30.121803
9.831786
6.136894
##ZVALUE=395
0.585914
0.670552
0.602603
0.694990
0.523925
0.418425
0.555515
0.648499
0.624657
0.442863
0.630617
0.612736
0.745654
0.707507
0.614524
0.624657
0.691414
0.506639
0.644922
0.540614
0.851750
0.626445
0.791550
0.859499
0.909567
0.657439
0.863671
0.786781
0.778437
0.859499
0.964999
0.911951
1.098514
0.892878
0.995994
1.022816
0.958443
1.194477
1.018643
1.135468
1.066923
1.072884
0.933409
1.176596
0.999570
1.061559
0.956655
1.046658
1.130700
1.200438
1.152754
0.928640
1.146793
1.214743
1.145601
0.926852
1.137853
1.162887
1.067519
1.106858
1.176000
1.297593
1.323819
1.336932
1.530647
1.687407
1.766682
1.946688
1.982450
2.038479
2.053976
2.197623
2.119541
2.169609
2.272725
2.181530
2.201796
2.530813
2.794862
7.667542
31.222701
133.464932
284.738541
612.708926
966.057777
1015.870571
1015.870571
1015.870571
1015.870571
1015.870571
1015.870571
1015.870571
882.228017
415.681005
203.339458
63.106418
##ZVALUE=400
0.733733
0.701547
0.747442
0.656843
0.689626
0.636578
0.622869
0.654459
0.503659
0.648499
0.562668
0.525713
0.581741
0.606775
0.736713
0.482798
0.750422
0.623465
0.703931
0.657439
0.715852
0.662804
0.642538
0.636578
0.732541
0.689626
0.769496
0.763535
0.744462
0.854731
0.932813
1.038909
0.994802
0.959635
0.883937
1.067519
0.881553
1.082420
0.976920
1.093745
1.099706
1.072884
1.152754
1.253486
1.141429
1.025796
1.017451
1.089573
1.203418
1.121759
1.007915
1.222491
1.135468
1.124740
1.019835
1.151562
1.229644
1.000762
1.058578
1.028776
1.169443
1.258850
1.081824
1.353621
1.567602
1.674891
1.618862
1.941919
1.914501
1.985431
1.899600
2.023578
1.965761
1.993775
1.789927
1.899600
1.914501
2.114773
2.317429
2.448559
2.759695
4.272461
14.726520
71.934462
176.340938
450.709462
783.142447
1015.870571
1015.870571
1015.870571
1015.870571
1015.870571
1015.870571
1015.870571
1015.870571
631.843805
##END
