##TITLE=C10_R1
##FORMAT=SPECTACLE-ASCII V-1.2
##DATA TYPE=ULTRAVIOLET SPECTRUM
##SECOND TYPE=ULTRAVIOLET SPECTRUM
##DATE=05/28/18
##TIME=11:49:36
##SPECTROMETER/DATA SYSTEM=SPECTACLE
##XUNITS=NM EM
##YUNITS=ENERGY
##YFACTOR=1
##FIRSTX=220
##LASTX=410
##NPOINTS=96
##3DDATA=Equidistant
##ZUNITS=NM EX
##FIRSTZ=210
##LASTZ=400
##ZPOINTS=39
##XYDATA=(Y..Y)
##ZVALUE=210
36.462545
37.228465
30.933619
27.256608
24.509430
21.815896
17.754436
15.203953
12.952685
8.303523
7.322431
5.522966
5.151629
5.197525
5.216599
5.885959
5.660653
6.208420
6.696582
6.018877
6.716847
8.014441
8.711815
11.960864
12.873411
15.807748
18.241405
18.856525
21.739602
22.798777
24.320483
26.256442
26.209950
27.115941
27.735829
27.633905
23.861527
25.454760
23.792982
24.739504
23.924708
23.434758
21.950603
21.399856
22.512674
21.419525
21.695495
21.292567
21.055937
19.156933
18.560886
18.744469
18.817782
17.245412
17.756820
17.668605
18.300414
17.637610
16.311407
16.430616
15.543699
16.882420
16.607642
14.801621
16.306639
16.213655
21.129847
23.523569
25.100708
29.000640
32.380819
34.769773
37.287474
38.378835
40.117502
40.434599
35.486817
35.943985
32.003522
27.084947
23.997426
20.968914
16.414523
14.482737
13.901591
13.088584
11.828542
12.557507
15.119910
18.695593
28.492808
37.884712
57.283640
73.930621
95.164776
116.111636
##ZVALUE=215
121.140480
114.025474
92.239976
64.528584
54.601431
44.490695
39.050579
35.301447
31.259656
28.633475
21.125674
15.857816
11.686683
9.921789
7.062554
5.810857
6.366968
6.138682
6.049871
7.490516
7.088780
7.823706
9.270906
11.618733
12.358427
16.938448
17.596483
20.090938
22.773743
22.996664
22.963881
25.735497
25.679469
27.468801
26.657581
26.798844
25.977492
25.917888
26.710629
24.721622
26.560426
24.344921
24.995804
24.258494
22.966862
21.258593
23.022890
22.478700
22.299886
22.636652
22.071600
21.007657
21.256804
20.418763
21.848679
21.330714
20.141602
18.534660
19.345880
18.192530
17.666817
17.372966
18.665791
17.534494
17.150640
18.850565
19.811988
20.340681
24.637580
25.838614
28.622746
30.646920
34.128428
32.588840
35.242438
32.217503
32.429695
30.500889
24.994612
22.821426
19.625425
19.499660
16.018748
15.322566
13.326406
13.265610
11.331439
12.255907
10.404587
11.630654
11.096597
11.533499
14.245510
16.509891
24.588704
34.241676
##ZVALUE=220
265.536904
259.523988
240.061879
207.538605
166.221857
117.325783
88.664889
64.731836
53.542852
50.802827
47.679543
41.395426
35.922527
27.516484
24.614930
15.019774
11.634827
8.261800
7.540584
5.904436
6.592870
6.874800
7.027984
8.744597
9.871721
10.109544
12.216568
13.690591
15.707612
15.911460
16.550422
17.572641
19.036531
20.905733
19.881725
20.449758
20.581484
20.894408
20.949841
21.134615
21.934509
20.365715
22.120476
22.402406
22.584796
20.668507
23.123622
21.030903
22.402406
22.127628
22.445917
22.193789
22.261739
23.311973
20.660758
20.684600
20.360947
20.344853
19.918680
19.126534
19.250512
17.530918
17.493963
19.544959
17.964840
18.544793
18.644929
19.248724
22.364855
22.522807
24.411678
28.084517
28.011799
29.080510
28.371811
26.148558
26.087761
25.494695
22.844672
19.727945
17.846823
16.069412
14.654994
13.356805
11.793971
10.862947
11.702776
10.153651
10.704994
10.326505
9.710789
9.451509
10.639429
10.846853
9.908676
9.769797
##ZVALUE=225
308.142900
324.207544
367.448926
399.067998
378.767848
329.767466
267.498493
188.950896
141.714811
102.232695
75.629950
65.810680
66.465735
63.055754
55.539608
50.748587
36.433935
28.810501
21.309853
13.202429
9.929538
7.838607
6.401539
6.478429
7.848740
8.428693
8.726716
9.515882
9.991527
10.304451
11.156797
13.252497
12.190938
13.799667
14.771819
15.214682
15.401840
16.736984
18.389821
18.483996
19.299984
20.888448
20.087957
20.029545
20.732880
19.445419
20.693541
21.361709
19.390583
20.147562
20.121932
21.269917
20.200610
19.993782
19.703507
19.299984
18.702745
19.287467
18.834472
17.564893
18.857718
17.631650
17.300844
17.025471
16.874671
18.644929
17.043948
19.164681
21.275878
22.019744
21.741986
23.244619
24.122596
24.314523
25.106668
24.119616
22.835732
21.253824
18.284917
16.879439
14.968514
13.177991
12.476444
11.478662
11.166930
10.857582
10.156631
10.036826
9.972453
10.013580
9.560585
9.966493
8.991957
9.228587
9.731650
9.167790
##ZVALUE=230
177.825689
196.524858
284.011960
419.861674
502.856970
563.346744
568.758845
504.568815
422.089696
330.084562
206.286907
137.056708
96.161962
86.264610
82.857609
84.976554
80.837607
75.304508
129.046440
48.748851
34.552813
21.601915
15.075803
9.866953
8.078814
7.253885
7.098913
6.838441
7.017851
8.462667
8.182526
8.472800
9.561777
9.822845
10.828972
13.301969
12.665987
14.517903
15.512705
15.483499
16.994476
18.360615
18.085837
19.117594
19.407868
18.933415
17.656684
19.032955
18.260479
19.551516
17.807484
18.399954
17.931461
17.556548
17.549992
17.972589
17.512441
16.464591
16.738772
16.284585
15.506744
14.973879
14.708638
15.632510
14.820695
14.303923
16.456842
17.874837
18.841624
19.413829
21.080971
20.950437
22.036433
22.411942
21.657944
20.908713
19.207597
17.634630
15.830994
15.017986
13.555884
11.925697
12.340546
11.183619
10.298491
10.784864
10.042787
10.501742
9.565949
9.687543
9.171963
8.943677
9.364486
9.266734
8.703470
9.020567
##ZVALUE=235
36.878586
44.014454
89.958906
201.102495
315.615535
482.632518
601.492524
723.088980
753.644705
701.853633
591.142774
461.256504
294.302702
206.733942
133.180618
104.919672
94.829798
100.326538
103.086829
98.274946
83.774924
73.345900
51.881671
36.679506
22.830963
15.616417
11.374950
8.870959
7.671714
7.915497
8.086562
8.068681
8.500814
9.141564
9.736419
9.856820
11.047721
11.654496
12.854934
13.326406
14.349818
14.503598
15.605688
15.068650
15.041828
15.610456
15.080571
14.835596
15.503764
15.250444
14.684796
15.016794
14.554858
14.759898
13.287663
13.729930
13.559461
13.341904
12.618899
13.511777
12.625456
13.009906
12.381673
12.722611
12.924671
12.641549
13.216734
14.364719
15.407801
16.325712
17.338991
19.213557
17.868876
18.553734
18.915534
17.681718
16.544461
16.096830
14.343858
12.739897
12.404919
10.420680
10.100603
9.994507
9.324551
9.378791
9.964705
9.817481
9.921789
8.744597
9.079576
8.407831
8.235574
8.372664
9.345412
8.837581
##ZVALUE=240
2.484918
2.768636
10.032654
29.562712
85.994601
161.525011
315.239429
475.969911
686.638951
817.434788
894.031525
862.343907
772.810578
595.811605
445.466638
267.103910
184.900761
122.410655
103.295445
99.947453
107.956529
111.557841
107.361674
95.127821
73.574781
56.959987
38.806796
28.314590
17.280579
13.093948
10.049939
8.137822
7.811785
8.600950
8.574724
8.982420
10.009408
9.917617
10.169744
10.610819
11.430979
11.514425
11.990666
12.133718
12.158751
12.204647
11.872649
12.604594
11.664629
12.577772
12.873411
11.841655
11.864901
11.298656
11.506677
10.858774
11.121631
10.267496
11.317730
11.026859
10.536909
9.721518
9.958744
10.295510
10.311604
10.794997
11.858940
12.037754
12.908578
13.462901
14.027953
15.018582
14.978647
15.084743
15.542507
14.625788
13.748407
12.051463
11.357665
11.415482
10.398626
9.563565
9.468794
8.072853
8.715987
8.446574
8.318424
7.919669
8.131862
7.764697
7.812977
7.752776
7.822514
7.891655
7.791519
7.879734
##ZVALUE=245
1.860857
1.839995
1.926422
2.187490
5.185604
16.689897
60.113668
127.545595
285.181403
438.115001
683.767796
844.507813
955.425501
996.035933
931.462646
750.097632
597.032905
386.946797
261.896849
149.643421
108.042955
94.517469
103.554726
113.435984
117.498636
111.391544
98.548532
81.535578
60.241818
45.561790
33.112764
20.110607
14.221668
10.482669
9.776950
9.102821
8.885860
9.583831
9.944439
9.935498
10.186434
10.656714
10.294914
10.380745
11.024475
10.481477
10.565519
10.366440
10.932684
10.397434
10.585785
10.750890
9.419918
9.576678
9.375811
9.172559
9.282827
9.115934
8.350611
8.645654
8.371472
8.466840
8.214712
8.285642
8.375645
8.842945
9.193420
9.057522
10.553598
11.588931
12.123585
12.607574
12.638569
11.710525
12.459755
11.621714
11.059642
10.085702
9.462833
8.739829
8.445978
7.759929
7.257462
7.573962
7.156730
6.663799
6.818771
6.988645
6.956458
6.991625
7.379651
6.222725
6.256700
6.911755
6.627440
6.807446
##ZVALUE=250
1.623631
1.649857
1.792908
1.562834
1.710653
1.972914
2.947450
8.875728
40.878654
94.699860
232.392550
390.254855
572.921634
832.278728
980.879664
1015.870571
1015.870571
942.463875
778.833032
530.080795
355.813503
223.460793
124.630928
90.966821
91.073513
101.364851
116.360784
119.197965
112.886429
104.784966
89.807510
67.571998
50.704479
32.105446
22.900701
14.387965
12.004972
10.373592
10.227561
10.254979
10.120869
10.787845
10.454655
9.815693
9.972453
9.972453
10.521412
10.466576
10.025501
9.783506
9.648800
9.513497
9.608865
9.345412
9.234548
8.713603
8.315444
7.939935
8.026958
7.442832
7.790923
7.758737
7.439852
7.503629
7.189512
7.496476
7.902980
8.008480
8.453727
9.125471
9.856820
10.519624
10.709763
10.405779
10.725856
10.178685
9.140968
8.503795
8.226633
7.274747
6.817579
6.212592
6.356835
5.814433
5.683899
5.697608
5.855560
5.507469
5.790591
5.367994
5.526543
5.365610
5.467534
5.700588
5.285740
5.183816
##ZVALUE=255
1.541972
1.413822
1.480579
1.612902
1.798868
1.594424
1.946688
1.962781
2.092719
5.185604
25.765896
66.925883
143.751502
320.466757
503.832698
788.578987
976.544619
1015.881896
1015.881896
1015.881896
961.370468
757.544637
471.102595
298.239589
149.485469
99.590421
80.757737
86.102486
105.411410
116.986632
122.954845
120.041966
111.740828
89.955926
71.739554
49.169660
35.750866
22.918582
16.489625
13.076663
11.639595
10.900497
11.531711
11.048913
11.247993
10.537505
11.196733
10.776520
10.474920
10.559559
10.285974
9.912848
9.954572
9.167790
9.132624
8.748770
8.519888
8.375645
8.209944
7.577538
8.062720
7.503629
7.444620
7.037520
7.184744
7.049441
7.089972
7.580519
7.757545
7.971525
8.348823
8.327961
9.103417
9.011626
8.779764
8.486509
8.054972
7.200837
6.873608
6.076694
5.635619
5.563498
5.602837
5.470514
5.237460
4.958510
4.968643
5.023479
4.919767
4.664660
4.736781
5.127788
4.911423
4.713535
4.630685
4.835725
##ZVALUE=260
1.269579
1.220703
1.341701
1.310706
1.528859
1.507998
1.612902
1.552701
1.844764
1.916885
2.224445
2.537966
12.104511
36.217570
107.561946
218.084455
452.864766
667.887926
886.545777
1015.870571
1015.870571
1015.870571
1015.870571
906.686783
663.641691
384.964943
245.303512
124.585629
84.317923
72.922707
84.662437
105.848908
120.393634
128.583908
123.333931
111.599565
95.983744
72.947741
54.993629
37.595630
26.655793
18.967986
15.280843
13.923645
13.088584
12.578964
12.118816
12.219548
12.031794
11.806488
11.525750
11.081696
10.587573
10.426641
10.398626
9.847879
9.861588
9.336472
8.790493
8.523464
8.037686
7.734895
7.342696
7.538795
7.121563
7.101893
7.292628
7.560849
8.020997
8.209944
8.421540
8.769631
8.547902
8.477569
7.610917
7.604957
6.876588
6.626844
6.107688
5.676746
5.375743
5.048513
4.987717
4.678965
4.990697
4.508495
4.347563
4.384518
4.104972
4.216433
4.758835
4.649758
4.601479
4.436970
4.350543
4.433990
##ZVALUE=265
1.288652
1.460910
1.214743
1.273751
1.298785
1.518726
1.383424
1.497865
1.472831
1.755953
1.713634
1.816750
1.876950
2.225637
4.541874
25.117993
67.129731
178.157687
327.023864
621.458888
888.716578
1015.870571
1015.870571
1015.870571
1015.870571
1015.870571
833.142996
586.310625
317.348838
187.094808
93.109608
65.170527
67.044497
89.273453
106.647611
124.947429
129.266977
127.031803
115.394592
96.051693
78.127980
55.372715
40.307641
27.204752
21.255612
16.897917
15.294552
14.773607
14.139414
13.744831
13.681650
13.133883
12.794733
12.213588
12.161732
11.576414
10.844469
10.699630
10.028481
9.568930
9.210706
9.006858
8.389950
8.128881
7.569790
7.626414
7.871985
7.654428
8.195639
8.244514
8.503795
8.217692
8.450747
8.275509
7.624626
7.589459
6.986856
6.569624
6.044507
5.324483
4.980564
5.094409
4.662871
4.755855
4.585981
4.415512
4.296899
4.059672
4.224777
4.378557
4.263520
4.318953
4.256964
4.058480
4.165769
4.090667
##ZVALUE=270
1.338720
1.145601
1.158714
1.231432
1.178980
1.428723
1.524687
1.470447
1.441836
1.557469
1.767874
1.605749
1.666546
1.660585
1.953840
2.364516
2.700686
10.192990
34.652948
120.594501
250.160694
445.500612
804.540515
1015.870571
1015.870571
1015.870571
1015.870571
1015.870571
1015.870571
806.509852
555.069447
284.686685
156.285763
69.427490
53.660870
67.351460
85.302591
108.741522
122.207999
131.668448
129.598975
117.492676
102.703571
79.728961
61.064959
40.928721
31.835437
23.621917
19.534826
17.025471
15.980601
15.228987
14.757514
13.731718
13.111830
12.707710
12.262464
11.710525
11.227727
10.980964
10.323524
9.910464
9.392500
9.177923
8.492470
8.878708
8.224845
8.201599
8.617640
8.482933
8.423924
8.304715
8.074641
7.748604
7.947683
7.186532
6.887913
6.254911
6.013513
5.519986
5.275607
4.973412
4.792809
4.321933
4.712939
4.541874
4.378557
4.497766
4.660487
4.255772
4.379749
4.326701
4.357696
4.143715
4.187822
4.217625
##ZVALUE=275
1.109838
1.144409
1.055598
1.143813
1.156926
1.146793
1.203418
1.306534
1.239777
1.343489
1.485944
1.492500
1.463890
1.451969
1.580715
1.665950
1.828671
1.955628
2.153516
5.231500
19.014478
56.496859
182.679892
357.125998
689.708591
964.403749
1015.871763
1015.871763
1015.871763
1015.871763
1015.871763
997.836590
732.261539
392.424464
220.891833
93.453526
54.724813
50.010681
64.017773
87.800622
104.218721
122.580528
130.329728
129.071474
120.603442
99.267960
81.958771
60.839653
46.452880
32.026768
24.515986
19.067526
16.283989
14.460683
13.888478
12.953877
12.638569
12.258887
11.882782
10.918975
10.814667
10.374784
9.815693
9.126663
9.081960
8.507967
8.190870
8.250475
8.385777
8.396506
8.399487
8.672476
8.300543
8.197427
7.821918
7.410645
6.867647
6.422997
5.749464
5.524755
5.444884
5.012751
5.016923
4.875660
4.724860
4.480481
4.472733
4.507899
4.571676
4.163980
4.459620
4.288554
4.436970
4.123449
4.166961
4.473925
##ZVALUE=280
0.920892
0.978708
1.135468
0.979900
1.267791
1.074672
1.080632
1.215935
1.288652
1.203418
1.246929
1.323819
1.295805
1.439452
1.443624
1.372695
1.665950
1.709461
1.702905
2.095699
2.222657
2.519488
10.866523
39.983988
140.902996
271.264911
532.156825
809.533596
1015.870571
1015.870571
1015.870571
1015.870571
1015.870571
1015.870571
887.879729
514.291525
308.716893
134.910941
69.088936
39.934516
45.373440
64.346790
82.416534
105.595589
119.164586
126.979947
125.646591
113.383532
100.528002
77.233911
61.213970
42.092800
30.871630
20.594597
16.299486
12.730956
12.366772
11.352897
10.729432
10.315776
9.746552
9.712577
9.156466
8.670688
8.357763
8.287430
8.312464
8.371472
7.900596
7.978678
7.862449
8.104444
7.992983
7.512569
7.203817
6.666780
6.442666
6.048679
5.823970
5.468726
5.274415
5.026460
5.182624
4.918575
4.780889
4.816651
4.514456
4.556775
4.551411
4.312992
4.406571
4.468560
4.431605
4.403591
4.433990
4.453659
##ZVALUE=285
1.014471
1.030564
1.084805
1.063943
1.195669
1.029968
1.079440
1.007915
1.202822
1.146793
1.202822
1.144409
1.217723
1.306534
1.306534
1.270771
1.445413
1.383424
1.642704
1.684427
1.738667
2.018809
2.190471
2.324581
5.106926
17.966628
71.512461
163.843632
379.351974
615.542531
978.925824
1015.871763
1015.871763
1015.871763
1015.871763
1015.871763
1015.871763
720.923543
455.569625
216.176510
108.314753
42.388439
30.581951
41.131973
54.163933
76.866746
92.745423
111.204982
117.587447
118.836761
111.175776
94.786882
78.855753
57.251453
41.118860
26.142001
17.906427
12.422800
10.121465
8.824468
8.145571
7.973909
7.551908
7.543564
7.240772
7.102489
7.353425
7.379651
7.534623
7.383823
7.447600
7.295609
7.106662
6.972551
6.868839
6.348491
6.224513
6.005764
5.489588
5.177855
5.203485
5.117655
4.754663
4.848838
4.985929
4.911423
4.759431
4.622936
4.714727
4.675984
4.557967
4.396439
4.475713
4.487634
4.440546
4.291534
##ZVALUE=290
1.039505
0.995994
1.078844
0.949502
1.173615
1.118779
1.166463
1.208782
1.135468
1.189709
1.203418
1.173615
1.297593
1.223683
1.316667
1.278520
1.362562
1.586676
1.446605
1.539588
1.603961
1.799464
1.862645
1.950860
2.046824
2.379417
2.958775
6.671548
35.210848
94.063878
200.526714
456.627607
741.905570
1015.948653
1015.948653
1015.948653
1015.948653
1015.948653
1015.948653
920.478702
622.770786
313.074589
161.301494
58.151484
27.525425
25.398731
34.203529
49.174428
64.694881
86.051822
100.345612
111.225843
112.235546
105.065703
93.142986
71.222782
55.020452
36.369562
25.321841
15.347600
10.482669
7.732511
6.693602
6.318688
6.538630
6.388426
6.318688
6.408691
6.497502
6.905794
6.697774
6.981492
6.588697
6.370544
6.397963
6.288886
6.131530
5.649924
5.332828
5.104542
5.178452
4.890561
5.104542
4.882812
4.537702
4.795790
4.730821
4.924536
4.680753
4.673600
4.690886
4.702806
4.653931
4.448891
4.373789
4.469752
##ZVALUE=295
0.861883
0.836849
0.874996
0.973940
0.841618
0.903606
1.099706
1.242757
0.973940
1.071692
1.105666
1.064539
0.924468
1.141429
1.148582
1.128912
1.082420
1.299977
1.234412
1.220703
1.161695
1.378655
1.402497
1.419783
1.654625
1.697540
1.911521
2.067685
2.283454
3.286600
10.603666
52.446723
135.119557
349.469781
599.029660
990.163684
1015.870571
1015.870571
1015.870571
1015.870571
1015.870571
1015.870571
801.994801
436.465740
237.404704
83.843470
35.670996
17.652512
20.287633
30.874610
42.659640
61.644912
76.724887
93.752742
103.911757
105.819702
100.138783
85.452795
71.624517
51.442981
37.420988
22.893548
15.293956
9.849668
7.174611
6.022453
5.620718
5.724430
5.684495
6.041527
6.082654
6.142855
6.096959
6.106496
6.094575
5.605817
5.521774
5.334616
5.272627
4.804730
4.844666
4.995465
4.853606
4.724860
4.746914
4.665852
4.819632
4.769564
4.436970
4.374981
4.575849
4.520416
4.368424
4.410744
4.525781
4.512668
##ZVALUE=300
0.949502
0.839829
0.860691
0.976920
0.847578
0.933409
0.897646
0.969768
1.027584
1.130700
0.873804
1.028776
1.032948
1.014471
0.967979
1.149774
1.118779
1.025796
1.062751
1.104474
1.354814
1.330972
1.350641
1.312494
1.489520
1.468658
1.447797
1.690984
1.821518
1.791716
2.139807
2.562404
6.464720
24.564862
97.201467
209.894776
471.670032
759.618878
1015.870571
1015.870571
1015.870571
1015.870571
1015.870571
1015.870571
961.667895
648.831725
334.974527
176.556706
57.749748
22.967458
13.661981
17.356873
26.923418
36.948919
55.014491
70.704818
88.407993
96.573830
100.193620
97.163916
83.923936
70.916414
51.311851
37.425756
23.349524
15.387535
9.770989
7.181764
6.007552
5.661845
5.971789
5.762577
5.789995
5.726814
5.450845
5.425811
4.979968
4.926920
4.750490
4.837513
4.720688
4.722476
4.738569
4.480481
4.384518
4.416704
4.685521
4.579425
4.637837
4.374981
4.425645
4.194975
4.132986
4.173517
4.335642
4.109740
##ZVALUE=305
0.842810
0.801682
0.905991
0.669956
0.945926
0.722408
0.898838
0.877976
0.898838
0.924468
0.882745
1.002550
0.981688
0.888705
0.858903
1.050830
1.037717
0.967979
1.080632
1.236796
1.181960
1.061559
1.194477
1.296997
1.224875
1.392961
1.523495
1.482964
1.687407
1.591444
1.730919
1.979470
2.041459
2.438426
3.201962
15.713573
49.736500
162.460804
319.125652
644.899607
955.464840
1015.870571
1015.870571
1015.870571
1015.870571
1015.870571
1015.870571
779.260993
494.959950
225.473642
107.286572
32.159686
13.627410
11.969805
15.787482
25.463700
35.791993
52.327514
66.123605
82.145929
91.208816
94.729662
92.066526
79.648495
66.813827
48.108697
35.444498
22.764802
15.368462
9.443760
7.336736
6.037951
5.861521
5.160570
5.219579
4.943609
4.553795
4.445910
4.339814
4.531741
4.572868
4.352927
4.399419
4.294515
4.456639
4.284978
4.136562
4.376769
4.171729
4.058480
4.166961
4.034638
4.096627
4.260540
4.109740
4.016757
##ZVALUE=310
0.904799
0.761747
0.772476
0.847578
0.896454
0.670552
0.848770
0.806451
0.929832
0.869632
0.867844
0.835657
0.799894
0.766516
1.028776
0.928640
0.976920
1.084805
1.082420
1.005530
0.908971
0.877976
1.284480
1.013875
1.203418
1.246929
1.281500
1.211762
1.265407
1.308918
1.470447
1.577735
1.559854
1.715422
2.006888
2.054572
2.442598
6.225705
22.843480
89.400411
197.134614
453.868508
733.594894
1015.870571
1015.870571
1015.870571
1015.870571
1015.870571
1015.870571
976.744890
678.823590
343.622565
183.121562
61.476827
21.431446
9.476542
10.310411
14.556646
20.229816
32.341480
44.003725
60.871840
72.528720
84.434748
88.738799
87.178946
79.131722
63.758492
50.360560
34.967661
24.675727
15.482903
10.302663
6.973743
5.677938
4.791617
4.591942
4.268885
4.079938
3.891587
4.057884
3.982782
4.060864
3.968477
3.916621
4.018545
4.015565
4.241467
3.993511
3.994703
3.800988
4.001856
3.920794
4.251599
3.926754
3.900528
##ZVALUE=315
0.758767
0.721812
0.658631
0.837445
0.719428
0.717640
0.651479
0.784993
0.789762
0.940561
0.896454
0.963807
0.993609
0.792742
0.909567
0.873804
0.841618
0.904799
0.998974
0.835657
0.954866
0.923872
1.222491
1.114607
1.276731
1.174808
1.193881
1.164675
1.353621
1.375675
1.315475
1.407862
1.432896
1.499653
1.513958
1.743436
1.959801
2.010465
2.203584
3.340840
10.681748
53.292513
129.517913
326.669812
574.717522
983.697772
1015.870571
1015.870571
1015.870571
1015.870571
1015.870571
1015.870571
860.551000
472.622514
260.100961
93.775988
35.916567
11.035800
8.345842
9.628534
12.374520
19.519925
27.795434
41.803718
53.814650
69.874525
78.075528
84.151626
83.076954
73.408484
63.604712
47.764778
35.723448
21.988750
14.659762
8.596778
6.181598
4.568696
4.046559
4.054904
3.578663
3.779531
3.720522
3.727674
3.600717
3.677607
3.734827
3.695488
3.704429
3.684759
3.942847
3.947616
3.700852
3.747940
3.713965
3.677607
##ZVALUE=320
0.708699
0.729561
0.843406
0.884533
0.769496
0.765920
0.959635
0.970960
0.722408
0.829697
0.909567
0.974536
0.784993
0.973940
0.817776
0.946522
0.588894
0.877976
0.912547
0.939965
0.958443
1.008511
0.993609
1.091957
1.176000
0.983477
1.023412
1.007915
1.088977
1.080632
1.198649
1.152754
1.166463
1.343489
1.284480
1.505613
1.576543
1.544952
1.807809
1.984835
2.104640
2.537966
4.729629
26.941895
78.831911
235.081911
422.815681
770.582557
1015.869975
1015.869975
1015.869975
1015.869975
1015.869975
1015.869975
1003.995538
611.700416
357.720852
152.318478
66.091418
16.951561
8.388758
7.620454
8.500814
11.530519
16.263723
25.337934
35.685897
52.114725
62.820911
74.639916
79.312921
77.814460
71.183443
58.377981
46.302676
31.289458
22.008419
13.372898
8.865595
5.594492
4.445910
3.823638
3.730655
3.632903
3.659725
3.473759
3.427863
3.535748
3.362894
3.442764
3.538728
3.588796
3.573895
3.553629
3.609657
3.550649
##ZVALUE=325
0.751615
0.720620
0.725985
0.839829
0.620484
0.707507
0.734925
0.697970
0.710487
0.734925
0.691414
0.683665
0.673532
0.843406
0.833869
0.820756
0.810623
0.894666
0.841618
0.935793
0.901818
0.907779
1.014471
0.914931
1.049638
0.955462
1.027584
1.001954
0.977516
1.213551
0.938773
1.112819
1.085997
1.130700
1.295805
1.244545
1.420975
1.286864
1.445413
1.627803
1.732707
1.856685
1.911521
2.171993
3.175735
15.988946
49.023628
148.297548
292.143822
613.491535
920.000672
1015.870571
1015.870571
1015.870571
1015.870571
1015.870571
1015.870571
748.994946
465.072989
208.105445
97.379684
27.026534
10.141730
7.023811
6.940961
8.083582
10.235906
16.265512
23.771524
37.165880
47.000647
60.984492
69.248676
74.081421
72.433949
64.650774
55.322647
41.100979
30.155778
18.787980
12.718439
7.616878
5.564690
4.288554
3.781915
3.560781
3.487468
3.249645
3.241897
3.278852
3.392696
3.399849
3.487468
3.434420
3.500581
3.377795
##ZVALUE=330
0.579953
0.616908
0.542998
0.571609
0.628829
0.755787
0.599623
0.685453
0.672936
0.684857
0.645518
0.629425
0.631809
0.636578
0.669956
0.651479
0.915527
0.817776
0.712872
0.758767
0.820756
0.816584
0.916719
0.973940
0.844598
0.807643
0.910759
0.805855
0.974536
0.925660
0.879765
1.024604
0.997782
0.998974
0.988841
1.125932
1.181960
1.252890
1.260638
1.296997
1.221895
1.383424
1.574755
1.554489
1.659989
1.843572
2.430677
4.836917
27.163625
78.940988
224.273801
409.608483
767.000914
1015.797853
1015.797853
1015.797853
1015.797853
1015.797853
1015.797853
971.298814
568.862557
329.446793
133.920908
56.504607
13.702512
6.998777
6.306767
6.264448
7.898808
10.237694
16.013980
22.334456
33.131838
43.477416
56.332946
63.955784
68.401694
67.875981
60.128570
51.514506
37.798882
28.844476
18.901825
13.039708
7.817745
5.623698
4.077554
3.626943
3.434420
3.347993
3.098845
3.184676
3.190637
3.184676
3.290772
3.279448
##ZVALUE=335
0.568628
0.667572
0.708699
0.569820
0.835657
0.644922
0.717640
0.594854
0.574589
0.596642
0.578761
0.680685
0.623465
0.700951
0.564456
0.841618
0.765920
0.792742
0.728965
0.657439
0.754595
0.648499
0.919700
0.889897
0.845790
0.906587
0.766516
0.922680
0.955462
0.871420
0.884533
0.985861
0.999570
1.119971
1.137853
1.099706
1.147985
1.110435
1.194477
1.216531
1.270771
1.256466
1.519918
1.395941
1.534820
1.681447
1.851916
1.933575
2.104640
3.511906
10.903478
51.795840
122.931600
313.543677
547.457933
956.893563
1015.870571
1015.870571
1015.870571
1015.870571
1015.870571
1007.817984
746.362805
404.004455
213.531852
71.405768
25.512576
8.377433
6.355643
6.018877
6.322861
7.281899
9.182692
14.412999
20.486712
31.449795
40.643811
51.921606
59.322715
64.301491
63.377619
56.593418
49.007535
38.049817
29.577613
19.115806
13.598800
8.263588
6.077886
4.347563
3.776550
3.496408
3.299713
3.455877
3.228784
3.406405
##ZVALUE=340
0.831485
0.633597
0.711679
0.718832
0.564456
0.755787
0.540614
0.811815
0.606775
0.604987
0.642538
0.709891
0.643730
0.667572
0.609756
0.635982
0.741482
0.707507
0.640750
0.661612
0.683665
0.733733
0.834465
0.797510
0.868440
0.734925
0.896454
0.926852
0.988841
0.862479
0.918508
0.887513
0.889897
0.920892
0.960827
0.994802
1.008511
1.023412
1.130700
1.011491
1.098514
1.253486
1.148582
1.361966
1.417994
1.385808
1.377463
1.594424
1.621842
1.789927
1.897812
2.346635
5.411506
29.318929
83.463788
240.627527
446.637869
817.610621
1015.867591
1015.867591
1015.867591
1015.867591
1015.867591
1015.867591
884.619951
485.561490
274.774432
108.581781
40.359497
10.070801
6.738901
6.257892
6.152987
5.877614
6.374717
9.155869
12.588501
20.004511
27.733445
39.498806
48.171878
56.416988
59.401989
59.160590
55.264831
45.642853
37.933588
26.908517
20.283461
12.713671
8.680820
5.649924
4.674792
3.665686
3.645420
3.436804
##ZVALUE=345
0.502467
0.548959
0.573993
0.531673
0.578761
0.660419
0.542998
0.563860
0.554919
0.674725
0.545979
0.690818
0.563860
0.596642
0.540614
0.570416
0.562668
0.732541
0.596642
0.697970
0.785589
0.675917
0.740886
0.757575
0.846982
0.722408
0.738502
0.863671
0.797510
0.765920
0.645518
0.825524
0.767708
0.861883
0.849962
0.863671
0.944734
0.707507
1.074672
0.946522
1.026988
0.898838
0.844598
1.115799
1.090765
1.061559
1.299977
1.378655
1.328588
1.355410
1.547933
1.797676
1.820922
1.986623
2.790689
15.452504
50.126910
156.189799
306.036472
614.282489
903.148651
1015.806794
1015.806794
1015.806794
1015.806794
1015.806794
1000.592709
639.645457
373.662710
149.141550
64.025521
17.141700
7.902980
6.422997
5.681515
5.351901
5.025864
5.951524
7.596612
11.816621
17.409921
26.879907
34.448504
43.540001
49.625635
54.668784
55.036545
51.298738
45.608878
36.009550
28.002858
18.871427
13.506413
8.357763
6.059408
4.694462
##ZVALUE=350
0.469685
0.534654
0.618696
0.634789
0.493526
0.570416
0.527501
0.467896
0.465512
0.600815
0.521541
0.593662
0.584722
0.600815
0.628829
0.549555
0.449419
0.611544
0.519753
0.619888
0.603795
0.535846
0.636578
0.530481
0.777841
0.629425
0.619888
0.742674
0.636578
0.657439
0.806451
0.756979
0.790954
0.827909
0.708699
0.750422
0.747442
0.759959
0.771880
0.915527
0.792742
0.898838
0.819564
0.805855
0.988841
0.875592
0.985861
1.136661
1.183748
1.167655
1.197457
1.341701
1.429915
1.536608
1.689792
2.047420
2.503991
7.253885
25.827885
98.453760
209.837556
469.745994
731.277466
1015.732884
1015.732884
1015.732884
1015.732884
1015.732884
1015.732884
738.335848
473.874807
220.855474
99.295974
24.290681
8.905530
5.669594
5.225539
4.691482
4.374981
4.420877
5.114675
7.506609
9.999871
15.617609
21.161437
30.751824
37.448406
45.692921
49.425960
50.604939
48.243999
41.916966
35.345554
26.839972
20.076632
13.335943
##ZVALUE=355
0.352859
0.402927
0.425577
0.562668
0.421405
0.370741
0.413656
0.434518
0.442863
0.473857
0.455976
0.557899
0.483990
0.367761
0.503659
0.513792
0.480413
0.524521
0.531673
0.519753
0.645518
0.590682
0.574589
0.508428
0.564456
0.666976
0.545979
0.567436
0.729561
0.605583
0.693798
0.501871
0.636578
0.643730
0.576973
0.796914
0.699759
0.716448
0.686646
0.813603
0.859499
0.722408
0.915527
0.790954
0.860691
1.005530
0.965595
1.005530
0.965595
0.990629
0.986457
1.319647
1.093745
1.335740
1.229644
1.387596
1.587868
1.570582
1.874566
3.540516
12.934804
60.825944
141.410828
335.923433
571.907759
968.206525
1015.661955
1015.661955
1015.661955
1015.661955
1015.661955
895.887613
592.429638
273.419619
130.295753
36.454797
11.915565
5.703568
4.945993
4.455447
4.279613
4.058480
4.091859
4.722476
5.725622
8.803606
12.681484
19.127727
25.403500
33.572912
39.688945
44.793487
46.530962
44.124722
40.167570
33.249855
##ZVALUE=360
0.860691
0.807643
0.771880
0.769496
0.812411
0.803471
0.825524
0.767708
0.704527
0.728965
0.764728
0.849962
0.811815
0.787973
0.851750
0.712872
0.646710
0.705719
0.796914
0.741482
0.875592
0.868440
0.910759
0.860691
0.820756
0.976920
0.946522
0.854731
0.875592
0.938773
0.994802
0.963807
1.025796
1.035929
1.015663
0.999570
0.839829
1.135468
1.011491
1.014471
0.886917
1.101494
1.263618
1.105666
1.217723
1.079440
1.226664
1.351833
1.204610
1.194477
1.302958
1.400709
1.404881
1.624823
1.461506
1.584888
1.739860
1.679659
1.895428
2.010465
2.194643
2.687573
5.635619
28.270483
79.008937
228.138566
412.689447
739.294887
1007.098556
1015.952826
1015.952826
1015.952826
1015.952826
998.663902
726.549029
375.385880
199.659467
69.160461
23.543835
6.556511
5.269647
4.877448
4.469752
4.106760
3.845692
4.110932
4.364848
5.452633
7.139444
10.852814
15.550852
22.864938
28.678775
36.448836
40.420890
43.137670
##ZVALUE=365
0.694990
0.939965
0.770688
0.886917
0.830889
0.766516
0.689626
0.720620
0.783801
0.782609
0.829697
0.852942
0.920892
0.767708
0.943542
0.769496
0.807643
0.822544
0.916719
0.893474
0.787973
0.955462
0.939965
0.852942
0.914931
1.002550
0.877976
0.910759
0.969768
0.952482
0.929832
1.023412
0.843406
0.907779
1.101494
1.030564
0.888705
1.039505
0.938773
1.069903
1.131892
1.243949
1.152754
1.153946
1.074672
1.251698
0.970960
1.186728
1.170635
1.199841
1.288652
1.248717
1.223683
1.387596
1.417994
1.491904
1.470447
1.510978
1.647472
1.843572
1.963973
2.122521
2.261996
2.517700
3.417730
14.880896
46.285987
144.014955
292.336345
607.936978
883.553624
1015.991569
1015.991569
1015.991569
1015.991569
1015.991569
864.040852
506.854653
288.384557
107.663870
40.772557
9.067655
5.349517
4.710555
4.549623
3.997684
3.875494
3.829598
3.710985
4.220605
4.829764
6.994605
9.203553
13.774633
18.398762
25.338531
##ZVALUE=370
0.574589
0.599623
0.529885
0.697970
0.703931
0.673532
0.632405
0.646710
0.753999
0.700951
0.591874
0.621676
0.684857
0.514984
0.758767
0.686646
0.598431
0.756979
0.844598
0.831485
0.872612
0.595450
0.698566
0.752807
0.555515
0.711679
0.711679
0.834465
0.769496
0.807643
0.762939
0.814795
0.814795
0.721812
0.854731
0.827909
0.798702
0.842810
0.878572
0.664592
0.930429
0.832677
0.864863
0.950694
0.918508
0.814795
0.954866
0.905991
1.011491
1.071692
0.946522
1.032948
1.039505
0.981688
0.984669
1.203418
1.177788
1.235604
1.239777
1.311898
1.290441
1.518726
1.503825
1.719594
1.799464
1.952648
2.327561
7.653832
27.610660
100.582838
214.070678
459.617972
723.747611
1015.870571
1015.870571
1015.870571
1015.870571
1015.870571
981.203914
609.119534
364.211798
150.415897
64.803958
15.922785
6.188750
4.417896
4.161596
3.972650
3.684759
3.820658
3.849864
3.769994
3.893971
4.765987
5.862713
8.443594
##ZVALUE=375
0.618696
0.664592
0.751615
0.606775
0.517964
0.637770
0.592470
0.538826
0.424981
0.729561
0.510812
0.700951
0.612736
0.640750
0.739694
0.727773
0.667572
0.592470
0.684857
0.572801
0.618696
0.661612
0.731945
0.698566
0.612736
0.673532
0.752807
0.695586
0.833869
0.887513
0.864863
0.717640
0.783801
0.916719
0.706911
0.774860
0.994802
0.768900
0.909567
0.812411
0.821948
0.910759
0.810623
0.916719
0.903606
0.891685
0.786781
0.882745
0.854731
0.929832
0.864863
1.057982
0.968575
1.116991
0.929832
0.945926
0.864863
1.106858
1.069903
1.101494
0.991821
1.180768
1.293421
1.252890
1.288652
1.659989
1.710653
1.823902
2.365708
4.000664
12.964606
55.651665
137.604475
345.783830
581.786633
959.571600
1015.871763
1015.871763
1015.871763
1015.871763
1015.871763
733.887553
488.904715
254.324675
128.750801
38.483739
12.171865
4.853606
4.255772
3.864765
3.871918
3.896952
3.982782
3.735423
3.961921
4.094839
##ZVALUE=380
0.800490
0.888705
0.864863
0.674725
0.920892
0.667572
0.735521
0.641942
0.780821
0.780821
0.814795
0.754595
0.825524
0.752807
0.905991
0.726581
0.880957
0.724792
0.788569
0.881553
0.904799
0.829697
0.926852
0.928640
0.804663
0.758767
0.951886
0.948906
0.940561
0.952482
0.979900
0.972748
0.945926
1.080632
1.092553
1.023412
0.957847
1.123548
0.882745
1.049638
1.070499
1.098514
1.016855
0.920892
0.920892
1.211762
0.972748
1.012683
1.025796
1.113415
0.986457
1.216531
1.089573
1.009703
0.994802
1.096725
1.080632
1.037717
1.324415
1.086593
1.299977
1.224875
1.435876
1.494884
1.463890
1.498461
1.671910
1.937747
2.042651
2.372861
2.470613
2.903938
7.073879
36.506653
96.808672
262.290835
460.706949
793.322921
1016.072035
1016.072035
1016.072035
1016.072035
1016.072035
907.224417
645.064712
340.258479
182.470679
63.987970
23.196936
6.489754
4.584789
4.627705
4.400611
4.336834
4.244447
4.269481
##ZVALUE=385
0.597835
0.612736
0.561476
0.601411
0.618696
0.623465
0.645518
0.628829
0.543594
0.490546
0.452995
0.638962
0.670552
0.560880
0.710487
0.615716
0.788569
0.544786
0.677705
0.593662
0.512600
0.606775
0.665784
0.631809
0.670552
0.726581
0.699759
0.684857
0.803471
0.727773
0.932813
0.799894
0.788569
0.822544
0.702739
0.918508
0.822544
0.909567
0.883937
0.822544
0.883937
0.804663
0.763535
0.829697
0.821948
0.825524
0.819564
0.868440
0.868440
0.809431
0.863671
0.896454
0.833869
0.884533
0.932813
0.969768
0.854731
0.867844
0.917912
1.045465
0.925660
1.070499
0.999570
1.069903
1.289845
1.338720
1.448989
1.517534
1.660585
1.732707
1.838803
1.711845
2.015829
2.074838
3.854632
13.254881
60.741901
149.791837
364.167690
604.582429
973.965526
1015.871763
1015.871763
1015.871763
1015.871763
1015.871763
779.832602
527.015924
256.916881
130.217671
41.658878
13.142824
4.980564
4.267693
4.203916
4.040599
##ZVALUE=390
0.506639
0.628829
0.607967
0.602603
0.719428
0.532866
0.472665
0.520945
0.575781
0.642538
0.571609
0.536442
0.503659
0.576973
0.556707
0.608563
0.783801
0.565648
0.460744
0.654459
0.718832
0.762939
0.444651
0.662804
0.679493
0.751615
0.622869
0.764728
0.932813
0.784993
0.975728
0.862479
0.861883
0.849962
0.814795
0.820756
0.932813
0.921488
0.912547
0.941753
0.915527
0.841618
0.875592
0.792742
1.035929
0.942945
0.878572
0.903606
0.871420
0.799894
0.821948
0.966787
0.883937
1.029968
0.767708
0.957847
0.866652
1.088977
1.009703
0.941753
0.995994
0.804663
1.089573
1.218915
1.197457
1.251698
1.470447
1.383424
1.522899
1.559854
1.720786
1.822710
1.718998
1.745820
1.863837
1.830459
2.373457
7.048845
39.805770
105.137825
283.863544
487.115979
811.843872
1015.872955
1015.872955
1015.872955
1015.872955
1015.872955
968.507528
695.050955
382.448435
206.313729
72.200894
25.507808
6.515980
4.549623
##ZVALUE=395
0.503659
0.404716
0.437498
0.611544
0.476837
0.456572
0.443459
0.420809
0.420809
0.216961
0.542998
0.358820
0.407696
0.468493
0.504851
0.388622
0.455976
0.346899
0.417829
0.484586
0.432730
0.477433
0.487566
0.556707
0.586510
0.572801
0.570416
0.577569
0.725985
0.740886
0.759959
0.696778
0.856519
0.812411
0.783801
0.801682
0.733733
0.875592
0.794530
0.636578
0.784993
0.949502
0.910759
0.843406
0.935793
0.821948
0.765920
0.683665
0.775456
0.941753
0.850558
0.679493
0.806451
0.817776
0.726581
1.043677
0.889897
0.857711
0.737906
0.896454
0.884533
0.972748
0.943542
0.900626
1.069903
1.043677
1.209974
1.296997
1.317859
1.478791
1.358986
1.457930
1.429915
1.305938
1.378655
1.428723
1.549721
1.733899
1.834631
5.020499
20.213723
85.613728
181.622505
389.285684
621.441007
982.515812
1015.767455
1015.767455
1015.767455
1015.767455
1015.767455
813.030005
536.682010
254.222751
126.914978
40.379763
##ZVALUE=400
0.719428
0.709891
0.570416
0.519753
0.461936
0.490546
0.685453
0.411868
0.466704
0.552535
0.525713
0.535846
0.620484
0.595450
0.500679
0.551939
0.442863
0.470877
0.565648
0.545979
0.525713
0.603795
0.604987
0.750422
0.513792
0.652671
0.721812
0.685453
0.771880
0.808835
0.694990
0.818968
0.863671
0.905991
0.858903
0.843406
0.983477
1.038909
0.972748
0.884533
0.859499
1.041889
1.008511
0.993609
0.990629
1.068711
0.937581
0.819564
1.034737
0.854731
0.847578
0.829697
0.878572
0.914931
0.851750
0.812411
0.994802
0.905991
0.921488
0.974536
0.891685
0.966787
0.871420
1.027584
1.069903
1.107454
1.275539
1.308918
1.389980
1.313686
1.448989
1.376867
1.369715
1.362562
1.187921
1.366735
1.303554
1.534820
1.456738
1.611710
1.952648
3.006458
9.597540
42.812824
105.820894
276.637673
482.999682
829.900503
1015.870571
1015.870571
1015.870571
1015.870571
1015.870571
948.406458
670.979619
366.955996
##END
