##TITLE=C10_R2
##FORMAT=SPECTACLE-ASCII V-1.2
##DATA TYPE=ULTRAVIOLET SPECTRUM
##SECOND TYPE=ULTRAVIOLET SPECTRUM
##DATE=05/28/18
##TIME=11:52:38
##SPECTROMETER/DATA SYSTEM=SPECTACLE
##XUNITS=NM EM
##YUNITS=ENERGY
##YFACTOR=1
##FIRSTX=220
##LASTX=410
##NPOINTS=96
##3DDATA=Equidistant
##ZUNITS=NM EX
##FIRSTZ=210
##LASTZ=400
##ZPOINTS=39
##XYDATA=(Y..Y)
##ZVALUE=210
46.320558
44.442415
35.746694
30.018687
26.695728
21.997690
20.437837
16.017556
12.650490
11.346936
9.193420
7.608533
7.026792
6.194711
6.156564
6.726980
7.290840
8.448958
7.678866
9.259582
9.640455
8.671880
10.452867
13.045669
15.309453
18.043518
21.419525
23.402572
24.747849
27.439594
26.430488
28.102994
31.094551
30.508637
29.811859
29.194951
32.401681
30.289888
28.536916
29.426813
31.229854
28.412938
27.134418
27.501583
26.192665
25.245547
26.755929
27.698874
25.899410
26.306510
26.105642
24.183989
23.711920
24.577975
24.759769
24.404526
24.494529
22.429824
24.100542
24.487972
23.323894
23.651719
25.389791
24.214983
24.576783
29.229522
31.018853
36.669970
42.269826
50.699711
55.004954
60.582757
64.244866
71.029663
71.612597
73.043704
69.293976
65.623522
62.300563
53.170919
45.510530
39.264560
33.221841
28.826594
25.774837
22.686720
21.022558
22.081733
22.057891
29.424429
36.121607
55.007935
70.958734
103.593469
126.843452
158.109665
##ZVALUE=215
151.540637
141.218901
113.278627
80.165863
62.810779
46.530962
42.309761
35.216808
33.092499
28.860569
22.843480
19.204617
13.584495
10.395646
8.304715
7.635951
7.653832
7.569790
8.026958
9.189844
8.691549
10.395646
11.336803
12.268424
15.767813
17.365813
20.870566
22.849441
24.447441
28.028488
29.449463
27.770996
30.721426
28.769970
32.188892
30.854940
30.735731
31.008720
30.533671
29.728413
29.496551
29.753447
28.092861
29.069781
28.663874
26.981831
26.890635
26.880503
25.916696
27.243495
28.226972
27.452707
25.470853
27.987957
26.929975
25.723577
25.634766
25.016665
23.325682
25.276542
24.023652
24.411678
26.001930
25.579929
25.875568
24.317503
27.156472
33.318996
34.216642
40.499568
41.309595
46.543479
50.504804
51.747561
51.929951
52.547455
50.314665
43.462515
43.592453
37.413836
36.297441
29.536486
26.047826
21.776557
19.389987
19.028783
17.770529
15.982985
15.505552
15.470982
15.062690
16.168952
18.082857
20.729899
28.553605
41.328669
##ZVALUE=220
300.695896
296.964645
281.638503
227.764845
183.234811
129.959583
98.392963
66.752434
55.824518
49.129725
45.434833
43.251514
36.033988
32.370687
22.975802
17.644763
12.497902
9.493828
7.977486
7.250905
7.216930
8.085966
8.494854
10.252595
11.787415
12.773871
13.275743
16.104579
16.714931
17.481446
19.974709
19.067526
20.565987
23.177862
22.382736
23.449659
23.403764
25.715828
24.094582
25.198460
25.123954
25.501847
25.881529
24.430752
24.993420
25.654435
25.434494
24.701953
25.700927
25.710464
26.013851
24.705529
24.863482
24.381876
24.371743
25.252700
24.424791
24.387836
24.283528
22.473931
22.897720
21.832585
21.793842
21.878481
20.947456
23.057461
24.020672
26.880503
28.223991
29.434562
33.270717
34.944415
35.410523
37.577748
37.765503
37.523508
34.452677
31.907558
30.092001
25.832653
25.210977
21.195412
18.357635
16.661882
16.272664
14.509559
14.139414
14.464855
14.510751
12.975931
14.257431
13.397932
11.888742
12.262464
13.103485
12.036562
##ZVALUE=225
348.179936
358.890891
417.082906
446.399450
434.740782
377.865434
307.244658
211.818814
149.762630
108.451843
78.173876
67.012906
63.533783
63.037872
55.605769
48.049688
39.538741
30.058622
22.696853
13.993979
10.090470
7.046461
7.973909
8.028746
7.780790
8.860826
9.842515
10.361671
11.572838
12.111664
12.587905
13.807416
14.746785
15.986562
16.586781
17.789602
18.007755
20.168424
20.086765
22.491813
21.275878
22.435784
23.315549
22.893548
23.529530
23.598671
22.854805
22.927523
22.620559
24.066567
22.765994
25.070906
23.401976
22.256970
22.666454
23.006797
22.750497
22.010803
20.904541
21.001697
19.849539
20.188689
20.376444
20.107627
19.679666
21.025538
21.032691
22.183657
23.113489
26.799440
27.139783
29.395819
29.667616
31.996965
29.438734
29.118657
27.696490
25.220513
23.065805
19.159913
17.927885
14.200807
14.643669
15.027523
12.611747
12.650490
12.333989
12.345910
12.756586
11.236668
10.833740
11.225939
11.110902
11.183619
11.199713
10.822415
##ZVALUE=230
201.700926
218.402743
328.153968
480.061769
582.811832
652.033687
656.195879
586.579442
485.680699
379.495621
233.871937
161.957741
106.830597
89.798570
83.311796
86.963773
81.804991
75.005889
65.192580
49.359798
36.592484
21.584630
17.068982
9.825826
9.757876
7.594824
8.173585
8.942485
8.822680
9.725690
10.069609
10.414720
11.157990
12.041926
13.329983
13.962984
15.996695
15.607476
17.628670
18.674731
19.077659
19.086599
20.075440
21.596551
20.298958
20.901561
20.433664
21.868944
20.981431
21.128654
21.286607
21.264553
20.202994
19.658804
19.084811
20.031929
20.187497
18.154979
18.031597
18.810630
18.403530
19.366741
16.709566
17.752647
17.403960
18.855929
19.570589
20.253658
22.784472
24.237633
25.383830
25.451779
27.305484
26.255846
26.201606
24.315715
22.100806
21.521449
18.960834
15.753508
15.145540
14.624000
14.237761
13.093948
13.039708
12.474656
12.091994
10.497570
11.215806
11.139512
11.204481
10.643601
10.632873
10.311604
10.633469
10.412931
##ZVALUE=235
40.639639
47.875643
102.787614
230.805874
362.454653
552.589893
696.033835
835.666656
871.677995
838.905573
689.920783
537.189841
343.830585
235.008001
146.564841
110.060573
96.354485
99.845529
101.382732
97.636580
88.839531
73.046684
55.263638
35.978556
24.854541
16.785860
11.571646
9.470582
8.387566
8.366704
8.883476
9.183884
9.685755
10.247827
11.027455
11.913776
12.224913
12.815595
13.922453
14.173985
14.845729
15.235543
16.168952
15.894771
16.728640
17.037988
17.575622
17.386675
17.528534
16.938448
17.556548
17.197728
16.846657
16.216636
15.489459
15.730858
15.481710
15.723705
14.718771
15.300512
15.363693
15.713573
15.039444
14.963746
15.013814
14.697909
16.576648
17.756820
17.626882
18.457770
20.262599
21.217465
21.253824
23.167729
22.673607
21.346807
20.102859
18.481612
16.803741
14.981627
14.407635
12.606978
11.940598
11.534691
10.713935
11.270642
10.950565
10.364652
9.983778
10.541677
9.912848
10.107756
9.946823
10.061860
8.718967
9.417534
##ZVALUE=240
2.887845
2.785921
12.423992
32.821894
97.002983
185.781717
365.730524
551.492572
810.281634
952.603817
1015.870571
1013.396978
911.104679
700.529814
522.306561
312.142968
206.706524
130.207539
107.326508
102.447867
108.426809
110.680461
106.472969
98.350644
74.464679
57.343841
40.742755
28.632879
17.889738
13.014674
10.157824
9.404421
9.400845
9.331703
9.528995
10.391474
10.221601
11.191964
12.388825
11.760592
12.042522
13.109446
12.937784
13.648868
13.916492
13.521910
14.345646
14.052987
14.242530
13.589859
13.014674
12.654662
13.268590
12.907982
13.167858
12.187958
12.626648
12.504458
12.203455
11.451840
11.855960
11.756420
11.914968
11.782646
12.063980
12.424588
13.609529
14.353991
15.026927
16.295910
16.543865
18.296838
19.576550
18.651485
17.624497
16.946793
16.535521
14.964938
13.519526
12.808442
11.786819
11.171699
10.826588
9.540915
9.743571
9.075999
8.967519
9.184480
9.117723
9.234548
8.705854
8.162856
8.326769
9.154677
9.360909
8.898973
##ZVALUE=245
2.146959
2.015829
2.096891
2.262592
6.067753
19.742846
68.988800
148.241520
335.550904
517.766476
802.574754
988.468528
1015.864015
1015.864015
1015.864015
880.647898
688.179731
445.547700
297.832489
162.682533
113.262534
97.618699
103.274584
112.945437
117.214918
111.842752
98.000765
83.191991
61.402917
45.603514
32.674670
20.947456
14.661551
11.225939
10.159612
10.090470
10.444522
10.326505
10.487437
10.878444
11.049509
11.261702
11.298656
12.322664
11.993647
11.735559
11.478662
11.742711
11.542439
11.434555
11.325479
11.484623
11.617541
10.401607
10.553598
10.942817
10.898709
10.188818
10.133982
10.230541
10.150671
9.443760
10.199547
9.687543
9.971857
10.389686
10.586977
10.890961
12.054443
12.953877
13.836622
14.650822
15.556812
14.161468
13.873577
14.371872
13.237596
11.584759
11.653900
9.704828
9.353757
8.895993
9.182692
8.170605
8.132458
7.574558
7.289648
7.576942
7.538795
7.812977
7.390976
7.383823
7.556677
7.127523
7.638931
7.271767
##ZVALUE=250
1.525879
1.803637
1.827478
1.619458
1.842976
2.179742
2.869964
13.481975
40.242672
125.421882
242.615938
482.784510
706.729889
991.071463
1015.870571
1015.870571
1015.870571
1015.870571
852.286816
638.391972
382.609963
235.685706
122.756958
91.063976
92.882514
104.414821
115.099549
122.088790
116.852522
103.044510
89.489818
64.892769
48.740506
31.118989
22.976995
15.224814
12.287498
10.979772
10.336637
11.400580
11.008978
11.136532
11.307597
11.341572
11.108518
10.547638
11.244416
10.809898
10.976791
10.713935
11.482835
10.772943
10.424852
10.017753
10.110736
9.610653
9.880662
9.594560
9.581447
9.089708
8.873940
8.387566
9.002686
8.970499
8.368492
8.987784
8.675456
9.851456
10.432601
11.330843
11.614561
12.591481
12.505651
12.877584
12.500882
11.451840
10.892749
10.270476
9.686947
8.588433
7.893443
6.891489
7.258654
6.812811
6.481409
6.781816
6.513000
6.640553
6.363988
6.796718
6.206632
6.220937
6.125569
5.927682
6.108880
6.368756
##ZVALUE=255
1.520514
1.552701
1.788735
1.453757
1.780987
1.846552
1.805425
2.197623
2.563596
5.159974
30.867457
79.114437
170.205832
370.673537
583.701730
916.676521
1015.861630
1015.861630
1015.861630
1015.861630
1015.861630
873.364806
538.868904
328.642726
162.683725
105.630755
82.364678
88.684559
107.041001
116.406679
122.917891
119.368434
110.703707
89.769959
72.161555
49.346685
35.882592
24.212599
17.516613
13.761520
12.122989
11.652708
11.766553
11.837482
11.872649
11.571646
12.011528
11.108518
10.928512
11.404753
10.981560
11.077523
10.577440
10.113716
10.046959
9.751916
9.800792
9.557605
9.063482
8.941889
8.539557
8.577704
8.277893
8.347631
8.182526
8.187890
8.760691
8.706450
9.156466
10.025501
10.334849
10.317564
10.577440
10.247827
10.590553
9.949803
9.212494
8.448958
7.843971
7.099509
7.049441
6.394982
6.278753
5.850792
5.861521
6.020665
5.544424
5.489588
5.905628
5.683899
5.732775
5.929470
5.365610
5.364418
5.483627
5.610585
##ZVALUE=260
1.427531
1.279712
1.604557
1.556873
1.487732
1.685619
1.707673
1.831651
1.868606
2.186894
2.315640
3.228784
9.771585
47.136545
113.536716
285.576582
479.215980
808.658004
1015.870571
1015.870571
1015.870571
1015.870571
1015.870571
1015.870571
751.230717
504.188538
269.455910
155.475736
85.001588
73.475838
82.837939
104.995966
120.028853
128.008723
125.148892
112.657547
97.811818
74.801445
56.644678
38.454533
28.125644
19.420981
16.178489
14.317632
13.290644
13.400912
13.442636
12.943745
13.101697
12.724996
12.673736
12.414455
12.251735
11.413693
11.283755
10.503531
10.486841
10.385513
9.991527
9.813905
9.070635
8.710623
8.723736
8.235574
8.409619
8.228421
8.377433
9.155869
8.962750
9.588599
9.893775
9.935498
10.359883
9.778738
9.432435
8.829832
8.486509
7.790923
7.177591
6.733537
6.234646
5.914569
5.614758
5.264878
5.525947
5.074739
5.063415
5.329847
4.991889
5.095601
5.165935
5.287528
5.144477
5.303621
5.223751
4.724860
##ZVALUE=265
1.152754
1.315475
1.326799
1.485944
1.404881
1.593828
1.474619
1.589656
1.836419
1.856685
2.016425
2.188683
2.229810
2.743602
5.322695
29.468536
77.307820
210.127831
379.685760
731.147528
1008.829474
1015.870571
1015.870571
1015.870571
1015.870571
1015.870571
991.559625
709.359646
368.749499
209.800601
120.489597
67.747831
67.829490
89.366436
108.850598
124.380589
130.045414
127.056837
116.730928
96.511841
78.771710
56.915879
42.013526
29.209852
22.495985
17.468929
16.532540
15.955567
15.741587
15.389919
14.950633
14.345646
14.235973
13.416409
13.015866
12.561679
11.924505
11.567473
11.206865
10.432601
10.350943
9.526610
9.679794
9.467602
9.284616
8.931756
9.170771
9.377599
9.426475
9.465814
10.230541
10.384917
10.076761
9.773970
9.233952
9.031892
8.614659
7.606745
7.032752
6.335974
5.936623
5.606413
5.437732
5.331635
5.223751
5.172491
5.099773
4.819632
4.817843
4.952550
5.054474
4.903674
5.000830
5.087852
4.601479
4.916787
##ZVALUE=270
1.267791
1.407862
1.394749
1.524687
1.609921
1.333952
1.493692
1.625419
1.752973
1.512766
1.768470
1.820922
1.894832
2.107620
2.195835
2.513528
3.083944
12.298822
38.686991
135.681629
284.239650
512.629747
945.971608
1015.911698
1015.911698
1015.911698
1015.911698
1015.911698
1015.911698
985.073447
681.356788
333.372951
173.735619
75.357556
56.076646
69.316626
86.681843
110.373497
126.050711
131.595731
131.554604
118.392706
104.092956
80.780983
62.362552
42.500496
32.762885
24.546981
20.767450
17.847419
17.087460
16.415715
15.791655
15.579462
14.936924
14.193654
13.912916
13.222694
12.677908
12.114644
11.778474
11.347532
10.743737
10.095835
10.146499
9.609461
9.857416
9.573698
9.652972
9.868741
10.228753
10.218620
10.278821
10.040998
9.865761
9.061694
8.423924
7.608533
7.222891
6.850958
6.266832
5.935431
5.707741
5.496740
5.479455
5.293489
5.075932
5.073547
5.331635
4.861951
4.834533
4.842877
4.703999
4.640818
4.770756
4.756451
##ZVALUE=275
1.201630
1.169443
1.186728
1.205802
1.174808
1.187921
1.223683
1.372695
1.535416
1.351833
1.461506
1.661777
1.549721
1.753569
1.867414
1.974702
1.927614
2.271533
2.389550
5.085468
19.137859
85.587502
193.538666
447.989702
746.707916
1015.870571
1015.870571
1015.870571
1015.870571
1015.870571
1015.870571
1015.870571
887.207389
468.372703
255.083442
105.274916
58.838725
50.830841
65.773726
89.582801
106.819868
123.551488
131.731629
129.420757
120.387673
102.223754
84.842443
61.534643
48.020482
33.120513
25.938749
20.929575
18.027425
16.460419
15.587807
14.396906
14.125705
13.330579
13.074875
12.246966
12.322664
11.606812
11.370778
10.688901
10.323524
10.032654
10.348558
9.721518
9.891987
10.383725
9.957552
10.465980
10.097623
9.648800
9.653568
8.703470
8.371472
7.646680
7.382631
6.755590
6.323457
5.991459
5.865693
5.422831
5.398989
5.297661
5.199909
5.051494
4.804730
4.916787
4.971623
5.002618
4.799962
4.849434
4.666448
4.842877
##ZVALUE=280
1.102686
1.156926
1.189709
1.244545
1.161695
1.350641
1.415610
1.479983
1.174808
1.234412
1.504421
1.538992
1.570582
1.601577
1.502633
1.805425
1.760721
1.947880
1.809597
2.386570
2.499819
3.023744
12.297630
46.060681
160.501003
306.738615
612.096786
935.677886
1015.871763
1015.871763
1015.871763
1015.871763
1015.871763
1015.871763
1015.871763
658.933520
383.707881
158.522725
76.135993
42.549968
46.693683
66.601634
83.977580
105.942488
120.354891
128.721595
126.947761
115.560889
101.848841
78.652501
61.332583
42.351484
31.969547
21.699667
17.522573
14.301538
13.128519
12.935996
12.132525
11.841655
11.571646
10.837913
10.381937
9.721518
10.150671
9.837747
9.294748
9.405613
9.743571
9.756684
9.652972
9.539723
9.539723
9.178519
8.480549
8.304715
7.896423
7.206798
6.790757
6.299615
6.261468
5.850792
5.461574
5.708933
5.578995
5.247593
5.217791
5.289912
5.057454
4.955530
4.792809
5.013943
4.665852
4.885793
4.508495
4.498959
##ZVALUE=285
1.203418
1.243949
1.099706
1.133680
1.287460
1.148582
1.290441
1.136661
1.236796
1.224875
1.173615
1.257658
1.338720
1.519918
1.612902
1.444817
1.527667
1.505613
1.697540
1.929998
1.966953
2.051592
2.285838
2.635717
6.160736
22.481680
84.416866
192.539692
441.097617
709.796548
995.903015
1015.870571
1015.870571
1015.870571
1015.870571
1015.870571
1015.870571
961.805582
615.333915
275.877714
129.410625
46.148896
32.296777
42.215586
56.454539
79.707503
94.865561
111.992955
119.036436
119.381547
112.100840
95.704794
79.252720
58.108568
42.076707
27.364492
19.307733
13.624430
11.483431
9.987950
9.513497
8.954406
9.013414
9.016991
8.739829
8.551478
8.505583
8.676648
8.579493
8.901954
8.912683
8.813739
8.683801
8.529425
8.353591
7.787943
7.184744
6.701946
6.520748
6.304979
6.002784
5.779862
5.522966
5.475879
5.126595
5.253553
5.196929
5.033612
5.018711
4.830956
5.153418
4.964471
4.789829
4.818439
4.703999
4.612803
##ZVALUE=290
1.012683
1.021624
1.111627
1.015663
1.090765
1.133680
1.020432
1.152754
1.010895
1.199841
1.344681
1.122952
1.241565
1.280904
1.382828
1.383424
1.295805
1.338720
1.568794
1.687407
1.706481
1.947880
1.906753
2.138615
2.258420
2.442598
3.125668
7.880926
41.847825
106.493831
275.442600
500.917435
821.053982
1015.871763
1015.871763
1015.871763
1015.871763
1015.871763
1015.871763
1015.871763
937.460065
473.048687
231.432915
69.669485
30.141473
26.709437
34.922957
51.855445
66.685677
87.861419
100.429654
112.743974
114.058852
105.964541
93.598962
71.866512
54.221749
35.963655
25.638938
16.056895
11.931658
8.614659
7.947683
7.582903
7.335544
7.394552
7.285476
7.525682
7.466674
7.992983
7.940531
8.235574
8.111596
7.794499
7.408857
6.858706
6.862879
6.511807
6.172657
6.032586
5.812645
5.252957
5.668998
5.234480
5.355477
5.253553
5.020499
5.111694
4.967451
4.922748
4.760623
5.053878
4.775524
5.068779
4.796982
4.751682
##ZVALUE=295
0.931621
1.032948
0.945926
1.029968
1.104474
1.022816
1.033545
1.107454
1.101494
1.099706
1.221895
1.025796
1.083612
1.278520
1.257658
1.083612
1.383424
1.355410
1.356602
1.426935
1.516938
1.515746
1.826882
1.729727
1.802444
2.162457
2.154708
2.443790
2.775788
4.011989
18.867850
60.441494
149.967670
388.801694
663.150549
1015.871763
1015.871763
1015.871763
1015.871763
1015.871763
1015.871763
1015.871763
1015.871763
622.301698
346.238017
120.608807
46.413541
19.464493
20.770431
32.190681
43.498874
63.472986
78.002810
95.590949
104.478002
106.584430
100.834966
85.830688
71.564913
51.285625
37.813783
23.208857
16.111732
10.235906
8.025765
6.672740
6.471872
6.646514
6.684661
6.949902
7.218719
7.004738
7.113814
7.070899
6.790757
6.412864
5.876422
5.735755
5.581975
5.473495
5.126595
5.260706
5.126595
5.185604
5.007982
4.950762
4.777908
4.964471
4.960895
4.947782
4.771948
4.616976
4.526973
4.725456
4.504919
4.556775
##ZVALUE=300
0.954866
0.977516
1.149774
0.920892
0.897646
0.995994
1.002550
1.015663
1.140833
0.944734
0.937581
1.129508
1.039505
1.022816
1.121759
1.176000
1.142621
1.134872
1.279712
1.285672
1.391768
1.379848
1.362562
1.577735
1.648664
1.755953
1.898408
1.818538
2.007484
2.223849
2.596974
2.772808
7.822514
28.077960
110.910535
233.276486
522.629023
841.820836
1015.870571
1015.870571
1015.870571
1015.870571
1015.870571
1015.870571
1015.870571
853.377581
451.957583
244.973898
83.042979
29.275417
14.753938
18.256903
27.985573
38.573742
55.759549
70.339441
88.790655
97.208619
100.619793
96.910000
84.614754
71.418881
52.525997
38.353801
23.829937
16.327500
10.416508
7.621646
6.629825
6.545782
6.474853
6.262660
6.449819
6.584525
5.978942
5.915761
5.697608
5.387664
5.359650
5.164742
4.822612
5.033612
4.894733
4.837513
4.856586
4.745722
4.703999
4.641414
4.785657
4.485846
4.638433
4.428625
4.438758
4.483461
4.387498
4.456639
##ZVALUE=305
0.822544
0.938773
0.904799
1.016855
0.991821
0.961423
0.945926
0.856519
0.943542
0.990629
1.012683
0.927448
1.091957
0.935793
0.870824
0.944734
0.940561
1.126528
1.133680
1.073480
1.178980
1.205802
1.304746
1.422763
1.311898
1.392961
1.400709
1.525879
1.736879
1.835823
1.972914
2.151728
2.452731
2.479553
4.263520
14.671683
70.500970
165.960789
404.527783
669.920444
1015.870571
1015.870571
1015.870571
1015.870571
1015.870571
1015.870571
1015.870571
942.868590
510.688424
286.476612
110.541582
43.118596
13.831854
12.250543
17.020702
23.913980
38.581491
50.342679
68.411827
80.888867
92.003942
94.833970
91.128945
82.266927
65.563917
51.713586
34.768581
24.459958
14.358759
10.103583
7.490516
6.655455
6.073713
6.015897
5.593896
5.275607
5.166531
5.058646
4.660487
4.627705
4.772544
4.613996
4.799962
4.545450
4.509687
4.596710
4.327893
4.561543
4.331470
4.378557
4.279613
4.273653
4.168749
4.247427
4.311800
4.339814
##ZVALUE=310
0.843406
0.915527
0.865459
0.792742
0.831485
0.775456
0.804663
0.853539
0.759959
0.852942
0.874996
0.922680
0.950694
0.969768
0.893474
0.990629
0.989437
0.990629
0.976920
1.108646
0.958443
1.153946
1.260638
1.114607
1.180768
1.309514
1.340508
1.476407
1.373887
1.496673
1.516938
1.766682
1.758933
1.924634
2.108812
2.298951
2.666712
7.490516
27.702451
108.494759
233.771801
525.688529
834.766626
1015.870571
1015.870571
1015.870571
1015.870571
1015.870571
1015.870571
1015.870571
768.887997
396.960974
210.402608
71.659684
24.792552
10.074973
10.449886
14.868975
20.959973
32.461882
43.803453
61.512589
73.782802
84.621906
89.440942
86.537600
78.885555
63.918829
51.581860
34.918785
24.949908
15.429854
11.115670
7.542968
6.015897
5.302429
4.774928
4.559755
4.573464
4.426837
4.232526
4.279613
4.182458
4.349947
4.319549
4.335642
4.233718
4.419684
4.166961
4.013777
4.325509
4.099607
4.143715
3.953576
3.882647
3.969669
##ZVALUE=315
0.848770
0.798702
0.835657
0.739694
0.718832
0.809431
0.792742
0.908971
0.956655
0.915527
0.913739
0.914931
0.939965
0.901818
0.964999
0.920892
0.938773
0.820756
0.956655
0.994802
1.018643
0.971556
1.162887
1.242757
1.120567
1.178980
1.156926
1.363754
1.228452
1.427531
1.521707
1.272559
1.663566
1.714826
1.734495
1.845956
2.109408
2.167821
2.423525
3.791451
12.319684
62.139630
157.241821
401.676893
681.172013
1015.871763
1015.871763
1015.871763
1015.871763
1015.871763
1015.871763
1015.871763
970.382094
546.712875
304.356813
111.483932
40.831566
11.452436
8.870959
10.169744
12.813807
20.037889
28.169751
41.593909
54.428577
70.595741
79.532862
84.212422
82.536936
73.532462
62.900782
48.109889
36.205649
22.630692
15.260577
9.153485
6.721616
5.215406
4.515648
4.363656
3.948808
4.171729
4.019737
3.931522
4.083514
3.899932
3.930926
3.718734
3.893971
3.824830
3.986955
4.038811
4.014969
3.965497
3.920794
3.907681
##ZVALUE=320
0.853539
0.710487
0.850558
0.604987
0.738502
0.604987
0.856519
0.767708
0.736713
0.791550
0.825524
0.863671
0.894666
0.825524
0.836849
0.995994
1.003742
0.995994
1.018643
0.931621
0.956655
0.909567
1.024604
1.084805
1.016855
1.094937
1.153946
1.157522
1.176596
1.205802
1.259446
1.243949
1.238585
1.499653
1.398921
1.461506
1.661777
1.747608
1.987815
2.010465
2.389550
2.774596
5.713701
33.632517
97.708702
286.279917
504.929423
905.979872
1015.870571
1015.870571
1015.870571
1015.870571
1015.870571
1015.870571
1015.870571
684.405565
403.174758
173.319578
74.243546
18.401742
8.695722
8.156896
8.723736
11.723638
16.757846
26.694536
36.498904
51.336884
63.140988
74.981451
80.087781
78.832507
72.230697
58.209896
46.263933
31.020641
22.331476
13.534427
9.049773
6.067753
4.877448
4.248619
3.950000
3.842711
3.830791
3.673434
3.775954
3.720522
3.730655
3.543496
3.725886
3.725886
3.697872
3.920794
3.921986
3.748536
##ZVALUE=325
0.715852
0.788569
0.826716
0.803471
0.781417
0.958443
0.701547
0.724792
0.797510
0.775456
0.853539
0.763535
0.830889
0.871420
0.916719
0.751615
0.902414
0.745654
0.885725
0.923872
0.936985
0.912547
0.940561
1.010895
0.987649
1.100898
1.001954
0.982881
1.020432
1.249909
1.277924
1.313686
1.163483
1.305938
1.293421
1.368523
1.463890
1.554489
1.505613
1.945496
1.925826
1.905560
2.205968
2.526641
3.450513
19.710660
59.791803
182.441473
356.241465
734.019876
1015.870571
1015.870571
1015.870571
1015.870571
1015.870571
1015.870571
1015.870571
830.958486
520.047545
234.072804
111.238956
29.916763
10.749698
7.360578
7.143617
8.349419
10.688901
17.260909
24.182796
36.977530
47.814846
61.155558
69.184899
74.579716
72.860718
64.822435
55.331588
40.610433
30.412674
19.622445
12.994409
7.741451
5.730987
4.370809
3.894567
3.610849
3.660917
3.645420
3.526807
3.466606
3.517866
3.506541
3.587604
3.429651
3.781915
3.600717
##ZVALUE=330
0.688434
0.633597
0.612736
0.756979
0.625849
0.743866
0.728965
0.770688
0.805855
0.637770
0.731945
0.757575
0.861883
0.905991
0.783801
0.777841
0.914931
0.760555
0.742674
0.835657
0.862479
0.919700
0.791550
0.913739
0.971556
0.947714
0.968575
1.170635
0.954866
1.121759
0.992417
1.053810
1.124740
1.097918
1.206994
1.197457
1.448989
1.471639
1.379848
1.568794
1.682639
1.702905
1.702905
1.810789
2.203584
2.448559
2.637506
7.900000
28.299689
112.931728
242.970586
541.760921
855.778456
1015.870571
1015.870571
1015.870571
1015.870571
1015.870571
1015.870571
985.164642
674.168468
321.893692
162.812471
53.019524
17.704964
7.376671
6.680489
6.931424
7.785559
11.051893
15.166998
23.204684
32.331944
46.106577
55.683851
65.755844
68.659782
67.519546
61.669946
50.112605
39.839745
26.904941
19.918680
12.441874
8.964539
5.683899
4.498959
3.810525
3.607869
3.494620
3.499985
3.437996
3.547668
3.508925
3.642440
3.613830
##ZVALUE=335
0.597835
0.547767
0.579953
0.653863
0.639558
0.580549
0.545979
0.769496
0.670552
0.685453
0.809431
0.857711
0.622869
0.664592
0.590682
0.773668
0.731945
0.787973
0.595450
0.829697
0.869632
0.703931
0.797510
0.671744
0.725985
0.831485
0.748634
0.818968
0.772476
0.843406
0.934601
0.982881
0.961423
0.970960
0.984669
1.109838
1.171827
1.126528
1.237988
1.359582
1.234412
1.205802
1.286864
1.401901
1.520514
1.736879
1.923442
2.099872
2.303720
4.009604
13.243556
63.462853
152.232647
381.021500
663.748980
1015.789509
1015.789509
1015.789509
1015.789509
1015.789509
1015.789509
1015.789509
852.288008
458.189845
240.280628
78.643560
28.060675
8.959770
6.661415
6.520748
6.690621
7.488728
9.582639
14.582872
20.768642
31.283498
40.776730
52.894950
59.973598
64.399838
63.726902
56.218505
48.666596
38.045645
29.401779
19.360781
13.498664
8.252859
5.946755
4.410744
4.026890
3.654957
3.423691
3.729463
3.608465
3.432631
##ZVALUE=340
0.757575
0.687838
0.645518
0.841618
0.660419
0.721812
0.491738
0.559688
0.663996
0.754595
0.668764
0.571609
0.690818
0.651479
0.799894
0.754595
0.774860
0.684857
0.927448
0.743866
0.798702
0.800490
0.748634
0.750422
0.867844
0.810623
0.813603
0.981688
0.899434
0.838637
0.990629
0.962615
1.089573
0.891685
1.115799
1.015663
1.044869
1.049638
1.197457
1.152754
1.227856
1.213551
1.356602
1.303554
1.496673
1.505613
1.755953
1.821518
1.769662
2.065897
2.165437
2.787709
6.064773
34.726858
100.207925
287.528038
532.895923
963.791609
1015.870571
1015.870571
1015.870571
1015.870571
1015.870571
1015.870571
989.784598
562.055707
316.588879
124.812722
45.473576
10.789633
7.092953
6.553531
6.411672
6.394982
6.880760
9.199977
13.031960
20.327568
27.820468
39.983988
48.307776
56.950450
59.424639
59.196949
54.809451
46.039820
37.658811
26.879907
20.277500
12.889504
8.918643
5.866885
4.927516
4.093647
3.948808
3.828406
##ZVALUE=345
0.712872
0.756979
0.722408
0.649691
0.820756
0.714660
0.740886
0.682473
0.755787
0.847578
0.691414
0.863671
0.794530
0.725985
0.732541
0.627637
0.769496
0.891685
0.881553
0.883937
0.716448
0.987649
0.729561
0.796914
0.787973
0.880957
0.956655
0.864863
0.989437
0.966787
0.967979
0.916719
1.052618
0.935793
1.105666
1.183748
1.032948
1.116991
1.019835
1.259446
1.239777
1.238585
1.053810
1.300573
1.405478
1.353621
1.335740
1.417994
1.610518
1.740456
1.611710
1.969934
2.170801
2.280474
3.331900
18.805861
59.598684
184.557438
360.940695
716.948509
1005.468965
1015.910506
1015.910506
1015.910506
1015.910506
1015.910506
1015.910506
723.148584
421.425700
167.643428
71.539879
18.652678
8.586645
7.000566
6.286502
5.551577
5.604625
6.223917
7.722974
12.156963
17.511845
26.994944
34.819841
44.623613
50.043464
55.289865
55.200458
51.023960
45.440793
36.209822
28.105974
18.889904
13.773441
9.015799
6.616712
4.934669
##ZVALUE=350
0.618696
0.667572
0.534654
0.605583
0.612736
0.560880
0.563860
0.607967
0.664592
0.751615
0.809431
0.813603
0.889897
0.728965
0.605583
0.646710
0.665784
0.796914
0.766516
0.714660
0.750422
0.725985
0.730753
0.866652
0.737906
0.781417
0.713468
0.992417
0.811815
0.827909
0.830889
0.903606
1.048446
0.927448
0.935793
1.016855
0.863671
0.989437
1.156926
1.017451
1.148582
1.164675
1.245737
1.250505
1.100898
1.035929
1.300573
1.388788
1.478791
1.400709
1.472831
1.808405
1.702905
1.837611
1.970530
2.099872
2.674460
9.099841
32.131672
119.435787
249.429941
552.267432
856.747627
1015.870571
1015.870571
1015.870571
1015.870571
1015.870571
1015.870571
846.859813
530.722737
242.718458
109.745860
26.640892
9.434819
6.291866
5.645752
5.180836
4.664660
4.647970
5.477667
7.430911
10.315776
16.377568
22.169948
31.115413
38.267970
45.660734
49.339533
50.921440
48.661828
41.651726
35.499930
26.642680
20.404458
13.855696
##ZVALUE=355
0.650883
0.703931
0.673532
0.660419
0.770688
0.596642
0.860691
0.724792
0.614524
0.626445
0.646710
0.812411
0.720620
0.697970
0.823736
0.822544
0.894666
0.679493
0.816584
0.735521
0.810623
0.731945
0.943542
0.738502
0.735521
0.842810
0.924468
0.943542
0.779629
0.839829
0.880957
0.903606
0.905991
1.011491
0.996590
0.951886
0.905991
1.027584
1.017451
1.048446
1.110435
0.973940
1.080632
1.080632
1.232624
1.376867
1.198649
1.163483
1.216531
1.414418
1.386404
1.289845
1.401901
1.567602
1.831651
1.876950
2.006888
2.165437
2.510548
4.388690
15.671849
74.031949
169.449449
397.705436
676.383972
1015.871763
1015.871763
1015.871763
1015.871763
1015.871763
1015.871763
979.237556
657.318830
302.595496
145.511627
40.392876
13.106465
6.010532
5.494952
4.986525
4.521608
4.359484
4.403591
4.957914
6.345510
9.451509
13.293624
20.030737
25.893450
34.158826
40.433407
45.534968
46.992898
45.434833
41.179657
33.984780
##ZVALUE=360
0.637770
0.776649
0.667572
0.633597
0.665784
0.593662
0.608563
0.723600
0.686646
0.698566
0.706911
0.682473
0.750422
0.678897
0.759959
0.814795
0.787973
0.694990
0.699759
0.841618
0.892878
0.968575
0.789762
0.830889
0.743866
0.792742
0.878572
0.749826
0.982881
0.897646
0.895858
0.838637
0.934601
0.964999
0.914931
0.968575
1.024604
0.940561
0.960827
0.956655
1.129508
1.098514
0.953674
1.110435
1.065731
1.265407
1.167655
1.093745
1.228452
1.281500
1.304746
1.535416
1.497865
1.549721
1.617670
1.565814
1.755953
1.707673
2.052784
2.305508
2.399683
3.101826
7.016659
34.917593
96.784830
274.784565
492.393970
882.248878
1015.871763
1015.871763
1015.871763
1015.871763
1015.871763
1015.871763
825.539827
421.229005
223.393440
78.341961
25.917888
6.931424
5.477667
4.939437
4.646778
4.472733
4.245639
4.288554
4.347563
5.727410
7.470846
11.068583
15.376806
23.312569
29.069781
36.450624
40.659904
42.919517
##ZVALUE=365
0.660419
0.661612
0.729561
0.768900
0.770688
0.659823
0.731945
0.696778
0.705719
0.661612
0.780821
0.784993
0.739694
0.697970
0.851750
0.818968
0.780821
0.898838
0.847578
0.759959
0.793934
0.684857
0.798702
0.786781
0.731945
0.861883
0.765920
0.745654
0.700951
0.835657
0.821948
0.819564
0.800490
0.955462
0.958443
0.932813
0.890493
0.882745
0.953674
0.931621
1.010895
1.083612
0.906587
1.060963
1.038909
0.984669
1.074672
1.127720
1.002550
1.294613
1.306534
1.330972
1.375675
1.358986
1.405478
1.665950
1.523495
1.532435
1.734495
1.763701
1.883507
2.066493
2.220869
2.711415
3.637671
19.363761
59.887767
182.994604
366.468430
740.218759
1014.366746
1015.868783
1015.868783
1015.868783
1015.868783
1015.868783
987.078547
591.274500
330.864787
119.706988
43.485761
9.442568
5.579591
5.053878
4.681945
4.333854
4.141927
3.773570
3.787875
4.337430
4.899502
6.902814
9.562969
14.429688
19.245744
26.092529
##ZVALUE=370
0.435710
0.369549
0.375509
0.576973
0.634789
0.487566
0.525713
0.497699
0.466704
0.464916
0.529885
0.648499
0.547767
0.599623
0.570416
0.540614
0.544786
0.524521
0.659823
0.512600
0.652671
0.587702
0.538826
0.571609
0.638962
0.521541
0.594854
0.596642
0.544786
0.579953
0.607967
0.824928
0.641942
0.654459
0.782609
0.764728
0.710487
0.637770
0.680685
0.748634
0.801682
0.760555
0.687838
0.740886
0.761747
0.707507
0.808835
0.864863
0.700951
0.809431
0.702739
0.961423
0.986457
0.992417
0.918508
0.999570
1.011491
1.174808
1.283884
1.218915
1.461506
1.465678
1.599789
1.798868
1.624823
2.059937
2.667904
7.161498
44.238567
122.606754
324.605703
551.275611
950.644612
1015.681624
1015.681624
1015.681624
1015.681624
1015.681624
1015.681624
751.069784
371.466875
192.226768
68.696737
23.545623
6.036758
4.709959
4.411936
3.853440
3.944635
3.697872
3.630519
3.596544
4.093647
4.780889
6.245971
8.107424
##ZVALUE=375
0.613928
0.638962
0.651479
0.495911
0.513792
0.684857
0.673532
0.676513
0.632405
0.611544
0.749826
0.681877
0.599623
0.602603
0.549555
0.645518
0.874996
0.711679
0.727773
0.727773
0.752807
0.857711
0.854731
0.771880
0.710487
0.692606
0.759959
0.710487
0.721812
0.777841
0.798702
0.787973
0.843406
0.962615
0.783801
0.766516
0.940561
0.769496
0.762939
0.775456
0.761747
0.828505
0.824928
0.967979
0.712872
0.905991
0.866652
1.040697
0.930429
0.983477
0.878572
0.897646
0.971556
0.922680
0.942945
1.019835
1.030564
1.278520
1.085997
1.211762
1.212955
1.449585
1.446605
1.565814
1.656413
1.789927
1.990795
2.374649
2.586842
4.837513
15.669465
68.760514
171.031952
431.788564
717.450976
1015.870571
1015.870571
1015.870571
1015.870571
1015.870571
1015.870571
866.606832
572.265983
292.781591
146.859884
41.733980
13.018847
5.006790
4.633665
4.294515
4.134774
4.138947
4.196763
4.108548
4.279613
4.166961
##ZVALUE=380
0.485778
0.532866
0.454783
0.717640
0.565648
0.584722
0.541806
0.465512
0.510812
0.618696
0.636578
0.550747
0.563860
0.500679
0.690818
0.607967
0.547767
0.630617
0.704527
0.699759
0.777841
0.605583
0.759959
0.722408
0.714660
0.618696
0.776649
0.566840
0.723600
0.733733
0.825524
0.788569
0.776649
0.964999
0.879765
0.863671
0.742674
0.905991
1.012683
0.966787
0.943542
0.795722
0.897646
0.734925
0.832677
0.852942
0.848770
0.875592
0.758767
0.936985
0.816584
0.922680
0.984669
1.037717
0.989437
0.950694
1.039505
1.027584
1.051426
0.972748
1.122952
1.167655
1.153946
1.339912
1.334548
1.570582
1.582503
1.807809
1.886487
2.199411
2.592802
3.181696
8.346438
44.565797
120.245814
329.054594
578.129888
974.798799
1015.870571
1015.870571
1015.870571
1015.870571
1015.870571
1015.870571
768.193603
403.865576
214.764476
74.424744
26.602745
7.057786
4.793406
4.521608
4.604459
4.338622
4.255772
4.358888
##ZVALUE=385
0.553727
0.511408
0.465512
0.665784
0.622869
0.620484
0.640750
0.646710
0.595450
0.604987
0.647902
0.623465
0.671744
0.537634
0.438690
0.641942
0.645518
0.538826
0.574589
0.545979
0.557899
0.583529
0.551939
0.693798
0.633597
0.652671
0.728965
0.691414
0.848770
0.814795
0.914931
0.935793
0.918508
0.873804
1.008511
0.826716
0.982881
0.880957
0.887513
0.877976
0.987649
0.964999
0.897646
0.888705
0.981688
1.012683
0.974536
0.941753
0.845790
0.936985
0.971556
0.848770
0.968575
0.845790
0.911951
0.911951
0.998974
0.963807
0.933409
1.054406
0.941753
1.027584
1.084805
1.159906
1.326799
1.384616
1.483560
1.635551
1.957417
1.934767
2.111793
2.070665
2.180934
2.322793
4.176497
24.015903
71.818829
214.040875
413.569808
808.678865
1015.865803
1015.865803
1015.865803
1015.865803
1015.865803
1015.865803
968.315601
571.748018
338.886976
143.169761
56.672692
11.957884
5.492568
4.556775
4.643798
4.564524
##ZVALUE=390
0.612736
0.555515
0.588894
0.476837
0.368953
0.544786
0.586510
0.554919
0.558496
0.561476
0.678897
0.598431
0.593662
0.665784
0.500679
0.634789
0.505447
0.628829
0.554919
0.594854
0.659823
0.585914
0.501871
0.713468
0.700951
0.792742
0.795722
0.866652
0.937581
0.921488
0.970960
0.935793
0.892878
0.762939
0.876784
0.949502
0.888705
0.908971
1.117587
0.972748
0.937581
0.891685
0.834465
0.814795
0.870824
0.986457
0.981688
0.986457
0.923872
0.794530
0.899434
1.047850
0.965595
1.076460
0.881553
1.024604
0.864863
1.037717
0.923872
0.893474
0.876784
1.120567
1.140833
1.172423
1.259446
1.390576
1.446605
1.619458
1.670718
1.930594
1.985431
2.019405
2.031922
2.074838
2.119541
2.193451
2.577901
10.801554
41.086674
156.793594
329.483747
693.991780
991.011858
1015.870571
1015.870571
1015.870571
1015.870571
1015.870571
1015.870571
815.621018
498.269796
212.609768
96.086860
23.323894
7.687807
4.991889
##ZVALUE=395
0.657439
0.618696
0.628829
0.560880
0.406504
0.621676
0.710487
0.602603
0.504851
0.497699
0.406504
0.537634
0.664592
0.586510
0.522733
0.692606
0.658631
0.704527
0.539422
0.614524
0.544786
0.681877
0.605583
0.524521
0.697970
0.786781
0.750422
0.737906
0.920892
0.860691
0.882745
0.865459
0.949502
0.909567
0.896454
0.834465
0.787973
0.886917
0.961423
0.828505
1.011491
0.960827
0.979900
0.979900
0.893474
1.025796
1.015663
1.076460
0.950694
1.133680
1.137853
0.986457
0.994802
0.861883
1.095533
1.063943
0.753999
0.967979
1.011491
1.109838
1.068711
1.094937
1.261830
1.255870
1.353621
1.536608
1.528859
1.421571
1.696944
1.727939
1.896620
1.935959
1.734495
1.741648
1.819730
1.587868
1.817942
2.009869
2.440810
5.662441
23.498535
104.669929
225.261450
488.449931
785.349011
1015.873551
1015.873551
1015.873551
1015.873551
1015.873551
1015.873551
980.959535
660.157800
309.365988
151.758790
46.652555
##ZVALUE=400
0.683665
0.701547
0.705719
0.531673
0.477433
0.439882
0.594854
0.485778
0.594854
0.607967
0.545979
0.593662
0.641942
0.469685
0.465512
0.574589
0.676513
0.583529
0.618696
0.736713
0.601411
0.621676
0.791550
0.404716
0.724792
0.603795
0.757575
0.940561
0.890493
0.775456
0.813603
0.928640
0.874996
0.797510
0.925660
0.864863
0.886917
0.960827
0.937581
0.974536
0.958443
0.963807
1.075864
1.151562
1.034737
0.935793
1.080632
0.883937
0.878572
1.010895
0.892878
1.097918
0.954866
1.073480
1.016855
0.901818
0.913739
0.946522
1.018643
1.053810
1.033545
1.015663
1.145601
1.127720
1.171827
1.368523
1.392961
1.591444
1.588464
1.705885
1.597404
1.632571
1.618862
1.459718
1.465678
1.595616
1.426935
1.706481
1.720786
1.876950
2.171993
3.609657
10.873675
49.896836
127.546787
339.475870
598.423481
995.521545
1015.870571
1015.870571
1015.870571
1015.870571
1015.870571
1015.870571
814.661980
439.072847
##END
