##TITLE=C5102_R5
##FORMAT=SPECTACLE-ASCII V-1.2
##DATA TYPE=ULTRAVIOLET SPECTRUM
##SECOND TYPE=ULTRAVIOLET SPECTRUM
##DATE=05/28/18
##TIME=12:53:34
##SPECTROMETER/DATA SYSTEM=SPECTACLE
##XUNITS=NM EM
##YUNITS=ENERGY
##YFACTOR=1
##FIRSTX=220
##LASTX=410
##NPOINTS=96
##3DDATA=Equidistant
##ZUNITS=NM EX
##FIRSTZ=210
##LASTZ=400
##ZPOINTS=39
##XYDATA=(Y..Y)
##ZVALUE=210
63.882470
57.565570
44.785738
32.883883
26.396513
24.302602
21.227598
15.674829
14.450550
12.027621
10.677576
8.950830
8.770823
7.787943
8.888841
8.726716
10.214448
10.951757
11.011958
14.020801
12.633801
13.845563
15.275478
17.464757
18.761754
21.579862
25.457740
28.201938
30.958652
33.140779
33.705831
38.979650
38.920641
39.658546
39.328933
38.354993
39.593577
40.816665
42.016506
39.327741
42.480826
39.515495
41.249990
37.993789
37.460923
39.745569
38.524866
39.657950
38.144588
37.723780
37.036538
36.173463
36.338568
37.088990
38.670897
36.645532
39.551854
38.528442
37.717819
37.143826
37.193894
37.617683
38.058758
37.631989
40.848851
42.745471
47.785640
55.950880
66.331625
74.686408
86.312890
97.860694
104.625821
112.049580
114.870667
114.154816
107.571483
96.848607
87.997913
77.951550
68.023801
61.111450
49.874783
42.273998
38.658977
35.214424
30.303597
31.280518
34.302473
42.443871
58.333874
75.075626
107.671618
133.939981
173.619986
211.665630
##ZVALUE=215
225.576758
222.398639
163.332820
114.666820
84.154606
52.438974
46.545863
38.885474
34.787655
30.590892
25.434494
19.573569
16.141534
11.860728
10.821819
10.046959
9.588599
9.188652
10.413527
11.221766
11.886954
14.054775
14.695525
17.384887
18.664598
22.064447
23.822784
25.776625
29.376745
30.973554
33.661723
38.401484
39.255619
40.225983
40.966868
40.694475
42.642951
41.827559
42.271614
41.690469
42.260885
41.951537
42.660832
43.556690
40.237904
41.368604
39.618611
40.439963
41.383505
42.146444
40.315986
41.089654
40.404797
41.157603
39.673448
39.601922
39.123893
39.824843
37.934780
38.633943
38.691759
36.629438
36.766529
36.952496
37.732720
41.075945
47.190785
49.026608
58.234930
61.602592
72.857738
78.447461
83.976984
87.038875
88.422894
84.945560
83.018541
78.909993
71.746707
63.244700
53.911805
47.635436
41.288733
36.807656
33.906698
32.254457
29.535890
28.124452
26.788712
25.587678
27.764440
26.720762
28.761625
33.625960
46.690702
62.930584
##ZVALUE=220
458.114743
458.611846
429.473519
366.551876
288.514495
198.696852
144.115686
89.779496
66.724420
55.287480
51.922798
47.695637
38.276911
30.900836
24.706721
20.024776
14.133453
11.726618
10.485649
9.287000
9.383559
10.335445
11.162758
14.484525
17.222762
16.757846
19.529462
20.815730
23.045540
24.593472
27.360916
29.550791
31.697750
32.217503
34.035444
37.343502
37.188530
42.355657
41.072965
40.650964
40.835738
40.526986
41.770935
42.385459
43.005943
40.252805
41.797757
40.159822
39.575696
39.527416
40.682554
43.411851
41.294694
40.627718
41.658878
39.199591
38.531423
38.767457
38.343668
38.742423
36.547780
37.707686
35.522580
35.551786
35.560727
40.562749
41.431785
45.366883
47.635436
53.757429
57.812929
66.058636
66.572428
72.898865
71.548820
69.290996
64.851642
62.949657
56.614876
49.860477
44.788718
38.183928
36.908984
31.789541
30.498505
27.581453
25.957823
25.643706
23.777485
24.705529
23.142695
23.538470
22.741556
21.654963
23.329854
23.427606
##ZVALUE=225
532.596707
549.367666
649.982691
722.597837
709.770918
620.009899
519.972444
347.418785
235.304832
139.365792
96.487999
74.090958
67.706704
65.495968
60.641766
53.943992
39.248466
33.037663
23.354888
16.913414
13.209581
12.591481
11.175871
12.117624
13.138652
13.639927
15.870929
16.226768
17.587543
18.732548
20.314455
23.447871
23.337603
26.964545
28.124452
30.626655
33.710599
36.064982
38.842559
38.477778
41.621923
39.259791
40.161610
42.106509
38.573742
38.887858
41.571856
40.787458
41.417480
41.178465
39.846897
38.765669
42.016506
39.708614
40.375590
37.587881
37.380457
36.905408
37.371516
38.041472
35.575628
35.581589
35.592914
37.560463
35.695434
37.296414
38.536787
42.873621
44.223666
50.973892
53.187609
56.646466
56.730509
57.407618
57.532787
55.171847
52.158833
46.813488
43.767691
39.350986
37.168860
31.368732
29.921532
27.645826
25.303960
24.899840
22.640824
22.497773
23.548603
21.911860
22.271872
21.508932
22.072792
21.942854
22.376776
20.377636
##ZVALUE=230
298.098922
326.382518
494.342446
752.666593
910.952687
1015.870571
1015.870571
948.450565
792.877674
622.003675
369.616747
236.282945
133.600831
103.462934
88.215470
87.348819
85.681677
78.854561
65.601468
52.765608
39.555430
25.921464
18.614531
14.641881
11.684895
11.494756
12.482405
12.782812
14.186502
15.702844
16.783476
18.376708
20.040870
22.996664
23.650527
26.892424
27.960539
30.574799
30.899644
33.970475
33.334494
35.777688
36.675930
37.867427
36.335588
37.622452
37.460923
36.443472
35.814643
36.927462
36.212802
35.429001
36.470890
35.942793
34.362674
35.504699
35.720468
35.585761
34.011602
33.244491
32.766461
31.726956
33.965707
32.917857
33.164620
33.704638
34.739971
36.930442
39.306879
43.589473
47.224760
48.328638
52.675605
50.580502
51.784515
47.838688
43.330789
41.443706
40.170550
35.572648
32.219887
28.595924
26.418567
25.504827
23.914576
22.614598
21.711588
21.638870
20.886660
20.752549
21.719933
22.421479
21.127462
22.107959
21.132827
20.371675
##ZVALUE=235
63.697696
74.860454
150.355697
356.936455
561.760664
863.420963
1015.870571
1015.870571
1015.870571
1015.870571
1015.870571
863.240957
538.780689
364.514589
209.554434
139.953494
103.527904
101.766586
106.542706
103.540421
91.331601
77.407956
55.216551
42.368770
27.235746
20.351410
16.707778
13.534427
13.094544
12.868643
13.657808
14.906526
16.828775
16.719699
18.326640
21.382570
20.833611
22.292733
23.657680
26.104450
25.948882
26.941895
28.094649
28.186440
28.521419
29.270649
30.078888
27.641654
28.436780
30.052662
26.976466
27.458668
28.409958
27.234554
27.601719
28.420687
26.665926
27.222633
27.164817
25.560856
26.889443
26.365519
25.057793
26.451945
26.680827
26.761889
28.168559
31.563640
33.192635
36.074519
35.937428
39.707422
42.509437
41.621923
40.478706
37.959814
36.947727
34.084916
30.886531
28.528571
25.815964
24.375916
22.402406
20.822883
21.561980
19.961596
19.851923
18.601418
19.079447
19.868612
19.100904
18.569827
18.379688
18.651485
19.920468
19.679666
##ZVALUE=240
3.450513
4.259944
13.406873
59.884787
136.727691
319.621563
535.359979
906.538963
1015.870571
1015.870571
1015.870571
1015.870571
1015.870571
1015.870571
779.516697
522.430539
289.072990
182.314515
129.410625
110.238791
113.151670
116.354823
110.948682
97.308755
80.723763
58.092475
45.272708
29.411912
22.692680
17.372966
13.634562
12.951493
13.448000
14.560819
13.970733
15.934706
15.299916
16.809702
17.662644
18.170476
18.881559
19.637942
21.381974
20.483732
20.487905
21.510720
20.967722
21.257997
21.378994
22.075772
22.183657
21.624565
21.246672
21.281838
21.095872
20.871758
20.705462
20.821691
20.480752
20.658970
20.223856
19.965768
20.306706
21.439791
20.059943
21.554828
21.990538
22.985935
26.427507
28.747916
30.704737
32.995939
33.637881
33.521652
32.440424
31.281710
29.323697
27.587414
25.768876
23.242831
20.672679
19.899607
18.576980
17.410517
17.751455
17.347932
17.650723
16.944408
16.880631
16.750693
17.371774
16.736984
18.300414
18.687844
17.837882
18.801689
##ZVALUE=245
2.438426
2.412796
2.989769
3.421903
9.028912
27.153492
102.604628
220.466852
505.159497
779.712796
1015.870571
1015.870571
1015.870571
1015.870571
1015.870571
1015.870571
1015.870571
728.749037
472.294688
245.342851
151.559711
110.941529
109.777451
117.615461
119.133592
113.231540
101.328492
85.844994
66.684484
50.306916
36.953688
23.984909
18.773675
14.152527
13.821721
14.085770
14.452934
14.577508
14.714599
15.030503
15.381575
16.815662
16.941428
16.440749
16.550422
17.025471
17.294884
17.627478
17.340779
18.160939
16.948581
17.831922
17.341971
17.115474
17.566681
16.680956
17.193556
17.008781
17.047524
16.941428
16.720891
16.510487
17.055869
17.852783
16.928911
17.598867
18.231869
20.034909
20.930767
22.771955
25.431514
26.466846
27.358532
27.064681
26.421547
24.936795
23.584962
22.038817
19.646883
18.204451
17.753839
15.831590
15.395880
14.516711
14.252663
13.788939
13.284683
14.698505
14.787912
14.641881
15.466809
16.193986
15.617609
17.507672
17.336607
17.277598
##ZVALUE=250
2.062917
2.093911
2.331734
2.101660
2.568960
2.822876
4.358888
14.790893
72.639585
164.067745
412.366986
694.388747
992.112756
1015.864611
1015.864611
1015.864611
1015.864611
1015.864611
1015.864611
986.218452
669.628978
405.237675
188.991427
116.077662
101.020932
109.246969
122.977495
125.162601
118.540525
106.300712
94.648004
71.238875
54.177642
35.678744
26.695728
19.417405
16.581416
15.509725
14.835000
15.191436
15.171766
15.471578
15.984774
16.294718
16.223788
16.297698
15.201569
15.595555
15.599728
15.641451
16.056895
15.757680
15.959740
15.365481
15.443563
15.329719
15.501976
15.370846
15.297532
14.502406
15.027523
14.392734
15.076995
14.411807
14.408827
15.587807
15.818477
17.014742
17.833710
19.869804
20.492673
22.154450
22.359490
22.147894
22.776723
21.557808
20.458698
18.165708
16.797781
15.710592
14.391541
13.640523
12.821555
12.217760
12.379885
12.592673
12.524724
11.444688
11.783838
12.469888
12.934804
12.782812
13.024807
13.002753
13.660789
14.056563
##ZVALUE=255
2.068877
1.737475
2.194643
2.149940
2.178550
2.261996
2.360940
2.504587
3.460646
7.186532
42.665005
114.737749
245.411992
556.728840
885.328650
1015.861034
1015.861034
1015.861034
1015.861034
1015.861034
1015.861034
1015.861034
919.534564
566.409826
258.736610
149.326921
94.439983
91.390610
110.101700
122.564435
128.603578
124.089718
115.581751
93.602538
76.630712
54.750443
40.618777
27.645826
21.752715
18.161535
16.941428
17.421842
16.889572
16.850829
16.855597
16.694665
17.700791
16.794801
17.345548
16.158819
16.145706
16.251802
16.332865
15.438795
15.743971
15.469790
14.843941
15.691519
14.673471
14.774799
14.487505
14.094710
14.080405
13.964772
14.158487
14.356971
14.586449
15.019774
16.314983
17.520785
18.457770
19.379854
19.370914
19.581914
18.835664
17.848611
17.300844
16.379952
14.667511
13.616681
12.396574
11.559725
11.575818
11.176467
10.984540
11.062622
10.664463
10.582805
10.775924
10.515451
10.549426
10.943413
10.381937
10.911822
11.127591
10.964870
##ZVALUE=260
1.849532
1.969934
1.907945
2.168417
2.054572
2.070665
2.339482
2.445579
2.366900
2.542734
2.893806
3.859997
19.198656
60.200691
185.622573
376.887918
796.611905
1015.870571
1015.870571
1015.870571
1015.870571
1015.870571
1015.870571
1015.870571
1015.870571
767.978430
467.879772
215.026736
121.725798
83.302855
91.290474
112.638474
124.696493
135.873556
131.754875
118.373632
104.589462
78.647733
62.550902
44.053793
33.780932
25.161505
21.962523
20.178556
19.774437
19.235611
19.857883
19.243956
18.915534
18.654466
18.917918
17.747879
17.964840
17.511845
17.460585
16.493797
16.599894
15.902519
15.895963
15.562773
15.018582
14.721751
14.877915
14.905930
15.010834
14.862418
14.795661
16.144514
16.056895
17.034411
18.138885
18.071532
18.291473
18.789768
17.932653
16.403794
15.586615
14.069676
13.917685
12.319684
12.099743
11.167526
10.898709
10.393858
9.890795
9.923577
9.917617
9.552836
9.454489
9.722710
9.610653
9.322762
9.615421
9.807944
9.834766
9.689927
##ZVALUE=265
1.568794
1.779795
1.682639
1.781583
1.831651
1.844764
2.011657
2.230406
2.352595
2.372861
2.661943
2.653599
3.145933
3.623962
7.532835
44.446588
116.357803
320.116878
586.843491
1015.847921
1015.847921
1015.847921
1015.847921
1015.847921
1015.847921
1015.847921
1015.847921
1015.847921
661.484003
367.153883
190.488696
87.806582
74.364543
96.247792
113.416910
131.458640
139.109492
135.253668
124.255419
103.785992
86.972713
63.903928
49.853921
36.098957
29.165745
24.240613
23.212433
22.723675
22.054911
21.681786
21.093488
20.791888
20.598769
19.984841
19.176602
18.734932
17.992854
17.880797
17.464757
17.064810
16.540885
15.910864
16.422868
15.786886
15.464425
16.045570
15.962720
16.472936
16.217828
17.695427
17.583966
18.277764
18.622875
17.914772
17.140508
15.885830
15.285611
13.666749
12.942553
11.559725
11.823773
10.509491
10.483861
9.831786
9.756684
9.685755
9.676814
9.234548
9.533763
8.979440
9.171963
9.503961
9.362698
9.616613
9.348989
9.477735
##ZVALUE=270
1.483560
1.581907
1.531839
1.730919
1.706481
1.722574
1.925826
1.856685
2.017617
1.953840
2.217889
2.188683
2.621412
2.582669
2.973676
3.317595
4.117489
19.765496
63.165426
222.493410
457.061529
828.253031
1015.870571
1015.870571
1015.870571
1015.870571
1015.870571
1015.870571
1015.870571
1015.870571
1015.870571
569.416881
298.405886
111.544728
68.928599
76.852441
95.179677
120.681524
133.008957
142.062902
141.577721
129.781961
113.452673
89.108944
71.182847
51.368475
41.327477
33.113956
28.393865
25.737882
25.309920
24.328828
24.320483
23.399591
22.306442
21.375418
20.465851
20.248890
19.683838
19.081831
18.740892
17.766953
17.594695
17.101765
16.774535
16.166568
16.938448
16.813874
17.554760
17.950535
18.475652
18.435717
18.124580
17.956495
16.921759
15.979409
14.987588
13.986826
12.801886
11.938810
11.548996
11.135936
10.665655
10.237694
9.903908
9.766817
9.750724
9.103417
9.617805
9.461641
9.323955
9.467602
9.439588
9.956956
9.701848
9.524822
##ZVALUE=275
1.447797
1.389980
1.634955
1.566410
1.473427
1.558661
1.714826
1.602769
1.659989
1.650453
1.895428
1.880527
2.029538
2.273917
2.293587
2.519488
2.720952
2.853870
3.520846
7.916689
34.115911
108.404756
345.651507
673.987865
1015.870571
1015.870571
1015.870571
1015.870571
1015.870571
1015.870571
1015.870571
1015.870571
1015.870571
801.059604
445.134640
170.101523
83.901882
62.075853
73.870420
97.957850
115.502477
134.191513
141.580701
139.811635
130.880475
111.413598
92.605948
71.722865
55.579543
40.993690
33.448935
28.248429
25.624633
24.014711
22.904873
22.519827
21.993518
21.438599
20.591617
20.150542
19.568801
19.658804
18.017888
17.722845
17.404556
16.817451
17.356873
17.719865
17.630458
18.300414
18.320680
18.056631
18.710494
17.774701
17.249584
15.878677
15.230775
13.793707
13.267994
12.211800
11.689663
10.863543
10.840893
10.412931
9.838939
9.838939
9.498596
9.429455
9.334683
9.338856
8.959770
9.154677
9.167790
9.132624
9.205937
9.422898
##ZVALUE=280
1.627803
1.318455
1.377463
1.534820
1.436472
1.529455
1.663566
1.538992
1.513958
1.613498
1.716614
1.726747
1.843572
2.009869
1.955628
2.122521
2.325773
2.384782
2.564788
2.971888
3.345609
4.135966
18.568635
72.459579
261.597633
508.370399
967.734456
1015.869975
1015.869975
1015.869975
1015.869975
1015.869975
1015.869975
1015.869975
1015.869379
982.416868
616.026521
257.518888
117.923617
55.372715
55.677891
74.512959
91.696978
114.486814
127.540827
136.655569
134.963989
124.397874
109.843612
86.762905
69.907904
50.236583
39.294958
28.838515
24.338961
21.385550
20.233989
19.790530
19.320846
18.773675
18.163919
17.594695
17.649531
16.999841
16.925931
16.616583
16.689897
16.550422
16.863942
17.755628
16.927719
17.200708
16.665459
16.574860
16.102791
15.050769
14.269948
13.388991
12.978911
12.100935
11.058450
10.620952
10.723472
10.448694
10.263920
9.847879
9.325743
9.909868
9.693503
9.508729
9.472966
9.150505
9.127855
9.202957
9.072423
9.132624
##ZVALUE=285
1.251698
1.327991
1.211762
1.475811
1.364946
1.414418
1.477599
1.588464
1.594424
1.341701
1.366735
1.539588
1.574755
1.680851
1.939535
1.850724
1.873970
2.123713
2.313852
2.506971
2.666712
3.215671
3.282428
3.889799
7.013679
40.277839
115.115047
341.119766
640.932918
1015.870571
1015.870571
1015.870571
1015.870571
1015.870571
1015.870571
1015.870571
1015.870571
1015.870571
876.084566
407.480001
195.304751
65.378547
40.267706
47.830939
62.240958
85.088611
100.728869
117.990971
124.792457
126.544833
118.639469
101.487637
85.492730
64.501762
48.013926
32.848716
25.143623
19.336939
17.527938
16.624928
15.953779
15.707612
15.157461
14.877915
15.101433
14.951825
15.335679
14.941692
15.653968
15.768409
15.990734
16.222000
15.879869
15.411973
14.846921
14.027953
13.568997
12.449622
12.015700
11.784434
11.125803
10.538697
10.315776
10.095835
9.786487
9.859800
9.555817
8.984804
9.019971
9.102821
9.206533
9.171963
8.944869
8.926988
9.278655
8.809566
##ZVALUE=290
1.202822
1.138449
1.212955
1.243949
1.317859
1.232624
1.318455
1.320839
1.306534
1.527667
1.481771
1.475811
1.577735
1.693964
1.812577
1.835823
1.824498
1.892447
1.845956
2.195835
2.232790
2.447963
2.741814
2.783537
3.336668
3.671646
4.280806
11.647940
63.032508
167.247057
364.511013
851.048827
1015.870571
1015.870571
1015.870571
1015.870571
1015.870571
1015.870571
1015.870571
1015.870571
1015.870571
585.669875
295.528769
99.638700
40.599704
30.181408
38.843751
54.889917
70.545673
92.417598
106.093884
117.185712
119.438767
110.822916
98.922849
76.577663
60.365796
42.114854
31.281710
21.333694
17.358661
14.334917
12.980700
12.646914
12.560487
12.810826
12.869835
13.243556
13.564825
13.939738
14.451742
14.585853
14.468431
13.872981
13.155937
12.682676
12.107491
11.493564
10.653734
10.435581
10.364652
9.979606
9.696484
9.748936
9.472966
9.520650
9.302497
9.052753
8.968711
8.826852
8.757710
8.805990
8.802414
8.908510
9.154677
8.802414
##ZVALUE=295
1.160502
1.043677
0.980496
1.155734
1.202822
1.171827
1.255870
1.386404
1.317859
1.346469
1.346469
1.411438
1.352429
1.327991
1.482964
1.591444
1.525879
1.602769
1.905560
1.714826
1.866817
1.972914
2.092719
2.447963
2.480745
2.727509
3.204942
3.250837
3.745556
5.620718
19.386411
97.922683
244.587660
640.505552
1014.449000
1015.870571
1015.870571
1015.870571
1015.870571
1015.870571
1015.870571
1015.870571
1015.870571
827.997923
444.674492
149.702430
59.246421
23.243427
23.870468
35.163760
47.061443
66.485405
82.057714
99.755526
108.957887
110.752583
105.215907
90.901852
76.063871
56.677461
42.357445
27.500987
20.824671
14.932752
12.284517
11.085868
11.146665
11.092424
11.424422
12.128949
12.139678
12.696981
12.695789
12.174845
11.932850
11.260509
10.732412
10.349751
9.721518
9.705424
9.530783
9.401441
9.218454
8.874536
9.260774
8.667707
8.514524
8.718967
8.661747
8.600950
8.724928
8.595586
8.539557
8.369684
8.454919
8.309484
##ZVALUE=300
1.049638
1.126528
1.152754
1.073480
1.240969
0.954866
1.119971
1.213551
1.309514
1.154542
1.332760
1.259446
1.151562
1.470447
1.377463
1.390576
1.547933
1.615882
1.657605
1.643896
1.685619
1.821518
1.780987
1.863837
2.155900
2.136827
2.460480
2.669692
2.906919
3.082752
3.617406
3.917813
12.291670
47.111511
186.360478
394.814610
884.882808
1015.870571
1015.870571
1015.870571
1015.870571
1015.870571
1015.870571
1015.870571
1015.870571
1015.870571
630.450845
329.292417
103.165507
36.461949
17.950535
20.896792
31.000972
40.999651
59.021711
74.746609
93.322992
101.676583
105.837584
101.263523
88.566542
75.416565
56.217909
42.767525
27.295947
20.279884
14.193654
11.977553
10.848641
11.133552
11.163950
11.536479
11.486411
10.668635
10.728836
10.337830
9.699464
9.503961
9.461641
9.323955
9.163618
8.944869
8.547902
8.578897
8.578897
7.990599
8.285642
8.024573
8.283854
8.374453
8.111596
8.154511
8.092523
8.168817
8.130670
8.107424
##ZVALUE=305
1.049638
1.039505
1.040697
1.154542
1.252890
0.993609
1.165867
1.074672
1.210570
1.117587
1.162887
1.151562
1.159906
1.305938
1.176000
1.382828
1.291633
1.280904
1.513958
1.426935
1.463890
1.402497
1.552701
1.723766
1.852512
1.878738
2.153516
2.267957
2.192855
2.319813
2.888441
2.766848
3.188848
3.883839
5.558729
34.216642
107.990503
336.710811
636.038780
1015.870571
1015.870571
1015.870571
1015.870571
1015.870571
1015.870571
1015.870571
1015.870571
1015.870571
945.547819
438.357592
206.824541
58.073997
20.797849
16.074777
19.436479
28.714538
39.372444
56.426525
70.141554
87.508559
97.122788
99.668503
95.720887
84.159970
71.137547
52.412748
40.178895
27.421713
19.768476
14.112592
12.480617
11.224747
10.837913
10.221601
9.981990
9.392500
9.184480
8.927584
8.581877
8.389950
8.505583
8.180737
8.458495
8.275509
8.361936
7.862449
8.360744
8.277893
8.043647
7.967949
7.743835
8.177757
7.875562
8.051991
7.930994
7.663965
##ZVALUE=310
0.881553
0.979900
1.001954
1.103878
1.057982
0.945926
1.084805
1.028776
1.133680
1.137853
0.934601
1.109838
1.120567
1.068711
1.158714
1.163483
1.229644
1.473427
1.210570
1.314878
1.531839
1.487732
1.586676
1.580715
1.612902
1.778603
1.990795
1.939535
2.007484
2.023578
2.264977
2.383590
2.537966
2.845526
3.113747
3.665686
4.044771
12.345910
48.408508
194.189548
416.396856
926.916003
1015.870571
1015.870571
1015.870571
1015.870571
1015.870571
1015.870571
1015.870571
1015.870571
1015.870571
677.742958
359.001756
116.931796
38.150549
13.679862
14.188886
18.144846
23.760796
35.860538
47.547817
65.325499
78.005791
89.006424
93.806982
91.489553
83.626509
67.943931
55.268407
39.204955
28.873682
19.703507
15.371442
11.746883
10.397434
9.315610
8.492470
8.401871
7.982850
7.853508
7.962584
7.872581
7.748604
7.621646
7.845759
8.016825
8.061528
7.918477
7.521510
7.717609
7.749796
8.125901
7.513762
7.916689
7.916689
7.523894
##ZVALUE=315
0.996590
1.042485
1.001954
0.954866
1.050830
1.090765
1.009703
0.989437
1.135468
1.033545
1.051426
0.973940
1.030564
1.006722
1.029968
1.153946
1.272559
1.236796
1.189709
1.373887
1.308918
1.314878
1.444817
1.365542
1.557469
1.647472
1.588464
1.717806
1.613498
1.769662
1.781583
2.133846
2.203584
2.520680
2.454519
2.778769
2.964735
3.374815
3.859401
5.952716
21.033883
110.433698
272.924900
681.287646
1015.893817
1015.893817
1015.893817
1015.893817
1015.893817
1015.893817
1015.893817
1015.893817
1015.893817
914.917588
502.377748
178.602934
64.208508
16.654730
11.919737
12.969971
15.885830
23.254752
31.203628
44.963956
57.647824
74.211955
83.504915
88.249445
87.614655
78.218579
68.077445
52.506924
40.284991
26.212931
18.966794
12.733936
10.120869
8.526444
8.027554
7.804632
7.655621
7.423759
7.487535
7.380843
7.443428
7.432699
7.490516
7.493496
7.429719
7.659793
7.567406
7.496476
7.622838
7.671714
7.851720
7.436872
##ZVALUE=320
0.847578
0.977516
0.832677
0.850558
0.972748
0.757575
0.970960
0.988841
0.970960
1.087785
1.025796
1.033545
1.126528
0.918508
1.120567
1.187921
1.143813
1.173615
1.184940
1.425743
1.124740
1.324415
1.286864
1.312494
1.541972
1.435876
1.488924
1.603961
1.658797
1.726747
1.696944
1.856685
1.882911
1.979470
2.128482
2.283454
2.441406
2.501607
2.974868
3.049970
3.528595
4.392862
9.133816
54.347515
154.853463
463.353395
852.457881
1015.870571
1015.870571
1015.870571
1015.870571
1015.870571
1015.870571
1015.870571
1015.870571
1015.870571
677.312016
284.924507
120.570660
29.540658
12.614727
10.745525
11.457801
14.537573
19.039512
28.998852
39.492846
55.424571
67.060590
79.120994
83.921552
82.112551
76.293945
62.259436
50.473809
34.945607
25.250912
16.453862
11.888742
8.806586
7.632971
7.362962
7.167459
6.798506
6.859899
6.609559
6.934404
6.793737
6.748438
6.843805
6.879568
7.144809
7.215738
7.348657
7.309914
7.256866
##ZVALUE=325
0.870824
0.949502
0.905991
0.802875
0.818968
0.887513
0.980496
0.932813
0.859499
0.864863
1.059771
0.847578
1.013875
0.940561
0.991821
1.041889
1.209974
1.054406
1.044869
1.116991
1.093745
1.224875
1.209974
1.031756
1.285672
1.219511
1.461506
1.359582
1.484752
1.592636
1.569986
1.596808
1.739860
1.747608
1.677871
1.929998
1.933575
2.105832
2.389550
2.372861
2.853870
2.964735
3.257990
3.834963
5.538464
34.291744
102.409720
314.741731
608.659983
1015.871763
1015.871763
1015.871763
1015.871763
1015.871763
1015.871763
1015.871763
1015.871763
1015.871763
886.279941
402.800441
184.867978
45.669675
15.583634
9.910464
9.952784
11.119843
13.220906
19.317865
26.928782
40.504932
51.287413
64.850450
73.088408
79.065561
76.776743
68.089962
58.617592
43.899417
33.665895
21.900535
15.644431
10.219812
8.397698
7.139444
6.839633
6.405711
6.592870
6.761551
6.541610
6.693602
6.892681
7.010698
7.311702
7.307529
7.612705
7.767677
##ZVALUE=330
0.935793
0.827909
0.744462
0.811815
0.922680
0.838637
0.865459
0.860691
0.963807
0.774860
0.892878
0.909567
0.997782
0.930429
0.951886
1.123548
1.070499
0.913739
0.944734
1.017451
1.063943
1.172423
1.134872
1.239777
1.247525
1.196861
1.318455
1.318455
1.293421
1.501441
1.397729
1.443624
1.506805
1.514554
1.606941
1.801848
1.866817
1.886487
1.914501
1.971722
2.368689
2.388954
2.637506
3.040433
3.125668
3.569722
4.006624
12.842417
47.782660
196.148753
418.890715
933.407545
1015.870571
1015.870571
1015.870571
1015.870571
1015.870571
1015.870571
1015.870571
1015.870571
1015.870571
581.731796
290.491581
91.086626
27.772784
10.170937
9.534955
9.600520
10.443926
13.889670
18.002987
26.838779
35.458803
49.517751
58.919787
69.135427
72.257519
70.400834
65.663457
53.527951
43.172836
30.017495
22.246838
15.008450
11.322498
8.366704
7.370710
6.948709
6.832480
6.906986
7.040501
7.580519
8.028746
8.180737
8.592606
8.905530
##ZVALUE=335
0.739694
0.743866
0.765920
0.800490
0.784993
0.688434
0.822544
0.875592
0.914931
0.816584
0.857711
0.987649
0.928640
0.847578
0.991821
0.913739
1.085997
1.011491
0.988841
0.889897
0.999570
1.048446
1.129508
1.064539
1.151562
1.190901
1.195669
1.263618
1.150966
1.400709
1.240969
1.360774
1.489520
1.406670
1.576543
1.656413
1.530647
1.846552
1.787543
1.981854
1.805425
2.188683
2.267957
2.420545
2.530813
2.747774
2.916455
3.306866
3.813505
6.906986
26.112795
126.431584
287.933946
693.919659
1015.871763
1015.871763
1015.871763
1015.871763
1015.871763
1015.871763
1015.871763
1015.871763
1015.871763
846.250653
451.882482
153.436661
49.925447
12.240410
9.847879
9.218454
9.680986
10.632873
12.345910
17.326474
23.515821
33.973455
43.457747
54.902434
62.469840
67.315698
66.720843
59.463978
52.211881
40.282607
31.905770
21.989942
16.475916
11.400580
9.301901
8.039474
7.724762
8.103848
8.555651
9.000897
9.356737
9.948611
##ZVALUE=340
0.787973
0.792742
0.708699
0.782609
0.782609
0.709891
0.800490
0.760555
0.907779
0.912547
0.984669
0.888705
0.869632
0.891685
0.941753
0.801682
0.981688
1.039505
1.057982
1.048446
1.045465
0.986457
0.975728
0.980496
1.103878
1.078844
1.242757
1.201630
1.280904
1.182556
1.218915
1.241565
1.395941
1.362562
1.229644
1.480579
1.393557
1.561642
1.698732
1.733899
1.803637
1.801848
1.875758
1.973510
2.167821
2.337694
2.431870
2.819896
3.057718
3.218651
3.643632
4.299879
10.221601
59.290528
169.980526
494.501591
910.758972
1015.870571
1015.870571
1015.870571
1015.870571
1015.870571
1015.870571
1015.870571
1015.870571
987.648964
593.884587
231.432915
82.050562
16.772747
10.494590
9.848475
9.615421
9.347796
9.641647
11.654496
15.307665
22.194982
30.228496
42.620897
50.786734
59.234500
62.621832
62.225461
58.132410
49.606562
41.324496
30.280948
24.096966
17.088652
13.383627
10.939837
10.524988
10.721684
11.440516
11.790991
##ZVALUE=345
0.753999
0.783801
0.654459
0.718832
0.988841
0.912547
0.892878
0.822544
0.845790
1.033545
0.772476
0.837445
0.885725
0.993609
0.845790
0.883937
0.884533
0.992417
1.006722
0.958443
0.969768
1.035929
0.885725
0.984669
1.051426
1.193881
1.147985
1.255870
1.310706
1.166463
1.106858
1.330972
1.242757
1.348853
1.278520
1.275539
1.366735
1.324415
1.476407
1.586676
1.542568
1.687407
1.853704
1.812577
2.015829
2.049804
2.052784
2.208948
2.386570
2.654791
2.783537
3.209710
3.254414
3.952980
5.855560
33.490658
107.158422
333.266854
662.040710
1015.867591
1015.867591
1015.867591
1015.867591
1015.867591
1015.867591
1015.867591
1015.867591
1015.867591
809.612870
334.645510
136.851668
32.083988
13.810992
10.958910
9.978414
8.703470
8.282661
8.772612
10.298491
14.128685
19.687414
29.133558
37.222505
47.368407
53.095818
58.601499
58.719516
55.262446
49.748421
40.463805
33.039451
25.125742
20.339489
16.967654
15.208721
14.431477
##ZVALUE=350
0.921488
0.899434
0.734925
0.913739
0.992417
0.902414
0.983477
0.901818
0.889897
0.904799
0.800490
0.870824
0.989437
0.895858
1.014471
0.938773
1.031756
1.033545
1.019835
0.840425
1.130700
1.261830
1.176596
1.113415
1.238585
1.279712
1.107454
1.148582
1.205802
1.141429
1.124740
1.294613
1.278520
1.395941
1.376867
1.469851
1.455545
1.447797
1.507998
1.555681
1.485944
1.615882
1.583695
1.725554
1.822710
1.877546
1.961589
1.917481
2.132654
2.355576
2.584457
2.719760
2.809763
3.047585
3.392696
3.755689
4.673600
15.190840
54.927468
206.926465
439.249873
966.858864
1015.874743
1015.874743
1015.874743
1015.874743
1015.874743
1015.874743
1015.874743
1015.874743
1013.618708
508.838892
227.887630
51.867962
16.072989
9.789467
8.890629
7.693768
7.296801
7.159710
7.718801
9.933710
12.894869
18.315911
24.136901
33.959746
41.249990
49.556494
53.801537
55.677891
54.291487
48.918724
42.940974
34.800768
29.755831
24.073720
##ZVALUE=355
0.944734
0.977516
0.823736
0.902414
0.986457
0.892878
0.985861
0.924468
1.043677
0.922680
0.920892
1.077652
1.067519
0.918508
0.953674
1.079440
1.137853
1.040697
0.988841
1.124740
1.051426
1.077652
1.187921
1.061559
1.160502
1.304746
1.280904
1.173615
1.219511
1.260638
1.167655
1.369715
1.335740
1.298785
1.537800
1.404881
1.552701
1.548529
1.457930
1.505613
1.573563
1.536608
1.673698
1.572967
1.706481
1.785755
1.873970
2.064705
2.038479
2.241731
2.106428
2.415776
2.538562
2.713799
2.762675
3.038645
3.508925
3.837943
4.302859
7.890463
26.436448
124.381781
287.934542
698.606968
1015.870571
1015.870571
1015.870571
1015.870571
1015.870571
1015.870571
1015.870571
1015.870571
1015.870571
624.506474
286.256671
75.683594
22.997856
9.518862
8.589625
7.932782
7.408857
7.195473
7.031560
7.704496
8.912683
12.189746
16.000867
23.189783
29.504895
38.018823
45.143962
51.872730
53.499937
52.460432
49.454570
43.208599
##ZVALUE=360
0.883937
0.915527
0.838637
1.057982
1.015663
0.955462
0.992417
0.890493
0.998974
1.018643
1.024604
1.032948
1.088977
1.119971
0.981688
1.070499
1.098514
0.972748
0.987649
1.103878
1.162887
1.243949
1.040697
1.335740
1.108646
1.101494
1.332760
1.261830
1.268983
1.389980
1.228452
1.347661
1.313686
1.480579
1.407862
1.506805
1.496673
1.375675
1.466870
1.674891
1.647472
1.705885
1.642704
1.726747
1.707673
1.860857
1.730919
1.943707
2.030730
2.148747
2.081990
2.232790
2.297759
2.543926
2.656579
3.032684
2.917647
3.056526
3.365874
3.816485
4.194975
5.219579
11.934638
59.510469
161.566734
454.370975
854.916573
1015.870571
1015.870571
1015.870571
1015.870571
1015.870571
1015.870571
1015.870571
1015.870571
950.267911
492.157936
154.927969
47.404766
11.729598
9.036660
7.892847
7.534623
7.151961
6.776452
6.709695
7.149577
8.425713
10.363460
14.551878
19.335747
27.664900
34.343600
42.348504
46.537519
50.246716
##ZVALUE=365
0.849962
0.806451
0.976920
1.037717
0.929832
1.022816
0.907779
0.817776
0.931621
0.971556
0.996590
1.028776
0.942945
1.059771
1.073480
1.041889
0.920892
1.027584
0.898838
1.210570
1.097918
1.120567
1.132488
1.135468
1.094937
1.088977
1.117587
1.276731
1.147985
1.135468
1.338720
1.325607
1.279712
1.340508
1.374483
1.471639
1.314878
1.255870
1.542568
1.496673
1.533628
1.660585
1.475811
1.616478
1.683831
1.660585
1.711845
1.716614
1.813769
1.881719
1.793504
2.104640
2.060533
2.233982
2.300739
2.283454
2.422929
2.593994
2.666712
2.968907
3.372431
3.768802
4.229546
4.630685
6.393790
33.519864
104.653835
317.107439
637.605786
1015.870571
1015.870571
1015.870571
1015.870571
1015.870571
1015.870571
1015.870571
1015.870571
1015.870571
840.250850
300.508738
102.727413
16.941428
8.749962
7.736683
7.184744
6.644726
6.406903
6.269813
6.308556
6.856918
7.857680
10.204911
13.155937
18.524528
23.389459
30.352473
##ZVALUE=370
0.844598
0.860691
0.889897
0.919700
0.884533
0.855923
0.945926
0.894666
0.920892
1.002550
0.858903
1.021624
0.787973
1.028776
1.014471
1.075864
0.947714
1.034737
1.057982
1.040697
1.069903
1.056790
1.163483
1.028776
1.066923
1.084805
1.020432
0.940561
1.108646
1.123548
1.132488
1.257658
1.134872
0.954866
1.240969
1.217723
1.213551
1.332760
1.332760
1.419783
1.263618
1.420975
1.257658
1.296997
1.332760
1.576543
1.463890
1.550913
1.544952
1.744628
1.726747
1.738667
1.667738
1.700521
1.846552
1.911521
2.080798
2.068877
2.149940
2.253652
2.413988
2.590418
2.945662
3.161430
3.578663
3.983974
4.834533
16.664863
65.310001
258.246064
528.767705
1009.740829
1015.877724
1015.877724
1015.877724
1015.877724
1015.877724
1015.877724
1015.877724
1015.877724
909.564495
369.113684
153.336525
36.810637
11.392832
7.118583
6.847978
6.303787
6.273985
6.127954
6.290674
6.549954
7.112622
7.801652
9.224415
11.816621
##ZVALUE=375
0.798702
0.737906
0.832677
0.746846
0.876784
0.846982
0.789762
0.811815
0.964999
0.996590
0.877976
0.833869
0.826716
0.779629
0.906587
0.864863
0.793934
1.035929
0.829697
0.890493
0.910759
0.848770
0.941753
0.979900
0.984669
0.944734
0.936985
1.072884
0.930429
1.001954
1.049638
1.119971
1.049638
1.078844
1.119971
1.116991
1.170635
1.105666
1.206994
1.097918
1.208782
1.097918
1.242757
1.340508
1.273751
1.316667
1.186728
1.315475
1.401901
1.271963
1.362562
1.385808
1.340508
1.733899
1.512766
1.753569
1.778603
1.688600
1.737475
1.824498
1.901984
2.136827
2.286434
2.366900
2.622604
2.817512
3.069639
3.897548
4.296899
8.825660
29.610991
131.700039
329.360962
840.382576
1015.870571
1015.870571
1015.870571
1015.870571
1015.870571
1015.870571
1015.870571
1015.870571
1015.870571
713.101625
391.158462
121.136904
30.668974
7.906556
6.892681
6.637573
6.594658
6.658435
6.875992
6.929636
6.860495
6.885529
##ZVALUE=380
0.822544
0.634789
0.729561
0.760555
0.690818
0.693798
0.709891
0.651479
0.747442
0.742674
0.784993
0.731945
0.752807
0.804663
0.841618
0.764728
0.885725
0.895858
0.822544
0.812411
0.902414
0.904799
0.822544
0.845790
0.858903
0.933409
0.928640
0.898838
0.984669
0.967979
1.027584
1.079440
1.052618
1.082420
0.943542
1.033545
1.200438
1.164675
1.134872
1.153946
1.020432
1.176000
1.167655
1.217723
1.181960
1.291633
1.069903
1.391768
1.305938
1.220703
1.155734
1.183748
1.451969
1.418591
1.458526
1.527667
1.415610
1.488924
1.625419
1.607537
1.624823
1.665950
1.861453
2.019405
2.128482
2.427697
2.674460
2.946854
3.474951
4.069805
4.294515
5.720854
17.059445
93.194842
242.882967
645.465851
1015.881896
1015.881896
1015.881896
1015.881896
1015.881896
1015.881896
1015.881896
1015.881896
1015.881896
735.154748
403.568745
146.568418
53.586960
11.444688
7.343888
6.927848
6.976724
7.070899
6.888509
6.706715
##ZVALUE=385
0.691414
0.678897
0.678897
0.649691
0.642538
0.721812
0.677705
0.562668
0.589490
0.684857
0.640750
0.694990
0.550747
0.736713
0.736713
0.749826
0.722408
0.594854
0.532866
0.725985
0.703931
0.746846
0.889897
0.753999
0.921488
0.852942
0.981688
0.991821
1.146793
1.055598
1.098514
1.045465
1.097918
1.045465
1.012683
1.199841
1.300573
1.211762
1.233816
1.199841
1.319647
1.139641
1.232624
1.201630
1.196861
1.267791
1.212955
1.236796
1.101494
1.267791
1.289845
1.281500
1.251698
1.182556
1.295805
1.393557
1.464486
1.185536
1.332760
1.511574
1.589656
1.688600
1.809597
1.819730
1.899600
2.405643
2.480745
2.684593
2.916455
3.288984
3.571510
3.755689
3.892779
4.330873
7.533431
45.669675
141.911507
428.187847
825.371742
1015.870571
1015.870571
1015.870571
1015.870571
1015.870571
1015.870571
1015.870571
1015.870571
1015.870571
642.385483
243.505836
92.581511
18.347502
8.559823
7.503629
7.308722
6.989837
##ZVALUE=390
0.702739
0.732541
0.596642
0.553727
0.715852
0.741482
0.553727
0.647902
0.740886
0.690818
0.740886
0.600815
0.711679
0.583529
0.737906
0.583529
0.684857
0.771880
0.658631
0.754595
0.607967
0.686646
0.555515
0.518560
0.886917
0.901818
0.912547
0.973940
1.100898
1.070499
1.104474
1.009703
1.018643
1.128912
1.281500
1.215935
1.327991
1.282692
1.286864
1.369715
1.440644
1.243949
1.356602
1.267791
1.336932
1.406670
1.226664
1.241565
1.388788
1.407862
1.283884
1.342893
1.240969
1.320839
1.205802
1.355410
1.459718
1.390576
1.524687
1.420975
1.528859
1.602769
1.686811
1.705885
1.898408
2.343655
2.359748
2.808571
2.750754
2.943873
3.242493
3.340840
3.250837
3.201962
3.160834
3.770590
4.555583
18.807650
72.408915
284.109712
606.810451
1015.870571
1015.870571
1015.870571
1015.870571
1015.870571
1015.870571
1015.870571
1015.870571
1015.870571
923.424959
388.514996
171.879530
39.441586
12.668967
7.622838
##ZVALUE=395
0.697970
0.878572
0.592470
0.705719
0.602603
0.699759
0.582933
0.709891
0.657439
0.597835
0.622869
0.671744
0.710487
0.613928
0.693798
0.698566
0.618696
0.484586
0.756979
0.765920
0.820756
0.872612
0.666976
0.920892
0.899434
0.831485
1.020432
0.938773
0.939965
0.909567
1.084805
1.176596
0.992417
1.184940
1.210570
1.250505
1.143813
1.324415
1.465678
1.464486
1.377463
1.346469
1.391768
1.301765
1.284480
1.322627
1.404881
1.314878
1.402497
1.348853
1.562834
1.373887
1.478791
1.346469
1.416802
1.273751
1.470447
1.370907
1.437664
1.517534
1.294613
1.576543
1.585484
1.677871
1.865625
2.022982
2.300739
2.517700
2.676845
2.892613
2.988577
2.870560
2.692938
2.743602
2.776980
2.788901
3.084540
3.395677
3.837943
9.915829
40.369630
179.835558
403.819680
926.276445
1015.870571
1015.870571
1015.870571
1015.870571
1015.870571
1015.870571
1015.870571
1015.870571
1015.870571
609.583855
298.106670
90.645552
##ZVALUE=400
0.782609
0.749826
0.686646
0.801682
0.696778
0.584722
0.637770
0.453591
0.670552
0.679493
0.615716
0.733733
0.597835
0.680685
0.640750
0.698566
0.777841
0.646710
0.725985
0.566840
0.645518
0.733733
0.763535
0.826716
0.756979
0.835657
0.919700
0.991821
1.035929
0.932813
0.974536
1.075864
1.132488
1.298785
1.031756
1.233816
1.209974
1.229644
1.299977
1.302958
1.242757
1.208782
1.215935
1.354814
1.423955
1.239777
1.406670
1.286864
1.392961
1.346469
1.226664
1.371503
1.327991
1.259446
1.374483
1.343489
1.293421
1.387596
1.408458
1.458526
1.364946
1.578927
1.601577
1.673698
1.832843
2.220869
2.285838
2.423525
2.651811
2.547503
2.555847
2.677441
2.390742
2.359748
2.311468
2.380610
2.573729
2.861619
2.754927
3.417730
3.655553
6.160736
22.270679
103.738904
259.711742
663.791895
1015.870571
1015.870571
1015.870571
1015.870571
1015.870571
1015.870571
1015.870571
1015.870571
1015.870571
846.903920
##END
