##TITLE=C510_R2
##FORMAT=SPECTACLE-ASCII V-1.2
##DATA TYPE=ULTRAVIOLET SPECTRUM
##SECOND TYPE=ULTRAVIOLET SPECTRUM
##DATE=05/28/18
##TIME=12:08:02
##SPECTROMETER/DATA SYSTEM=SPECTACLE
##XUNITS=NM EM
##YUNITS=ENERGY
##YFACTOR=1
##FIRSTX=220
##LASTX=410
##NPOINTS=96
##3DDATA=Equidistant
##ZUNITS=NM EX
##FIRSTZ=210
##LASTZ=400
##ZPOINTS=39
##XYDATA=(Y..Y)
##ZVALUE=210
45.689940
43.532848
35.127997
27.677417
23.924708
22.063851
18.893480
14.707446
14.500618
11.091828
8.079410
7.041693
6.886721
6.740689
6.390810
7.189512
6.884933
7.487535
8.803606
8.218884
9.508729
11.233687
11.575818
13.362765
17.402768
19.072890
21.705627
24.808645
25.600791
27.947426
29.833913
30.611753
30.835867
32.033920
31.158924
33.115745
31.176805
31.093955
30.082464
31.161904
27.911663
27.851462
29.118657
28.946996
30.998588
26.954412
27.557611
27.230978
27.156472
26.467443
28.882623
27.180910
27.656555
25.293827
27.828813
24.717450
24.938583
24.945736
24.812818
24.174452
24.845600
25.156736
25.250912
25.797486
27.347803
27.893782
32.277703
37.288666
41.239858
47.768950
50.921440
58.090687
62.254667
66.402555
67.810416
63.696504
63.946843
60.677528
55.469871
46.702623
40.265918
32.894611
30.278563
24.264455
22.461414
20.479560
18.609762
21.321774
19.729733
29.265881
36.508441
52.388906
70.929527
100.485682
124.559999
154.521465
##ZVALUE=215
154.899955
144.675970
113.414526
76.411963
60.574412
47.388673
42.264462
36.458969
33.972859
29.688478
23.037791
18.104911
13.539791
10.773540
9.181499
7.840991
7.012486
7.270575
7.838607
8.476973
8.610487
9.668469
10.598898
13.801455
15.955567
18.766522
20.312667
22.563934
25.277734
27.300715
28.132796
28.601885
31.031966
30.502677
31.169653
31.544566
32.475591
29.968619
29.427409
30.910969
30.952692
30.296445
29.654503
29.755831
28.458834
29.929876
27.390718
28.936863
29.288530
27.904510
28.979778
29.333830
29.162765
28.178692
27.111769
26.686788
26.115775
25.471449
26.695728
26.136637
23.990870
24.516582
26.119947
24.223924
26.859641
26.930571
31.020641
33.934712
35.733581
43.073893
42.435527
47.027469
51.381588
51.868558
51.068664
49.789548
46.040416
46.114922
41.742921
37.740469
29.169917
27.272701
25.184751
22.562742
20.787716
17.937422
18.290877
16.345978
16.554594
17.740726
15.540719
18.027425
18.204451
20.859838
28.295517
43.637753
##ZVALUE=220
326.113701
325.994492
303.478837
246.512890
197.463632
141.316652
101.729631
70.578456
58.411956
49.228668
47.007799
44.295788
37.777424
31.698942
23.458600
16.807914
12.860894
10.055900
7.768869
7.730722
7.576942
8.735657
9.705424
10.793805
10.885596
12.295842
14.767647
17.472506
17.545819
18.502474
19.938946
19.519925
21.877885
22.961497
23.776889
24.879575
25.000572
25.746822
26.665926
25.446415
27.234554
26.158690
27.560592
26.997924
26.144981
27.479529
29.455423
28.753877
26.645660
27.258992
28.286576
26.208758
27.904510
28.111935
26.593804
27.443767
27.444959
26.721954
25.783777
25.284886
26.613474
24.890900
24.727583
25.292635
24.118423
24.089813
26.147962
27.811527
30.147433
33.480525
36.519766
38.076639
40.291548
41.946769
39.598942
38.696527
39.893985
37.291646
33.934712
28.261542
27.337670
22.453666
18.678904
20.570755
17.967820
16.771555
15.371442
15.556812
14.453530
14.261603
14.401674
13.309717
14.277697
15.305877
14.470816
14.743805
##ZVALUE=225
379.459858
396.994948
465.843678
495.947599
481.196642
418.911576
339.931846
232.894421
165.238976
116.993785
78.117847
69.349408
66.200495
64.513683
59.237480
50.811768
38.531423
30.488968
22.763610
15.307665
10.574460
9.003878
8.350611
8.177757
9.277463
10.045767
10.571480
10.871887
12.101531
13.335943
13.827682
14.984608
15.850663
18.061996
18.258691
19.357800
21.288991
21.879673
24.456978
23.748875
25.860667
25.506616
26.075840
26.375651
27.126670
25.808811
26.591420
27.405620
28.179884
26.303530
27.610660
26.656985
26.076436
25.759935
25.680661
26.679635
26.047826
25.909543
26.253462
24.734735
24.037957
23.566484
24.821758
23.693442
23.583770
24.169683
24.426579
27.196407
27.667880
28.149486
31.318665
35.854578
36.424994
36.147833
35.899878
33.072829
31.987429
29.312968
26.253462
26.235580
21.017790
18.457770
18.406510
15.905499
15.647411
15.207529
15.700459
15.164614
14.466643
13.106465
13.960600
13.984442
13.268590
13.646483
12.793541
13.273954
##ZVALUE=230
218.617916
236.618519
351.145864
532.170534
640.237927
728.210807
733.490586
659.209490
548.584461
428.226590
264.449716
175.697803
111.328959
90.168715
84.662437
84.665418
83.193779
75.635910
62.757730
48.530698
36.839843
23.500919
16.534925
11.690855
9.227991
8.039474
8.542538
9.620786
9.828806
10.116696
10.490417
11.083484
11.832714
13.919473
13.833642
15.991926
18.219948
18.317699
19.687414
20.530820
21.981001
23.325682
22.572875
24.799705
24.245977
24.113655
22.637844
24.481416
24.431944
23.466945
24.823546
23.356676
24.971962
23.531914
24.343729
21.844506
22.402406
21.601915
22.368431
22.689700
20.874739
20.934939
22.012591
21.825433
21.657944
22.042990
21.892786
23.998618
26.784539
27.242899
28.635859
30.429959
31.416416
31.870604
30.265450
29.013753
28.161407
27.283430
24.592876
20.911694
19.117594
17.950535
17.069578
16.190410
15.441775
14.243722
14.532804
13.562441
14.926791
14.172792
13.434887
11.994839
12.995601
13.005733
12.188554
13.214946
##ZVALUE=235
42.329431
52.877665
109.570622
255.279541
406.047702
611.837506
773.753524
938.895941
982.125998
937.119722
780.667663
605.587959
381.082892
261.277556
160.772800
117.304921
98.433495
100.561976
102.785826
99.279881
89.898705
71.380734
56.446791
37.522912
26.293993
16.612411
13.111830
9.737611
9.292960
9.417534
8.495450
10.145903
10.670424
11.470914
11.772513
12.586713
13.214946
15.329719
16.234517
15.463829
16.927719
18.925667
19.452572
19.191504
19.843578
19.250512
20.277500
19.469857
18.942952
19.594431
18.981695
19.766688
19.563437
18.190742
17.334819
18.316507
18.258691
18.877983
17.423630
18.050671
18.144846
17.514825
17.682910
17.226934
17.911792
19.673705
20.457506
20.561814
21.507740
23.394823
24.953485
25.262833
27.331710
27.870536
27.094483
25.626421
25.091767
21.835566
19.499660
18.994808
16.814470
16.500950
14.279485
14.784932
14.241934
13.946891
12.960434
13.015866
12.792945
12.634993
12.740493
13.123751
12.440681
11.742711
12.057424
12.860894
##ZVALUE=240
2.957582
3.182888
13.155937
34.646392
107.417703
203.960538
410.972834
613.819957
906.822681
1015.685797
1015.685797
1015.685797
1014.204025
812.329650
605.261922
353.697538
237.480998
143.022537
111.180544
103.749633
110.848546
115.505457
107.885599
95.241666
74.043870
59.001446
39.978623
30.405521
18.655658
14.068484
11.058450
9.802580
10.313988
10.163784
10.499954
11.617541
12.155771
11.873841
12.295842
13.125539
13.661981
13.385415
14.095902
14.867783
14.806986
14.772415
15.283823
15.284419
15.084743
15.392900
15.011430
13.689995
14.826655
14.779568
14.361739
14.301538
14.207959
13.952851
14.019608
14.525652
14.921427
14.214516
13.817549
13.060570
14.143586
14.869571
14.477968
17.182827
18.034577
19.521713
21.304488
21.707416
22.027493
22.635460
21.147728
20.891428
19.961596
18.985868
16.924739
15.083551
15.196800
13.736486
13.300776
12.572408
12.040734
11.205673
10.946989
11.529922
11.191964
11.103749
11.208653
11.045933
11.324883
11.269450
10.372996
10.793805
##ZVALUE=245
2.119541
2.089739
2.091527
2.446771
5.505681
24.812818
63.951612
176.554918
324.036479
525.419712
860.095024
1015.870571
1015.870571
1015.870571
1015.870571
1015.870571
768.657923
552.559495
384.556651
196.020007
127.318501
98.851919
104.903579
118.606687
119.198561
111.384988
101.822615
80.708861
64.747930
44.334531
32.979846
20.564795
15.423894
11.931658
10.522604
10.630488
11.479855
11.595488
12.036562
11.426806
12.068748
12.526512
12.680888
12.727976
13.276935
12.880564
13.350844
12.259483
12.875795
12.918711
12.626648
12.459755
12.184978
12.705922
11.877418
11.967421
11.815429
12.155771
12.228489
11.610985
11.646748
11.663437
11.878610
11.000633
11.473894
12.201667
12.725592
14.081597
14.946461
15.142560
16.495585
17.395616
18.023849
18.014908
17.187595
16.508698
15.611649
14.354587
13.938546
12.466908
11.679530
10.968447
11.189580
10.129809
9.538531
9.938478
10.063648
9.486675
9.700656
9.699464
9.615421
9.705424
9.575486
9.867549
9.538531
9.650588
##ZVALUE=250
1.839995
2.007484
2.070665
1.887679
2.162457
2.187490
3.660917
10.189414
50.969720
112.896562
291.916728
493.469834
733.032823
1015.870571
1015.870571
1015.870571
1015.870571
1015.870571
1015.870571
716.128945
475.450754
287.736654
147.086978
101.278424
95.030665
105.347633
116.714835
121.642947
115.375519
104.296803
90.889931
67.472458
51.306486
32.573938
23.947954
16.314983
12.845993
12.029409
11.426806
12.065768
12.425780
12.219548
12.191534
11.749864
11.952519
12.045503
12.309551
12.219548
11.965632
11.528730
11.813641
12.018681
11.634827
11.617541
11.528730
11.167526
11.122823
10.602474
10.561943
10.181665
10.082722
9.718537
9.843707
10.282993
9.952784
10.549426
10.745525
10.870695
12.332797
13.141632
13.862848
14.516711
15.384555
14.456511
14.299750
14.051795
12.743473
12.322664
11.670589
10.481477
9.782910
9.000897
8.384585
8.535981
8.913875
8.303523
8.172989
8.362532
8.333921
8.349419
8.234978
8.162856
8.357763
8.144975
7.906556
7.490516
##ZVALUE=255
1.567602
1.624823
1.723766
1.951456
2.122521
1.979470
2.098680
2.286434
2.598763
5.959868
31.748414
82.200766
177.524686
396.370888
627.963543
982.573628
1015.868783
1015.868783
1015.868783
1015.868783
1015.868783
986.412764
620.612502
386.032462
185.509920
113.541484
84.114671
89.271665
107.659698
118.715763
125.076771
121.561885
112.069845
89.611411
73.144436
50.469637
37.848949
24.532676
17.841458
14.194846
13.580918
12.886524
13.378859
12.931824
12.704730
12.877584
12.897849
13.188720
12.864470
12.159944
12.317896
12.286901
11.705756
11.887550
11.714697
11.174679
10.796785
10.904670
10.862947
10.185838
9.967685
9.945631
9.770989
10.028481
9.603500
9.878874
10.042787
10.517836
11.275411
11.686683
12.175441
12.597442
12.837648
12.295842
12.645721
11.523962
11.179447
10.302663
9.928942
8.739829
8.440614
8.581877
7.757545
7.155538
7.103682
7.352829
7.358789
6.974936
6.841421
6.948709
7.010698
7.236600
6.736517
6.727576
6.868839
6.729960
##ZVALUE=260
1.651645
1.419783
1.467466
1.539588
1.635551
1.755953
1.981854
1.998544
1.868606
2.223849
2.473593
2.894998
14.961958
45.300722
130.726695
269.310474
558.589697
818.353891
1015.870571
1015.870571
1015.870571
1015.870571
1015.870571
1015.870571
854.049921
497.425795
310.714841
151.413679
94.977617
75.795650
86.370707
108.282566
120.923519
129.097700
125.790834
112.841725
100.315809
73.747635
56.994557
39.379001
29.401779
20.670891
17.574430
15.430450
15.240908
15.199780
15.173554
15.114546
14.674664
14.657974
14.097691
13.599992
13.217926
13.274550
12.713671
12.296438
12.050867
11.543632
12.145638
11.401772
10.826588
10.842681
10.204911
9.926558
10.043979
9.973645
10.662675
10.522604
10.770559
11.040568
11.572838
12.068748
12.171865
11.719465
11.083484
10.834932
9.763837
10.014772
8.739829
8.320808
8.182526
7.512569
7.158518
6.819963
7.010698
7.125735
6.684661
6.500483
6.487966
6.402731
6.522536
6.116629
6.603599
6.419420
6.743670
6.314516
##ZVALUE=265
1.337528
1.451969
1.694560
1.698732
1.660585
1.736879
1.888871
2.035499
1.800656
2.012849
2.138615
2.407432
2.275705
2.646446
5.521774
30.583739
81.487894
217.446685
397.834778
764.007568
1015.998721
1015.998721
1015.998721
1015.998721
1015.998721
1015.998721
1014.626026
755.196810
419.474840
240.499973
133.412480
71.742535
68.690777
90.934634
108.834505
126.075745
132.633448
127.317905
117.845535
98.034739
80.850720
57.415962
44.328570
30.593872
24.687648
19.889474
18.103719
17.321706
17.572641
17.300844
16.471744
16.862750
16.025901
15.488863
15.283823
15.013814
14.393926
13.947487
13.476610
12.457967
12.586713
11.722445
11.585951
11.102557
11.055470
10.928512
11.121631
11.465549
11.556745
11.722445
11.817813
12.866855
12.480617
12.001991
11.377931
10.818839
10.418892
9.141564
9.084940
8.470416
7.749796
7.718801
7.365942
6.963611
7.003546
6.758571
6.722808
6.669760
6.517768
6.565452
6.572604
6.476641
6.056428
6.019473
6.268620
6.346703
##ZVALUE=270
1.307726
1.307726
1.270771
1.358986
1.368523
1.350641
1.430511
1.447797
1.488924
1.535416
1.868606
1.837611
1.905560
2.092719
2.238750
2.526641
3.036857
13.042688
42.279959
152.211785
314.850807
565.308928
985.173583
1015.870571
1015.870571
1015.870571
1015.870571
1015.870571
1015.870571
1000.816822
725.320578
377.054811
200.247765
82.098842
59.269667
70.193410
88.403821
112.657547
126.439929
135.997534
134.499669
121.357441
107.318759
84.377527
65.965652
44.567585
35.608411
26.963949
22.875667
20.600557
19.495487
18.824935
17.868876
17.600656
17.516613
16.373992
15.611649
15.631914
14.997721
14.019608
14.007688
13.207793
12.691617
12.365580
12.033582
11.964440
11.641979
11.658669
12.177825
12.256503
12.522936
12.363791
12.166500
11.984706
11.431575
10.621548
10.422468
9.469986
8.759499
8.287430
8.086562
7.703900
7.442832
6.869435
6.842613
6.544590
6.485581
6.593466
6.197691
6.170869
6.078482
6.008744
5.987883
5.971789
5.988479
5.694628
##ZVALUE=275
1.105666
1.242757
1.052618
1.226664
1.290441
1.167655
1.414418
1.246929
1.426935
1.526475
1.676679
1.558661
1.553893
1.836419
1.867414
1.839995
2.204776
2.398491
2.414584
5.508661
22.667646
71.524978
232.878923
454.591513
888.494849
1015.871763
1015.871763
1015.871763
1015.871763
1015.871763
1015.871763
1015.871763
951.071978
509.606600
288.782716
117.672682
64.097643
53.287745
66.629648
89.392662
107.470751
126.637816
134.038925
131.956935
124.585629
104.069710
86.402893
65.372586
50.222874
34.909844
28.019547
22.281408
19.916892
18.418431
17.932653
16.971827
16.555786
15.373826
15.550852
14.910698
14.314651
13.775826
13.747811
13.308525
12.487769
12.436509
12.126565
12.405515
12.306571
12.280941
12.762547
12.445450
12.568831
12.320876
11.882782
11.058450
10.264516
9.657741
9.179711
8.533597
7.969737
7.779598
7.850528
7.444620
7.096529
6.731749
6.825924
6.560683
6.217957
6.491542
6.319880
6.021857
5.982518
6.029606
5.930662
6.063581
##ZVALUE=280
1.089573
1.025796
1.121759
1.029968
1.263618
1.204610
1.232624
1.379848
1.317859
1.326799
1.339912
1.444817
1.521707
1.738667
1.711845
1.781583
1.945496
1.851916
1.879930
2.397895
2.488494
3.148913
13.746619
51.101446
174.767971
341.776013
679.939985
991.761684
1015.870571
1015.870571
1015.870571
1015.870571
1015.870571
1015.870571
1015.870571
667.973757
396.318436
170.271993
82.424879
45.061707
49.054623
68.609715
85.713863
107.940435
121.204853
130.016804
130.108595
118.139982
104.685426
80.542564
64.857602
44.640899
33.857822
24.493933
19.478798
16.985536
15.511513
14.659762
14.355779
13.684630
13.707876
13.114810
12.500882
12.407899
11.997819
12.047887
11.694431
11.530519
11.550784
11.320710
11.758804
12.215972
11.466742
11.438727
10.976791
10.414720
9.571910
9.146929
8.478761
8.487701
7.776618
7.584691
7.254481
7.302761
7.039905
6.899834
6.956458
6.571412
6.421804
6.334782
6.372929
6.186962
6.141663
5.996823
5.800724
6.171465
##ZVALUE=285
1.178980
1.138449
1.110435
1.165867
1.171827
1.180768
1.102686
1.214743
1.143813
1.290441
1.230836
1.178980
1.406670
1.233816
1.390576
1.467466
1.611710
1.665950
1.761913
1.958609
2.016425
2.150536
2.462864
2.672672
6.233454
22.617579
89.254975
204.727650
481.369495
786.871910
1015.838981
1015.838981
1015.838981
1015.838981
1015.838981
1015.838981
1015.838981
930.562615
587.352514
272.969604
135.370493
50.381422
34.758449
43.605566
58.225989
80.469847
96.556544
112.939477
121.269822
121.268630
114.793777
97.452998
80.827475
58.734417
44.191480
28.872490
21.063685
15.383959
13.401508
11.494756
11.175871
11.234879
11.181831
10.952950
10.664463
10.466576
10.670424
10.672808
10.888577
11.010766
10.842681
10.815859
10.439754
10.676980
10.021925
9.577870
8.955598
8.650422
8.117557
8.036494
7.693768
7.198453
7.273555
7.124543
7.023811
6.941557
6.471872
6.550550
6.413460
6.156564
6.397963
6.263852
6.173849
6.417632
6.257892
6.196499
##ZVALUE=290
1.036525
1.004934
1.087785
1.144409
1.133680
1.029968
1.030564
1.160502
1.194477
1.202822
1.291633
1.150966
1.265407
1.332760
1.379848
1.477599
1.458526
1.511574
1.561642
1.633763
1.827478
1.868606
2.090931
2.081990
2.405643
2.734661
3.309846
8.249879
44.355989
119.102597
254.346728
578.279495
934.225917
1015.872955
1015.872955
1015.872955
1015.872955
1015.872955
1015.872955
1015.872955
795.310736
400.384665
206.282735
71.383715
31.456947
27.344823
35.813451
52.104592
67.508817
89.038610
102.500916
112.655759
114.058852
106.700659
95.034838
72.879791
56.007504
38.227439
27.346611
17.634630
13.423562
10.304451
9.518862
8.942485
8.945465
8.801818
8.860826
9.048581
9.189844
9.737611
9.828806
9.887815
9.679794
9.631515
9.257793
8.715987
8.694530
8.210540
7.991791
7.437468
7.227659
7.278919
7.235408
6.994605
6.739497
6.823540
6.698966
6.309748
6.295443
6.239414
6.258488
6.330609
6.022453
6.067753
6.368756
5.957484
##ZVALUE=295
0.988841
1.000762
1.003742
1.099706
1.053810
1.190901
1.132488
1.037717
1.088977
1.168847
1.071692
1.168847
1.075864
1.330972
1.286864
1.400709
1.220703
1.542568
1.422763
1.646876
1.537800
1.775622
1.812577
1.770854
1.961589
2.106428
2.266765
2.471805
3.022552
4.141927
20.667911
64.512491
205.826759
409.968495
832.060575
1015.931964
1015.931964
1015.931964
1015.931964
1015.931964
1015.931964
1015.931964
954.220891
606.300831
272.463560
128.191710
40.075779
20.384789
22.398829
30.990839
46.912432
61.795712
81.339478
95.072985
105.825663
107.565522
100.427866
90.338588
70.629716
55.818558
37.692785
26.353598
16.727448
12.394786
9.146929
8.309484
7.898808
8.078814
8.132458
8.439422
8.741617
8.608699
8.837581
8.739829
8.615851
8.132458
7.570982
7.834435
7.396936
7.079840
7.088780
6.865859
6.695986
6.753802
6.751418
6.448627
6.643534
6.414652
6.417632
6.268620
6.114841
5.801916
6.041527
6.430745
6.248951
6.172657
##ZVALUE=300
0.969768
0.965595
1.165867
1.027584
1.021624
0.886917
0.972748
1.007915
0.837445
0.902414
1.071692
1.122952
1.100898
1.021624
1.198649
1.173615
1.236796
1.129508
1.306534
1.446605
1.496673
1.405478
1.548529
1.723766
1.814961
1.784563
1.903772
2.007484
2.074838
2.299547
2.581477
2.974868
8.161664
31.213760
124.176741
265.196562
600.070953
958.320498
1015.870571
1015.870571
1015.870571
1015.870571
1015.870571
1015.870571
1015.870571
830.387473
423.688889
221.014619
71.682930
27.080774
15.431643
18.868446
28.295517
38.883686
56.964755
72.496533
89.551806
98.133683
101.620555
97.821951
86.232424
72.166920
52.771568
39.087534
24.961829
17.773509
11.597872
9.178519
8.020997
7.771850
8.028746
8.074641
8.044839
8.058548
7.688999
7.221699
7.243752
7.079840
6.411672
6.873608
6.449819
6.463528
6.360412
6.065965
6.346703
6.293654
5.968809
6.219745
6.210804
5.764961
6.054640
6.030798
5.902648
5.707741
6.024837
5.813837
##ZVALUE=305
0.828505
0.895858
0.984669
0.922680
1.016855
0.997782
0.977516
0.909567
0.913739
1.027584
1.071692
1.001954
1.064539
1.117587
1.074672
1.111627
1.091957
1.171827
1.125932
1.221895
1.132488
1.283884
1.410842
1.488924
1.409650
1.407862
1.615882
1.619458
1.854897
1.994967
2.072453
2.161860
2.395511
2.634525
3.739595
20.161867
63.996911
210.716724
409.948826
819.350481
1015.870571
1015.870571
1015.870571
1015.870571
1015.870571
1015.870571
1015.870571
972.926021
637.114644
293.352008
138.579607
40.446520
15.789866
13.610721
17.334819
27.057528
37.502646
54.060817
67.759752
84.042549
93.371868
96.266866
92.811584
81.949830
68.320632
49.406886
36.781430
24.097562
16.836524
11.190772
9.332895
8.326769
7.601976
7.598996
7.059574
6.592870
6.732941
6.408691
6.451607
6.192923
6.341934
6.167889
6.017685
6.097555
6.128550
6.126761
5.944967
5.991459
5.957484
5.750656
5.808473
5.610585
5.673766
5.755424
5.718470
5.557537
##ZVALUE=310
1.061559
0.827909
0.870824
0.889897
0.842810
0.850558
0.952482
0.996590
0.989437
0.729561
0.879765
0.931621
0.984669
0.950694
0.937581
1.020432
0.979900
0.976920
1.119971
1.090765
1.084805
1.295805
1.150966
1.220703
1.271963
1.407862
1.483560
1.561642
1.653433
1.646876
1.662970
1.784563
1.910925
2.207756
2.111793
2.672672
2.853870
8.821487
32.974482
126.495957
272.325873
609.189868
962.790847
1015.870571
1015.870571
1015.870571
1015.870571
1015.870571
1015.870571
1015.870571
884.925723
450.350642
238.058567
79.330802
26.556849
10.968447
11.603832
15.625954
21.849871
33.551455
45.096874
62.360764
74.597597
85.940957
89.895725
88.276863
80.269575
65.006614
52.313805
36.712885
26.403666
17.353892
12.351871
8.976460
7.604957
6.592870
6.303787
5.955696
5.946755
5.777478
5.975962
5.832911
5.636811
5.876422
5.777478
5.838871
5.984902
5.678535
5.704761
5.766749
5.628467
5.547404
5.485415
5.648732
5.724430
5.482435
##ZVALUE=315
0.805855
0.840425
0.794530
0.735521
0.816584
0.974536
0.801682
0.906587
0.825524
0.888705
0.959635
0.968575
0.888705
0.868440
0.981688
0.927448
1.036525
1.099706
0.963807
1.085997
1.068711
1.180768
1.222491
1.249909
1.228452
1.177788
1.390576
1.258850
1.398921
1.412630
1.640916
1.555681
1.713634
1.756549
2.073646
2.091527
2.230406
2.442598
2.587438
4.202724
14.517903
73.553920
185.497999
472.888947
799.074769
1015.870571
1015.870571
1015.870571
1015.870571
1015.870571
1015.870571
1015.870571
1015.870571
620.598793
343.612432
122.874975
45.854449
12.973547
9.621978
10.878444
13.716817
20.661950
29.304624
42.605996
55.183768
71.909428
79.752803
85.480809
84.080696
75.266957
64.809918
48.991442
37.449598
23.404956
16.410947
10.536909
8.100867
6.396770
5.899668
5.577803
5.776882
5.383492
5.654693
5.558729
5.465746
5.284548
5.437732
5.323887
5.207658
5.535483
5.431771
5.525947
5.575418
5.695820
5.533695
5.485415
##ZVALUE=320
0.779629
0.733733
0.792742
0.675917
0.897646
0.838637
0.797510
0.771880
0.742674
0.881553
0.956655
0.792742
0.859499
0.904799
0.991821
0.979900
0.911951
0.781417
1.067519
1.041889
0.996590
1.047850
1.043677
1.149774
1.185536
1.188517
1.241565
1.100898
1.349449
1.312494
1.326799
1.368523
1.479983
1.732707
1.506805
1.640916
1.861453
2.001524
2.186894
2.258420
2.703667
2.998710
6.323457
37.216544
110.155940
327.353477
579.832792
992.090702
1015.870571
1015.870571
1015.870571
1015.870571
1015.870571
1015.870571
1015.870571
778.377652
458.018780
194.372535
82.231760
20.446777
9.660721
8.419752
9.461641
12.690425
17.064810
27.688742
37.532449
52.415729
63.871741
76.331496
80.907941
79.730749
73.548555
60.235858
47.985911
32.440424
23.204684
14.915466
10.374784
7.082820
6.175637
5.489588
5.270839
5.306602
5.069971
5.154610
5.109906
5.187988
5.100965
5.132556
5.219579
5.215406
5.082488
5.190969
5.391836
5.213618
##ZVALUE=325
0.686646
0.753999
0.614524
0.576973
0.653863
0.634789
0.734925
0.682473
0.655651
0.701547
0.792742
0.773668
0.634789
0.710487
0.671744
0.756979
0.870824
0.932813
0.758767
0.707507
0.894666
0.893474
0.845790
0.941753
1.019835
0.965595
0.882745
1.107454
1.209974
0.990629
0.975728
1.162887
1.200438
1.289845
1.375675
1.421571
1.338720
1.476407
1.613498
1.737475
1.914501
2.098680
2.268553
2.842546
3.794432
21.095872
65.063834
205.534697
407.809615
835.468769
1015.763879
1015.763879
1015.763879
1015.763879
1015.763879
1015.763879
1015.763879
931.490660
585.740805
268.361568
125.227571
32.485723
11.904836
8.172989
7.849932
9.065866
11.588931
17.389655
24.718642
37.756562
48.902631
61.928630
71.037412
75.787902
73.976517
65.774918
56.483746
42.789578
32.086968
20.271540
13.854504
8.854866
7.015467
5.593896
5.303621
4.946589
4.623532
4.939437
4.881620
4.737973
4.706979
4.682541
4.925728
4.927516
4.964471
4.872680
##ZVALUE=330
0.808835
0.714660
0.815988
0.683665
0.800490
0.721812
0.720620
0.861883
0.838637
0.797510
0.777841
0.763535
0.686646
0.879765
0.803471
0.966787
0.836849
0.813603
0.955462
0.813603
0.847578
0.902414
1.061559
0.956655
1.119971
1.129508
1.139641
1.167655
1.149774
1.040697
1.168847
1.136661
1.110435
1.188517
1.467466
1.274943
1.332760
1.459718
1.446605
1.471639
1.612902
1.951456
1.924634
2.140999
2.251863
2.637506
2.977848
8.616447
31.656623
127.477646
275.363922
614.781976
965.788960
1015.871763
1015.871763
1015.871763
1015.871763
1015.871763
1015.871763
1015.871763
783.285499
373.954773
189.883709
61.630607
19.810796
7.934570
7.454753
7.474422
8.542538
11.537671
15.983582
24.255514
32.895803
46.939850
56.667924
67.024827
69.794655
68.810582
62.773824
50.925612
40.897727
27.968884
20.610690
13.618469
9.820461
6.772876
5.612969
4.891753
4.817843
4.811883
4.756451
4.860759
4.775524
5.147457
4.990697
4.922748
##ZVALUE=335
0.601411
0.677705
0.819564
0.770688
0.783801
0.889897
0.742674
0.910759
0.747442
0.939965
0.896454
0.783801
0.916719
0.677705
0.862479
0.794530
0.735521
0.837445
1.026988
0.826716
0.825524
0.986457
0.930429
1.059771
0.971556
1.062751
0.973940
0.990629
1.125932
0.927448
1.019835
1.068711
1.153946
1.055598
1.225471
1.177788
1.248717
1.485944
1.391768
1.409650
1.464486
1.706481
1.612902
1.937747
2.035499
2.204776
2.283454
2.488494
2.606511
4.284978
14.410615
70.487857
168.479681
430.913568
754.320025
1015.916467
1015.916467
1015.916467
1015.916467
1015.916467
1015.916467
1015.916467
968.070626
529.646873
278.241634
91.138482
32.013655
9.790659
7.340908
7.351637
7.551908
8.880496
10.780692
16.053915
21.843910
32.009482
41.238666
53.411722
60.627460
66.202879
64.010620
57.782531
50.526857
39.659739
30.861497
20.592809
14.748573
9.476542
7.191896
5.795956
5.216599
4.909635
4.730821
4.717708
4.818439
4.949570
##ZVALUE=340
0.640750
0.633597
0.623465
0.586510
0.766516
0.675917
0.536442
0.768900
0.771880
0.853539
0.829697
0.707507
0.714660
0.713468
0.706911
0.806451
0.750422
0.641942
0.678897
0.793934
0.835657
0.761747
0.823736
0.993609
0.829697
0.877976
0.914931
0.966787
0.860691
0.889897
0.938773
1.110435
1.033545
1.079440
0.955462
1.052618
1.194477
1.105666
1.316667
1.200438
1.256466
1.296997
1.435876
1.482964
1.551509
1.758933
1.652837
1.886487
2.073646
2.190471
2.295971
3.154874
7.011890
39.532781
112.164617
323.349833
592.611432
1012.753844
1015.871763
1015.871763
1015.871763
1015.871763
1015.871763
1015.871763
1015.871763
641.940832
360.640883
142.492652
51.908493
12.001991
7.785559
7.213950
6.924868
7.049441
7.764697
9.858608
13.637543
20.575523
28.614998
40.487647
49.278736
57.785511
60.640574
59.824586
56.358576
47.432780
38.990974
28.232932
21.206737
14.294982
10.137558
6.832480
5.723834
5.255938
5.023479
4.989505
##ZVALUE=345
0.460744
0.453591
0.628829
0.537634
0.681877
0.583529
0.562668
0.628829
0.596642
0.627637
0.624657
0.740886
0.744462
0.697970
0.692606
0.671744
0.466704
0.600815
0.602603
0.659823
0.776649
0.788569
0.665784
0.725985
0.840425
0.712872
0.741482
0.851750
0.760555
0.782609
0.808835
0.879765
0.916719
0.843406
0.952482
0.916719
0.960827
1.039505
0.891685
0.935793
1.211762
1.176000
1.109838
1.254678
1.215935
1.427531
1.451969
1.541972
1.453757
1.863837
1.893640
1.915693
2.201796
2.450943
3.617406
20.715594
67.874789
212.191343
416.567922
836.634636
1015.767455
1015.767455
1015.767455
1015.767455
1015.767455
1015.767455
1015.767455
846.108794
493.963957
196.620822
84.102750
21.901727
9.500980
7.293820
6.865859
6.214976
5.948544
6.590486
8.335710
12.752414
18.114448
27.688742
35.758615
44.574738
51.055551
56.202412
56.051612
52.848458
46.599507
36.883950
29.199719
19.978881
14.556646
9.471774
7.636547
5.913973
##ZVALUE=350
0.813603
0.494719
0.660419
0.699759
0.673532
0.836849
0.888705
0.806451
0.716448
0.705719
0.599623
0.805855
0.660419
0.855923
0.700951
0.690818
0.811815
0.878572
0.764728
0.792742
0.738502
0.676513
0.858903
0.783801
0.940561
0.720620
0.790954
0.961423
0.915527
0.985861
0.882745
0.790954
1.162887
0.893474
1.107454
0.970960
0.943542
1.074672
1.040697
0.959635
1.039505
1.226664
1.091957
1.325607
1.257658
1.276731
1.244545
1.336932
1.503825
1.522899
1.667738
1.760721
1.794696
2.008677
2.088547
2.537966
2.939701
9.980798
36.530495
137.075782
287.172794
640.562773
977.621675
1015.864611
1015.864611
1015.864611
1015.864611
1015.864611
1015.864611
960.826874
617.175698
288.038850
128.730536
31.036735
10.781884
6.970763
6.179810
5.696416
5.532503
5.316734
6.121993
8.226633
11.123419
16.720891
22.227764
31.725764
38.555861
46.786666
50.405860
52.033663
49.571991
43.191910
36.495924
27.177930
20.894408
14.486909
##ZVALUE=355
0.680685
0.670552
0.637770
0.644922
0.824928
0.784993
0.791550
0.765920
0.726581
0.663996
0.829697
0.930429
0.735521
0.613928
0.749826
0.748634
0.820756
0.700951
0.678897
0.824928
0.837445
0.891685
0.856519
0.812411
0.819564
0.795722
0.904799
0.938773
0.906587
0.935793
1.025796
0.867844
0.887513
1.118779
0.986457
0.895858
1.011491
1.059771
1.148582
1.068711
1.162887
1.016855
1.179576
1.110435
1.276731
1.135468
1.230836
1.319647
1.360774
1.361966
1.445413
1.615882
1.629591
1.821518
1.702905
2.023578
2.138615
2.422929
2.540946
4.826784
17.023683
82.313418
190.550685
452.157855
771.366954
1015.841961
1015.841961
1015.841961
1015.841961
1015.841961
1015.841961
1015.841961
773.254037
355.844498
171.201825
46.909451
14.803410
6.715655
6.154776
5.342960
5.255938
5.026460
5.087852
5.662441
6.772876
10.063648
13.673902
20.434856
26.598573
35.007596
41.004419
46.594739
48.211813
45.880675
42.158961
34.723878
##ZVALUE=360
0.744462
0.634789
0.841618
0.704527
0.781417
0.960827
0.797510
0.672936
0.721812
0.783801
0.773668
0.726581
0.786781
0.683665
0.859499
0.707507
0.878572
0.866652
0.903606
0.746846
0.866652
0.882745
0.819564
0.840425
0.815988
1.004934
0.880957
0.898838
0.972748
0.988841
0.897646
0.985861
0.951886
0.764728
1.005530
0.997782
1.090765
1.036525
0.981688
1.116991
1.132488
1.172423
1.155734
1.146793
1.119971
1.268983
1.299977
1.253486
1.428723
1.292825
1.433492
1.625419
1.563430
1.519918
1.768470
1.761913
1.866817
2.006888
2.203584
2.402663
2.700686
3.414750
7.336736
37.781000
103.305578
295.429826
549.427867
985.509753
1015.870571
1015.870571
1015.870571
1015.870571
1015.870571
1015.870571
933.858752
476.501584
250.895619
86.913705
29.375553
7.717609
6.118417
5.659461
5.204678
4.851818
4.693866
4.636645
5.026460
6.013513
7.932782
12.244582
16.550422
24.310946
30.161738
37.271976
41.421652
44.595599
##ZVALUE=365
0.678897
0.714660
0.739694
0.747442
0.833869
0.908971
0.817776
0.724792
0.702739
0.720620
0.767708
0.862479
0.737906
0.804663
0.794530
0.666976
0.774860
0.824928
0.900626
0.834465
0.921488
0.927448
0.834465
0.978708
0.878572
0.910759
0.925660
0.919700
1.055598
0.883937
0.966787
0.916719
1.077652
1.011491
1.005530
1.172423
0.925660
1.093745
1.060963
1.177788
1.176000
1.155734
1.187921
1.189709
1.048446
1.215935
1.171827
1.290441
1.235604
1.287460
1.348853
1.356602
1.505613
1.474619
1.549721
1.522899
1.692772
1.724958
1.764894
1.976490
2.071857
2.397895
2.681613
2.982616
4.116893
20.049810
61.649680
192.276835
391.080976
806.495547
1015.916467
1015.916467
1015.916467
1015.916467
1015.916467
1015.916467
1015.916467
654.197931
364.522934
130.305886
46.961904
10.307431
6.002784
5.325675
5.215406
4.832745
4.651546
4.436970
4.436970
4.787445
5.601645
7.717609
10.073781
14.584661
19.457936
26.284456
##ZVALUE=370
0.722408
0.702739
0.814795
0.796914
0.787973
0.677705
0.863671
0.729561
0.606775
0.677705
0.661612
0.732541
0.741482
0.759959
0.789762
0.661612
0.914931
0.742674
0.796914
0.730753
0.829697
0.852942
0.818968
0.708699
0.724792
0.838637
0.840425
0.806451
0.806451
0.916719
0.918508
0.935793
0.848770
0.864863
0.902414
0.895858
0.966787
0.979900
0.995994
1.060963
0.974536
0.903606
0.910759
0.997782
0.941753
1.217723
1.029968
1.024604
1.048446
1.114607
1.185536
1.199841
1.225471
1.064539
1.176596
1.282692
1.311898
1.404881
1.332760
1.641512
1.779795
1.656413
1.928806
2.141595
2.153516
2.552867
3.056526
9.704828
36.150813
140.178800
288.595557
610.852838
958.603621
1015.870571
1015.870571
1015.870571
1015.870571
1015.870571
1015.870571
770.210624
450.783968
180.539489
80.059767
22.003651
7.957816
5.246997
5.012751
4.549623
4.527569
4.397631
4.445910
4.431605
5.124807
5.867481
7.070899
9.607673
##ZVALUE=375
0.600815
0.478625
0.694990
0.455976
0.685453
0.767708
0.733733
0.498891
0.566840
0.740886
0.568628
0.699759
0.586510
0.581741
0.604987
0.675917
0.747442
0.714660
0.746846
0.667572
0.707507
0.703931
0.780821
0.677705
0.734925
0.828505
0.921488
0.831485
0.857711
0.738502
0.793934
0.675917
0.784993
0.887513
0.846982
0.775456
0.903606
0.933409
1.009703
0.834465
0.848770
0.772476
0.747442
0.930429
0.987649
0.862479
0.991821
1.054406
0.940561
0.991821
0.965595
1.152754
1.005530
1.079440
1.052618
1.081824
1.129508
1.156926
1.215935
1.208782
1.481771
1.363754
1.531839
1.538992
1.677871
1.892447
2.266765
2.332926
2.866983
5.178452
17.213821
75.996518
184.187889
462.052822
772.492886
1015.870571
1015.870571
1015.870571
1015.870571
1015.870571
1015.870571
953.152776
627.780557
321.061611
160.644650
46.655536
14.541745
5.373955
4.850626
4.737973
4.623532
4.883409
4.795790
4.752874
4.861951
5.220771
##ZVALUE=380
0.672936
0.568628
0.559688
0.670552
0.659823
0.712872
0.571609
0.466704
0.427961
0.542998
0.525713
0.473857
0.595450
0.637770
0.620484
0.787973
0.680685
0.632405
0.609756
0.709891
0.822544
0.770688
0.815988
0.716448
0.696778
0.742674
0.649691
0.702739
0.848770
0.814795
0.896454
0.832677
0.925660
0.921488
0.759959
0.934601
0.952482
0.761747
0.855923
0.932813
0.881553
0.791550
0.942945
0.976920
1.003742
0.828505
0.899434
0.814795
0.859499
0.921488
0.991821
1.040697
0.975728
0.988841
1.173615
1.127720
1.137853
1.096725
1.069903
1.104474
1.156926
1.386404
1.297593
1.496673
1.382828
1.594424
1.793504
2.086759
2.262592
2.615452
2.771616
3.562570
8.666515
50.345659
133.374929
360.498428
625.423789
1011.169553
1015.870571
1015.870571
1015.870571
1015.870571
1015.870571
1015.870571
829.137564
430.629849
226.529837
77.458620
27.340651
7.416606
5.040765
5.055666
5.095601
5.129576
4.734993
4.808903
##ZVALUE=385
0.384450
0.335574
0.429749
0.583529
0.415444
0.574589
0.364780
0.342727
0.490546
0.243783
0.280738
0.440478
0.361800
0.231862
0.550747
0.444651
0.454783
0.423789
0.414848
0.361800
0.410676
0.654459
0.480413
0.493526
0.472665
0.470877
0.497699
0.546575
0.526905
0.690818
0.714660
0.764728
0.784993
0.641942
0.692606
0.688434
0.611544
0.759959
0.820756
0.671744
0.866652
0.671744
0.862479
0.859499
0.739694
0.763535
0.822544
0.940561
0.705719
0.664592
0.827909
0.740886
0.751615
0.709891
0.849962
0.795722
0.804663
0.956655
0.940561
0.824928
0.982881
0.868440
1.030564
1.031756
1.218915
1.428723
1.504421
1.595616
1.751781
2.069473
1.995564
1.926422
2.082586
2.451539
4.251599
22.484660
71.159601
227.595568
440.663695
865.589976
1015.699506
1015.699506
1015.699506
1015.699506
1015.699506
1015.699506
1008.442044
620.312691
365.583897
151.434541
59.313774
12.401938
5.880594
4.850626
4.877448
4.681945
##ZVALUE=390
0.427961
0.497699
0.648499
0.524521
0.603795
0.585914
0.748634
0.598431
0.567436
0.540614
0.582933
0.707507
0.631809
0.706911
0.539422
0.556707
0.547767
0.677705
0.604987
0.554919
0.568628
0.725985
0.528693
0.594854
0.725985
0.733733
0.836849
0.719428
0.862479
0.852942
0.751615
0.914931
0.915527
0.833869
0.921488
0.996590
0.859499
0.814795
0.989437
0.988841
0.989437
1.008511
1.008511
0.993609
0.992417
0.919700
0.847578
0.953674
0.933409
0.988841
1.110435
1.026988
1.118779
1.061559
1.027584
1.067519
1.011491
1.014471
0.997782
1.029968
1.140833
1.230836
1.121759
1.146793
1.394749
1.461506
1.541972
1.648664
1.828671
1.963973
1.960993
1.993775
2.118945
1.966953
2.153516
2.302527
2.851486
11.686683
44.226646
165.382624
347.052813
731.645823
1014.483571
1015.871763
1015.871763
1015.871763
1015.871763
1015.871763
1015.871763
863.461494
528.336763
224.590898
100.870728
24.467707
8.421540
5.238652
##ZVALUE=395
0.602603
0.602603
0.444651
0.551939
0.585914
0.491738
0.648499
0.618696
0.620484
0.628829
0.779629
0.550747
0.589490
0.530481
0.621676
0.551939
0.615716
0.677705
0.587702
0.635982
0.650883
0.631809
0.598431
0.744462
0.789762
0.688434
0.723600
0.853539
0.797510
0.845790
0.976920
0.903606
0.836849
0.845790
1.086593
0.917912
1.068711
0.995994
0.967979
1.101494
1.098514
1.049638
0.949502
1.046658
1.202822
1.010895
1.097918
1.119971
1.010895
0.859499
0.957847
1.090765
1.060963
1.049638
0.938773
1.067519
0.994802
0.878572
1.035929
1.034737
1.176000
1.119971
1.213551
1.181960
1.295805
1.371503
1.616478
1.549721
1.601577
1.839995
1.853704
1.749992
1.787543
1.820922
1.850724
1.932979
2.183914
2.184510
2.396703
6.050467
24.730563
107.450485
238.097906
533.674955
847.782493
1015.870571
1015.870571
1015.870571
1015.870571
1015.870571
1015.870571
997.129679
698.924661
351.412892
173.168778
54.249763
##ZVALUE=400
0.839829
0.599623
0.722408
0.592470
0.611544
0.604987
0.383854
0.623465
0.659823
0.470877
0.617504
0.699759
0.543594
0.551939
0.611544
0.641942
0.581741
0.462532
0.510812
0.482798
0.516772
0.621676
0.593662
0.582933
0.789762
0.772476
0.863671
0.961423
0.920892
0.796914
0.895858
0.782609
0.864863
1.013875
0.928640
0.965595
0.980496
1.072884
1.024604
1.033545
1.054406
1.126528
0.920892
0.969768
0.821948
0.961423
1.049638
1.027584
1.116991
0.975728
0.993609
0.940561
1.057982
0.933409
1.067519
0.975728
0.947714
0.903606
0.985861
1.177788
1.108646
1.167655
1.202822
1.258850
1.229644
1.467466
1.465678
1.748800
1.736879
1.543760
1.800656
1.702905
1.599789
1.607537
1.614690
1.533628
1.643896
1.742840
1.881719
2.188683
2.298951
3.875494
12.348890
56.335926
141.744614
368.507504
642.557740
1015.870571
1015.870571
1015.870571
1015.870571
1015.870571
1015.870571
1015.870571
861.130953
467.139482
##END
