##TITLE=C510_R4
##FORMAT=SPECTACLE-ASCII V-1.2
##DATA TYPE=ULTRAVIOLET SPECTRUM
##SECOND TYPE=ULTRAVIOLET SPECTRUM
##DATE=05/28/18
##TIME=12:14:23
##SPECTROMETER/DATA SYSTEM=SPECTACLE
##XUNITS=NM EM
##YUNITS=ENERGY
##YFACTOR=1
##FIRSTX=220
##LASTX=410
##NPOINTS=96
##3DDATA=Equidistant
##ZUNITS=NM EX
##FIRSTZ=210
##LASTZ=400
##ZPOINTS=39
##XYDATA=(Y..Y)
##ZVALUE=210
70.399642
69.562793
43.760538
34.279823
27.535558
25.718808
20.900965
19.500852
16.751885
14.759898
11.942983
11.767745
11.826754
10.801554
12.115836
11.876822
13.238788
13.105869
15.974641
16.161799
16.521811
17.849803
20.112991
24.012923
25.595427
28.712749
30.908585
33.222437
36.408901
39.118528
41.374564
41.672587
41.230917
43.740869
44.438839
43.125749
42.705536
46.588778
48.232675
44.439435
45.203567
45.284629
43.205619
48.062801
44.177771
45.195818
46.775937
45.142770
46.480894
44.981837
45.662522
46.124458
44.924617
43.210983
42.759776
44.156909
45.636892
43.184757
45.073628
42.973757
44.274926
43.632984
44.562817
45.728683
50.858855
53.628683
62.375665
73.606968
83.517432
99.336505
110.999942
126.980543
139.805675
146.974921
145.176649
151.296854
150.547624
133.953691
121.219754
100.753903
89.613795
71.321726
64.478517
52.876472
47.388673
42.300820
40.683746
39.904714
44.124722
56.294799
74.244738
108.851790
144.927502
201.543570
232.715607
294.647813
##ZVALUE=215
270.590782
256.173611
200.609565
123.389959
86.340904
59.562922
44.991970
39.600730
36.163926
30.733943
25.514960
22.948980
16.434789
13.398528
13.295412
12.278557
12.527704
12.535453
12.004972
14.756918
15.601516
15.892982
17.250776
18.414855
20.939708
25.459528
26.777983
31.076670
32.019615
35.306811
36.492944
37.609935
37.744641
41.047931
40.422678
41.105747
40.767789
41.515827
43.137670
41.471720
42.173862
40.490627
41.965842
41.159987
41.251779
40.766001
42.253733
44.081807
41.114688
41.067600
40.973425
40.546656
42.757988
41.844845
40.572882
40.884614
40.725470
39.491653
41.679740
39.471984
39.044619
39.245486
40.495992
41.771531
42.735934
45.785904
48.922896
55.329800
63.952804
73.783994
83.839893
92.233419
94.477534
98.989606
99.675655
100.271702
96.227527
89.210868
83.713531
72.292686
64.823627
55.993795
49.592853
41.942000
38.867593
35.208464
31.581521
30.358434
29.728413
29.219985
29.826760
28.172731
32.530427
38.373470
53.579807
78.201890
##ZVALUE=220
543.336868
542.829633
498.309731
393.926501
302.123427
203.896761
141.312480
84.956884
67.077875
56.693554
52.100420
46.948791
39.653778
32.699704
24.455786
21.699667
16.389489
12.499690
12.387633
11.874437
12.923479
12.758970
13.884902
15.538931
15.450716
18.298626
20.097494
20.004511
23.734570
24.768710
27.266741
27.948618
30.280948
31.024814
32.752752
32.295585
34.776926
35.543442
36.159754
36.895871
34.210682
36.391616
36.777854
35.722852
36.375523
35.728812
36.583543
36.395788
36.128759
36.517978
39.681792
35.772920
37.354827
37.134886
38.321614
38.170815
36.478639
36.167502
36.648512
36.597848
35.586953
35.313964
34.153461
34.536719
37.147999
36.980510
40.206909
44.828653
47.464967
54.463744
60.354471
62.310696
68.359971
68.146586
69.827437
69.197416
65.205693
60.809851
54.695606
48.553944
42.499900
39.405823
31.988621
30.333996
29.190779
25.874972
24.565458
23.897886
23.976564
22.675991
23.916960
22.594929
21.825433
21.235943
21.439791
21.701455
##ZVALUE=225
564.204454
572.487712
656.536818
710.346699
675.221682
584.041476
470.438004
310.774446
213.680863
148.469806
89.876652
75.808764
68.208575
64.403415
59.465766
52.232742
40.991902
32.540560
23.289919
16.645789
14.195442
11.082888
11.621714
12.028813
12.936592
13.249516
13.463497
16.289949
16.180873
17.847419
20.000935
19.618869
21.580458
23.555756
24.001598
26.826859
28.738976
30.324459
30.241609
32.314658
33.530593
33.843517
36.239624
34.767985
35.388470
34.417510
34.530759
34.377575
35.827756
35.635829
36.208630
36.002994
35.140514
35.969615
36.920905
36.160946
35.829544
33.291578
34.053922
33.933520
32.971501
34.657717
33.475757
32.092929
35.142899
35.988688
37.734509
42.024851
46.287775
48.994422
53.628683
56.555867
60.878992
62.234998
62.148571
58.107972
56.744814
50.244927
45.945644
42.238832
37.098527
32.513738
31.227469
26.994944
25.936961
24.769902
24.243593
23.625493
22.267699
22.505522
21.453500
21.369457
20.977855
20.966530
20.063519
20.183921
##ZVALUE=230
315.514803
346.342921
514.544845
773.873925
946.874022
1015.870571
1015.870571
983.188748
824.205875
638.106465
391.058922
243.338943
140.241981
105.097890
87.819695
87.288618
84.943771
78.005791
68.050623
50.997734
39.352775
26.551485
19.171834
15.018582
13.237596
12.677908
12.790561
14.188886
13.974905
15.335679
15.854836
17.247796
18.047690
19.170642
20.975471
22.092462
22.337437
25.512576
28.667450
29.002428
29.907823
30.456781
30.692816
31.967759
32.194853
32.616854
31.928420
32.575727
32.475591
33.274889
31.732917
32.975674
33.384562
31.388998
30.512810
31.743646
31.700730
31.188726
29.423833
29.802918
30.752420
30.771494
31.402707
30.070543
31.103492
32.539964
34.106970
38.759708
40.950775
45.117736
49.383640
54.347515
55.770874
57.781935
55.605769
53.165555
49.441457
45.602918
43.127537
36.743879
35.026670
28.695464
27.255416
25.206804
23.620725
23.619533
21.984577
23.074746
22.048950
21.599531
21.748543
21.907687
20.732880
20.876527
19.843578
20.211935
##ZVALUE=235
60.404539
71.481466
156.466961
361.459851
574.019551
892.739892
1015.870571
1015.870571
1015.870571
1015.870571
1015.870571
921.157002
579.674840
381.562710
221.116543
144.285560
109.514594
103.727579
105.205774
101.679564
92.362761
73.234439
58.769584
41.099787
30.616522
19.981861
16.309619
14.129877
12.959838
14.428496
13.978481
13.320446
16.025901
15.916824
17.669797
17.993450
20.334721
21.009445
21.463633
22.808909
23.928881
24.507642
23.924708
25.564432
24.140477
26.099682
25.306940
24.949908
26.050806
26.314855
24.970770
27.464628
26.063919
26.239753
26.352406
25.896430
25.500655
25.401711
25.677681
24.618506
25.940537
24.779439
24.834871
25.028586
26.652813
26.449561
28.769970
31.227469
33.566952
35.822988
40.085912
42.703748
44.853687
44.609904
43.720603
41.431785
40.363669
35.228729
31.922460
29.412508
25.903583
24.232864
22.522807
21.453500
20.202994
19.509792
19.053817
18.930435
17.712712
18.473864
17.504692
17.799735
17.308593
17.069578
16.947985
17.589927
##ZVALUE=240
3.435612
4.500747
12.985468
56.468844
130.602717
310.236812
519.412756
903.190970
1015.870571
1015.870571
1015.870571
1015.870571
1015.870571
1015.870571
823.851824
547.175407
294.867754
186.984539
187.404752
108.650923
111.409426
115.517974
109.430552
98.948479
79.338551
59.135556
44.769645
30.205846
22.404790
15.895963
13.899803
13.204813
13.364553
13.803840
13.495684
15.355945
15.719533
16.955733
16.969442
17.830729
17.882586
18.904805
19.137859
19.584894
19.574761
18.443465
19.552708
19.967556
20.160675
20.015836
19.588470
19.658804
20.379424
19.453764
19.323826
19.615889
19.343495
19.903779
20.030737
19.339919
18.815994
20.236969
19.823909
18.530488
21.097660
20.432472
22.827983
24.522543
26.563406
29.826760
31.438470
33.256412
36.664605
35.965443
33.630729
33.908486
32.231808
28.932691
26.320815
24.052858
22.817850
20.023584
17.763972
17.456412
17.322898
16.333461
16.372800
15.545487
15.414953
14.994740
14.525652
15.330911
15.458465
15.299916
15.074611
14.820695
##ZVALUE=245
2.569556
2.525449
2.929568
3.004670
8.833408
29.048920
104.633570
225.487947
516.211987
802.554488
1015.870571
1015.870571
1015.870571
1015.870571
1015.870571
1015.870571
1015.870571
754.595399
489.309430
242.961645
148.495436
110.465884
109.649897
117.951632
119.636655
114.093423
101.370811
87.651610
63.701868
49.334764
37.274957
24.344921
17.902851
14.247894
13.515949
13.417602
13.870597
15.082955
14.229417
15.281439
15.499592
16.141534
15.960932
16.338825
16.044974
15.915632
16.462803
16.059875
16.095638
16.153455
16.084909
16.545653
16.479492
15.935898
16.129613
15.063882
15.769601
15.210509
15.757680
15.573502
15.900731
15.035868
15.400648
16.067624
16.410947
17.065406
17.860532
20.144582
21.136999
22.710562
25.157928
26.143789
27.276874
28.504729
27.697682
25.739670
23.464561
21.820664
20.378828
18.016696
16.990900
16.057491
14.881492
14.063716
14.129877
13.321638
13.237596
13.396740
13.133883
12.833476
12.761950
12.857914
12.930632
12.375712
13.260841
12.276769
##ZVALUE=250
2.126694
2.266765
2.342463
2.612472
2.677441
2.832413
5.600452
17.453432
79.372525
177.815557
442.274809
743.021965
1015.870571
1015.870571
1015.870571
1015.870571
1015.870571
1015.870571
1015.870571
967.463851
641.265512
379.712582
180.719495
113.438964
96.590519
107.953548
117.923617
122.562647
118.908882
108.698606
93.430877
69.181919
53.227544
33.864975
25.876760
18.414855
15.103817
13.997555
13.551712
14.076829
13.965964
14.301538
14.299750
14.548898
14.423728
14.822483
14.772415
15.571713
15.123487
14.687777
14.637709
14.478564
14.815927
14.285445
14.163852
14.061928
13.384819
13.750792
14.249682
14.159679
13.309717
12.546778
13.403893
13.696551
13.439655
14.203787
15.416741
15.817881
17.740726
18.704534
20.565987
21.630526
22.469759
21.829605
20.727515
19.931793
19.834638
17.207861
16.019940
14.793873
13.610721
12.344718
11.784434
11.252761
10.611415
10.330677
10.839701
10.257959
10.802746
11.280775
10.171533
10.544658
9.952784
9.804964
10.161996
10.489821
##ZVALUE=255
1.984835
1.965761
2.196431
2.009869
2.256632
2.580881
2.385974
2.816916
3.469586
8.203983
47.022700
124.442577
265.016556
584.563613
929.634571
1015.870571
1015.870571
1015.870571
1015.870571
1015.870571
1015.870571
1015.870571
862.121582
524.187684
241.295695
139.670968
91.206431
90.103745
109.479427
121.668577
127.285719
123.595595
112.438798
91.965795
74.557662
53.145885
38.903952
25.788546
20.559430
16.118884
15.841722
15.126467
16.165972
15.756488
15.378594
16.249418
15.509725
15.871525
15.005469
15.419722
15.157461
14.742613
14.447570
14.157891
14.024973
14.532804
13.901591
13.637543
13.710856
13.387799
13.671517
13.345480
12.897849
12.711883
12.968779
13.078451
13.796687
14.840961
16.119480
16.599894
17.785430
19.178987
19.025803
18.852949
18.037558
17.787814
15.812516
15.076995
13.998747
12.780428
11.914968
11.281967
10.480881
9.543896
9.960532
9.148717
9.646416
8.864999
9.516478
9.214878
9.370446
8.970499
9.149909
8.796453
8.946657
8.849502
##ZVALUE=260
2.014637
2.036691
2.154708
2.191663
2.331734
2.240539
2.531409
2.564788
2.798438
2.842546
3.428459
4.743934
15.776753
76.534748
182.018876
453.843474
759.039521
1016.091704
1016.091704
1016.091704
1016.091704
1016.091704
1016.091704
1016.091704
1016.091704
782.315731
417.751670
234.434605
110.702515
81.678629
88.249445
108.597875
122.328997
132.466555
131.028891
115.845799
100.622773
76.846480
60.190558
41.634440
31.532645
24.100542
20.803809
18.921494
19.136667
18.893480
18.458962
18.354654
18.186569
17.719865
17.447472
18.015504
16.631484
16.813874
16.501546
15.689731
16.003847
15.188456
15.126467
14.487505
14.528632
14.214516
14.214516
14.328957
13.875961
14.339685
13.997555
15.065670
15.458465
16.203523
16.984940
18.109679
17.764568
17.802715
16.760826
16.550422
14.686584
14.179945
12.590885
12.180805
11.343956
10.264516
10.477901
9.837747
9.964705
9.519458
9.113550
9.477735
9.264946
9.219646
8.691549
8.685589
8.683801
8.858442
8.509755
8.918643
##ZVALUE=265
1.723766
1.782775
1.601577
1.804829
1.863837
1.936555
2.000928
2.224445
2.288818
2.154708
2.608895
2.890825
3.060699
3.565550
9.558797
36.748648
145.033002
295.843482
578.642488
996.637940
1015.870571
1015.870571
1015.870571
1015.870571
1015.870571
1015.870571
1015.870571
1015.870571
864.781737
449.863672
243.668556
96.482635
75.316429
95.548630
112.655759
128.279924
135.886669
131.854415
120.755434
99.932551
81.395507
61.387420
46.714544
33.691525
28.032660
22.845864
21.746755
21.259785
20.618439
20.440817
20.089746
19.773841
20.196438
18.916726
19.128919
18.022656
18.110871
17.723441
17.317533
16.484857
16.528964
15.909672
15.732646
15.508533
15.145540
15.809536
15.762448
16.018748
16.607642
17.361641
17.860532
17.891526
17.777681
18.008947
17.064810
15.966892
15.085936
13.807416
12.594461
11.933446
11.052489
10.564923
10.200739
9.652972
9.442568
9.255409
8.640885
8.849502
8.631945
8.474588
8.579493
8.305907
8.213520
8.115768
8.352995
7.999539
##ZVALUE=270
1.461506
1.595616
1.613498
1.613498
1.733899
1.759529
1.819730
1.757741
1.996756
1.966953
2.116561
2.253652
2.422929
2.581477
2.862811
3.354549
4.143715
18.234849
60.730577
210.422873
435.897708
779.922605
1015.871763
1015.871763
1015.871763
1015.871763
1015.871763
1015.871763
1015.871763
1015.871763
1015.871763
746.765733
424.629450
155.233741
77.106953
74.036717
92.439651
114.873648
129.065514
139.036775
136.712790
125.995874
110.746622
87.176561
68.765879
48.277974
39.363503
30.232668
26.398897
23.883581
23.786426
22.743940
22.492409
21.363497
20.704865
20.966530
19.675493
18.615723
18.404722
18.463731
18.033981
17.592907
16.871691
16.660690
16.278625
16.116500
16.026497
16.419888
17.274618
17.192960
17.566681
17.773509
18.460751
17.230511
16.473532
15.724897
15.055537
13.714433
12.614727
11.676550
10.660887
10.222793
9.753704
9.439588
9.500980
9.044409
9.185672
8.676648
8.735657
8.491874
8.661747
7.990599
8.164644
8.161664
8.253455
8.231997
##ZVALUE=275
1.410842
1.374483
1.715422
1.645684
1.689792
1.589656
1.827478
1.796484
1.736879
1.967549
1.959801
1.868606
2.236962
2.356768
2.542734
2.700686
2.852678
3.195405
3.698468
7.822514
33.079982
103.780627
329.225659
639.234781
1015.870571
1015.870571
1015.870571
1015.870571
1015.870571
1015.870571
1015.870571
1015.870571
1015.870571
981.006622
619.063973
256.730914
114.702582
61.869621
72.338581
95.106959
112.944841
131.942630
138.722658
137.634873
127.644539
106.543899
90.711713
68.522692
53.675771
38.908720
31.636953
26.182532
23.963451
21.988750
21.901727
20.832419
20.192862
19.407868
19.309521
18.499494
18.323660
17.181635
16.564727
16.736984
16.383529
15.772581
16.495585
16.252995
16.381741
17.127991
17.359853
17.326474
17.325878
16.917586
16.426444
15.126467
13.888478
13.045669
12.524724
11.289716
10.626912
9.859800
9.897947
9.251833
9.174943
8.867979
8.545518
8.392930
8.213520
8.544922
8.163452
7.935762
7.701516
7.944703
7.900596
7.811785
##ZVALUE=280
1.467466
1.417994
1.372695
1.297593
1.356602
1.635551
1.412630
1.571774
1.487732
1.836419
1.726747
1.754761
1.888871
1.942515
2.016425
2.219677
2.333522
2.498627
2.662539
3.102422
3.455877
4.286766
23.175478
79.062581
261.076689
516.287684
888.998508
1015.864015
1015.864015
1015.864015
1015.864015
1015.864015
1015.864015
1015.864015
1015.864015
1015.864015
674.806833
286.198854
129.708648
55.276752
53.671598
73.981881
90.243816
111.880898
126.599669
133.256912
133.165717
121.254921
107.498765
84.386468
67.319870
48.125982
37.304759
27.734637
23.492575
19.360781
18.541813
18.346906
17.856956
17.253757
16.730428
16.531944
15.880466
15.558600
15.186667
15.126467
15.133619
15.186667
15.538931
15.744567
15.501976
15.215874
15.524626
15.098453
14.232993
13.836622
12.709498
12.189746
11.631846
10.705590
10.380745
9.553432
9.351969
8.999705
8.743405
8.547902
8.515716
8.273721
8.331537
8.017421
7.674694
7.715821
8.004904
7.772446
7.470846
7.555485
##ZVALUE=285
1.330972
1.300573
1.244545
1.376867
1.196861
1.409650
1.350641
1.442432
1.359582
1.346469
1.498461
1.657605
1.491904
1.647472
1.783967
1.705885
1.988411
2.066493
2.232790
2.521873
2.499819
2.760887
3.203750
3.527999
8.898973
33.497810
130.008459
294.512510
673.120022
1015.870571
1015.870571
1015.870571
1015.870571
1015.870571
1015.870571
1015.870571
1015.870571
1015.870571
814.455748
379.370451
183.654428
61.790943
38.855672
47.040582
61.133504
84.228516
99.427700
114.771724
122.857690
124.274492
116.983652
100.169778
84.455609
61.734915
45.883656
31.147599
23.461580
17.881989
15.993714
14.496446
14.157891
13.544559
13.668537
13.281703
13.277531
13.190508
13.026595
13.397932
13.808608
13.906956
13.776422
13.955832
14.278889
13.695955
13.230443
12.721419
11.974573
11.096597
10.608435
9.922981
9.903908
9.218454
8.976460
9.053946
8.516908
8.496642
8.432865
8.097887
8.004904
7.878542
7.761717
7.576942
7.657409
7.449985
7.624626
7.333755
##ZVALUE=290
1.049638
1.130700
1.086593
0.934601
1.223683
1.112819
1.152754
1.217723
1.126528
1.176000
1.104474
1.326799
1.337528
1.485944
1.380444
1.620650
1.527667
1.612902
1.813769
1.739860
1.911521
2.136827
2.351999
2.561808
2.903938
3.368855
4.207492
12.048483
65.850616
175.361633
376.261473
846.986771
1015.707850
1015.707850
1015.707850
1015.707850
1015.707850
1015.707850
1015.707850
1015.707850
1015.707850
559.221506
285.927653
95.793605
38.980842
29.819608
38.287640
53.818822
69.492459
91.012716
104.719996
115.970969
116.882920
109.132528
96.602440
74.883699
58.351755
40.630698
29.583573
20.090938
15.723705
12.770891
11.997819
11.552572
11.293888
11.325479
11.482835
11.711717
12.201667
12.436509
12.760758
12.676716
12.972951
12.629628
12.107491
11.330843
10.706782
10.020733
9.481907
9.430647
9.108782
8.669496
8.516908
8.316636
8.350611
8.178949
8.166432
7.790923
7.777810
7.719994
7.858872
7.547736
7.550716
7.630587
7.390976
7.396936
##ZVALUE=295
1.031756
1.092553
1.156926
1.348853
1.206994
1.306534
1.276731
1.344681
1.375675
1.262426
1.373887
1.509786
1.392961
1.454949
1.462698
1.495481
1.690984
1.585484
1.776814
1.882911
1.865625
1.931787
2.131462
2.159476
2.656579
2.721548
3.136992
3.247857
4.011989
5.643964
20.024776
102.948546
256.447792
661.242008
1015.870571
1015.870571
1015.870571
1015.870571
1015.870571
1015.870571
1015.870571
1015.870571
1015.870571
789.565444
425.131917
145.135522
58.184862
23.720860
24.343729
35.049915
46.929717
66.267848
81.313848
98.790526
108.101964
109.411478
103.279948
89.650750
74.266791
54.540634
40.431619
26.376843
19.495487
13.944507
11.673570
10.476708
10.097623
10.744929
10.897517
11.438727
11.368990
11.648536
11.758804
11.515617
11.090636
10.466576
10.029674
9.633899
9.408593
8.810759
8.941889
8.751750
8.522868
8.160472
8.093715
8.357763
7.999539
8.017421
7.911921
7.875562
7.719994
7.424951
7.460713
7.570982
7.527471
7.227659
##ZVALUE=300
1.106858
1.032948
1.034737
1.047850
1.153946
1.206994
1.124740
1.122952
1.347661
1.148582
1.288652
1.190901
1.248717
1.387596
1.339912
1.553893
1.404881
1.519918
1.720786
1.714826
1.641512
1.781583
1.895428
2.058744
2.016425
2.348423
2.243519
2.557635
2.875924
3.091693
3.600717
4.015565
11.534691
47.780871
192.259550
409.820080
904.964805
1015.870571
1015.870571
1015.870571
1015.870571
1015.870571
1015.870571
1015.870571
1015.870571
1015.871167
592.981577
306.303501
97.449422
35.842657
17.930865
21.162629
31.170845
41.462779
59.609413
75.099468
92.109442
99.938512
102.907419
99.537969
86.900592
73.380470
53.380728
41.130781
27.212501
19.412637
13.410449
11.413693
10.513663
10.464787
10.571480
10.678768
10.458827
10.665655
10.079741
9.702444
9.367466
8.921623
8.707643
8.581877
8.030534
8.407831
8.329749
7.891655
8.022785
7.871985
7.682443
7.602572
7.739663
7.637739
7.208586
7.447600
7.500648
7.378459
7.536411
7.217526
##ZVALUE=305
1.050830
1.062751
1.166463
1.031756
1.102686
1.115799
1.150966
0.989437
1.139641
1.243949
1.265407
1.341701
1.156926
1.324415
1.231432
1.480579
1.306534
1.441836
1.477599
1.512766
1.551509
1.658797
1.763701
1.684427
1.730919
1.997948
2.157688
2.242923
2.302527
2.340674
2.811551
2.938509
3.257990
3.792644
5.390644
32.528639
104.026794
334.585905
640.961528
1015.870571
1015.870571
1015.870571
1015.870571
1015.870571
1015.870571
1015.870571
1015.870571
1015.870571
885.793567
402.857661
187.501907
51.768422
19.831657
15.405416
19.470453
28.956532
39.359927
56.707859
70.397854
86.489916
94.920993
98.111629
94.751716
83.135962
70.052743
52.289963
39.072633
26.146770
18.531680
13.810992
11.724830
10.717511
10.417700
9.800792
9.180903
8.814931
8.678436
8.323789
8.175969
7.766485
7.981658
7.828474
7.795691
7.709861
7.656813
7.963777
7.690787
7.468462
7.202625
7.375479
7.167459
7.231832
7.190704
7.246733
7.359982
7.225871
##ZVALUE=310
0.966787
0.959635
1.069903
0.959635
0.981688
0.987649
1.067519
1.063943
0.999570
1.121759
1.091957
1.061559
1.204610
1.316667
1.180768
1.133680
1.268983
1.411438
1.215935
1.376867
1.406670
1.535416
1.371503
1.783967
1.675487
1.771450
1.794696
1.781583
2.123713
2.225637
2.299547
2.321601
2.538562
2.777576
3.012419
3.390908
3.956556
12.273788
47.805905
191.849470
413.181782
928.738713
1015.873551
1015.873551
1015.873551
1015.873551
1015.873551
1015.873551
1015.873551
1015.873551
1015.874147
649.525523
342.333913
110.636950
36.161542
13.100505
13.750792
17.660856
23.659468
35.742521
47.481656
65.062642
77.265501
88.023543
92.411637
89.433789
82.084537
67.435503
54.460764
37.805438
28.112531
19.263625
14.506578
10.930896
9.611845
8.647442
8.154511
8.030534
7.722974
7.428527
7.360578
7.232428
7.092953
7.583499
7.204413
7.297993
6.956458
7.274747
7.131696
7.128716
7.070899
7.126927
7.126927
6.998777
7.077456
6.946921
##ZVALUE=315
0.950694
0.850558
1.106858
0.874996
0.878572
1.047850
1.017451
1.013875
1.047850
1.042485
1.107454
1.064539
1.034737
1.147985
1.154542
1.282692
1.198649
1.321435
1.260638
1.200438
1.313686
1.412630
1.527667
1.444817
1.436472
1.506805
1.590848
1.606941
1.856685
1.828671
1.904964
2.021790
2.140999
2.478957
2.576709
2.825856
3.056526
3.421903
3.664494
5.884767
21.041632
108.731985
270.265937
681.260824
1015.870571
1015.870571
1015.870571
1015.870571
1015.870571
1015.870571
1015.870571
1015.870571
1015.870571
896.529555
489.901900
172.853470
61.678886
15.726686
11.763573
12.772679
15.332699
22.893548
30.846596
44.932961
57.273507
74.046850
82.638860
87.383986
86.126924
76.463819
67.011714
51.367879
39.225817
25.521517
17.996430
12.292862
9.730458
8.000731
7.425547
6.985664
6.981492
6.856918
6.956458
6.803870
6.674528
6.827712
6.647706
6.709695
6.600618
6.897449
6.825924
6.934404
6.952882
6.828904
6.791949
6.801486
##ZVALUE=320
0.931621
0.933409
0.921488
0.843406
0.993609
0.956655
1.024604
0.940561
1.070499
1.006722
1.074672
1.079440
1.069903
0.934601
1.140833
1.220703
1.024604
1.226664
1.205802
1.201630
1.224875
1.233816
1.374483
1.415610
1.438856
1.439452
1.613498
1.617670
1.539588
1.592636
2.020597
1.816750
1.878738
1.915693
2.109408
2.328753
2.480745
2.593994
2.936721
3.307462
3.465414
4.163980
9.138584
53.457618
159.353018
480.677485
861.532688
1015.870571
1015.870571
1015.870571
1015.870571
1015.870571
1015.870571
1015.870571
1015.870571
1015.871167
680.316091
287.136436
119.288564
27.535558
11.753440
10.501742
11.124611
14.324784
19.318461
29.509664
39.060712
54.192543
65.949559
78.599453
82.906485
81.445575
75.315833
61.582923
48.995614
34.117699
24.950504
15.988946
11.635423
8.462667
7.175803
6.650686
6.388426
6.544590
6.395578
6.288886
6.108880
6.352663
6.279945
6.396770
6.454587
6.494522
6.463528
6.519556
6.529689
6.546974
##ZVALUE=325
0.757575
0.809431
0.938773
0.863671
0.859499
0.928640
0.944734
0.966787
1.075864
1.053810
0.906587
0.939965
1.020432
1.022816
1.111627
0.853539
1.068711
1.262426
1.214743
1.130700
1.198649
1.279712
1.042485
1.291633
1.412630
1.280904
1.355410
1.457930
1.504421
1.427531
1.541972
1.553893
1.598597
1.669526
1.840591
1.947880
1.941919
2.143979
2.298951
2.506971
2.647638
2.841949
3.322959
3.800988
5.685687
33.356547
100.303888
311.802030
611.567497
1015.867591
1015.867591
1015.867591
1015.867591
1015.867591
1015.867591
1015.867591
1015.867591
1015.867591
897.278786
399.347544
183.471441
46.788454
15.556812
9.938478
9.656549
10.660887
13.065934
19.280910
26.974678
40.380955
51.119924
64.229965
72.065592
77.186823
75.773597
67.009926
57.573915
43.394566
32.731891
20.950437
14.755726
9.893775
7.963777
6.615520
6.262660
5.841851
5.974770
6.042719
6.139874
5.839467
5.862713
5.956888
6.260872
6.016493
6.256700
6.315708
##ZVALUE=330
0.845790
0.883937
0.973940
0.858903
0.822544
0.821948
0.885725
0.955462
0.792742
0.819564
0.976920
0.936985
1.005530
1.055598
0.923872
1.054406
0.954866
0.910759
0.824928
1.217723
1.013875
1.093745
1.201630
1.017451
1.114607
1.190901
1.339912
1.385808
1.328588
1.514554
1.382828
1.502633
1.438856
1.567602
1.599789
1.699924
1.800656
1.803637
1.973510
2.168417
2.200603
2.360940
2.598763
2.991557
3.151894
3.397465
4.267693
14.047623
51.846504
198.089480
418.093801
934.679508
1015.870571
1015.870571
1015.870571
1015.870571
1015.870571
1015.870571
1015.870571
1015.870571
1015.870571
540.784597
270.508528
86.879730
26.786923
10.102987
9.004474
9.422898
10.055900
13.423562
18.057823
26.368499
35.395622
49.090981
58.459640
67.505836
70.988536
69.307685
63.842535
52.155852
42.414665
29.279590
21.472573
14.127493
10.643601
7.648468
6.490946
6.042719
5.771518
5.871654
5.841851
5.648732
6.113648
5.936623
6.006956
5.804896
##ZVALUE=335
0.826716
0.856519
0.907779
0.881553
0.751615
0.899434
0.894666
0.821948
0.966787
0.979900
0.838637
0.911951
0.963807
0.853539
0.770688
1.010895
0.980496
1.042485
0.948906
1.013875
1.125932
1.101494
1.142621
1.022816
1.079440
1.015663
1.187921
1.324415
1.093745
1.267791
1.411438
1.396537
1.442432
1.474619
1.590848
1.608729
1.717806
1.730919
1.696944
1.715422
1.938939
2.105832
2.194643
2.272725
2.400875
2.686977
2.856851
3.200769
3.607869
6.389618
23.234487
114.910007
270.735621
669.797659
1015.861034
1015.861034
1015.861034
1015.861034
1015.861034
1015.861034
1015.861034
1015.861034
1015.860438
772.605538
406.079888
130.582452
43.837428
12.254715
9.269714
9.060502
9.411573
10.057688
12.048483
17.313957
23.153424
33.734441
43.156743
54.491758
61.853528
66.241622
65.117478
58.054924
50.713420
39.788485
30.998588
20.747781
15.153885
10.366440
8.011460
6.546974
6.006956
5.852580
6.024837
5.983710
6.014705
6.010532
##ZVALUE=340
0.808835
0.767708
0.853539
0.834465
0.757575
0.685453
0.920892
1.050830
0.866652
0.812411
0.878572
0.857711
0.946522
0.893474
0.943542
0.877976
0.871420
0.783801
0.991821
1.068711
1.071692
1.064539
1.013875
1.013875
1.106858
1.002550
1.153946
1.216531
1.092553
1.223683
1.264811
1.272559
1.440644
1.159906
1.328588
1.521707
1.419783
1.474619
1.600981
1.763701
1.729727
1.806617
1.832843
1.986623
2.071857
2.182722
2.353787
2.420545
2.613664
3.012419
3.326535
4.355907
10.943413
66.647530
187.958479
526.815057
940.746665
1015.870571
1015.870571
1015.870571
1015.870571
1015.870571
1015.870571
1015.870571
1015.870571
939.904451
519.126654
187.588930
67.402720
15.979409
9.682775
9.125471
8.582473
8.617640
8.918643
11.130571
14.949441
21.802783
29.771924
41.544437
49.944520
58.525801
61.360598
60.589910
56.192875
47.457814
39.311647
29.526949
22.087693
14.389753
10.763407
8.157492
6.932616
6.393790
6.355643
5.998611
##ZVALUE=345
0.770688
0.911951
0.863671
0.823736
0.674725
0.880957
0.771880
0.755787
0.780821
0.784993
0.814795
0.837445
0.835657
0.798702
0.982881
0.961423
0.880957
0.951886
0.859499
0.963807
1.015663
0.995994
1.190901
0.959635
0.974536
0.992417
1.077652
1.018643
1.089573
1.249909
1.066923
1.144409
1.229644
1.290441
1.304746
1.375675
1.292825
1.422763
1.467466
1.459718
1.506805
1.624823
1.616478
1.765490
1.883507
1.870990
2.063513
2.191663
2.071857
2.415776
2.778769
2.994537
3.194809
3.780723
6.290674
47.868490
156.842470
452.708006
808.899999
1015.870571
1015.870571
1015.870571
1015.870571
1015.870571
1015.870571
1015.870571
1015.870571
1015.870571
691.233873
271.342993
110.250711
25.156736
11.700988
9.731650
8.911490
7.823706
7.459521
8.028746
9.476542
13.895631
19.264817
28.819442
36.362410
45.753717
52.145720
56.618452
57.250857
52.653551
47.140718
37.913918
30.584931
21.132827
16.050935
10.962486
9.086728
7.426739
##ZVALUE=350
0.783801
0.857711
0.885725
0.896454
0.922680
0.794530
0.838637
0.751615
0.839829
0.802875
0.875592
0.723600
0.898838
0.895858
0.946522
0.860691
0.889897
1.024604
1.018643
1.018643
0.764728
0.921488
0.808835
0.989437
1.051426
1.041889
1.036525
1.069903
1.000762
0.891685
1.060963
1.170635
1.225471
1.168847
1.177788
1.324415
1.147985
1.235604
1.393557
1.413822
1.456738
1.533628
1.545548
1.465678
1.714826
1.747608
1.706481
1.973510
1.977682
2.174973
2.326965
2.305508
2.610683
2.719760
3.213882
3.569722
4.303455
17.991662
74.640512
290.744901
599.251986
1015.809774
1015.809774
1015.809774
1015.809774
1015.809774
1015.809774
1015.809774
1015.809774
1015.809774
875.427723
405.497551
179.832578
41.662455
13.854504
8.910894
7.733703
6.852746
6.490946
6.281734
7.063746
9.270906
12.085438
17.733574
23.851991
32.818913
39.951801
48.009753
51.769614
52.995682
50.824881
44.313669
38.039684
29.598475
23.099780
16.409755
##ZVALUE=355
0.904799
0.813603
0.929832
0.866652
0.880957
0.791550
0.842810
0.911951
0.896454
0.956655
0.973940
0.911951
0.866652
1.004934
1.017451
0.888705
1.027584
1.034737
1.015663
1.146793
1.181960
0.984669
1.032948
1.279712
1.168847
1.195669
1.154542
1.201630
1.222491
1.198649
1.205802
1.349449
1.272559
1.366735
1.325607
1.316667
1.377463
1.345873
1.419783
1.331568
1.463890
1.435876
1.547933
1.744628
1.553893
1.865625
1.769662
1.930594
1.934767
2.161860
2.197623
2.453923
2.088547
2.587438
2.591610
2.909899
3.154874
3.592968
3.821850
7.888675
30.492544
161.105394
389.995575
922.748446
1015.870571
1015.870571
1015.870571
1015.870571
1015.870571
1015.870571
1015.870571
1015.870571
1006.811857
492.490530
231.447816
62.623620
19.025803
8.813739
7.775426
6.892681
6.611943
6.382465
6.325841
6.978512
8.141994
11.468530
15.075803
21.255612
27.257800
36.733747
43.000579
48.299432
49.532652
47.332644
43.957829
36.619902
##ZVALUE=360
0.931621
0.858903
0.951886
0.844598
0.742674
0.920892
1.035929
0.962615
1.012683
1.077652
1.012683
1.083612
1.137853
0.872612
0.873804
1.019835
0.893474
1.237988
1.086593
0.937581
1.253486
1.029968
1.181960
1.110435
1.136661
1.102686
1.227856
1.132488
1.116991
1.306534
1.451969
1.394749
1.326799
1.380444
1.353621
1.535416
1.475811
1.542568
1.549721
1.518726
1.570582
1.559854
1.640916
1.716614
1.838803
1.952648
1.767874
1.904964
1.983643
1.964569
2.132654
2.230406
2.432466
2.458692
2.615452
2.609491
2.640486
3.087521
3.267527
3.882647
4.193783
5.412698
13.055801
72.390437
208.649039
624.261498
1015.888453
1015.888453
1015.888453
1015.888453
1015.888453
1015.888453
1015.888453
1015.888453
1015.888453
690.822601
358.937979
123.615861
40.075779
10.292530
8.138418
7.333755
6.801486
6.380677
6.086826
6.005764
6.423593
7.476807
9.272695
13.194680
17.872453
25.233626
31.423569
38.478971
42.959452
45.692921
##ZVALUE=365
0.852942
0.813603
0.994802
0.915527
0.795722
1.095533
1.076460
0.869632
0.901818
0.873804
0.933409
1.134872
0.843406
1.068711
1.103878
0.988841
0.838637
0.900626
1.057982
1.055598
1.046658
1.178980
1.038909
1.012683
1.145601
0.997782
1.176000
1.282692
1.354814
1.202822
1.297593
1.164675
1.409650
1.427531
1.346469
1.344681
1.430511
1.479983
1.477599
1.629591
1.430511
1.438856
1.439452
1.472831
1.557469
1.705885
1.742840
1.887679
1.659989
1.660585
1.837611
1.872778
2.081990
2.311468
2.290606
2.332926
2.587438
2.632737
2.719760
2.828836
3.185868
3.598928
3.941655
4.831553
6.404519
29.722452
99.498630
344.083905
717.669725
1015.870571
1015.870571
1015.870571
1015.870571
1015.870571
1015.870571
1015.870571
1015.870571
949.499011
534.801483
193.073750
70.445538
14.338493
8.018613
6.781816
6.487966
6.048679
5.740523
5.590916
5.787611
5.929470
7.139444
9.302497
11.779666
16.591549
21.088719
27.864575
##ZVALUE=370
0.925660
0.820756
0.832677
0.899434
0.846982
0.926852
0.837445
0.886917
0.913739
0.935793
0.735521
0.936985
0.931621
0.820756
0.831485
0.961423
1.027584
0.909567
1.003742
0.867844
1.044869
1.042485
0.980496
0.919700
0.908971
1.098514
0.957847
1.053810
1.000762
1.105666
1.195669
1.220703
1.152754
1.281500
1.143813
1.135468
1.077652
1.272559
1.199841
1.306534
1.229644
1.444817
1.335740
1.416802
1.326799
1.231432
1.473427
1.534820
1.478791
1.457930
1.524687
1.605749
1.663566
1.755953
1.955628
1.893640
1.815557
2.016425
2.157688
2.309680
2.323985
2.633929
2.913475
3.023744
3.391504
3.906488
4.622936
15.561581
56.509972
213.131905
456.875563
964.030623
1015.870571
1015.870571
1015.870571
1015.870571
1015.870571
1015.870571
1015.870571
1015.870571
694.277883
272.101760
113.397837
26.309490
9.520650
6.715655
6.333590
6.052852
5.953908
5.754828
5.755424
6.344914
6.469488
7.554889
8.712411
11.210442
##ZVALUE=375
0.863671
0.799894
0.713468
0.902414
0.836849
0.795722
0.752807
0.850558
0.850558
0.769496
0.812411
0.837445
0.714660
0.695586
0.873804
0.743866
0.816584
0.842810
0.847578
0.915527
0.795722
0.962615
0.832677
0.998974
0.802875
0.882745
1.015663
0.984669
0.904799
1.035929
1.051426
1.041889
1.010895
1.137853
1.081824
1.058578
1.293421
1.069903
1.073480
1.152754
1.200438
1.224875
1.116991
1.167655
1.241565
1.266599
1.363754
1.404881
1.242757
1.333952
1.487732
1.514554
1.518726
1.500845
1.478791
1.664758
1.552701
1.832843
1.688600
1.845956
2.063513
2.052784
2.113581
2.312660
2.496839
2.897978
3.151894
3.697872
4.263520
7.958412
26.733875
114.011765
279.592872
712.726712
1015.874743
1015.874743
1015.874743
1015.874743
1015.874743
1015.874743
1015.874743
1015.874743
956.510901
484.988689
238.730907
67.094564
19.741654
7.219911
6.564856
6.345510
6.390810
6.566644
6.735921
6.788969
6.519556
7.140636
##ZVALUE=380
0.806451
0.612736
0.762939
0.611544
0.728965
0.691414
0.722408
0.832677
0.783801
0.739694
0.720620
0.802875
0.638962
0.735521
0.767708
0.827909
0.748634
0.727773
0.720620
0.749826
0.826716
0.856519
0.765920
0.908971
0.879765
1.018643
0.770688
1.011491
1.003742
1.016855
1.080632
1.109838
0.963807
1.081824
1.027584
1.098514
1.162887
1.040697
1.047850
1.026988
1.200438
1.122952
1.203418
1.191497
1.202822
1.196861
1.154542
1.178980
1.134872
1.185536
1.245737
1.115799
1.357794
1.417994
1.398921
1.433492
1.343489
1.482964
1.661777
1.549721
1.768470
1.659989
1.776814
2.060533
2.111793
2.214909
2.563596
2.989769
3.225803
3.846884
4.312992
5.305409
13.458729
74.884892
199.780464
541.144609
947.352648
1015.870571
1015.870571
1015.870571
1015.870571
1015.870571
1015.870571
1015.870571
1015.870571
664.778948
347.217917
114.960670
39.440989
9.694695
7.120967
6.898642
6.987453
7.195473
6.837845
6.928444
##ZVALUE=385
0.617504
0.562668
0.782609
0.638962
0.676513
0.717640
0.661612
0.622869
0.707507
0.737906
0.725985
0.859499
0.736713
0.645518
0.794530
0.821948
0.739694
0.750422
0.683665
0.783801
0.871420
0.842810
0.728965
0.761747
0.908971
0.877976
0.915527
0.927448
0.911951
0.876784
1.010895
1.089573
0.991821
1.119971
1.242757
1.100898
1.120567
1.064539
0.986457
1.177788
1.127720
1.082420
1.139641
1.270771
1.151562
1.154542
1.115799
1.107454
1.071692
1.162887
1.363754
1.344681
1.292825
1.319647
1.238585
1.328588
1.278520
1.253486
1.492500
1.388788
1.632571
1.539588
1.473427
1.784563
1.970530
2.027750
2.319813
2.635717
2.756715
3.110766
3.302693
3.342628
3.716946
3.992915
6.644726
39.029717
118.232965
349.321961
680.812001
1015.871763
1015.871763
1015.871763
1015.871763
1015.871763
1015.871763
1015.871763
1015.871763
967.947841
591.903925
246.903896
94.549656
18.106699
8.364916
7.142425
6.933808
6.534457
##ZVALUE=390
0.722408
0.705719
0.596642
0.652671
0.760555
0.505447
0.652671
0.670552
0.658631
0.637770
0.709891
0.641942
0.832677
0.675917
0.733733
0.762939
0.801682
0.693798
0.716448
0.690818
0.744462
0.807643
0.735521
0.839829
0.848770
0.804663
0.889897
0.944734
1.042485
1.016855
0.972748
1.099706
0.943542
1.030564
1.111627
1.149774
1.141429
1.235604
1.211762
1.092553
1.053810
1.097918
1.212955
1.183748
1.229644
1.047850
1.181960
1.268983
1.170635
1.290441
1.275539
1.236796
1.229644
1.236796
1.230836
1.346469
1.345873
1.330972
1.294613
1.538992
1.527667
1.441836
1.642704
1.602769
1.691580
2.008677
2.157688
2.544522
2.823472
2.924800
2.978444
3.148913
3.056526
3.053546
3.063679
3.314614
4.292727
18.814802
70.858598
262.341499
544.533730
1015.870571
1015.870571
1015.870571
1015.870571
1015.870571
1015.870571
1015.870571
1015.870571
1015.870571
844.697952
364.200473
166.134834
40.331483
12.318492
7.294416
##ZVALUE=395
0.703931
0.684857
0.514984
0.636578
0.581741
0.565648
0.647902
0.776649
0.690818
0.594854
0.689626
0.578761
0.680685
0.640750
0.564456
0.730753
0.814795
0.576973
0.693798
0.645518
0.699759
0.713468
0.736713
0.730753
0.822544
0.803471
0.788569
0.824928
0.947714
0.993609
1.000762
1.223683
1.135468
1.152754
1.079440
1.176596
1.101494
1.092553
1.105666
1.103878
1.254678
1.319647
1.252890
1.144409
1.234412
1.194477
1.134872
1.315475
1.215935
1.342893
1.282692
1.372695
1.187921
1.353621
1.327991
1.107454
1.438856
1.378655
1.383424
1.459718
1.314878
1.356602
1.555681
1.708865
1.765490
2.084970
2.143979
2.256632
2.536774
2.593994
2.533793
2.691746
2.505779
2.367496
2.463460
2.666712
2.735853
3.196597
3.508925
9.820461
40.656924
175.331831
375.428796
798.014998
1015.870571
1015.870571
1015.870571
1015.870571
1015.870571
1015.870571
1015.870571
1015.870571
1000.797749
501.365662
246.129632
75.725913
##ZVALUE=400
0.868440
0.835657
0.515580
0.651479
0.738502
0.772476
0.646710
0.652671
0.645518
0.634789
0.632405
0.602603
0.628829
0.592470
0.689626
0.670552
0.701547
0.699759
0.860691
0.769496
0.762939
0.692606
0.974536
0.787973
0.751615
0.931621
0.845790
0.891685
1.066923
0.911951
0.963807
0.989437
1.143813
1.013875
1.106858
1.102686
1.157522
1.207590
1.245737
1.058578
1.196861
1.231432
1.242757
1.259446
1.193881
1.129508
1.299977
1.173615
1.184940
1.297593
1.185536
1.202822
1.119971
1.316667
1.348853
1.376867
1.296997
1.258850
1.327991
1.362562
1.440644
1.459718
1.467466
1.548529
1.622438
1.918674
2.072453
2.151728
2.555847
2.360940
2.272725
2.265573
2.277493
2.204776
2.108812
2.218485
2.434850
2.440810
2.711415
2.939701
3.352761
5.709529
18.990636
87.668896
222.760439
579.883456
973.505974
1015.882492
1015.882492
1015.882492
1015.882492
1015.882492
1015.882492
1015.882492
1015.882492
762.114525
##END
