##TITLE=C5102_R1
##FORMAT=SPECTACLE-ASCII V-1.2
##DATA TYPE=ULTRAVIOLET SPECTRUM
##SECOND TYPE=ULTRAVIOLET SPECTRUM
##DATE=05/28/18
##TIME=12:39:53
##SPECTROMETER/DATA SYSTEM=SPECTACLE
##XUNITS=NM EM
##YUNITS=ENERGY
##YFACTOR=1
##FIRSTX=220
##LASTX=410
##NPOINTS=96
##3DDATA=Equidistant
##ZUNITS=NM EX
##FIRSTZ=210
##LASTZ=400
##ZPOINTS=39
##XYDATA=(Y..Y)
##ZVALUE=210
41.358471
40.606856
33.196807
27.539730
22.757649
22.750497
19.487739
15.741587
13.099909
9.434819
7.269979
5.930662
6.519556
5.112886
6.122589
6.219745
6.938577
7.022619
7.014871
7.355809
8.953810
9.794831
10.119677
13.688803
15.993714
19.171834
23.226738
25.713444
27.027726
28.437972
30.467510
31.088591
33.399463
34.691691
31.779408
32.841563
30.871630
31.120777
29.698610
31.209588
30.376911
29.097795
29.217601
27.062893
24.441481
27.885437
26.806593
24.929643
23.796558
24.037957
24.558902
24.836659
23.166537
24.386644
22.122860
24.062991
24.318695
22.206903
21.535754
23.821592
20.251870
21.101832
22.128820
21.794438
21.906495
23.665428
27.281642
30.153990
34.842491
39.703846
44.869781
49.712658
51.599741
57.999492
57.798624
57.411790
56.569576
50.509572
51.076412
39.064884
36.350489
29.907823
25.413632
23.358464
20.176768
18.617511
15.628934
17.464757
17.673969
25.420785
30.140877
44.120550
60.102940
87.318420
102.903843
132.062435
##ZVALUE=215
137.644410
135.547519
106.734633
72.390437
57.384968
44.824481
38.704872
34.074783
34.545660
26.900768
23.104548
17.041564
13.474822
9.804964
8.691549
7.389784
6.089807
6.186962
6.713867
7.462502
7.810593
9.330511
9.816885
14.396906
15.569925
17.722845
22.979975
23.910999
27.557611
28.742552
30.373931
33.292770
33.553839
35.540462
32.908916
33.361912
35.113692
33.177733
33.440590
30.348897
29.770732
29.332638
29.481649
29.792786
29.316545
27.967691
29.256940
28.387904
28.536916
26.641488
27.660728
26.650429
28.161407
26.461482
25.092959
25.516748
25.210977
24.500489
24.307966
24.154782
24.103522
23.071766
21.943450
22.370815
22.480488
25.295615
24.575591
29.515624
29.867887
36.188960
39.801598
44.253469
46.274662
48.326850
45.982599
45.226812
45.414567
40.039420
37.677884
31.495690
28.719902
25.979877
21.943450
19.673705
18.221736
16.468763
16.879439
16.722679
16.750693
15.031695
15.441775
15.479922
16.877651
21.964908
27.923584
42.203665
##ZVALUE=220
302.056670
303.969979
284.025669
238.832831
189.683437
133.290887
95.473528
70.460439
56.654811
49.453974
50.266981
43.032765
37.903786
30.009747
23.513436
16.466975
12.406707
9.754896
7.575750
7.048845
7.847548
8.569956
8.366704
10.074973
12.391806
13.371706
15.585423
16.928911
19.159913
20.056963
21.559596
23.103952
22.457838
23.508668
26.061535
25.837421
26.090741
28.933883
26.653409
27.114749
28.352737
27.436614
26.909709
29.240847
27.590990
25.659800
26.470423
28.418899
27.790666
27.303696
28.016567
27.517676
27.065873
27.331710
26.639700
25.488734
24.873614
24.958849
26.279688
25.040507
24.136901
23.625493
23.260713
23.686886
22.997856
24.174452
24.073720
26.894808
29.081702
30.864477
33.205748
36.846995
38.709641
40.177703
40.159822
37.774444
35.109520
33.252835
29.773712
26.224852
23.251772
21.080971
17.822981
17.751455
17.429590
16.663671
14.206767
14.943480
13.877749
13.483763
13.328791
13.984442
14.169812
12.684464
13.654828
12.913942
##ZVALUE=225
342.813730
351.385474
405.497551
444.615483
427.265763
372.300744
311.061740
217.315555
153.899789
108.108521
76.912642
70.195794
64.224601
63.646436
57.505965
48.402548
39.703846
28.688908
21.183491
14.395714
10.165572
8.136630
7.914901
7.872581
8.119941
8.697510
9.636879
10.716915
11.063814
12.077689
14.066696
15.115738
15.090704
17.374754
18.252730
20.797849
21.119714
21.501780
23.058653
24.047494
24.779439
24.752617
25.698543
25.345683
25.172830
24.668574
26.806593
27.208924
26.642680
26.439428
27.259588
26.932955
24.897456
26.692748
25.952458
25.243759
24.281740
25.079846
23.760796
23.978949
23.479462
23.404956
21.511912
21.096468
22.618771
22.992492
23.304820
25.282502
25.554895
28.322935
30.142665
34.144521
33.084750
32.703876
32.413602
29.990673
28.706789
26.732683
24.982691
21.909475
19.913912
18.710494
15.992522
15.388727
15.924573
13.148785
13.502836
13.000965
12.928843
13.210773
12.504458
12.064576
12.857914
12.456775
11.875629
11.973977
##ZVALUE=230
194.676518
314.016938
329.630971
474.676490
643.584728
644.440651
598.969460
592.013001
361.969471
354.297757
156.933665
152.129531
90.784431
88.139772
86.757541
87.393522
73.968768
74.763894
52.215457
47.933459
36.207438
16.274452
16.023517
9.332895
9.198785
8.024573
8.041859
8.611679
9.284616
9.673834
9.843707
10.739565
13.702512
12.876987
14.940500
15.365481
16.435981
17.490983
19.704700
20.241737
22.349954
22.889972
23.105741
23.348927
24.187565
25.443435
24.304986
25.512576
25.453568
24.820566
24.743676
25.233626
25.302768
23.943782
22.498965
22.036433
22.863746
22.367835
20.096898
20.895600
20.440817
21.391511
21.125674
20.310879
20.190477
20.290613
21.587610
22.063851
23.281574
25.548935
27.253628
28.979778
29.509664
30.490756
28.959513
29.269457
25.637746
24.846792
23.302436
19.039512
18.666983
17.163754
16.297698
14.734864
15.333891
14.055967
12.876987
13.403893
13.659000
13.253689
12.434721
13.212562
12.013912
12.704730
12.626648
12.663603
##ZVALUE=235
36.614537
91.585517
105.263591
190.110803
361.476541
501.067638
687.808990
840.299726
846.894979
815.633535
666.000843
523.664951
382.443666
231.845975
159.612894
102.781653
100.599527
100.337863
102.059841
90.091825
87.387562
57.308674
54.677725
33.843517
24.427772
17.775893
11.562705
8.784533
8.550882
7.898808
9.007454
9.400845
10.499954
10.809898
11.887550
13.381839
13.531446
15.020967
15.542507
16.840696
17.152429
18.602610
19.717813
19.196868
19.312501
19.444823
19.434690
20.096898
20.076632
20.185709
20.217896
20.134449
18.313527
18.674731
18.344522
17.830729
18.270612
17.654896
17.366409
17.157793
16.886592
16.918778
17.342567
17.586946
16.186833
17.515421
17.843843
19.725561
20.695925
22.163987
23.874640
25.418997
24.821758
25.469661
25.155544
23.352504
23.366809
20.440817
18.490553
18.815994
16.350746
14.804602
14.722943
13.646483
13.297796
13.109446
12.327433
12.550950
12.765527
12.144446
11.567473
11.708736
12.020469
11.115670
12.069941
11.408925
##ZVALUE=240
2.318621
2.857447
8.395910
36.957860
82.643628
193.407536
321.522951
541.375875
728.424788
874.657631
983.890891
966.970921
834.031701
689.885616
478.391647
325.066447
183.181763
131.290555
107.825994
103.489757
110.499859
112.521648
109.408498
93.675852
78.682899
55.481791
42.026639
26.876926
18.495917
12.637973
10.856986
9.680986
9.698868
9.814501
10.172725
10.816455
11.142492
12.582541
12.017488
13.291836
14.737844
15.106797
14.610887
15.259981
15.310645
15.933514
15.516877
15.783906
15.113950
16.167760
15.448928
14.729500
15.357733
14.771819
14.216900
14.530420
14.111996
13.072491
13.281703
13.441443
13.063550
13.174415
13.192892
13.099909
13.808608
13.348460
13.919473
15.408993
15.928745
16.089678
18.495917
19.829869
20.703673
20.002723
19.285679
18.603802
17.291903
16.212463
15.668869
13.587475
13.182759
11.804700
12.288690
11.410713
11.701584
11.204481
10.986924
11.291504
11.068583
11.080503
10.378957
10.334849
10.975599
11.031628
10.425448
10.367632
##ZVALUE=245
2.030730
1.734495
2.168417
1.963973
4.059672
20.455718
53.434968
149.216652
274.506807
492.015481
687.530637
933.005810
1015.870571
1015.870571
1015.870571
847.476721
662.979484
429.281592
282.153487
152.863860
110.871792
95.874667
101.943612
115.489960
117.945671
113.466978
100.611448
83.211660
61.779618
47.460794
31.107664
22.296906
14.313459
12.080669
10.943413
11.154413
11.427999
11.246800
11.239648
11.795759
11.852980
12.867451
12.149811
11.974573
12.895465
12.325644
12.693405
12.357831
12.917519
13.102889
12.899637
12.097955
12.342930
12.080669
11.195540
11.111498
11.088848
11.568666
10.814667
10.874867
11.026859
11.011958
11.257529
10.499954
10.487437
10.787845
11.043549
12.212992
12.773871
13.388991
14.425516
15.059710
15.623569
15.327930
15.620589
14.950633
13.908744
13.176799
11.457801
10.965466
10.571480
10.377765
8.850694
10.137558
9.498000
9.329915
8.883476
9.094477
8.956790
8.807778
9.216666
8.874536
9.508729
8.765459
9.412766
9.124875
##ZVALUE=250
1.651645
1.652837
1.709461
1.816750
1.875758
2.023578
2.506971
11.191964
34.447908
106.136799
208.282471
422.858596
628.936887
902.245641
1015.870571
1015.870571
1015.870571
1015.870571
885.476470
599.299669
406.225920
290.343761
137.558579
96.326470
93.813539
104.514956
115.782619
120.698810
116.904974
105.192661
87.984800
69.813728
47.542453
35.256743
22.081733
17.217994
12.955666
11.877418
11.280775
11.628866
11.532903
11.664629
12.012720
12.037754
12.488961
12.195706
12.432933
12.227893
12.160540
11.634827
11.660457
11.712909
11.213422
11.152625
10.559559
10.731816
9.753704
10.232925
10.229945
9.638667
9.814501
9.515882
9.203553
9.073615
9.480715
9.293556
9.662509
10.076761
11.486411
12.028813
11.814833
13.263822
13.015866
12.458563
12.403727
12.561679
11.419654
10.589957
9.604692
9.280443
8.338690
8.471608
7.550716
7.768869
7.967949
7.807612
7.943511
7.509589
6.837845
7.396936
6.979704
7.658601
7.679462
7.309914
7.582903
8.072853
##ZVALUE=255
1.513958
1.391768
1.574755
1.713634
1.746416
1.780987
1.969934
1.796484
2.246499
4.049540
21.858811
64.003468
174.312592
306.000710
552.295446
788.028836
1015.870571
1015.870571
1015.870571
1015.870571
1015.870571
819.137692
586.968660
328.006744
195.401907
104.651451
83.247423
91.136694
106.425881
120.632648
125.650764
121.998787
112.211704
92.518926
74.037910
51.427484
37.939548
23.928881
18.405914
14.734864
13.103485
12.923479
13.220906
12.561679
12.540817
12.819767
12.555718
12.777448
12.208819
11.922717
12.253523
11.433959
11.320710
10.992885
10.737777
10.222793
10.546446
9.977818
9.899735
9.604692
9.013414
9.346604
8.859634
8.927584
8.598566
8.941889
8.954406
9.371638
10.144711
10.125637
10.782480
11.197925
11.451840
11.662841
10.615587
10.615587
9.784698
8.850694
8.381605
7.948875
7.589459
6.922483
7.203817
6.740689
7.036924
6.487966
6.518960
6.424785
6.399751
6.545782
6.587505
6.695986
6.459951
6.301999
6.502867
6.483793
##ZVALUE=260
1.461506
1.563430
1.501441
1.444817
1.570582
1.672506
1.777411
1.691580
1.735687
2.137423
2.174973
3.188848
10.211468
44.884682
101.960897
247.890949
423.993468
652.055740
974.702835
1015.955806
1015.955806
1015.955806
1015.955806
1014.520526
717.779398
490.049720
272.833705
160.105824
87.628961
74.657798
90.090632
104.537606
120.721459
131.703615
128.106475
114.191771
98.930597
74.951649
59.053898
39.533973
29.784441
20.990968
17.548800
15.485883
14.765859
14.572740
14.110804
14.905930
14.365911
13.935566
14.162660
13.242960
13.035536
13.241768
12.518764
11.465549
11.357665
11.066794
10.525584
10.326505
10.062456
9.585619
9.492636
9.121895
9.062886
8.934736
9.135604
8.955598
9.176731
9.940863
9.787679
10.272861
10.465980
10.110736
9.588599
9.302497
8.441806
8.382797
7.630587
7.017851
6.827712
6.378889
6.321669
6.087422
5.798936
6.262660
6.292462
5.731583
6.088614
5.684495
5.773902
6.041527
5.986691
5.660653
5.872846
5.879998
##ZVALUE=265
1.056790
1.249909
1.305938
1.243949
1.436472
1.307726
1.354814
1.486540
1.540780
1.409650
1.761913
1.853704
1.931787
2.430677
5.324483
20.166636
78.398585
162.783861
289.930701
586.403608
863.418579
1015.870571
1015.870571
1015.870571
1015.870571
1015.870571
970.237851
637.372732
416.908860
210.128427
119.842887
67.556500
68.622828
93.041658
108.172894
126.240849
132.193565
128.533840
118.112564
98.553896
79.760551
58.351755
42.937994
30.252934
23.418665
19.104481
18.088818
17.382503
17.208457
16.415715
16.156435
15.617609
15.165806
14.770627
14.069676
13.403893
13.497472
12.388825
12.329817
11.168718
11.022687
10.561943
10.408759
9.695888
9.751916
9.693503
9.621978
9.829998
9.377599
9.755492
9.831786
10.358691
10.028481
9.854436
9.654760
9.093881
8.467436
7.450581
7.431507
6.946921
6.321669
6.630421
6.286502
6.034970
5.750656
5.605817
5.696416
5.789995
5.548596
5.274415
5.388856
5.774498
5.325675
5.517602
5.422831
5.539656
##ZVALUE=270
1.324415
1.059771
1.221895
1.278520
0.976920
1.388788
1.245737
1.385808
1.187921
1.300573
1.591444
1.593828
1.510978
1.553893
2.029538
2.063513
2.618432
11.108518
34.554601
121.544600
242.159963
421.150923
779.612660
1015.870571
1015.870571
1015.870571
1015.870571
1015.870571
1015.870571
900.188684
557.926893
339.281559
184.133649
77.610612
57.167411
70.197582
87.334514
112.383962
125.994682
135.749578
134.449601
121.124983
106.085539
81.534982
64.195991
45.507550
35.452843
26.015639
22.205710
19.689798
18.334985
18.302798
17.288923
16.728640
15.912652
15.459657
15.059710
14.928579
13.888478
13.100505
12.614727
11.658669
11.974573
11.097789
10.454655
10.227561
10.145903
9.668469
10.192990
10.348558
10.480881
10.648966
10.208488
9.800792
9.444952
8.938909
8.706450
7.728934
7.275939
7.047653
6.527901
6.423593
6.052852
5.940795
5.889535
5.510449
5.768538
5.370975
5.819798
5.667806
5.350709
5.321503
5.235672
5.429983
5.435944
5.383492
##ZVALUE=275
1.138449
0.967979
1.185536
1.124740
1.034737
1.096725
1.119971
1.071692
0.926852
1.258850
1.190901
1.249909
1.455545
1.561642
1.507998
1.683831
1.835823
2.102852
2.187490
4.751682
17.664433
8.248687
174.379945
343.679786
673.355460
946.933031
1015.810966
1015.810966
1015.810966
1015.810966
1015.810966
1015.810966
747.179985
476.822853
226.759911
117.884874
56.443810
51.180720
69.340467
87.689757
109.659433
123.743415
134.423971
135.174990
122.311711
106.296539
83.991885
68.105459
48.231483
36.105514
26.306510
22.102594
19.162893
17.828941
16.804934
16.031861
15.413761
14.875531
14.571548
13.463497
12.982488
12.882948
12.078881
11.439919
10.990500
10.716915
10.523796
10.462999
10.612607
10.229945
10.748506
10.290742
9.935498
10.038614
9.489655
9.252429
8.442998
7.764697
7.328987
7.168651
6.562471
6.207824
6.055832
6.073713
5.786419
5.919933
5.793571
5.839467
5.541444
5.575418
5.370975
5.366802
5.180836
5.053878
5.199909
5.162954
##ZVALUE=280
1.048446
0.986457
1.023412
1.101494
0.933409
1.128912
1.123548
0.964999
1.206994
1.252890
1.205802
1.165867
1.232624
1.228452
1.500845
1.440644
1.601577
1.767874
1.800656
1.970530
2.068877
2.493858
10.431409
38.929582
133.943558
256.986618
507.443547
776.765943
1015.873551
1015.873551
1015.873551
1015.873551
1015.873551
1015.873551
956.329703
568.671823
342.732668
149.902701
74.388981
42.885542
48.121810
67.564845
85.198879
107.657909
120.925903
130.794644
128.863454
117.393732
103.544593
80.481768
64.119697
45.123696
33.728480
23.851991
18.767715
15.770793
14.647841
13.750792
13.215542
12.555718
12.154579
11.832714
11.541843
11.204481
10.751486
10.547638
10.381937
10.028481
9.859800
10.017753
9.726882
9.689927
9.729862
9.139776
8.960962
8.578897
7.949471
7.496476
7.408857
6.795526
6.485581
6.461740
6.260872
6.122589
6.125569
5.588531
5.937815
5.601645
5.600452
5.762577
5.611777
5.653501
5.575418
5.488992
5.256534
5.505681
##ZVALUE=285
0.916719
1.105666
1.027584
1.062751
1.007915
0.966787
1.113415
1.092553
1.111627
1.025796
1.141429
1.090765
1.209974
1.375675
1.363754
1.421571
1.274943
1.459718
1.524687
1.626611
1.678467
1.887679
2.098680
2.424717
5.142689
17.804503
68.388581
151.694417
350.006819
581.854582
862.693787
1015.938520
1015.938520
1015.938520
1015.938520
1015.938520
1015.938520
759.750605
488.715768
233.878493
116.730928
44.553876
32.373667
42.754412
56.367517
80.049634
94.865561
112.092495
120.484829
122.264624
113.912821
96.745491
81.358552
58.837533
43.492913
27.866960
20.149946
14.709830
12.245774
10.904670
10.021925
9.626746
10.034442
9.619594
8.986592
9.215474
8.838773
8.882880
9.158850
9.083748
9.234548
9.023547
8.833408
8.633733
8.249879
7.671714
7.739663
7.117987
6.801486
6.527901
6.544590
6.488562
6.313920
6.163716
6.171465
6.032586
5.951524
5.897880
6.016493
5.952716
5.888939
5.590916
5.689859
5.437732
5.844831
5.502701
##ZVALUE=290
0.846982
0.817776
0.963807
0.954866
0.908971
0.794530
1.065731
1.031756
1.085997
0.937581
0.999570
1.068711
1.038909
1.106858
1.183748
1.126528
1.341701
1.157522
1.227856
1.490712
1.328588
1.621842
1.579523
1.880527
1.916885
2.163649
2.595782
8.884668
29.672980
104.261637
213.660002
473.660827
745.326877
1015.870571
1015.870571
1015.870571
1015.870571
1015.870571
1015.870571
958.172679
650.327802
334.923863
174.863935
62.619448
29.190779
25.923848
35.053492
51.839948
67.084432
88.129640
101.423860
112.559795
113.546848
107.133985
93.670487
73.182583
56.163669
37.581921
26.805997
16.793609
12.246966
8.921623
8.227825
7.754564
7.290840
7.365942
7.647872
7.546544
7.865429
8.131862
8.200407
8.210540
8.408427
7.801652
7.789731
7.413626
7.081628
6.684661
6.553531
6.164908
6.114841
6.205440
6.371737
6.186962
5.831718
5.854964
5.835891
5.957484
5.928874
5.724430
5.865693
5.589724
6.030798
5.579591
5.753636
5.578995
##ZVALUE=295
0.937581
0.907779
0.925660
0.847578
1.013875
1.104474
0.888705
0.897646
1.042485
1.014471
1.105666
0.950694
0.915527
0.898838
1.092553
1.096725
0.963807
1.226664
1.128912
1.176000
1.278520
1.160502
1.338720
1.327991
1.635551
1.699924
1.837611
1.996756
2.304912
3.327727
15.980601
52.159429
133.637786
344.911814
587.536693
985.552669
1015.871763
1015.871763
1015.871763
1015.871763
1015.871763
1015.871763
828.514695
445.725918
250.935555
91.932416
38.479567
18.234849
20.525455
31.362772
43.418407
62.370896
77.960491
95.947981
104.833841
107.012987
100.945830
86.078644
71.564913
51.941872
37.912726
23.553967
16.473532
10.398626
8.397698
6.596446
6.717443
6.451607
6.439686
7.158518
7.146597
7.330775
7.231832
6.934404
7.061958
6.502867
6.575584
6.498694
6.272793
5.891919
5.973577
6.017685
5.864501
5.955696
5.712509
6.004572
5.630851
5.758405
5.888939
5.543828
5.644560
5.604625
5.874634
5.537868
5.486608
5.645752
##ZVALUE=300
0.843406
0.810623
0.823736
0.798702
0.925660
0.828505
0.924468
0.878572
1.048446
0.814795
0.853539
0.976920
1.018643
1.004934
1.270771
0.947714
1.135468
1.071692
1.052618
1.091957
1.139641
1.095533
1.059771
1.237988
1.379848
1.462698
1.632571
1.498461
1.825690
2.087951
2.104640
2.507567
4.956722
29.781461
83.633661
238.980651
434.848666
812.032819
1015.870571
1015.870571
1015.870571
1015.870571
1015.870571
1015.870571
997.805595
607.650876
364.944935
158.581734
70.907474
21.400452
13.923645
18.306971
25.677681
39.672852
53.747892
73.460937
87.025762
98.519921
100.781918
95.197558
86.545944
67.690611
53.557754
36.275983
25.135875
15.001893
10.417700
7.698536
6.572604
6.522536
6.442666
6.492734
6.730556
6.572604
6.438494
6.326437
6.099939
5.862713
5.986691
5.916953
5.729795
5.954504
5.753636
5.763769
5.792975
5.615950
5.846620
5.614758
5.740523
5.625486
5.548596
5.383492
5.457997
5.701780
5.615950
5.661845
##ZVALUE=305
0.806451
0.742674
0.770688
0.859499
0.900626
0.754595
0.808835
1.024604
0.859499
0.879765
0.919700
0.980496
0.878572
0.790954
0.888705
0.860691
0.825524
0.937581
1.058578
0.988841
1.240969
1.009703
1.115799
1.186728
1.243949
1.235604
1.459718
1.430511
1.547933
1.559854
1.615882
1.788735
2.019405
2.249479
3.148913
17.771721
55.878758
173.724890
333.379507
659.982562
969.438553
1015.873551
1015.873551
1015.873551
1015.873551
1015.873551
1015.873551
800.116658
509.856939
233.001709
110.939741
32.319427
13.735890
12.291670
16.040802
25.584698
36.067963
53.674579
66.967607
83.676577
92.389584
95.655918
92.526674
80.717802
68.415999
49.488544
36.078691
22.926927
15.833974
9.866953
7.876754
6.887913
6.651878
6.306767
6.095767
5.676746
5.913973
5.445480
5.373955
5.537868
5.379915
5.479455
5.579591
5.475879
5.706549
5.626678
5.718470
5.454421
5.680919
5.343556
5.500913
5.331635
5.339980
5.582571
5.601645
5.545616
##ZVALUE=310
0.723600
0.830889
0.845790
1.012683
0.677705
0.777841
0.790954
0.787973
0.692606
0.737906
0.831485
0.745654
0.866652
0.934601
0.850558
0.979900
0.834465
0.765920
1.116991
1.037717
1.017451
0.868440
1.165867
1.055598
1.183748
1.176596
1.329780
1.039505
1.451969
1.310706
1.419783
1.578927
1.561642
1.873970
1.951456
2.155900
2.482533
6.619692
25.092959
99.108815
209.717751
469.146967
754.143596
1015.870571
1015.870571
1015.870571
1015.870571
1015.870571
1015.870571
998.301506
714.024901
366.652608
195.675492
65.989494
23.081899
9.832978
10.319948
14.680624
20.441413
32.288432
44.703484
61.951876
74.649453
85.405707
89.415908
87.326765
79.660416
65.580606
51.738620
35.001636
24.957657
15.992522
11.302829
7.886887
6.491542
5.754828
5.653501
5.367994
5.278587
5.083680
5.061626
5.235672
5.484819
5.137920
5.180836
5.230904
5.374551
5.402565
5.219579
5.277991
5.277991
5.136728
5.408525
5.017519
5.305409
5.061626
##ZVALUE=315
0.750422
0.811815
0.796914
0.703931
0.556707
0.746846
0.822544
0.774860
0.769496
0.948906
0.925660
0.758767
0.692606
0.989437
0.901818
0.844598
0.785589
0.869632
0.834465
0.903606
0.964999
0.974536
1.031756
1.108646
1.113415
0.981688
1.152754
1.072884
1.128912
1.166463
1.371503
1.132488
1.384616
1.594424
1.582503
1.640916
1.814961
2.054572
2.847910
3.107786
14.495850
46.525598
154.184699
302.820802
630.943775
956.290960
1015.869975
1015.869975
1015.869975
1015.869975
1015.869975
1015.869975
825.235844
526.003838
247.497559
117.791891
32.694936
12.061596
8.653998
9.319782
13.148785
18.483996
29.523969
39.696693
56.749582
67.948699
80.678463
84.892511
83.618760
75.868964
62.733889
49.918890
33.891797
24.167895
15.312433
10.862947
7.169843
5.938411
5.243421
4.960895
4.802942
4.992485
4.909635
4.825592
5.044937
5.212426
5.070567
4.966855
4.925728
5.142689
5.047917
5.113482
5.077720
5.157590
5.065799
4.994869
##ZVALUE=320
0.844598
0.726581
0.767708
0.651479
0.760555
0.787973
0.948906
1.019835
0.974536
0.877976
0.784993
0.964999
0.792742
0.833869
1.056790
1.002550
0.918508
0.933409
0.762939
0.876784
0.990629
1.026988
1.042485
0.823736
1.073480
0.992417
1.156926
1.136661
1.065731
1.236796
1.144409
1.220703
1.191497
1.251698
1.431704
1.497865
1.493692
1.586676
1.778603
2.067685
2.086759
2.431870
5.016923
29.129982
81.920624
236.875415
423.594713
780.611634
1015.941501
1015.941501
1015.941501
1015.941501
1015.941501
1015.941501
1015.941501
625.510812
366.298556
154.825449
65.555573
16.896725
8.621812
7.785559
8.663535
11.673570
16.626716
26.822686
36.673546
51.432848
63.570738
75.392723
79.886913
79.002976
72.940588
58.974624
47.359467
32.709837
22.687912
14.303923
9.851456
6.491542
5.781651
5.095601
5.024672
4.854798
4.809499
4.754663
4.816651
4.691482
4.726648
5.005598
4.853606
4.786849
4.864931
4.847646
4.874468
4.747510
##ZVALUE=325
0.651479
0.593662
0.605583
0.766516
0.593662
0.481606
0.708699
0.618696
0.639558
0.576973
0.710487
0.844598
0.753999
0.764728
0.838637
0.860691
0.725985
0.821948
0.792742
0.782609
0.755787
0.816584
0.851750
0.894666
0.915527
0.856519
0.957847
1.051426
1.041889
1.200438
1.072884
1.086593
1.038909
1.203418
1.133680
1.301765
1.270771
1.335740
1.371503
1.651645
1.697540
1.904964
2.011657
2.456903
2.999902
15.592575
49.544573
158.128738
304.230452
613.428950
915.105939
1015.870571
1015.870571
1015.870571
1015.870571
1015.870571
1015.870571
751.000643
471.162796
216.261744
98.898411
25.807619
10.014772
7.085800
7.027984
8.311868
10.716915
16.773939
24.423599
37.183762
48.182607
61.482787
69.981813
74.815750
73.559880
65.006614
55.702925
42.103529
31.437874
20.023584
14.081597
8.762479
6.533861
5.338788
5.096793
4.690886
4.593730
4.414916
4.572868
4.525781
4.437566
4.722476
4.564524
4.740953
4.630685
4.619956
##ZVALUE=330
0.578761
0.652671
0.562668
0.693798
0.477433
0.716448
0.690818
0.627637
0.587702
0.643730
0.538826
0.680685
0.747442
0.767708
0.694990
0.770688
0.601411
0.715852
0.722408
0.780821
0.831485
0.834465
0.851750
0.782609
0.868440
0.822544
0.852942
0.878572
0.833869
0.963807
0.884533
0.998974
1.089573
1.091957
0.947714
1.148582
1.312494
1.385808
1.329780
1.473427
1.430511
1.566410
1.771450
1.641512
1.774430
1.996756
2.486706
5.046725
28.892756
82.772970
236.039758
425.070524
788.762569
1015.871763
1015.871763
1015.871763
1015.871763
1015.871763
1015.871763
978.582501
577.555895
335.794687
136.173964
56.489706
14.000535
7.462502
6.710887
6.974936
8.189678
10.587573
16.445518
23.051500
33.963919
44.405460
56.612492
64.589977
69.589615
68.652630
61.388612
52.794814
38.789511
29.796958
20.082593
14.451742
9.223819
6.899834
5.344748
4.823804
4.651546
4.331470
4.211664
4.513860
4.570484
4.467964
4.503727
4.521608
##ZVALUE=335
0.618696
0.540614
0.456572
0.449419
0.531673
0.573993
0.716448
0.650883
0.679493
0.573993
0.725985
0.480413
0.600815
0.527501
0.724792
0.699759
0.571609
0.805855
0.791550
0.849962
0.792742
0.661612
0.513792
0.756979
0.852942
0.747442
0.727773
0.838637
0.826716
1.071692
1.008511
0.888705
0.873804
0.769496
1.153946
1.022816
1.071692
1.073480
1.119971
1.125932
1.160502
1.235604
1.187921
1.352429
1.503825
1.543760
1.709461
1.833439
2.190471
3.622770
12.006760
57.218671
134.889483
334.424973
580.378771
979.270935
1015.870571
1015.870571
1015.870571
1015.870571
1015.870571
1014.034748
757.943988
411.623716
217.216015
71.993470
25.923848
8.349419
6.901622
6.463528
6.583929
7.546544
9.478927
15.077591
20.982623
31.733513
41.211843
52.604675
60.380697
65.313578
64.466596
57.667494
50.047636
38.175583
30.108690
20.257831
14.356971
9.156466
6.847978
5.439520
4.783869
4.698634
4.577637
4.496574
4.448891
4.287958
##ZVALUE=340
0.714660
0.610948
0.731945
0.696778
0.615716
0.403523
0.562668
0.692606
0.558496
0.739694
0.670552
0.533462
0.673532
0.652671
0.737906
0.602603
0.634789
0.584722
0.713468
0.643730
0.775456
0.710487
0.802875
0.618696
0.741482
0.800490
0.758767
0.773668
0.898838
0.822544
0.869632
0.820756
0.894666
0.809431
0.915527
1.035929
0.971556
0.952482
1.021624
0.917912
0.925660
1.164675
1.063943
1.299977
1.296997
1.353621
1.450777
1.416802
1.721978
1.779795
1.983643
2.566576
5.533695
32.755733
92.507005
260.328650
475.819707
856.488943
1015.870571
1015.870571
1015.870571
1015.870571
1015.870571
1015.870571
910.849571
500.101447
283.935666
112.797618
41.336417
10.249615
7.157922
6.330609
6.403923
6.488562
6.955862
9.448528
13.286471
20.184517
28.376579
40.003657
48.708916
58.020949
60.655475
59.834719
55.997968
47.338605
38.996935
28.093457
21.200776
13.846755
9.966493
6.782413
5.555749
4.818439
4.663467
4.678965
##ZVALUE=345
0.764728
0.739694
0.697970
0.657439
0.496507
0.625849
0.808835
0.763535
0.682473
0.637770
0.717640
0.674725
0.636578
0.884533
0.775456
0.730753
0.760555
0.862479
0.722408
0.785589
0.768900
0.823736
0.728965
0.804663
0.927448
0.880957
0.937581
0.783801
0.902414
0.907779
0.838637
0.786781
0.900626
0.965595
0.977516
1.069903
0.917912
0.917912
1.024604
0.983477
1.118779
1.013875
1.153946
1.102686
1.289845
1.227856
1.400709
1.468658
1.436472
1.496673
1.706481
1.822710
1.904964
2.116561
3.589392
12.954473
65.916777
150.345564
357.640982
592.356920
979.035497
1015.962958
1015.962958
1015.962958
1015.962958
1015.962958
993.798971
698.179007
335.577726
164.567828
50.438643
18.647909
7.914901
6.774664
6.260872
5.867481
5.684495
6.350875
8.728504
12.020469
19.121766
25.537610
35.901666
43.523908
52.059889
55.825710
56.412816
52.925944
45.718551
38.272738
28.238893
21.067858
13.977885
10.064840
7.040501
5.886555
##ZVALUE=350
0.716448
0.507832
0.763535
0.618696
0.593662
0.595450
0.594854
0.636578
0.641942
0.643730
0.646710
0.557899
0.568628
0.571609
0.763535
0.501871
0.697970
0.714660
0.679493
0.778437
0.616908
0.640750
0.704527
0.639558
0.772476
0.712872
0.698566
0.761747
0.807643
0.717640
0.875592
0.771880
0.789762
0.817776
0.814795
0.913739
0.893474
0.928640
1.008511
0.968575
0.879765
0.947714
1.103878
0.963807
0.772476
1.081824
1.086593
1.217723
1.352429
1.396537
1.314878
1.343489
1.595616
1.679659
1.858473
1.949668
2.250671
7.629991
28.315783
107.137561
226.691961
506.668687
784.542561
1015.873551
1015.873551
1015.873551
1015.873551
1015.873551
1015.873551
757.867694
480.017662
223.788619
100.821853
24.803877
9.196997
6.430745
5.560517
5.143881
4.950762
4.892945
5.637407
8.013844
11.015534
16.014576
21.910667
31.363964
38.617849
46.378970
50.322413
51.760674
49.920678
42.779446
36.301613
27.068853
20.527840
14.226437
##ZVALUE=355
0.573993
0.689626
0.669956
0.517964
0.744462
0.511408
0.486970
0.527501
0.672936
0.740886
0.791550
0.743866
0.674725
0.557899
0.705719
0.561476
0.573993
0.789762
0.821948
0.600815
0.836849
0.692606
0.732541
0.695586
0.765920
0.628829
0.761747
0.804663
0.781417
0.700951
0.713468
0.832677
0.901818
0.874996
0.844598
0.852942
0.896454
1.050830
0.864863
0.937581
0.864863
1.051426
0.953674
0.999570
1.026988
1.140833
1.059771
1.001954
1.046658
1.122952
1.322627
1.284480
1.278520
1.453757
1.753569
1.735687
1.645684
2.003908
2.195835
4.067421
13.997555
67.013502
153.525472
362.045765
611.003637
993.469954
1015.871763
1015.871763
1015.871763
1015.871763
1015.871763
925.829411
607.945919
276.573896
132.013559
37.179589
12.493730
6.011724
5.641580
5.200505
4.897714
4.693866
4.785657
5.346537
6.629825
9.795427
13.542771
20.262599
26.120543
34.548640
40.482879
46.137571
47.456622
45.576692
41.537881
34.261942
##ZVALUE=360
0.606775
0.640750
0.788569
0.660419
0.643730
0.633597
0.620484
0.670552
0.750422
0.610948
0.674725
0.711679
0.846982
0.790954
0.704527
0.695586
0.751615
0.826716
0.740886
0.570416
0.791550
0.698566
0.689626
0.750422
0.731945
0.755787
0.761747
0.774860
0.843406
0.689626
0.777841
0.851750
0.888705
0.835657
0.878572
0.974536
0.884533
1.012683
0.838637
0.943542
0.931621
0.994802
1.011491
0.937581
1.144409
1.073480
1.077652
1.054406
1.125932
1.168847
1.180768
1.470447
1.343489
1.381636
1.506805
1.576543
1.572967
1.593828
1.837611
2.086759
2.095699
2.768636
6.097555
31.564832
89.600682
261.567831
470.802784
834.996700
1015.870571
1015.870571
1015.870571
1015.870571
1015.870571
1015.870571
750.696659
382.258892
200.364590
70.627928
24.025440
7.084608
5.551577
5.041957
4.892945
4.734993
4.438758
4.647970
4.728436
5.918741
7.745624
11.439919
15.784502
23.539662
29.492974
36.977530
41.120648
43.495893
##ZVALUE=365
0.624657
0.612736
0.554919
0.350475
0.659823
0.569820
0.699759
0.630617
0.592470
0.785589
0.603795
0.699759
0.666976
0.685453
0.690818
0.667572
0.697970
0.513792
0.768900
0.711679
0.732541
0.738502
0.748634
0.714660
0.745654
0.735521
0.709891
0.773668
0.687838
0.804663
0.763535
0.785589
0.847578
0.958443
0.772476
0.730753
0.849962
0.869632
0.988841
0.971556
0.838637
0.959635
0.916719
0.916719
1.089573
0.975728
1.099706
1.054406
0.997782
1.006722
1.178980
1.086593
1.080632
1.058578
1.145601
1.173615
1.365542
1.431704
1.587868
1.590848
1.699924
1.853704
2.181530
2.322793
3.233552
16.063452
50.724745
159.340501
326.402783
671.321750
972.473621
1015.871763
1015.871763
1015.871763
1015.871763
1015.871763
928.713679
519.274473
287.865996
103.359818
38.095713
8.595586
5.662441
4.873872
4.444718
4.266500
4.362464
4.102588
4.327893
4.391670
5.259514
7.173419
9.470582
14.763474
19.125938
26.087761
##ZVALUE=370
0.580549
0.607967
0.718832
0.689626
0.656843
0.589490
0.621676
0.561476
0.580549
0.588894
0.641942
0.671744
0.587702
0.639558
0.649691
0.664592
0.695586
0.656843
0.642538
0.686646
0.584722
0.640750
0.658631
0.732541
0.632405
0.761747
0.791550
0.785589
0.789762
0.767708
0.738502
0.836849
0.774860
0.625849
0.810623
0.779629
0.745654
0.882745
0.837445
0.889897
0.722408
0.751615
0.835657
0.940561
0.906587
0.933409
0.936985
0.927448
0.912547
0.970960
0.932813
1.015663
0.942945
0.944734
1.168847
1.252890
1.116991
1.177788
1.260638
1.278520
1.439452
1.462698
1.521707
1.636744
1.786947
2.065897
2.602935
7.666945
28.850436
110.557675
231.760740
493.052602
777.818561
1015.870571
1015.870571
1015.870571
1015.870571
1015.870571
1013.226509
640.356541
375.495553
149.351954
65.073967
18.206835
6.879568
4.763603
4.517436
4.320741
4.033446
3.935695
4.056692
4.079938
4.278421
5.196929
6.313920
8.865595
##ZVALUE=375
0.700951
0.543594
0.594854
0.488758
0.595450
0.538826
0.525713
0.515580
0.551939
0.626445
0.505447
0.507832
0.636578
0.534654
0.641942
0.495911
0.605583
0.624657
0.622869
0.583529
0.598431
0.648499
0.617504
0.627637
0.636578
0.700951
0.769496
0.753999
0.805855
0.800490
0.998974
0.620484
0.571609
0.614524
0.647902
0.787973
0.839829
0.925660
0.908971
0.867844
0.781417
0.820756
0.649691
0.778437
0.777841
0.806451
0.793934
0.830889
0.838637
0.962615
0.893474
0.944734
0.799894
0.812411
0.947714
0.929832
0.987649
0.938773
1.090765
1.137853
1.079440
1.233816
1.250505
1.312494
1.449585
1.556873
1.740456
1.872778
2.245903
4.357696
13.977885
60.580969
149.821639
377.342701
631.786585
996.148586
1015.866995
1015.866995
1015.866995
1015.866995
1015.866399
784.267783
518.700480
263.615847
132.579803
38.383603
12.117624
5.084872
4.514456
4.197955
4.083514
4.036427
3.946424
4.010797
4.072785
4.189610
##ZVALUE=380
0.588894
0.510812
0.512600
0.483990
0.573993
0.628829
0.500679
0.467896
0.596642
0.543594
0.605583
0.411868
0.520945
0.466704
0.635982
0.563860
0.480413
0.667572
0.623465
0.483990
0.479817
0.653863
0.587702
0.527501
0.759959
0.724792
0.505447
0.688434
0.761747
0.814795
0.771880
0.771880
0.684857
0.910759
0.885725
0.882745
0.868440
0.770688
0.762939
0.818968
0.754595
0.945926
0.801682
0.806451
0.802875
0.956655
0.904799
0.790954
0.815988
0.694990
0.857711
0.832677
0.721812
0.946522
0.832677
0.811815
0.886917
0.866652
0.892878
0.965595
0.976920
1.081824
1.131892
1.227856
1.195669
1.277924
1.564622
1.737475
1.883507
1.952648
2.297759
2.931952
7.326603
40.333867
107.462406
290.070772
509.133935
866.013765
1015.869975
1015.869975
1015.869975
1015.869975
1015.869975
956.032872
679.517984
358.681679
190.894008
66.881776
24.059415
6.561875
4.533529
4.344583
4.251599
4.190803
4.278421
4.048944
##ZVALUE=385
0.447631
0.399947
0.384450
0.380874
0.456572
0.404716
0.461936
0.667572
0.469685
0.427961
0.440478
0.359416
0.458956
0.497699
0.419617
0.485778
0.552535
0.564456
0.542998
0.332594
0.713468
0.477433
0.588894
0.581741
0.622869
0.726581
0.659823
0.895858
0.742674
0.926852
0.715852
0.889897
0.883937
0.814795
0.942945
0.775456
0.997782
0.751615
0.987649
0.761747
0.875592
0.795722
0.873804
0.810623
0.775456
0.833869
0.816584
0.883937
0.693798
0.848770
0.968575
0.879765
0.939965
0.793934
0.945926
0.939965
0.809431
0.980496
0.937581
0.920892
1.034737
1.061559
0.960827
1.004934
1.194477
1.182556
1.444817
1.518726
1.564622
1.742840
1.851916
1.882911
1.980662
2.126694
3.580451
20.705462
63.434839
187.344551
360.931754
701.341033
983.956456
1015.869975
1015.869975
1015.869975
1015.869975
1015.869379
853.914618
501.316786
297.617912
124.681592
48.829913
10.432601
5.126595
4.402995
4.228950
4.124641
##ZVALUE=390
0.519753
0.531673
0.400543
0.618696
0.498891
0.617504
0.548959
0.521541
0.473857
0.418425
0.474453
0.497699
0.439882
0.540614
0.440478
0.577569
0.354648
0.627637
0.419617
0.626445
0.609756
0.367761
0.615716
0.504851
0.614524
0.670552
0.610948
0.699759
0.851750
0.707507
0.704527
0.948906
0.857711
0.895858
0.863671
0.804663
0.778437
0.830889
0.880957
0.946522
0.951886
1.040697
1.001954
0.899434
0.832677
1.064539
0.841618
0.944734
0.919700
0.998974
0.999570
0.868440
0.939965
0.878572
1.006722
0.857711
0.795722
0.861883
0.876784
0.950694
0.954866
1.035929
1.102686
1.048446
1.023412
1.280904
1.313686
1.513958
1.487732
1.757741
1.775622
1.785755
1.775622
1.888871
1.826882
1.908541
2.537966
7.513762
42.846799
114.947557
312.846899
537.093878
900.645852
1015.870571
1015.870571
1015.870571
1015.870571
1015.870571
1012.868881
763.497949
417.350531
222.210884
74.847937
25.510788
6.248951
4.500747
##ZVALUE=395
0.502467
0.588894
0.513792
0.438690
0.529885
0.417829
0.565648
0.538826
0.454783
0.449419
0.573993
0.529885
0.453591
0.531673
0.438690
0.532866
0.442863
0.516772
0.570416
0.509620
0.513792
0.524521
0.602603
0.494719
0.640750
0.722408
0.729561
0.688434
0.830889
0.747442
0.767708
0.856519
0.838637
0.705719
0.968575
0.930429
0.908971
0.935793
0.930429
0.883937
0.983477
0.901818
0.873804
0.974536
0.895858
0.838637
0.894666
1.024604
0.884533
0.852942
0.966787
1.067519
0.769496
0.979900
0.750422
0.894666
1.017451
0.943542
0.932813
0.940561
0.839829
0.794530
0.967979
1.029968
1.192689
1.245737
1.359582
1.387596
1.553893
1.534820
1.697540
1.566410
1.495481
1.532435
1.538992
1.599789
1.582503
1.751781
2.146959
4.154444
25.415421
72.683692
202.916861
379.877687
717.760921
995.436907
1015.836000
1015.836000
1015.836000
1015.836000
1015.836000
940.032601
542.074442
309.923887
120.955706
49.443841
##ZVALUE=400
0.607967
0.598431
0.608563
0.361800
0.538826
0.395775
0.523925
0.560880
0.466704
0.554919
0.643730
0.386834
0.560880
0.599623
0.581741
0.631809
0.471473
0.508428
0.643730
0.558496
0.481606
0.726581
0.583529
0.521541
0.650883
0.599623
0.797510
0.768900
0.728965
0.804663
0.927448
0.805855
0.782609
0.996590
0.969768
0.980496
0.948906
0.932813
0.964999
0.996590
1.070499
0.969768
0.906587
1.093745
1.165867
0.785589
1.031756
0.920892
1.010895
0.918508
0.827909
0.908971
0.946522
0.930429
0.900626
0.859499
0.933409
0.901818
0.924468
0.896454
1.036525
0.801682
1.044869
1.094937
1.131892
1.229644
1.296997
1.336932
1.518726
1.555681
1.498461
1.479983
1.441836
1.302958
1.444817
1.190901
1.430511
1.470447
1.527667
1.852512
1.908541
2.943873
9.300709
42.622685
108.689666
288.300514
507.137775
877.493024
1015.874743
1015.874743
1015.874743
1015.874743
1015.874743
984.081626
710.276961
390.423536
##END
