##TITLE=C510_R3
##FORMAT=SPECTACLE-ASCII V-1.2
##DATA TYPE=ULTRAVIOLET SPECTRUM
##SECOND TYPE=ULTRAVIOLET SPECTRUM
##DATE=05/28/18
##TIME=12:11:10
##SPECTROMETER/DATA SYSTEM=SPECTACLE
##XUNITS=NM EM
##YUNITS=ENERGY
##YFACTOR=1
##FIRSTX=220
##LASTX=410
##NPOINTS=96
##3DDATA=Equidistant
##ZUNITS=NM EX
##FIRSTZ=210
##LASTZ=400
##ZPOINTS=39
##XYDATA=(Y..Y)
##ZVALUE=210
51.778555
50.348639
38.236976
30.401945
25.729537
22.521615
20.391941
15.641451
15.165806
10.104775
8.872747
8.435845
7.560849
8.169413
7.883906
7.516742
8.441806
8.853674
9.043813
10.066628
11.632442
11.243820
12.555718
14.511943
19.048452
21.461844
22.792816
25.840998
28.646588
29.545426
31.290650
30.967593
32.893419
34.162998
34.725666
33.909678
33.367872
34.712553
32.857656
34.136772
33.556819
33.097863
32.579899
31.086802
33.461452
31.020641
32.273531
33.287406
31.196475
30.784607
30.909777
32.096505
30.505657
30.591488
31.773448
29.847622
29.688478
29.805899
29.569864
29.516816
30.631423
31.969547
30.391812
30.382872
31.277537
35.559535
38.681626
45.782924
53.479671
60.505867
65.845847
73.797703
81.968904
82.475543
87.556839
86.982846
84.571838
76.205730
68.664551
60.334802
51.897764
42.564869
38.530827
34.943819
30.292869
26.059747
25.586486
23.941994
30.026436
32.926798
42.765737
59.824586
80.765486
111.079812
142.057538
181.954503
##ZVALUE=215
170.666575
163.280964
126.273632
86.163878
66.184998
49.184561
41.613579
38.157701
33.174753
28.597713
24.307966
18.931627
14.030933
11.167526
9.269714
8.685589
8.305907
8.955598
8.466840
10.157824
10.137558
11.293888
12.803674
15.046000
16.214848
18.351674
21.308661
24.521947
25.479794
28.905869
32.135844
32.040477
33.845901
33.614635
35.287738
34.875870
33.385754
35.073757
34.564734
33.686757
34.819841
32.756925
34.633875
33.272505
33.341646
33.734441
32.534599
32.384992
34.767985
32.860637
31.872988
31.802654
33.881664
32.298565
31.871796
31.354427
29.876828
32.223463
30.409694
28.800964
30.144453
29.135942
29.248595
29.614568
30.802488
32.374859
32.335520
39.194822
40.748715
47.376752
50.916672
56.260824
62.709451
65.319538
64.513683
67.338943
62.442422
60.685873
55.409670
48.215985
42.344928
34.939647
31.625628
27.943850
24.788976
23.869872
20.960569
21.472573
21.185875
20.216703
20.289421
20.588636
20.118952
26.225448
35.578609
52.573681
##ZVALUE=220
370.144844
359.546542
348.701477
279.696584
222.431421
150.329471
111.655593
77.149868
58.067441
54.168701
48.387647
46.187639
36.780834
32.097697
24.256706
18.641949
13.712645
10.934472
8.845925
7.787943
9.185672
9.596944
10.156631
11.395812
12.290478
13.946891
14.578700
17.037988
19.262433
20.329952
22.525787
23.751855
22.563934
24.985671
25.736690
28.515458
25.875568
29.105544
30.849576
30.873418
30.234456
31.074882
29.798746
31.428933
31.133890
30.535460
30.893683
31.119585
31.877756
31.544566
32.411814
31.050444
31.352639
32.094717
30.862689
30.346513
29.571652
31.348467
29.858947
29.976964
28.998852
27.458668
29.086471
27.524829
28.500557
28.291941
31.623840
31.892657
36.586523
39.671659
45.038462
43.353438
49.306750
50.842762
48.228502
48.445463
45.534968
42.868853
38.244724
35.718679
29.004812
27.355552
25.310516
24.075508
19.401908
20.285845
18.031597
17.974973
17.865896
18.047690
17.035604
16.682744
17.497540
16.413927
16.312599
16.723871
##ZVALUE=225
446.213484
460.076928
556.267500
583.745837
576.381683
494.398475
404.278636
272.313952
190.632939
118.840933
89.172721
69.978833
65.549612
63.803792
60.576797
49.485564
40.377975
30.483603
22.566915
14.574528
11.853576
9.784698
9.294748
10.381937
9.963512
10.990500
12.262464
13.476610
13.743639
14.389753
15.581846
17.533898
17.703772
18.717647
20.703673
21.906495
24.668574
25.218725
27.020574
28.137565
27.154684
27.524829
29.078722
30.615926
29.299855
31.985641
30.070543
31.496882
30.546784
30.381680
31.693578
31.088591
30.606985
31.656623
31.039715
29.895902
30.037761
29.382706
28.512478
28.382540
28.794408
28.762817
27.779937
28.416514
28.106570
29.264688
30.911565
32.042861
35.503507
38.430691
42.171478
45.327544
46.499968
46.165586
43.975711
44.678450
40.107965
36.630630
32.292604
33.011436
26.178956
23.618937
21.545887
21.123886
19.241571
18.913746
17.817616
18.853545
17.741919
16.762614
17.737746
16.806722
16.386509
16.272664
15.597939
17.152429
##ZVALUE=230
265.444517
294.054747
439.795852
654.417872
797.704458
904.593468
908.595920
810.491443
672.688484
526.445508
316.123962
202.878714
122.333765
96.046925
87.635517
89.360476
85.169673
77.817440
65.173507
49.219728
37.243962
23.841858
17.045736
12.363791
10.226965
10.160804
10.607839
10.883808
10.380745
11.900663
12.964606
13.434887
14.545918
15.876889
17.883778
19.378662
20.515919
22.298694
22.885799
24.178624
24.914742
26.876926
26.611686
27.253628
25.947690
27.988553
27.970672
28.330684
27.858615
27.879477
26.338696
26.685596
26.998520
28.487444
27.198792
26.601553
26.062727
26.197433
26.145577
26.974678
24.123788
25.484562
25.136471
24.041533
24.932623
26.361942
26.123524
28.927922
31.679869
35.259724
37.906766
38.662553
38.894415
38.532615
38.173795
37.101507
32.755733
32.607913
29.039979
25.657415
24.351478
22.422671
19.659996
18.652678
18.907785
17.361641
16.135573
16.040802
16.749501
15.362501
14.468431
15.865564
15.696883
15.462637
15.650988
14.806986
##ZVALUE=235
54.467916
66.030622
135.805607
318.110585
492.013693
750.970840
944.826007
1015.870571
1015.870571
1015.870571
932.633877
732.168555
455.339551
310.207605
179.286599
125.331879
99.694729
102.165937
103.766918
102.217793
90.691447
74.904561
53.266883
40.413737
28.931499
18.505454
14.216900
11.927485
10.980964
10.751486
11.012554
12.229681
12.448430
13.201833
13.904572
15.056729
15.785694
17.468929
18.206835
19.945502
20.059943
19.332767
20.594597
21.336675
21.610856
22.024512
22.978783
20.979643
22.416711
22.503734
22.584796
22.377968
22.532940
20.909905
20.977855
21.198988
20.174980
20.996928
21.395683
20.531416
21.333694
20.469427
20.442605
20.965934
21.581650
22.641420
23.095608
25.590658
26.972890
28.103590
30.899644
32.948852
33.028722
33.154488
33.959746
29.998422
29.292703
27.362704
25.223494
22.885799
20.849705
19.666553
17.519593
17.930865
16.352534
16.087890
15.713573
15.532970
14.289618
14.380813
15.806556
13.907552
14.978647
14.930964
13.818741
14.038682
##ZVALUE=240
3.261566
3.759861
12.081861
53.025484
120.930672
285.255909
471.600890
796.224475
1015.502810
1015.870571
1015.870571
1015.870571
1015.870571
974.099636
668.925643
447.562933
242.286921
164.944530
114.172697
105.553865
112.085938
117.484927
111.459494
93.922615
78.050494
55.801868
42.507648
28.793812
20.516515
15.351772
12.046695
11.327863
11.097789
11.708736
12.057424
12.945533
13.181567
13.108850
14.537573
15.121698
15.121698
16.034842
16.562939
16.664863
17.243624
17.417669
17.304420
16.917586
16.859770
17.090440
16.865730
17.233491
17.683506
16.987920
17.234683
17.628670
16.529560
16.038418
15.796423
16.363859
16.421676
16.637444
16.638637
16.223788
16.578436
17.396808
18.318892
20.478964
22.534728
22.910833
23.945570
26.874542
27.369857
28.451681
27.896762
25.397539
24.006963
23.540854
20.364523
18.906593
17.393827
16.896725
15.477538
15.034676
14.651418
14.328957
13.297796
13.364553
13.132691
13.108850
13.552904
13.500452
12.102723
12.849569
13.237000
12.688637
##ZVALUE=245
2.413988
2.080798
2.729893
2.853870
7.913709
25.427938
93.980432
201.499462
458.672047
711.104870
1015.871763
1015.871763
1015.871763
1015.871763
1015.871763
1015.871763
978.320837
640.986562
422.623754
221.675634
144.456625
111.574531
106.792450
114.300847
120.518804
114.853978
100.752711
85.613728
64.837933
47.629476
35.288930
23.365617
16.496778
12.913942
11.998415
12.450814
12.720823
12.742877
12.826920
13.105869
13.224483
13.246536
13.668537
14.010668
14.294982
14.387965
15.449524
14.414787
14.506578
14.629960
14.080405
14.451742
13.662577
13.392568
13.451576
13.810992
13.864636
13.571978
13.494492
13.787746
13.748407
13.593435
13.233423
13.529658
13.434887
14.129877
15.462637
16.356707
17.311573
19.155741
20.112991
20.985603
22.333860
22.324920
21.645427
21.457672
20.438433
17.420650
17.555952
15.612841
14.509559
13.102889
12.381673
12.469888
12.042522
11.852980
11.083484
11.860728
10.763407
11.067986
11.070967
11.521578
10.490417
11.038780
11.420846
10.897517
##ZVALUE=250
2.034903
1.943707
2.007484
2.216697
2.354980
2.676845
4.054904
12.606978
63.821673
145.591497
366.563797
624.030828
924.472809
1015.870571
1015.870571
1015.870571
1015.870571
1015.870571
1015.870571
868.006945
569.743514
352.274776
170.271993
109.013915
97.450614
106.632710
119.234920
124.279857
117.753744
107.324719
88.425875
70.129633
53.297877
34.517646
25.293827
17.820597
14.427900
14.098883
12.892485
12.884736
13.550520
13.929605
13.776422
13.283491
13.833642
13.894439
13.403893
13.366938
13.670921
13.767481
13.683438
13.769865
12.898445
12.880564
13.001561
13.054609
12.472868
12.909770
12.019873
12.002587
11.617541
12.138486
12.015700
12.225509
12.337565
13.023615
12.599826
13.825893
15.349984
16.386509
17.027855
18.816590
19.399524
18.800497
18.419623
17.363429
17.113686
15.223622
14.478564
12.700558
11.470914
11.412501
10.818839
10.260940
10.186434
9.507537
9.847879
9.231567
9.328723
9.219646
9.579659
9.825826
9.642839
9.457469
9.100437
9.558797
##ZVALUE=255
1.876950
1.893640
1.794696
1.702905
2.054572
2.368689
2.272725
2.468824
3.045797
6.728768
37.421584
98.044872
214.033723
483.309627
774.350762
1015.870571
1015.870571
1015.870571
1015.870571
1015.870571
1015.870571
1015.870571
826.260448
516.664982
240.967870
139.620900
91.425776
91.165900
109.481812
119.398832
127.703547
124.360919
112.939477
92.397928
73.840618
51.800609
38.072467
25.326610
20.246506
15.916824
14.710426
14.583468
14.068484
14.182925
13.691783
14.695525
14.395714
13.939738
14.399886
13.600588
13.847947
13.678670
13.313890
12.884736
12.660623
12.773871
12.405515
12.168884
11.643767
11.605620
12.091994
11.646748
11.672974
11.486411
11.563897
11.635423
12.191534
12.961626
13.430715
14.312863
15.103817
16.005635
16.401410
15.735626
15.033484
14.784932
14.116764
12.775660
11.400580
10.530949
10.182858
10.261536
9.209514
8.343458
8.742809
8.287430
8.265972
8.653998
8.183718
8.359551
8.046627
7.952452
7.827878
8.583665
7.953644
7.827878
##ZVALUE=260
1.936555
1.600981
1.899600
1.978874
2.192855
2.114773
2.041459
2.148747
2.134442
2.447963
2.754927
3.712773
11.961460
58.422685
142.611861
364.157557
620.352626
1006.063819
1015.870571
1015.870571
1015.870571
1015.870571
1015.870571
1015.870571
1004.285812
718.343854
386.382937
218.223929
105.897784
79.986453
85.875988
107.041001
121.311545
130.257607
129.055977
115.054846
98.809004
76.827407
58.662891
40.346980
30.062795
22.210479
19.234419
17.294884
16.434789
16.335845
15.809536
16.404986
16.363859
15.868545
15.899539
15.369654
15.078783
14.230609
13.742447
13.798475
13.742447
13.407469
13.238788
12.423992
13.056993
12.706518
11.803508
11.680722
11.664629
11.929870
11.853576
12.421608
12.760758
13.596416
14.483929
14.575720
14.640689
14.538765
13.738871
13.246536
12.396574
11.593699
10.254979
10.099411
9.360909
8.764863
8.690953
8.098483
7.912517
7.494688
8.042455
7.714629
7.762909
7.562637
7.390976
7.384419
7.007718
7.082820
7.223487
7.352829
##ZVALUE=265
1.491904
1.769662
1.634955
1.498461
1.565814
1.739860
1.756549
1.856685
1.915693
2.023578
2.266765
2.461672
2.548695
2.890825
6.318688
36.980510
99.587440
266.250968
485.045910
937.382579
1015.870571
1015.870571
1015.870571
1015.870571
1015.870571
1015.870571
1015.870571
957.632661
522.559881
304.807425
170.627832
80.637932
72.404742
93.919635
111.108422
127.766728
133.405924
129.238963
119.769573
98.519921
82.052946
59.718490
45.478940
31.990409
26.209950
21.132827
20.271540
18.982887
19.004941
18.320680
18.337965
18.148422
17.423630
17.237663
16.673803
16.075969
15.423894
14.636517
14.930964
13.716817
13.744831
13.373494
12.781620
12.991428
12.830496
12.701750
12.725592
13.296604
12.953877
13.678670
14.087558
14.614463
14.541745
14.412999
13.953447
12.833476
11.827946
11.670589
10.462999
9.208918
8.972883
8.554459
8.184910
8.337498
7.927418
7.723570
7.916689
7.688999
7.432699
7.188916
7.369518
7.145405
7.271767
7.131696
6.757975
7.113814
##ZVALUE=270
1.185536
1.290441
1.324415
1.336932
1.534820
1.560450
1.457930
1.629591
1.505613
1.731515
1.672506
1.944900
2.023578
2.259612
2.364516
2.770424
3.570914
15.783906
52.053928
184.377432
369.869471
642.641783
1015.743017
1015.743017
1015.743017
1015.743017
1015.743017
1015.743017
1015.743017
1015.742421
765.422583
455.746651
244.104862
96.226931
64.410567
71.824789
89.452863
112.901926
126.950741
135.788918
135.127902
122.458935
107.909441
84.029436
66.139698
47.019720
36.326647
28.391480
23.807883
21.704435
20.067692
19.960999
19.685626
19.121766
18.259883
17.747879
17.281771
16.585588
16.157627
15.879869
15.365481
14.588833
14.255643
13.437867
13.442636
13.438463
13.305545
13.773441
13.310909
13.671517
14.417768
14.542937
14.224648
14.155507
13.270974
12.908578
11.857748
10.873675
10.082722
9.473562
8.996725
8.414984
8.196831
7.982850
7.392764
7.500648
7.573962
7.172823
7.330775
7.012486
6.884933
6.832480
6.882548
6.374717
6.838441
6.449819
##ZVALUE=275
1.276731
1.287460
1.302958
1.373887
1.456738
1.589656
1.314878
1.482964
1.612902
1.667738
1.597404
1.716614
1.622438
1.938939
2.114773
2.272725
2.482533
2.675653
2.749562
6.435513
26.207566
83.931684
271.327496
528.190732
986.538529
1015.870571
1015.870571
1015.870571
1015.870571
1015.870571
1015.870571
1015.870571
1015.870571
609.430671
342.245698
137.088895
72.427988
55.613518
68.071485
92.410445
109.760761
128.992796
136.081576
134.131908
126.255751
104.893446
87.475777
66.872835
52.020550
37.021637
29.377937
23.930669
21.533966
19.679666
19.314885
18.982887
17.980933
17.734766
16.921759
16.501546
16.083717
15.495420
14.950633
14.836788
14.137626
13.697743
13.897419
14.156699
14.225841
14.099479
14.313459
14.603734
14.356971
14.039874
13.702512
12.666583
11.778474
11.013746
10.518432
9.660721
9.150505
8.750558
8.158684
8.040667
7.876754
7.422566
7.600784
7.428527
7.154942
7.164478
6.774664
6.874800
6.641746
7.027984
6.994605
6.546974
##ZVALUE=280
1.208782
1.297593
1.334548
1.199841
1.308918
1.337528
1.396537
1.270771
1.417994
1.534820
1.325607
1.793504
1.720786
1.779795
1.729727
1.986623
1.993775
2.268553
2.238750
2.380610
2.948642
3.723502
18.508434
63.654780
147.870779
421.372652
723.814964
1015.870571
1015.870571
1015.870571
1015.870571
1015.870571
1015.870571
1015.870571
1015.870571
810.657740
481.078625
200.760961
98.078847
48.148632
50.175786
69.901943
87.089539
109.785795
123.447776
132.351518
130.989552
119.719505
106.363893
82.675815
65.569878
45.880675
36.057830
25.363564
21.296740
18.044710
16.796589
16.275644
15.298724
15.140772
14.988780
14.550686
14.236569
13.877749
13.404489
13.665557
13.189912
13.028979
13.382435
13.442636
13.483763
13.578534
13.482571
13.163686
12.768507
11.428595
11.128783
10.528564
9.738803
9.369850
9.196997
8.793473
8.045435
8.071661
7.937551
7.703900
7.426739
7.665753
7.329583
6.824732
7.154942
6.938577
6.796718
7.018447
6.984472
6.592870
##ZVALUE=285
1.354814
1.225471
1.231432
1.298785
1.358986
1.161695
1.196861
1.239777
1.229644
1.413822
1.287460
1.488924
1.420975
1.668930
1.861453
1.782775
1.688600
1.956820
1.923442
2.073646
2.177954
2.734661
2.727509
3.074408
7.378459
26.236773
105.898976
241.903663
568.817854
929.831862
1015.866995
1015.866995
1015.866995
1015.866995
1015.866995
1015.866995
1015.866995
1015.866399
701.929927
329.555869
162.525773
57.297945
37.013888
46.037436
60.134530
82.550645
97.353458
115.199685
123.715997
123.212934
116.630793
99.229813
83.028674
60.247779
45.395494
30.368567
22.691488
16.352534
14.279485
13.167858
13.062954
12.492537
11.985898
12.121797
11.758804
12.052655
11.541843
11.982918
12.049675
12.334585
12.526512
12.478828
12.366772
12.154579
11.771917
10.856986
10.283589
9.654760
9.460449
9.017587
8.782744
8.384585
8.099675
7.757545
7.685423
7.433891
7.488728
7.463694
7.352829
7.420778
6.959438
6.824732
6.821752
6.564856
6.861687
6.689429
##ZVALUE=290
1.127720
1.250505
1.029968
1.120567
1.316667
1.287460
1.119971
1.300573
1.275539
1.302958
1.409650
1.410842
1.402497
1.409650
1.422763
1.514554
1.438856
1.754761
1.719594
1.892447
2.005696
2.169609
2.317429
2.614856
2.684593
2.971888
3.686547
9.864569
52.606463
140.246749
302.374959
691.591501
1015.878916
1015.878916
1015.878916
1015.878916
1015.878916
1015.878916
1015.878916
1015.878916
939.690471
475.173593
247.860551
86.132884
36.465526
28.880835
37.023425
52.747726
68.306923
90.545416
103.366971
114.238858
115.914941
107.599497
96.556544
74.207783
58.415532
39.665699
28.435588
18.662810
14.449954
11.461973
10.251999
10.133982
10.173917
10.168552
10.001659
10.574460
10.848641
10.870695
11.157990
11.555552
11.164546
10.920763
10.366440
9.828806
9.281635
9.238720
8.582473
8.125901
8.064508
7.984638
7.490516
7.579923
7.554889
7.214546
7.026792
7.291436
7.078648
6.979704
7.222891
6.762743
6.816983
6.851554
6.788969
6.736517
##ZVALUE=295
1.198649
1.088977
1.080632
1.063943
1.222491
1.209974
1.135468
0.953674
1.149774
1.057982
1.241565
1.372695
1.345873
1.531839
1.494884
1.428723
1.387596
1.499653
1.471639
1.622438
1.714826
1.777411
2.047420
2.127886
2.287626
2.466440
2.455711
2.780557
3.197789
4.483461
22.242665
72.074533
234.891772
485.233665
966.171622
1015.870571
1015.870571
1015.870571
1015.870571
1015.870571
1015.870571
1015.870571
1015.870571
645.609498
353.554487
123.505592
50.388575
21.158457
22.688508
30.789971
46.585798
61.522722
82.215667
96.716881
107.073784
109.320879
101.714730
90.991855
71.163774
56.515932
38.502812
27.354956
17.527938
12.970567
9.959936
9.263754
8.799434
9.026527
9.966493
9.698868
10.062456
10.185838
10.113716
10.044575
9.476542
9.427667
8.451939
8.457899
8.099675
7.888675
7.660985
7.531643
7.447600
7.251501
7.092953
7.279515
6.971955
7.139444
6.792545
7.004738
6.818771
6.845593
6.870627
6.734729
6.735921
6.680489
##ZVALUE=300
1.056790
1.004934
0.953674
1.087785
0.950694
1.259446
0.998974
1.150966
1.169443
1.110435
1.138449
1.226664
1.071692
1.215935
1.361966
1.314878
1.338720
1.293421
1.361966
1.630783
1.528859
1.452565
1.707673
1.733899
1.843572
2.078414
2.019405
2.382994
2.555847
2.701879
3.057718
3.459454
7.124543
44.454932
128.114820
368.422866
672.739744
1015.870571
1015.870571
1015.870571
1015.870571
1015.870571
1015.870571
1015.870571
1015.870571
866.268873
515.730977
226.138830
100.532770
28.087497
16.474724
20.446777
27.756691
41.960478
55.986643
75.533986
89.959502
100.760460
103.143454
97.516775
88.281631
69.590807
55.427551
38.727522
26.793480
17.102957
12.549758
10.174513
8.975863
8.906722
9.334683
9.295940
9.134412
9.148717
8.690953
8.290410
8.380413
7.979870
7.543564
7.590652
7.237792
7.321835
7.143617
7.025599
6.872416
7.054806
7.122755
6.707907
6.576777
6.624460
6.653666
6.761551
6.554723
6.699562
6.614923
6.883740
##ZVALUE=305
1.139641
0.962615
0.932813
0.929832
1.178980
0.956655
1.044869
1.171827
1.147985
1.067519
1.131892
1.117587
1.101494
1.054406
1.195669
1.222491
1.136661
1.453757
1.384616
1.276731
1.396537
1.682639
1.551509
1.641512
1.775622
1.770854
1.775622
1.957417
2.181530
2.309680
2.191663
2.634525
2.829432
3.505945
4.528761
25.414824
83.152652
266.466737
517.699718
981.563926
1015.877724
1015.877724
1015.877724
1015.877724
1015.877724
1015.877724
1015.877724
1015.877724
740.162730
343.898535
165.180564
48.596859
18.821955
14.665723
18.377900
27.543902
37.993789
55.091977
69.383979
84.879994
93.668699
97.261667
93.834996
81.854463
69.813728
50.639510
38.253665
24.980903
18.150806
12.301803
10.680556
9.287000
9.011626
8.586645
8.348823
7.894635
7.534623
7.230639
7.209778
6.958842
7.060766
6.847978
6.901622
6.680489
6.793737
6.869435
7.013679
6.776452
6.742477
6.661415
6.670952
6.469488
6.678700
6.359816
6.659627
6.526709
##ZVALUE=310
1.026988
1.031756
0.962615
0.992417
0.872612
0.813603
0.928640
0.952482
1.032948
1.107454
1.028776
1.190901
1.156926
1.109838
1.190901
0.971556
1.269579
1.106858
1.143813
1.174808
1.516938
1.290441
1.234412
1.355410
1.544952
1.634955
1.553893
1.752973
1.736879
1.729727
1.980662
2.098680
2.155900
2.478957
2.736449
3.110766
3.463626
10.427833
39.464831
159.896016
344.331861
761.060715
1015.870571
1015.870571
1015.870571
1015.870571
1015.870571
1015.870571
1015.870571
1015.870571
989.857912
524.994731
276.045799
91.773868
31.257868
11.998415
12.530684
16.608834
22.297502
33.741593
45.963526
63.962936
75.683594
86.724758
91.271996
88.993907
82.208514
66.365600
53.171515
37.156940
27.253628
17.833710
13.224483
10.188818
8.781552
7.688999
7.291436
7.002950
6.816983
6.542802
6.619692
6.568432
6.410480
6.455779
6.747842
6.393790
6.453991
6.124973
6.341934
6.283522
6.366968
6.361604
6.167889
6.329417
6.214976
6.079674
##ZVALUE=315
0.886917
1.012683
1.078844
1.204610
1.210570
1.181960
1.181960
1.117587
1.039505
1.096725
1.133680
1.247525
1.195669
0.938773
1.206994
1.184940
1.224875
1.212955
1.177788
1.275539
1.301765
1.124740
1.369715
1.435876
1.526475
1.534820
1.645684
1.705885
1.705885
1.826882
1.761913
1.849532
2.179742
2.193451
2.505779
2.452731
2.705455
3.044605
3.464818
5.366802
17.760992
92.012882
235.051513
597.434640
973.798037
1016.000509
1016.000509
1016.000509
1016.000509
1016.000509
1016.000509
1016.000509
1016.001105
730.787516
398.708582
139.964819
50.465465
13.607740
10.867715
12.017488
14.723539
22.138953
29.788613
44.008493
56.466460
72.282553
81.548691
86.803436
85.651875
76.522827
65.854788
50.453544
38.484931
24.612546
17.318726
11.544824
8.871555
7.216930
6.843805
6.623864
6.322861
6.531477
6.295443
6.199479
6.067753
6.278753
6.152987
6.078482
5.985498
6.141663
6.223917
6.136894
6.258488
6.341934
5.962849
6.351471
##ZVALUE=320
0.882745
0.830889
0.835657
0.770688
0.992417
1.120567
0.839829
0.967979
1.012683
0.988841
0.998974
0.975728
1.058578
0.903606
0.956655
1.063943
0.978708
1.105666
1.134872
1.138449
1.263618
1.123548
1.247525
1.145601
1.206994
1.238585
1.328588
1.473427
1.538992
1.451969
1.547933
1.628995
1.723766
1.779795
1.830459
2.123713
2.087951
2.394915
2.433658
2.773404
3.176928
3.643632
7.587671
46.472549
134.527087
400.300622
730.355978
1015.870571
1015.870571
1015.870571
1015.870571
1015.870571
1015.870571
1015.870571
1015.870571
959.043503
571.841002
237.053633
100.550652
25.391579
11.031628
9.759665
10.625720
13.489723
18.035769
27.826428
37.838817
53.929687
65.513849
77.407956
81.682801
80.610514
74.244738
60.430765
48.786998
33.399463
24.251938
15.552640
11.048913
7.713437
6.795526
6.093979
5.913973
5.696416
5.478859
5.778670
5.581975
5.632639
5.685687
5.880594
5.828738
5.761981
5.759597
5.977750
5.979538
5.616546
##ZVALUE=325
0.859499
0.832677
0.849962
0.774860
0.735521
0.821948
0.815988
0.989437
0.864863
0.738502
0.953674
0.987649
0.945926
1.041889
0.897646
1.021624
0.883937
1.040697
1.099706
1.067519
1.224875
1.158714
1.013875
1.160502
1.244545
1.168847
1.240969
1.285672
1.259446
1.400709
1.436472
1.491904
1.556873
1.649857
1.752973
1.744628
1.740456
2.040863
2.133846
2.283454
2.429485
2.642870
2.820492
3.419518
4.538894
26.955009
83.698630
258.874893
509.020686
991.978645
1015.871763
1015.871763
1015.871763
1015.871763
1015.871763
1015.871763
1015.871763
1015.871763
779.748559
349.396467
160.974860
40.897727
13.990998
9.031892
8.797646
10.148883
12.212992
18.459558
25.690794
39.617419
50.489902
63.630939
71.642995
77.134967
75.245500
66.845417
57.011843
43.420792
32.513738
21.006465
14.343858
9.571910
7.553697
6.452799
5.743504
5.515814
5.426407
5.358458
5.564690
5.327463
5.376935
5.321503
5.472898
5.742908
5.654693
5.617738
##ZVALUE=330
0.716448
0.709891
0.803471
0.629425
0.807643
0.661612
0.754595
0.900626
0.678897
0.713468
0.794530
0.957847
0.888705
0.744462
0.951886
0.938773
0.904799
0.822544
0.859499
0.933409
1.104474
0.918508
1.103878
1.133680
1.107454
1.159906
1.122952
1.191497
1.171827
1.276731
1.298785
1.327991
1.421571
1.218915
1.468658
1.412630
1.710653
1.731515
1.856685
1.814961
1.952648
2.166629
2.345443
2.524853
2.661943
3.057718
3.529787
11.125803
40.437579
164.352059
351.835489
782.135725
1015.848517
1015.848517
1015.848517
1015.848517
1015.848517
1015.848517
1015.848517
1015.848517
976.520777
485.259891
246.892571
78.544617
24.532676
9.004474
8.292794
8.466840
9.455681
12.697577
17.042756
25.114417
34.042597
48.269629
57.891607
67.112446
71.124434
69.437623
63.709617
51.781535
41.388869
28.487444
21.176934
14.116764
10.170937
7.344484
6.021857
5.376935
5.418658
5.394816
5.328655
5.280972
5.303621
5.312562
5.529523
5.315542
##ZVALUE=335
0.799894
0.778437
0.760555
0.613928
0.892878
0.784993
1.020432
0.751615
0.817776
0.997782
0.762939
0.831485
0.926852
0.921488
0.986457
0.913739
0.850558
0.960827
0.652671
0.887513
0.818968
0.880957
0.939965
0.935793
1.016855
1.165867
1.160502
1.042485
1.028776
1.107454
1.176000
1.167655
1.097918
1.257658
1.357794
1.319647
1.430511
1.550913
1.494884
1.729727
1.628995
1.782775
1.903772
2.000928
2.167821
2.236962
2.498627
2.813935
3.191829
5.450845
19.182563
95.278621
228.235722
569.771528
959.208608
1015.870571
1015.870571
1015.870571
1015.870571
1015.870571
1015.870571
1015.870571
1015.870571
687.045455
371.209979
126.466751
41.890740
10.642409
8.635521
8.287430
8.231997
9.432435
11.308789
16.539693
22.606850
33.236742
42.080879
54.051876
61.277747
65.892935
65.236688
58.458447
50.300956
38.975477
30.600429
20.457506
15.014410
10.064840
7.838607
5.907416
5.613565
5.426407
5.202889
5.292892
5.335808
5.438924
##ZVALUE=340
0.775456
0.734925
0.735521
0.676513
0.697970
0.652671
0.777841
0.770688
0.803471
0.898838
0.823736
0.962615
0.799894
0.858903
0.925660
0.774860
0.922680
1.000762
0.768900
0.812411
1.013875
0.997782
1.198649
0.955462
0.920892
1.060963
0.896454
1.063943
1.138449
0.977516
1.185536
1.141429
1.166463
1.243949
1.191497
1.240969
1.145601
1.414418
1.353621
1.702905
1.571774
1.617670
1.685619
1.712441
1.736879
1.973510
2.074838
2.210736
2.390742
2.695918
3.033876
3.636479
8.847713
52.517653
150.228739
430.349708
779.958963
1015.870571
1015.870571
1015.870571
1015.870571
1015.870571
1015.870571
1015.870571
1015.870571
822.739601
465.814471
183.162689
65.516829
14.048815
9.115934
8.435845
8.189678
7.744431
8.439422
10.658503
14.027953
21.391511
29.411912
41.373968
50.071478
58.366656
61.480999
60.578585
56.519508
47.457814
39.347410
28.643608
21.674633
14.315844
10.547638
7.619858
6.625652
5.788803
5.604625
5.629659
##ZVALUE=345
0.786781
0.677705
0.799894
0.702739
0.716448
0.796914
0.776649
0.771880
0.774860
0.853539
0.852942
0.850558
0.842810
0.846982
0.752807
0.899434
0.887513
0.938773
0.979900
0.953674
0.885725
0.798702
0.785589
0.986457
0.961423
1.027584
0.869632
0.932813
0.942945
1.244545
0.936985
1.116991
1.199841
1.266599
1.264811
1.290441
1.239777
1.318455
1.323819
1.481771
1.357794
1.491904
1.556873
1.541972
1.521707
1.793504
1.772642
2.000928
2.091527
2.181530
2.320409
2.768636
2.632737
3.167987
4.609823
27.240515
89.138746
278.895497
545.878410
1013.721824
1015.870571
1015.870571
1015.870571
1015.870571
1015.870571
1015.870571
1015.870571
993.238091
614.917874
241.149664
102.700591
26.195645
10.821819
8.595586
7.935762
7.123947
6.879568
7.099509
8.980632
13.271570
18.193722
28.063655
35.601854
45.938492
51.651001
55.949688
57.160854
52.951574
47.129989
37.684441
29.824972
20.326972
15.185475
10.604858
8.505583
6.766915
##ZVALUE=350
0.761747
0.727773
0.680685
0.732541
0.898838
0.715852
0.756979
0.743866
0.844598
0.738502
0.795722
0.820756
0.787973
0.911951
0.887513
0.814795
0.837445
0.812411
0.930429
0.913739
0.906587
0.836849
0.757575
0.937581
0.858903
0.996590
1.012683
0.972748
1.091957
0.858903
0.855923
1.048446
1.080632
1.045465
1.106858
1.158714
1.162887
1.295805
1.163483
1.174808
1.362562
1.423955
1.331568
1.500845
1.382828
1.395941
1.675487
1.695752
1.771450
1.782775
2.000928
2.155900
2.199411
2.350807
2.665520
3.017783
3.492832
12.972951
46.212673
174.138546
371.484756
837.152600
1015.871763
1015.871763
1015.871763
1015.871763
1015.871763
1015.871763
1015.871763
1015.871763
753.824711
349.908471
155.691504
36.515594
12.480617
7.833838
7.031560
6.190538
6.085634
5.870461
6.479621
8.854866
11.519790
16.999841
22.764802
32.155514
39.113760
46.847463
51.436424
52.456856
50.135851
43.636560
37.276745
27.899742
21.652579
15.051961
##ZVALUE=355
0.862479
0.865459
0.762939
0.858903
0.668764
0.627637
0.772476
0.803471
0.777841
0.954866
0.930429
0.949502
0.854731
1.036525
0.986457
0.949502
0.853539
0.768900
0.916719
0.914931
1.035929
1.002550
0.876784
1.078844
1.030564
0.903606
1.059771
0.970960
1.000762
0.973940
1.143813
1.086593
1.233816
1.118779
1.201630
1.221895
1.237988
1.227856
1.295805
1.308918
1.170635
1.254678
1.286864
1.418591
1.510978
1.448989
1.558661
1.611710
1.613498
1.648664
1.788735
1.914501
2.003908
2.060533
2.122521
2.326965
2.561808
2.900958
3.200769
6.486773
22.308826
106.268525
246.724486
592.344999
975.649953
1015.870571
1015.870571
1015.870571
1015.870571
1015.870571
1015.870571
1015.870571
943.875909
436.133742
206.401944
55.402517
17.198920
7.833838
6.677508
6.230474
5.857944
5.696416
5.659461
6.219745
7.481575
10.700822
14.232993
21.088719
27.087927
35.567880
42.076707
47.640800
48.869848
47.019720
43.144822
35.720468
##ZVALUE=360
0.887513
0.761747
0.771880
0.717640
0.771880
0.797510
0.840425
0.738502
0.776649
0.927448
0.846982
0.791550
0.743866
0.834465
0.835657
0.878572
0.894666
0.759959
0.922680
0.960827
0.897646
1.018643
0.970960
0.923872
1.023412
1.114607
1.068711
1.218915
0.956655
1.218915
0.826716
1.188517
1.126528
1.105666
1.036525
1.002550
1.312494
1.190901
1.208782
1.232624
1.271963
1.278520
1.305938
1.315475
1.457930
1.290441
1.472831
1.454949
1.585484
1.642704
1.602769
1.725554
1.787543
2.093911
2.083778
2.185702
2.192855
2.426505
2.637506
2.839565
3.146529
4.092455
9.721518
49.646497
139.237046
402.989984
726.527572
1015.868783
1015.868783
1015.868783
1015.868783
1015.868783
1015.868783
1015.868783
1015.868783
589.632988
309.115648
108.865499
35.453439
8.806586
6.837845
6.122589
5.744696
5.359650
5.197525
5.022883
5.511642
6.633997
8.416772
12.357831
17.149448
24.624467
30.540824
38.281679
42.687654
45.039654
##ZVALUE=365
0.789762
0.755787
0.674725
0.912547
0.761747
0.708699
0.816584
0.899434
0.788569
0.790954
0.656843
0.789762
0.813603
0.958443
1.005530
0.944734
0.706911
0.941753
0.804663
0.810623
0.847578
0.785589
0.788569
0.978708
1.007915
0.916719
0.950694
0.940561
0.978708
1.085997
1.030564
1.089573
1.067519
1.114607
1.036525
1.099706
1.123548
0.979900
1.112819
1.192689
1.281500
1.350641
1.233816
1.298785
1.357794
1.535416
1.278520
1.566410
1.367927
1.403689
1.372695
1.585484
1.559854
1.603961
1.798868
1.800656
1.972914
2.054572
2.015829
2.296567
2.388954
2.874732
3.180504
3.598928
5.133748
25.755763
80.329776
253.808498
517.987609
1000.309587
1015.870571
1015.870571
1015.870571
1015.870571
1015.870571
1015.870571
1015.870571
803.980827
444.237590
157.864690
56.290627
11.758804
6.876588
6.062984
5.598664
5.357862
5.051494
5.018711
4.804730
5.353689
5.987883
8.282661
10.696650
15.514493
20.011663
27.220845
##ZVALUE=370
0.701547
0.770688
0.686646
0.596642
0.756979
0.774860
0.879765
0.839829
0.634789
0.820756
0.887513
0.804663
0.817776
0.819564
0.710487
0.824928
0.795722
0.816584
0.897646
0.805855
0.917912
1.034737
0.827909
0.965595
0.869632
0.836849
0.932813
0.966787
1.083612
1.069903
0.942945
0.961423
0.954866
1.128912
0.979900
1.031756
1.019835
1.124740
1.118779
1.151562
1.193881
1.166463
1.135468
1.207590
1.187921
1.192689
1.169443
1.236796
1.272559
1.322627
1.354814
1.216531
1.360774
1.449585
1.424551
1.729727
1.693964
1.555681
1.695752
1.918674
1.844764
1.864433
2.314448
2.254844
2.928972
3.093481
3.540516
12.267828
45.741796
180.898309
374.372005
796.386600
1015.865803
1015.865803
1015.865803
1015.865803
1015.865803
1015.865803
1015.865803
947.230458
556.545854
220.999718
96.405745
25.566816
8.848906
5.923510
5.410910
5.105734
4.974604
4.982948
5.146861
5.361438
5.700588
6.412864
8.188486
10.035634
##ZVALUE=375
0.765920
0.798702
0.759959
0.691414
0.704527
0.701547
0.657439
0.656843
0.766516
0.946522
0.778437
0.720620
0.745654
0.718832
0.763535
0.815988
0.675917
0.687838
0.735521
0.836849
0.765920
0.677705
0.781417
0.861883
0.852942
0.775456
0.822544
0.818968
0.909567
0.840425
0.991821
0.988841
0.991821
0.933409
0.931621
1.001954
0.855923
1.037717
0.919700
0.893474
1.078844
1.116991
0.974536
1.061559
1.072884
1.084805
1.154542
1.142621
1.043677
1.215935
1.160502
1.129508
1.176596
1.229644
1.352429
1.295805
1.488924
1.403689
1.334548
1.493692
1.531839
1.702905
1.791716
1.926422
1.980662
2.374649
2.506971
2.996922
3.400445
6.589890
21.267533
94.190836
233.047009
588.477850
965.561867
1015.871763
1015.871763
1015.871763
1015.871763
1015.871763
1015.871763
1015.871763
800.835490
412.584543
206.167698
58.313608
17.124414
6.381869
5.691648
5.473495
5.372763
5.513430
5.585551
5.795956
5.825758
5.563498
##ZVALUE=380
0.656843
0.659823
0.661612
0.635982
0.619888
0.669956
0.767708
0.687838
0.662804
0.740886
0.685453
0.721812
0.669956
0.714660
0.681877
0.792742
0.663996
0.886917
0.767708
0.709891
0.796914
0.786781
0.785589
0.755787
0.672936
0.831485
0.903606
0.795722
0.863671
0.947714
0.912547
0.929832
1.004934
0.840425
0.971556
1.033545
1.004934
0.950694
0.914931
0.926852
0.965595
1.006722
0.970960
1.083612
1.005530
1.078844
0.961423
1.101494
1.059771
1.133680
1.017451
1.144409
1.103878
1.010895
1.282692
1.348853
1.398921
1.222491
1.323819
1.403689
1.399517
1.453757
1.450777
1.675487
1.813769
1.936555
2.167821
2.412796
2.738833
3.380775
3.656745
4.283786
14.699697
51.295757
182.203650
382.234454
829.318762
1015.870571
1015.870571
1015.870571
1015.870571
1015.870571
1015.870571
1015.870571
971.608758
618.148446
270.854831
122.836828
28.471947
8.989573
6.145835
5.961657
5.910993
5.956888
5.733967
5.832911
##ZVALUE=385
0.625849
0.678897
0.620484
0.529885
0.728965
0.622869
0.655651
0.464916
0.540614
0.451803
0.708699
0.731945
0.636578
0.781417
0.643730
0.745654
0.739694
0.632405
0.663996
0.786781
0.711679
0.546575
0.894666
0.783801
0.671744
0.730753
0.919700
0.722408
1.020432
0.912547
0.794530
0.936985
0.909567
0.997782
0.995994
1.008511
1.063943
1.005530
0.985861
1.059771
0.978708
1.095533
1.040697
0.959635
0.938773
0.929832
0.977516
1.140833
1.202822
0.940561
1.066923
1.087785
1.104474
1.126528
1.199841
1.028776
1.110435
1.273751
1.210570
1.243949
1.398921
1.285672
1.324415
1.460910
1.520514
1.652837
1.946688
2.073646
2.351999
2.639890
2.809763
2.712607
2.966523
3.144741
5.930662
22.105575
104.393959
259.996653
634.310842
991.975665
1015.870571
1015.870571
1015.870571
1015.870571
1015.870571
1015.870571
1015.870571
866.499543
423.034430
214.290619
67.373514
20.229816
6.718636
6.150603
5.956888
5.890727
##ZVALUE=390
0.585914
0.512600
0.551939
0.558496
0.571609
0.721812
0.665784
0.700951
0.622869
0.493526
0.481606
0.594854
0.587702
0.493526
0.655651
0.740886
0.645518
0.712872
0.679493
0.627637
0.476837
0.674725
0.751615
0.738502
0.731945
0.806451
0.873804
0.836849
0.947714
0.884533
1.036525
1.012683
1.066923
1.015663
1.021624
1.076460
0.991821
1.134872
1.223683
1.004934
1.254678
1.079440
1.098514
1.016855
1.114607
1.158714
1.154542
1.070499
1.095533
1.116991
1.143813
1.194477
1.161695
1.267791
1.146793
1.050830
1.264811
1.237988
1.299977
1.229644
1.277924
1.275539
1.575947
1.502633
1.598597
1.672506
1.755953
2.053976
2.184510
2.160668
2.468824
2.414584
2.580881
2.469420
2.624989
2.752542
3.392696
14.546514
52.754879
198.789835
422.117710
904.991031
1015.870571
1015.870571
1015.870571
1015.870571
1015.870571
1015.870571
1015.870571
1015.870571
679.155588
289.602876
135.009885
37.094951
11.473894
6.236434
##ZVALUE=395
0.678897
0.663996
0.636578
0.556707
0.534654
0.642538
0.657439
0.532866
0.611544
0.697970
0.709891
0.588894
0.602603
0.562668
0.609756
0.516772
0.651479
0.617504
0.729561
0.793934
0.815988
0.628829
0.778437
0.587702
0.737906
0.744462
0.803471
0.827909
0.833869
0.854731
0.931621
0.971556
0.927448
0.902414
0.947714
1.060963
1.114607
0.986457
1.169443
1.012683
1.055598
1.074672
1.181960
1.139641
1.143813
1.249909
1.195669
1.182556
1.150966
1.176596
1.094937
1.018643
1.208782
1.176596
1.167655
1.365542
1.271963
1.192689
1.155734
1.119971
1.162887
1.324415
1.239777
1.374483
1.555681
1.772642
1.885891
1.953840
1.948476
2.055764
2.287626
2.158880
2.052784
2.140999
2.166629
2.158880
2.350807
2.731681
2.744794
8.144975
32.959580
140.047669
300.398469
646.751523
989.866853
1015.871763
1015.871763
1015.871763
1015.871763
1015.871763
1015.871763
1015.871763
886.652470
417.254567
206.238627
64.586997
##ZVALUE=400
0.567436
0.522733
0.544786
0.568628
0.580549
0.652671
0.448823
0.527501
0.449419
0.498891
0.668764
0.464916
0.600815
0.536442
0.479817
0.654459
0.537634
0.567436
0.653863
0.639558
0.590682
0.595450
0.750422
0.681877
0.643730
0.699759
0.730753
0.892878
0.869632
0.797510
0.760555
0.834465
0.809431
0.936985
0.996590
0.992417
1.005530
0.941753
0.914931
1.049638
1.013875
0.993609
1.043677
1.067519
1.024604
1.145601
1.064539
1.107454
1.125932
1.051426
0.964999
1.170635
1.127720
1.138449
1.142621
1.225471
1.128912
1.100898
1.186728
1.084805
1.222491
1.337528
1.287460
1.421571
1.394749
1.692772
1.618862
1.865625
2.055764
2.014637
1.847744
1.827478
1.942515
1.811981
1.848936
1.929998
1.821518
1.977682
2.400875
2.396703
2.781749
4.498959
15.296936
76.757669
190.314651
481.455922
829.250813
1015.825868
1015.825868
1015.825868
1015.825868
1015.825868
1015.825868
1015.825868
1015.825868
622.905493
##END
