##TITLE=C5102_R3
##FORMAT=SPECTACLE-ASCII V-1.2
##DATA TYPE=ULTRAVIOLET SPECTRUM
##SECOND TYPE=ULTRAVIOLET SPECTRUM
##DATE=05/28/18
##TIME=12:46:46
##SPECTROMETER/DATA SYSTEM=SPECTACLE
##XUNITS=NM EM
##YUNITS=ENERGY
##YFACTOR=1
##FIRSTX=220
##LASTX=410
##NPOINTS=96
##3DDATA=Equidistant
##ZUNITS=NM EX
##FIRSTZ=210
##LASTZ=400
##ZPOINTS=39
##XYDATA=(Y..Y)
##ZVALUE=210
48.333406
48.397779
33.638477
30.865669
26.716590
22.741556
19.523501
16.333461
14.331937
10.081530
9.043813
7.403493
6.292462
7.408857
6.439686
6.938577
8.644462
8.256435
9.277463
9.244680
9.748936
10.523796
12.489557
14.675856
17.912984
20.264983
25.252700
25.537610
29.585958
27.394891
30.565858
31.876564
35.622716
34.783483
34.101605
34.190416
35.554767
34.434795
33.579469
33.711791
32.931566
35.232902
32.313466
31.830668
31.696558
32.161474
30.698776
30.135512
28.571486
30.368567
29.969811
30.117631
28.155446
28.222799
29.237866
28.068423
26.505589
27.312636
25.603771
25.585890
24.329424
26.229620
25.108457
25.932789
28.570890
31.362772
34.046769
37.296414
45.050979
48.515797
56.528449
63.224435
68.574548
72.706938
71.823597
70.346594
66.817999
62.149763
58.324933
50.309896
42.496920
36.005974
31.171441
26.793480
23.571849
21.965504
20.433664
20.053983
25.093555
28.605461
39.003491
57.317615
84.276795
103.759766
138.348937
165.491700
##ZVALUE=215
173.798800
168.705583
133.714676
88.622570
68.007708
49.762726
40.356517
35.633445
32.280684
29.324889
22.265911
17.917752
13.047457
10.229945
9.108782
8.103848
7.767677
6.859899
8.066893
8.526444
9.850860
11.626482
13.269782
14.527440
17.684698
19.744635
23.670793
26.782751
28.151870
29.512644
33.265948
34.808517
33.706427
34.660697
35.646558
36.240816
37.446618
38.064718
35.250783
36.308765
37.103891
33.773780
35.337806
34.305453
33.629537
35.159588
34.168959
34.800768
33.991933
32.146573
33.890605
35.180449
33.081770
31.898618
33.138990
31.416416
30.120611
30.108690
29.530525
30.658841
29.388666
28.857589
27.675629
27.821660
29.008985
31.244755
32.265782
37.502646
40.637851
44.280887
48.083663
51.450729
54.788589
59.183836
60.190558
59.034824
55.850744
50.367713
45.216680
39.546490
37.154555
29.183626
28.566718
26.021600
23.498535
21.252632
19.062757
19.060969
19.434690
20.258427
18.721819
20.787716
22.310615
25.586486
33.060908
52.793622
##ZVALUE=220
384.535789
382.604003
363.674760
298.531651
241.435766
162.467957
118.404627
75.777769
60.852766
52.666664
48.773885
47.136545
38.093925
32.397509
24.334788
18.831491
13.875961
11.095405
9.666681
9.355545
9.374619
9.523630
10.830760
13.353825
14.048815
16.423464
17.952919
19.149780
21.159649
22.569895
24.687648
25.688410
28.275847
29.696822
30.076504
31.501651
32.715797
33.387542
33.732653
34.843683
34.930706
34.860969
36.758780
35.711527
35.800934
34.902692
36.379695
35.577416
34.810901
37.035942
36.159754
35.640597
34.934878
34.217834
35.314560
33.177733
34.888983
34.191608
33.182502
32.339692
31.611919
31.103492
32.244921
32.154918
31.100512
32.123923
34.662485
35.552979
40.705800
43.550730
48.806667
51.087737
52.522421
54.678917
55.548549
56.185722
52.212477
49.760938
44.311881
39.831996
34.047961
32.127500
29.763579
27.145743
24.404526
22.904873
20.959973
20.181537
19.360781
19.364953
20.472407
19.806623
19.523501
19.574761
20.305514
18.663406
##ZVALUE=225
480.116606
488.885641
573.258996
621.912479
614.038706
543.787479
451.377630
305.196643
213.773847
145.247579
90.501904
74.340701
69.135427
65.081716
59.574842
52.248836
37.653446
31.137466
22.429824
16.868711
13.588667
10.975599
9.806752
11.822581
12.215972
11.927485
12.690425
14.288425
15.513897
18.083453
18.231869
20.174980
23.303628
24.714470
25.514960
28.105974
29.011965
30.652881
31.552911
33.290982
34.844875
35.189986
36.179423
34.850836
34.466982
34.521818
35.876632
35.620928
33.977628
34.391880
34.690499
33.758879
33.216476
33.892989
33.411980
32.298565
31.992793
31.965971
31.696558
30.907989
29.812455
28.763413
28.399825
29.171705
28.492808
30.122995
30.836463
33.374429
35.167933
38.322806
42.609572
46.813488
45.545697
46.414733
44.405460
41.366816
38.335919
35.727620
32.778978
27.968884
27.189851
23.757815
21.717548
19.742846
19.645691
17.925501
18.282533
16.535521
17.811656
17.159581
17.384887
18.839836
17.237663
16.523600
17.708540
16.345978
##ZVALUE=230
253.610015
277.188420
416.326523
631.442666
765.110850
877.804756
888.646841
789.722800
653.018951
500.292778
305.101871
197.824836
117.442608
94.956756
86.184740
86.808801
83.077550
76.244473
64.310431
50.616860
40.091872
25.682449
17.410517
11.214614
10.095835
9.709597
10.911822
10.403991
10.934472
11.994839
13.293624
14.887452
16.934872
18.278956
19.651651
22.284985
23.169518
24.581552
27.019978
26.945472
29.428601
28.114915
30.260682
29.900670
31.268597
30.648708
29.341578
31.292439
31.910539
29.943585
31.112432
29.558539
29.345751
29.268861
26.911497
27.059913
28.288960
27.054548
26.398897
27.480721
26.128888
27.700663
26.512742
25.356412
24.146438
26.581883
28.579831
29.101968
31.450987
32.998919
34.684539
37.601590
36.178827
37.136674
38.517714
35.532713
34.481883
30.932426
28.716922
25.507808
23.981929
20.837784
21.088719
18.942952
18.021464
17.326474
17.932653
16.557574
15.967488
16.739964
15.980601
16.003847
15.992522
16.757846
14.987588
16.576648
##ZVALUE=235
50.654411
57.978630
121.400952
289.184451
452.153683
702.918768
900.486708
1015.870571
1015.870571
1015.870571
891.129971
633.508563
445.209742
264.075994
171.458721
126.229525
100.923777
102.306604
104.380846
104.261637
88.601708
75.583458
53.800941
42.011738
26.880503
18.998981
14.632940
11.444688
11.080503
10.795593
11.351705
12.154579
12.498498
14.302731
14.950633
16.590953
18.372536
20.093918
19.064546
21.120906
22.413731
22.446513
23.657680
23.674965
25.175810
25.497675
25.023818
25.081635
24.977922
25.817752
25.157928
25.192499
23.329854
24.297833
24.547577
23.533702
21.993518
23.721457
23.118854
22.877455
22.677779
22.167563
21.548867
21.249652
22.881627
24.168491
24.348497
27.321577
27.705431
29.531717
31.646490
34.655929
35.954714
36.673546
36.607981
33.559799
33.240914
31.474829
28.823614
26.477575
24.160743
20.559430
20.120740
19.232631
19.496679
17.370582
17.876625
16.622543
15.896559
16.646981
16.019940
16.305447
16.672611
16.246438
16.463995
16.126633
##ZVALUE=240
3.070831
3.868937
11.030436
49.973726
112.750530
263.840556
439.350605
748.658776
986.570716
1015.870571
1015.870571
1015.870571
1015.870571
963.629484
680.022836
461.597443
261.049867
176.294446
122.591853
110.321641
113.590956
117.126703
107.324719
97.360611
75.190663
59.108734
46.309829
28.916597
22.299886
16.115904
12.781620
12.117624
12.121797
12.464523
13.971925
14.459491
14.676452
15.488863
16.193986
17.000437
17.990470
18.028617
18.831491
18.923879
18.378496
19.402504
19.478798
19.402504
18.905997
19.781590
20.106435
19.157529
18.679500
19.345880
17.896891
19.112825
18.044710
17.914772
17.590523
17.934442
17.867684
18.475652
17.840862
17.668605
17.496943
18.687844
19.237995
20.949841
22.436976
24.382472
25.543571
26.954412
28.630495
29.053688
28.668642
26.431680
25.012493
22.900701
22.953749
19.897819
18.987656
16.781688
15.807748
14.757514
14.636517
14.893413
14.128685
14.544725
14.711618
13.563633
14.026761
14.835000
13.949871
14.325976
13.527870
13.900995
##ZVALUE=245
2.231598
2.141595
2.445579
2.558827
7.675886
24.393797
86.844563
191.227794
430.048704
666.079521
1003.639698
1015.870571
1015.870571
1015.870571
1015.870571
1015.870571
967.093706
629.171729
406.176448
206.489563
132.394433
104.217529
107.113719
116.689801
120.836496
114.231706
100.349784
86.523890
64.136982
49.531460
36.030412
22.628903
17.301440
13.198853
13.178587
12.558699
13.094544
12.808442
13.443828
13.816953
14.456511
14.603734
14.683604
14.724731
15.232563
15.595555
15.577674
15.732646
15.058517
15.240908
15.132427
15.110970
15.197992
14.715791
14.315844
14.885664
13.956428
14.234781
14.955997
13.769865
14.260411
13.972521
13.509989
14.367700
14.383793
14.868975
14.938712
15.951991
17.206669
18.169880
19.333959
20.556450
21.325946
21.566749
21.071434
20.111799
19.055605
17.450452
16.175508
15.103817
14.139414
13.229847
12.972951
12.227893
12.108684
11.658669
11.317730
11.345744
10.868907
11.315942
11.264682
11.076927
11.918545
11.311769
11.012554
10.916591
##ZVALUE=250
1.984835
1.966953
1.966953
2.218485
2.475977
2.370477
3.622770
16.385913
50.724745
157.510638
311.121941
624.362826
913.643837
1015.870571
1015.870571
1015.870571
1015.870571
1015.870571
1015.870571
921.328664
544.831753
326.398611
155.280828
105.350614
95.677972
107.650757
117.923617
122.200847
117.150545
105.404854
90.976954
68.440437
51.642656
33.873916
25.678873
17.744899
14.405847
13.836622
13.259649
14.013648
12.836456
13.681650
14.114976
14.166832
14.342666
13.858676
14.053583
14.550686
14.408827
14.063716
13.862848
13.411641
13.474822
13.294816
13.538599
12.677908
12.982488
12.348890
13.305545
12.183785
11.978745
12.799501
12.146831
12.473464
12.320876
12.459755
12.706518
14.267564
14.212728
16.178489
16.567707
16.860962
17.639995
17.820597
17.509460
17.154813
16.352534
14.301538
13.795495
12.920499
12.131929
10.626912
10.340810
9.884834
10.249615
9.562969
9.802580
9.552836
9.711981
9.720922
9.934902
9.300709
9.780526
9.569526
9.478927
9.484887
##ZVALUE=255
1.859665
1.766682
1.892447
1.891851
2.048612
2.161860
2.173781
2.429485
2.913475
6.937981
40.163994
104.727745
219.332576
490.785837
767.524838
1015.870571
1015.870571
1015.870571
1015.870571
1015.870571
1015.870571
1015.870571
772.852898
476.612449
226.452947
135.660768
90.901852
89.698434
108.417869
120.151639
125.565529
124.302506
114.067793
92.612505
75.746775
52.481890
38.817525
25.938749
20.537972
16.508698
15.868545
15.330911
15.461445
15.299916
14.864802
15.387535
15.111566
15.248656
14.966726
15.103817
14.036894
14.570951
13.893843
13.568997
13.474822
13.168454
12.981892
12.651682
12.903810
11.589527
12.235641
11.875629
11.622906
11.933446
12.130737
11.886954
11.988878
13.040900
12.950897
13.892651
14.445782
16.496778
15.641451
14.864802
15.101433
14.516711
13.119578
12.390614
11.878610
10.420680
10.422468
9.633899
9.748936
9.302497
8.605719
8.858442
8.740425
8.473992
8.305907
8.316636
8.609891
8.489490
8.377433
8.077621
8.358955
8.262992
##ZVALUE=260
1.678467
1.712441
1.876950
1.735687
1.998544
1.789927
1.977682
2.302527
2.430677
2.647638
2.713799
3.874898
13.187528
63.674450
147.331953
369.929671
621.831417
1001.921892
1016.022563
1016.022563
1016.022563
1016.022563
1016.022563
1016.022563
973.810554
669.325590
362.157822
204.863548
101.970434
80.313683
87.066889
109.565854
124.178529
131.076574
130.409598
116.157532
99.774599
77.017546
60.598850
41.785836
32.618642
22.921562
19.998550
18.368959
18.102527
17.730594
17.570853
17.794967
17.154813
16.839504
16.984940
16.517639
15.965700
15.276670
15.106797
14.193654
14.563799
13.937950
13.934970
13.444424
13.195872
12.857914
12.876987
12.328625
12.388825
12.600422
12.767911
12.599826
13.263822
13.987422
14.441609
14.327765
14.476776
14.920831
14.291406
13.281703
12.379885
11.859536
10.552406
10.272861
9.515882
9.076595
8.416772
8.561611
8.197427
7.985830
8.043647
7.956624
7.864833
7.776618
7.801652
8.026958
8.065701
7.920861
7.931590
7.970929
##ZVALUE=265
1.503825
1.450777
1.406670
1.506805
1.634955
1.542568
1.524687
1.741648
1.868606
2.111793
2.023578
2.427697
2.709627
3.045797
7.903576
30.760765
119.652748
246.691704
447.375774
878.140926
1015.870571
1015.870571
1015.870571
1015.870571
1015.870571
1015.870571
1015.870571
849.015713
541.602969
267.708898
144.137740
74.963570
72.731972
94.216466
110.957623
128.742456
135.764480
132.838488
122.094750
100.371838
82.746744
61.321855
45.992732
33.545494
27.316809
22.127628
21.466613
19.897819
19.907951
19.844770
19.107461
18.322468
18.493533
17.845631
17.142892
16.865730
16.223788
15.724897
15.147924
14.772415
14.151931
13.901591
13.478994
13.141632
13.448000
13.262630
13.462901
13.293624
13.476610
14.190674
14.191866
14.674664
14.262795
13.796687
13.500452
12.869835
12.096763
11.111498
10.504723
9.401441
9.379983
8.675456
8.526444
8.202791
7.918477
8.069873
7.710457
7.763505
7.524490
7.631779
7.508993
7.347465
7.411838
7.589459
7.402897
7.216930
##ZVALUE=270
1.603961
1.657605
1.728535
1.755953
1.615882
1.841784
1.752973
2.044439
1.879930
2.045631
2.200603
2.381802
2.264977
2.456903
2.616644
3.025532
3.756881
15.082955
49.094558
173.907876
364.858508
664.623380
1016.083956
1016.083956
1016.083956
1016.083956
1016.083956
1016.083956
1016.083956
1016.083956
874.385834
447.721481
238.274932
97.253919
63.905716
73.550940
92.326999
115.215778
131.084919
139.503479
139.301419
126.358867
111.088753
87.120533
68.804622
48.938990
38.762689
30.648708
25.841594
23.826957
22.765994
21.860600
21.732450
21.051764
19.762516
19.522905
19.240975
18.305779
17.456412
17.329454
16.375780
15.934706
15.445948
14.705658
15.260577
14.368892
14.410615
14.136434
14.252663
15.403628
15.040636
15.027523
14.958978
14.915466
13.952851
13.011694
12.231469
11.552572
10.683537
10.193586
9.620786
9.062886
8.443594
8.533597
8.293986
8.093715
8.101463
7.821918
7.456541
7.868409
7.150769
7.425547
7.363558
7.773638
7.238984
7.228851
##ZVALUE=275
1.345873
1.401901
1.332760
1.401901
1.408458
1.526475
1.520514
1.586676
1.575947
1.739860
1.795888
1.992583
1.916885
1.971722
2.216697
2.338886
2.284646
2.606511
2.878904
5.696416
22.806525
105.168819
242.802501
572.806597
953.220725
1015.870571
1015.870571
1015.870571
1015.870571
1015.870571
1015.870571
1015.870571
1015.870571
593.359470
335.387588
140.255690
73.166490
56.880713
70.929527
94.588995
111.204982
131.255984
137.710571
137.149692
128.583908
108.063817
90.274811
66.675544
52.715540
38.620830
31.361580
25.054812
22.937655
21.568537
20.350814
19.328594
19.348860
18.636584
17.852783
17.156601
16.980767
16.136765
15.633702
15.501976
14.299750
14.487505
14.534593
13.893843
14.440417
15.031695
14.490485
14.816523
14.677644
14.251471
13.415813
12.641549
12.158751
11.525750
10.358691
9.885430
9.376407
8.958578
8.147955
8.487701
7.897615
7.548928
7.655621
7.758737
7.414818
7.162690
7.380843
7.143617
7.078648
6.985664
6.795526
6.810427
##ZVALUE=280
1.266599
1.046658
1.190901
1.251698
1.269579
1.481771
1.356602
1.470447
1.393557
1.368523
1.474619
1.579523
1.704693
1.735687
1.776814
1.900792
1.900792
2.267957
2.003908
2.550483
2.879500
3.369451
15.511513
57.162642
200.001597
388.664603
773.924589
1015.870571
1015.870571
1015.870571
1015.870571
1015.870571
1015.870571
1015.870571
1015.870571
821.278691
482.453704
206.731558
98.083615
49.537420
51.553845
70.543885
89.043975
111.808777
125.483871
133.167505
132.437944
122.156739
107.774734
85.023642
67.392588
48.050880
36.721826
27.152896
22.680759
19.420981
18.038750
17.220974
16.889572
16.396642
16.085505
15.660524
15.237927
14.762878
14.547706
14.579892
14.228821
13.847947
14.043450
14.224648
14.134645
14.207959
13.835430
13.487935
13.092756
12.365580
11.800528
10.810494
10.499954
9.802580
9.453893
9.038448
8.476973
8.196831
8.409619
7.815957
7.866621
7.526875
7.601976
7.337928
7.491708
7.108450
7.126927
6.947517
7.078648
6.692410
##ZVALUE=285
1.225471
1.190901
1.220703
1.198649
1.271963
1.231432
1.166463
1.244545
1.369715
1.468658
1.503825
1.543760
1.424551
1.679659
1.661777
1.710653
1.900792
1.760721
2.140999
2.291799
2.335906
2.354980
2.853870
3.152490
7.649660
27.216673
105.506778
236.049891
543.318391
910.928845
1015.845537
1015.845537
1015.845537
1015.845537
1015.845537
1015.845537
1015.845537
1015.845537
919.141769
460.516810
240.583420
84.614754
41.467547
46.444535
60.565472
82.948804
98.847747
115.816593
123.280883
124.471784
117.580891
100.099444
84.671974
62.049627
46.186447
31.202435
23.397803
17.556548
15.302896
13.758540
13.354421
13.193488
12.875795
12.767911
12.658834
12.270808
12.284517
12.537837
12.758970
12.548566
12.596846
12.764931
12.738705
12.401938
12.420416
11.362433
10.885000
9.985566
9.753704
9.379983
9.127855
8.668900
8.522868
8.167624
8.098483
7.837415
7.668734
7.550716
7.668734
7.228851
7.094741
7.360578
7.064939
6.807446
6.644726
6.963611
##ZVALUE=290
1.076460
1.102686
1.157522
1.156926
1.176596
1.231432
1.292825
1.346469
1.267791
1.346469
1.245737
1.281500
1.378655
1.341701
1.577735
1.635551
1.428723
1.552701
1.680851
1.636744
1.893640
2.260804
2.224445
2.534986
2.586842
3.126860
3.672838
14.084578
46.689510
160.717964
329.811573
730.877519
1015.870571
1015.870571
1015.870571
1015.870571
1015.870571
1015.870571
1015.870571
1015.870571
1015.870571
588.081479
328.650475
131.658912
56.575537
29.294491
36.782622
54.279566
69.142580
90.601444
104.342699
114.751458
116.888881
108.298659
96.035004
75.259805
58.600903
39.852858
28.618574
19.071698
14.670491
11.683702
11.011958
10.224581
10.336637
10.076761
10.313988
10.685921
10.927916
11.186600
11.080503
11.135936
11.634827
11.255741
10.972619
10.077953
9.819865
9.210706
9.077787
8.198619
8.171797
8.133650
8.048415
7.928610
7.739663
7.331967
7.567406
7.028580
7.160902
6.983876
6.855726
6.801486
6.872416
6.869435
6.921887
6.692410
##ZVALUE=295
0.923872
1.048446
1.078844
1.057982
0.958443
1.058578
1.105666
1.178980
1.065731
1.298785
1.212955
1.287460
1.337528
1.239777
1.328588
1.221895
1.473427
1.460910
1.512766
1.544952
1.638532
1.750588
1.886487
2.061725
2.395511
2.186894
2.693534
2.822876
3.338456
4.743934
23.917556
75.685978
243.996978
484.143496
961.320996
1015.871763
1015.871763
1015.871763
1015.871763
1015.871763
1015.871763
1015.871763
1015.871763
786.500573
358.873010
168.602467
51.337481
22.773743
23.663640
31.395555
47.769547
62.319636
82.264543
96.857548
106.717944
109.039545
102.065802
90.845823
71.797967
57.532787
38.481951
27.289987
17.481446
13.270974
10.047555
9.398460
8.653998
9.278655
9.138584
9.431839
9.951591
10.041595
10.064840
9.676814
9.448528
9.301901
8.576512
8.382797
8.215904
7.961988
7.715821
7.554889
7.369518
7.269979
6.924868
7.100701
6.997585
6.849766
6.770492
7.017851
6.668568
6.986856
6.648898
6.813407
6.632805
6.508827
##ZVALUE=300
0.918508
0.968575
1.050830
1.036525
0.940561
1.089573
1.098514
1.151562
1.202822
1.156926
1.054406
1.145601
1.251698
1.356602
1.161695
1.263618
1.193881
1.437664
1.445413
1.241565
1.581907
1.539588
1.536608
1.700521
1.884699
1.900792
2.146959
2.372861
2.567768
2.632737
2.847910
3.458858
7.041693
43.851733
125.033855
360.055566
656.226873
1015.870571
1015.870571
1015.870571
1015.870571
1015.870571
1015.870571
1015.870571
1015.870571
922.474861
562.264919
251.321793
109.069943
29.154420
16.071796
20.107627
27.837753
41.751862
56.083798
75.884461
89.992881
101.004839
103.136897
97.769499
88.385940
70.427656
55.674911
38.956404
27.712584
16.868711
12.867451
9.763837
9.089708
9.203553
8.819699
9.033680
9.156466
8.700490
8.732677
8.236766
8.193851
7.881522
7.473826
7.293820
7.234812
7.101893
7.200837
6.976724
6.892681
6.846786
6.889701
6.541610
6.609559
6.456971
6.435513
6.453991
6.537437
6.480813
6.437898
6.457567
##ZVALUE=305
0.937581
1.100898
0.890493
0.962615
1.045465
1.006722
0.940561
1.163483
1.031756
1.058578
1.093745
1.179576
1.153946
1.251698
1.171827
1.167655
1.058578
1.423955
1.408458
1.196861
1.350641
1.383424
1.475811
1.608729
1.569986
1.858473
1.795888
1.896620
2.140999
2.198815
2.386570
2.601743
2.990961
3.145933
6.371737
65.327883
178.704858
419.631004
695.389509
1015.871763
1015.871763
1015.871763
1015.871763
1015.871763
1015.871763
1015.871763
1015.871763
1015.871763
767.259002
355.768800
168.833733
47.845840
18.030405
14.487505
18.276572
28.215647
38.433671
55.094957
69.107413
86.172819
94.310641
97.112656
94.923973
83.356500
69.967508
51.192641
38.764477
25.671721
18.027425
12.762547
10.647774
9.515882
8.916855
8.566976
8.217692
7.810593
7.654428
7.463694
7.235408
7.192492
7.068515
7.048845
6.842613
6.928444
6.799698
6.735921
6.823540
6.908774
6.917715
6.626844
6.501675
6.487966
6.612539
6.593466
6.547570
6.584525
##ZVALUE=310
0.918508
0.955462
0.938773
0.966787
0.842810
0.913739
0.851750
1.025796
0.798702
0.876784
1.061559
0.870824
0.968575
1.066923
1.064539
1.062751
1.153946
1.184940
1.243949
1.216531
1.353621
1.343489
1.316667
1.468658
1.540780
1.516938
1.647472
1.734495
1.703501
1.877546
1.974702
2.191663
2.266765
2.547503
2.774596
3.021955
3.575683
9.975433
37.282705
145.499706
317.274928
722.240806
1015.870571
1015.870571
1015.870571
1015.870571
1015.870571
1015.870571
1015.870571
1015.870571
1003.182530
544.859767
287.677646
96.618533
32.940507
12.074709
12.582541
17.178655
22.447705
34.171939
46.136975
63.698888
75.719953
87.437630
91.709495
90.150833
82.229972
66.725612
53.796768
37.972927
27.217865
18.418431
13.555884
9.701848
8.460879
7.419586
7.289648
6.837845
6.584525
6.577969
6.528497
6.236434
6.649494
6.402731
6.470680
6.093979
6.587505
6.273985
6.153584
6.435513
6.306767
6.109476
6.184578
6.360412
6.416440
6.579757
##ZVALUE=315
0.846982
0.827909
0.810623
0.930429
0.946522
0.924468
0.831485
0.847578
1.057982
0.799894
0.966787
0.944734
1.011491
0.859499
1.088977
1.185536
1.020432
1.128912
1.029968
1.036525
1.179576
1.211762
1.310706
1.348853
1.299977
1.240969
1.313686
1.493692
1.598597
1.518726
1.542568
1.848936
1.894832
1.993775
2.199411
2.352595
2.439618
2.901554
3.119707
4.893541
17.149448
86.577535
213.389397
535.674691
937.221646
1015.870571
1015.870571
1015.870571
1015.870571
1015.870571
1015.870571
1015.870571
1015.870571
744.321942
403.821468
141.362548
50.852895
14.102459
10.622740
11.939406
14.626980
21.822453
30.108690
44.178963
56.170821
71.701407
80.643892
87.153912
85.293651
77.339411
66.360831
50.614476
38.505793
24.668574
17.167926
11.396408
8.812547
7.304549
6.666780
6.119609
6.147623
6.085634
5.970597
6.128550
6.061792
6.096959
6.111860
6.363988
5.887747
6.286502
6.217957
6.239414
6.228685
6.108880
6.279945
5.973577
##ZVALUE=320
0.867844
0.914931
0.724792
0.954866
0.810623
0.840425
0.931621
0.967979
0.921488
0.725985
0.759959
0.906587
0.730753
0.949502
0.919700
0.923872
1.038909
1.040697
0.986457
1.125932
1.188517
1.273751
1.158714
1.167655
1.340508
1.299977
1.386404
1.359582
1.526475
1.508594
1.609921
1.503825
1.550913
1.753569
1.880527
1.795888
2.044439
2.409816
2.710819
2.773404
2.961755
3.569722
7.104874
42.367578
125.748515
379.247069
676.548481
1015.870571
1015.870571
1015.870571
1015.870571
1015.870571
1015.870571
1015.870571
1015.870571
954.580903
572.180748
236.823559
99.925995
23.398995
10.809898
9.562969
10.366440
13.703704
18.198490
28.486848
38.855672
53.322911
65.555573
78.145862
81.493855
81.467628
74.602962
60.895681
49.122572
33.794641
24.483800
15.588999
11.152625
7.839799
6.661415
6.169677
5.908608
5.995631
5.833507
5.720854
5.619526
5.690455
5.753636
5.952716
5.775690
5.942583
5.975962
5.966425
6.054640
5.895495
##ZVALUE=325
0.772476
0.743866
0.917912
0.731945
0.798702
0.796914
0.948906
0.773668
0.900626
0.932813
0.899434
0.899434
1.001954
0.949502
0.929832
1.108646
0.969768
1.001954
1.039505
0.952482
1.008511
1.042485
1.112819
1.126528
1.336932
1.126528
1.300573
1.114607
1.382828
1.257658
1.329780
1.487732
1.580715
1.439452
1.475811
1.677871
1.658797
1.916885
2.090931
2.046824
2.397895
2.425909
2.857447
3.165007
4.500747
25.396943
78.077912
236.704946
467.954874
953.572989
1015.878916
1015.878916
1015.878916
1015.878916
1015.878916
1015.878916
1015.878916
1015.878916
756.597519
334.428549
153.391957
39.126873
13.616681
8.826852
8.848906
9.985566
12.161732
18.383861
26.130676
39.164424
50.164461
63.622594
71.570873
77.559948
75.441599
67.325830
57.616830
43.313503
32.491684
21.373630
15.048981
9.636879
7.668734
6.307960
5.953908
5.636811
5.568862
5.562901
5.645752
5.656481
5.753636
5.631447
5.725622
5.837679
5.942583
6.012917
##ZVALUE=330
0.765920
0.664592
0.850558
0.721812
1.017451
0.925660
0.898838
0.819564
0.820756
0.880957
0.886917
0.825524
0.850558
0.759959
0.910759
0.840425
0.998974
0.907779
0.991821
0.943542
0.859499
1.026988
0.979900
1.179576
1.076460
1.104474
1.135468
1.213551
1.121759
1.398921
1.246929
1.203418
1.228452
1.326799
1.434684
1.497865
1.511574
1.627803
1.678467
1.923442
1.930594
2.045631
2.387762
2.326965
2.552867
2.897978
3.370643
10.652542
38.090944
149.193406
325.635672
740.526915
1015.870571
1015.870571
1015.870571
1015.870571
1015.870571
1015.870571
1015.870571
1015.870571
970.418453
474.138856
237.135887
76.363683
23.760796
9.127855
8.422732
8.449554
9.595752
12.482405
16.689897
25.304556
34.281611
48.117638
57.999492
67.641735
71.237683
69.454908
64.311624
52.665472
42.157769
29.321909
21.574497
14.074445
10.297894
7.412434
6.509423
5.820990
5.692840
5.309582
5.572438
5.714893
5.660653
5.646944
5.708933
5.827546
##ZVALUE=335
0.695586
0.733733
0.738502
0.707507
0.808835
0.702739
0.713468
0.789762
0.699759
0.837445
0.821948
0.759959
0.875592
0.975728
0.904799
1.042485
0.905991
0.896454
0.894666
0.882745
0.965595
1.088977
0.888705
1.030564
1.219511
1.210570
0.970960
1.075864
1.018643
1.155734
1.072884
1.181960
1.226664
1.363754
1.244545
1.356602
1.299977
1.389980
1.364946
1.530647
1.649857
1.726747
1.786947
2.030730
2.211928
2.345443
2.600551
2.752542
3.059506
5.234480
17.489791
84.023476
202.189684
509.713888
894.474983
1015.870571
1015.870571
1015.870571
1015.870571
1015.870571
1015.870571
1015.870571
1015.870571
655.107498
351.281762
120.133758
40.602684
10.573864
8.466840
8.400679
8.286834
9.437799
11.438727
16.897917
22.895932
33.333898
42.733550
53.931475
61.426759
66.609979
65.273643
58.804750
50.954819
39.068460
31.114817
21.090508
15.381575
10.614991
8.140802
6.513000
5.776882
5.532503
5.743504
5.729795
5.769730
5.670786
##ZVALUE=340
0.771880
0.700951
0.838637
0.676513
0.840425
0.700951
0.720620
0.748634
0.723600
0.749826
0.730753
0.750422
0.836849
0.907779
0.723600
0.762939
0.705719
0.770688
0.891685
0.831485
0.747442
0.853539
1.039505
0.904799
1.093745
1.032948
1.044869
1.053810
0.951886
1.020432
1.075864
1.038909
1.113415
1.171827
1.251698
1.272559
1.259446
1.301765
1.282692
1.336932
1.480579
1.557469
1.642704
1.685619
1.747608
1.930594
2.027750
2.151728
2.464652
2.420545
2.894998
3.344417
11.587739
42.321682
159.491897
350.502729
796.912909
1015.870571
1015.870571
1015.870571
1015.870571
1015.870571
1015.870571
1015.870571
1015.870571
864.375830
409.975648
193.863511
48.065782
15.020967
8.758903
8.286834
7.957816
7.973909
8.525848
10.223985
15.022755
20.734668
30.970573
40.602684
51.898956
57.875514
62.223673
61.555505
56.066513
49.913526
38.643479
30.396581
20.670891
14.966726
10.509491
8.256435
6.657839
6.185770
5.917549
5.693436
##ZVALUE=345
0.812411
0.630617
0.625849
0.570416
0.764728
0.685453
0.837445
0.731945
0.839829
0.841618
0.866652
0.759959
0.574589
0.784993
0.795722
0.647902
0.859499
0.769496
0.682473
0.804663
0.890493
0.907779
0.882745
0.848770
1.039505
0.864863
1.019835
1.058578
0.985861
0.975728
0.942945
1.063943
0.954866
1.024604
1.129508
1.121759
1.173615
1.285672
1.282692
1.455545
1.329780
1.284480
1.388788
1.588464
1.466870
1.643896
1.713634
1.774430
1.829863
1.986623
2.175570
2.366900
2.569556
2.925992
4.573464
26.018620
86.182952
267.512798
521.942973
988.518596
1015.870571
1015.870571
1015.870571
1015.870571
1015.870571
1015.870571
1015.870571
956.100821
566.257834
231.428742
95.158815
24.341941
10.628700
8.753538
8.102655
7.127523
6.802678
7.483959
8.910894
13.344884
18.847585
28.041601
36.123991
46.133995
52.092671
56.924820
56.961775
53.199530
48.006773
38.353801
30.486584
20.752549
15.770793
11.122823
8.706450
7.176995
##ZVALUE=350
0.754595
0.738502
0.802875
0.819564
0.851750
0.642538
0.775456
0.888705
0.562668
0.745654
0.721812
0.814795
0.654459
0.733733
0.698566
0.866652
0.860691
0.940561
0.906587
0.847578
0.894666
0.830889
0.857711
0.897646
0.829697
0.970960
0.979900
1.052618
1.094937
1.048446
1.143813
0.965595
1.009703
1.162887
0.927448
0.990629
1.171827
1.233816
1.184940
1.285672
1.236796
1.237988
1.252890
1.315475
1.262426
1.456738
1.582503
1.564622
1.769662
1.834631
1.839995
1.932979
2.227426
2.479553
2.508759
2.830625
3.417730
12.069941
44.204593
170.722008
362.921953
805.833936
1015.871763
1015.871763
1015.871763
1015.871763
1015.871763
1015.871763
1015.871763
1015.871763
735.793710
340.919495
150.487423
34.979582
11.807680
7.660985
6.972551
6.126761
5.999804
6.016493
6.590486
8.979440
11.608601
17.096996
23.395419
32.138824
39.708614
48.036575
52.062869
53.102970
50.980449
44.007897
37.568808
28.963685
22.776723
15.981793
##ZVALUE=355
0.744462
0.843406
0.579953
0.649691
0.762939
0.728965
0.780821
0.731945
0.864863
0.801682
0.771880
0.908971
0.900626
0.823736
0.852942
0.766516
0.762939
0.829697
0.759959
0.712872
0.772476
0.812411
0.888705
0.904799
0.941753
1.023412
1.019835
0.849962
0.967979
0.962615
1.089573
1.070499
1.147985
0.940561
1.161695
1.018643
1.059771
1.152754
1.207590
1.239777
1.209974
1.264811
1.312494
1.328588
1.209974
1.402497
1.460910
1.545548
1.565814
1.622438
1.731515
1.788735
1.880527
2.188683
2.205968
2.418756
2.646446
2.808571
3.372431
6.348491
22.984743
108.137727
250.611901
594.512820
973.186493
1015.829444
1015.829444
1015.829444
1015.829444
1015.829444
1015.829444
1015.829444
948.160887
432.845950
204.398632
55.247545
16.915798
7.756948
6.735921
6.105900
5.865693
5.583763
5.828738
6.435513
7.598996
10.800958
14.581680
21.437407
28.008819
36.018491
42.206645
47.746897
49.535632
47.888756
43.859482
36.183000
##ZVALUE=360
0.774860
0.740886
0.806451
0.676513
0.841618
0.854731
0.790954
0.797510
0.734925
0.735521
0.916719
0.793934
0.825524
0.918508
0.839829
0.939965
0.967979
0.796914
1.187921
0.975728
0.840425
0.916719
0.880957
0.932813
0.971556
0.857711
1.159906
0.938773
0.901818
1.101494
1.173615
1.062751
1.191497
1.082420
1.195669
1.294613
1.255870
1.291633
1.236796
1.302958
1.393557
1.296997
1.395941
1.370907
1.461506
1.433492
1.556873
1.467466
1.594424
1.689792
1.658797
1.954436
1.904964
1.976490
2.128482
2.077818
2.210736
2.474785
2.683997
3.046989
3.393888
4.299879
9.973645
50.994754
138.935447
399.238467
747.636557
1015.870571
1015.870571
1015.870571
1015.870571
1015.870571
1015.870571
1015.870571
1015.870571
650.289655
340.952873
115.737915
37.335753
9.212494
7.395744
6.642938
6.393790
5.788803
5.581975
5.527735
5.994439
6.912947
8.835793
12.774467
17.644763
25.140643
31.306744
38.250685
43.025613
45.817494
##ZVALUE=365
0.792742
0.619888
0.655651
0.786781
0.796914
0.755787
0.816584
0.831485
0.722408
0.742674
0.922680
0.910759
0.879765
0.933409
0.911951
0.862479
0.896454
0.978708
0.911951
0.971556
0.888705
0.914931
0.941753
0.842810
0.989437
0.897646
0.877976
1.091957
0.973940
1.033545
0.891685
1.046658
1.189709
1.090765
1.179576
1.160502
1.298785
1.112819
1.283884
1.109838
1.309514
1.247525
1.288652
1.223683
1.310706
1.327991
1.441836
1.459718
1.547933
1.590848
1.495481
1.578927
1.729727
1.719594
1.856685
1.810789
1.959801
2.093911
2.233982
2.276897
2.466440
2.763867
3.406405
3.744960
5.402565
27.064681
82.393885
257.444978
527.590513
1013.103724
1015.858650
1015.858650
1015.858650
1015.858650
1015.858650
1015.858650
1015.858650
891.549587
495.616794
177.151561
61.912537
12.658834
7.246733
6.297827
5.923510
5.548596
5.397797
5.251765
5.314946
5.643964
6.537437
8.853674
11.081696
16.132593
20.688772
27.603507
##ZVALUE=370
0.815988
0.615716
0.769496
0.777841
0.774860
0.890493
0.690818
0.780821
0.780821
0.673532
0.771880
0.695586
0.806451
0.862479
0.835657
0.814795
0.968575
0.749826
0.556707
0.815988
0.724792
0.927448
0.871420
0.928640
0.893474
1.140833
0.900626
0.909567
0.915527
1.006722
0.826716
1.089573
1.043677
1.079440
1.191497
1.058578
0.954866
1.098514
1.125932
1.015663
1.216531
1.249909
1.099706
1.283884
1.275539
1.191497
1.180768
1.167655
1.176000
1.216531
1.423955
1.380444
1.453757
1.452565
1.508594
1.557469
1.572967
1.859665
1.683831
1.929998
2.087951
2.154708
2.317429
2.698898
2.764463
3.084540
3.910661
13.322830
48.530698
180.025697
381.093621
822.445750
1015.870571
1015.870571
1015.870571
1015.870571
1015.870571
1015.870571
1015.870571
1015.870571
673.397779
274.927020
116.671920
26.424527
9.033680
6.314516
5.835891
5.384684
5.037785
5.243421
5.337000
5.625486
5.849600
6.932616
8.197427
10.544658
##ZVALUE=375
0.604987
0.645518
0.630617
0.729561
0.724792
0.626445
0.633597
0.787973
0.779629
0.739694
0.716448
0.805855
0.772476
0.759959
0.746846
0.681877
0.769496
0.663996
0.763535
0.715852
0.890493
0.842810
0.723600
0.786781
0.878572
0.784993
0.969768
0.783801
0.800490
0.882745
0.900626
0.825524
0.987649
1.020432
0.936985
0.895858
0.930429
0.882745
0.947714
0.960827
1.038909
1.120567
1.112819
1.140833
1.154542
1.030564
1.184940
1.065731
1.153946
1.187921
0.951886
1.168847
1.286864
1.257658
1.250505
1.430511
1.431704
1.454949
1.449585
1.492500
1.624823
1.597404
1.742840
1.970530
2.041459
2.304912
2.572536
2.919436
3.602505
6.472468
21.722913
94.970465
230.512023
585.908890
964.112878
1015.870571
1015.870571
1015.870571
1015.870571
1015.870571
1015.870571
1015.870571
888.438821
456.961393
227.636695
65.885782
19.299984
6.527901
5.856752
5.701780
5.567670
5.859733
5.993843
5.910993
6.098747
5.959868
##ZVALUE=380
0.614524
0.696778
0.757575
0.761747
0.647902
0.639558
0.599623
0.613928
0.635982
0.623465
0.610948
0.630617
0.624657
0.615716
0.653863
0.694990
0.838637
0.602603
0.767708
0.773668
0.788569
0.784993
0.770688
0.759959
0.604987
0.837445
0.782609
1.026988
0.841618
0.863671
0.977516
0.841618
0.862479
0.972748
0.882745
0.920892
0.955462
1.101494
1.034737
0.906587
0.880957
1.140833
1.002550
1.072884
0.999570
0.911951
1.029968
0.959635
1.040697
1.091957
1.158714
1.242757
0.995994
1.193881
1.138449
1.091957
1.198649
1.086593
1.330972
1.419783
1.523495
1.433492
1.577735
1.665950
1.752973
1.871586
2.177954
2.456903
2.779961
3.056526
3.488660
4.386902
10.815859
59.470534
159.581900
437.164903
767.564774
1015.871763
1015.871763
1015.871763
1015.871763
1015.871763
1015.871763
1015.871763
1015.871763
613.231659
328.965783
111.424923
37.684441
9.289980
6.181598
6.103516
6.255507
6.109476
6.103516
5.966425
##ZVALUE=385
0.627637
0.632405
0.621676
0.733733
0.584722
0.598431
0.600815
0.647902
0.799894
0.716448
0.667572
0.669956
0.637770
0.665784
0.548959
0.501871
0.578761
0.762939
0.547767
0.749826
0.661612
0.712872
0.700951
0.696778
0.872612
0.766516
0.730753
0.905991
0.960827
0.907779
0.964999
0.951886
0.941753
1.052618
1.071692
1.022816
1.038909
1.018643
1.043677
0.961423
1.018643
0.978708
1.071692
0.979900
1.102686
1.109838
0.892878
1.020432
0.857711
0.970960
0.919700
1.001954
1.101494
1.261830
1.093745
1.200438
1.140833
1.112819
1.289845
1.286864
1.404881
1.258850
1.471639
1.441836
1.707673
1.740456
2.005696
2.163649
2.350807
2.376437
2.572536
2.716780
2.889633
3.204942
5.159974
29.551983
91.593862
277.496576
544.794798
1010.745764
1015.869975
1015.869975
1015.869975
1015.869975
1015.869975
1015.869975
1015.869975
833.959579
500.348806
214.267969
83.909631
16.396642
7.286668
6.072521
6.045699
5.997419
##ZVALUE=390
0.589490
0.507832
0.601411
0.634789
0.581741
0.652671
0.587702
0.730753
0.575781
0.604987
0.631809
0.740886
0.696778
0.639558
0.610948
0.717640
0.651479
0.561476
0.615716
0.679493
0.682473
0.490546
0.787973
0.695586
0.732541
0.766516
0.933409
0.808835
0.780821
0.927448
1.018643
0.915527
0.977516
0.988841
1.105666
1.163483
1.190901
1.237988
1.184940
1.225471
1.159906
0.951886
1.173615
1.087785
1.255870
1.126528
1.098514
1.065731
1.185536
1.045465
1.010895
1.146793
1.135468
1.083612
1.009703
1.199841
1.207590
1.073480
1.190901
1.203418
1.254678
1.291633
1.246929
1.485944
1.436472
1.735687
1.782775
2.158880
2.251863
2.201796
2.301931
2.341866
2.353787
2.575517
2.651811
2.601743
3.563762
14.257431
55.133700
207.916498
438.444614
923.368931
1015.871763
1015.871763
1015.871763
1015.871763
1015.871763
1015.871763
1015.871763
1015.871763
693.331957
298.240781
139.082670
38.233995
11.708736
6.395578
##ZVALUE=395
0.672936
0.640750
0.618696
0.654459
0.608563
0.504851
0.512600
0.655651
0.530481
0.484586
0.528693
0.618696
0.700951
0.497699
0.577569
0.542998
0.652671
0.651479
0.537634
0.731945
0.767708
0.707507
0.786781
0.805855
0.823736
0.723600
0.774860
0.789762
1.072884
0.863671
1.203418
0.854731
0.907779
1.081824
0.997782
1.226664
1.026988
1.008511
0.939965
1.133680
1.086593
1.094937
1.096725
1.183748
1.142621
1.091957
1.041889
1.223683
1.155734
1.186728
1.268983
1.146793
1.119971
1.199841
1.203418
1.143813
1.198649
1.253486
1.214743
1.246929
1.199841
1.293421
1.359582
1.361966
1.482964
1.595616
1.904964
1.873970
2.173781
2.035499
2.128482
2.057552
2.100468
2.080798
2.129674
2.317429
2.205968
2.638698
2.872944
8.042455
32.147765
141.715407
303.537846
661.268830
1001.302004
1015.873551
1015.873551
1015.873551
1015.873551
1015.873551
1015.873551
1015.873551
893.991590
414.579511
203.929543
63.088536
##ZVALUE=400
0.862479
0.756979
0.813603
0.597835
0.760555
0.663996
0.602603
0.723600
0.740886
0.734925
0.785589
0.800490
0.740886
0.835657
0.749826
0.788569
0.770688
0.638962
0.647902
0.777841
0.681877
0.684857
0.757575
0.717640
0.903606
0.939965
1.026988
0.844598
1.005530
1.102686
1.122952
1.197457
1.174808
1.120567
1.235604
1.263618
1.218915
1.332760
1.158714
1.103878
1.096725
1.282692
1.276731
1.258850
1.177788
1.219511
1.269579
1.120567
1.335740
1.121759
1.323819
1.209974
1.239777
1.283884
1.295805
1.354814
1.227856
1.293421
1.329780
1.428723
1.357794
1.519918
1.479983
1.531839
1.508594
1.814961
1.723766
2.009869
2.171993
2.302527
2.175570
2.219677
2.078414
2.004504
1.904964
2.081990
2.000928
2.212524
2.391934
2.714992
2.917647
4.742742
14.797449
68.403482
171.979666
457.406640
810.437799
1015.999913
1015.999913
1015.999913
1015.999913
1015.999913
1015.999913
1015.999913
1015.999913
610.610843
##END
