##TITLE=C5102_R2
##FORMAT=SPECTACLE-ASCII V-1.2
##DATA TYPE=ULTRAVIOLET SPECTRUM
##SECOND TYPE=ULTRAVIOLET SPECTRUM
##DATE=05/28/18
##TIME=12:43:15
##SPECTROMETER/DATA SYSTEM=SPECTACLE
##XUNITS=NM EM
##YUNITS=ENERGY
##YFACTOR=1
##FIRSTX=220
##LASTX=410
##NPOINTS=96
##3DDATA=Equidistant
##ZUNITS=NM EX
##FIRSTZ=210
##LASTZ=400
##ZPOINTS=39
##XYDATA=(Y..Y)
##ZVALUE=210
42.164922
40.868521
34.760833
25.312901
23.888946
21.960735
19.661784
17.100573
11.960864
10.659695
7.921457
7.259846
6.410480
5.502701
5.923510
5.239844
5.880594
6.023645
8.150935
7.646680
8.442998
9.398460
10.201931
11.789799
14.653802
20.510554
21.494627
24.909973
26.746988
29.153824
32.093525
31.937957
32.426715
30.476451
32.023787
32.121539
30.581951
29.397607
29.566884
30.758977
28.710961
29.542446
26.703477
28.424859
26.098490
26.699901
26.332736
24.314523
25.824904
25.166869
24.032593
23.408532
24.599433
23.960471
22.072792
21.881461
22.962689
22.646785
20.483732
21.711588
22.775531
18.832684
20.605922
20.166636
22.363663
22.560954
24.547577
27.423501
34.110546
36.953688
42.022467
46.419501
47.464967
48.165917
52.830577
49.385428
46.706796
44.897795
39.982796
37.392974
29.934645
26.320815
23.219585
19.880533
17.373562
15.562773
15.138984
17.101765
18.424988
22.369623
30.204654
40.193796
64.802766
85.191727
111.294985
133.821964
##ZVALUE=215
134.928823
130.335689
102.342963
72.899461
55.102706
44.492483
39.963722
36.570430
33.516884
30.457973
23.552775
18.810630
13.345480
9.479523
7.397532
7.443428
6.249547
8.398890
6.328821
7.399917
8.743405
9.436607
11.151433
12.580752
15.420914
18.172860
19.084811
23.426414
25.963783
29.579997
29.363632
30.561686
32.037497
34.243464
31.834841
31.510592
32.484531
32.666922
30.723810
29.847622
28.250813
29.428601
28.660893
29.859543
29.193759
26.645660
26.533604
27.319789
27.134418
27.241707
27.217865
25.354624
26.042461
26.233792
24.516582
27.166605
24.262667
22.933483
24.601817
24.506450
22.660494
21.625757
22.312999
21.118522
22.513866
23.092628
25.103688
25.908947
28.985739
32.738447
35.293698
37.626624
41.525960
43.838620
42.384863
41.823983
38.888454
37.303567
32.178760
30.262470
28.292537
22.031665
20.033717
18.153787
14.766455
16.129613
15.023947
14.512539
15.630722
14.187694
13.771653
15.308857
14.446974
20.174980
24.528503
39.809942
##ZVALUE=220
306.210518
308.112502
281.768441
230.900645
188.631415
130.094886
102.428794
69.354773
56.773424
50.170422
48.033595
43.786764
36.990643
29.572845
21.843910
17.339587
10.528564
9.421706
7.906556
7.098913
7.859468
8.128881
8.417964
9.598732
12.276769
13.465881
14.465451
17.321706
17.662644
19.210577
20.264983
22.675991
23.519993
23.554564
25.943518
26.470423
25.417805
26.129484
26.884675
28.525591
27.057528
26.482940
28.373599
28.216839
26.768446
26.486516
26.354790
26.874542
27.475953
26.144981
25.844574
27.992725
28.041601
25.756955
26.931763
26.786923
25.523901
26.126504
23.872852
23.105741
22.304654
22.569895
22.810698
22.309422
22.324920
23.155808
26.028752
26.257634
27.560592
29.890537
33.409595
35.163760
34.303665
37.122965
37.389994
34.782887
32.989979
30.761957
27.579665
23.544431
23.715496
19.345880
17.613769
16.752481
16.234517
15.049577
13.977885
14.766455
13.462901
13.305545
13.684630
13.625622
13.910532
13.900995
11.995435
13.133883
##ZVALUE=225
351.606607
366.113782
420.089960
456.548929
444.347858
392.342806
323.781967
223.859549
158.173442
114.768744
79.891682
71.613789
65.233707
63.211918
57.746768
51.955581
38.264990
28.244853
20.425916
15.015602
10.158420
8.524656
7.216930
8.310676
8.101463
9.537935
9.695888
11.149645
11.864901
13.029575
14.505982
14.789701
15.794635
16.931891
17.830729
20.077825
20.962954
21.615624
24.187565
24.149418
26.042461
25.325418
24.912953
27.438998
27.366877
25.404692
26.660562
27.944446
26.298761
27.193427
27.394891
26.439428
26.811957
26.444793
27.682781
25.122762
24.494529
24.201870
23.471713
23.087859
23.759604
22.685528
22.186637
21.369457
22.075772
22.929907
22.959709
24.193525
25.624633
27.205944
30.278563
31.050444
33.090711
33.365488
31.734705
31.581521
28.644800
26.469827
24.929643
21.467805
19.134879
16.558766
17.668605
15.172958
14.905930
14.603734
13.724566
13.520718
12.690425
13.074875
12.623668
13.798475
12.535453
12.982488
12.864470
12.602806
##ZVALUE=230
199.517608
216.570497
323.099494
485.443473
584.759712
678.701997
679.584742
606.274009
515.418649
403.373837
251.655579
170.323849
107.556581
89.855790
85.010529
84.736943
82.640648
77.844858
65.466762
49.224496
36.248565
23.818612
16.205907
10.719895
9.241700
8.315444
9.427667
9.125471
8.836985
9.905696
11.214614
11.913776
11.753440
13.586879
13.837814
16.284585
18.233657
19.546747
19.380450
21.438599
22.719502
23.205876
22.818446
24.203658
24.506450
24.736524
25.129914
23.865700
24.244785
23.458600
24.668574
24.379492
23.614764
22.470951
22.338629
22.164583
22.965670
21.227598
21.756887
20.739436
22.238493
20.134449
20.193458
19.762516
19.405484
20.088553
21.296740
22.493601
22.833943
24.585724
27.243495
28.173923
28.358698
29.686689
28.362870
27.690530
25.024414
23.500919
22.086501
19.739866
17.239451
16.699433
15.183687
15.770793
13.887882
13.891459
14.144778
12.920499
12.521744
12.861490
13.170838
13.454556
12.473464
13.314486
12.604594
13.641715
##ZVALUE=235
41.098595
47.918558
100.685954
230.918527
362.388492
556.222796
705.769658
850.459933
894.577503
857.794881
720.347762
556.155443
348.505974
244.138837
152.523518
115.764737
97.381473
100.506544
104.103684
98.378658
90.240836
70.304871
56.161880
37.077665
25.265813
16.310811
12.276769
9.253621
8.379817
9.141564
9.655952
9.092689
10.434985
10.666847
11.510849
13.305545
14.745593
15.042424
15.922785
17.087460
18.260479
19.658804
19.384623
19.618869
20.039678
20.190477
20.304918
20.198822
20.535588
20.708442
19.822717
19.993782
20.244718
18.676519
19.003749
17.705560
17.609000
17.786622
17.555952
16.681552
17.194748
16.151667
16.521811
16.012788
17.589927
16.598701
18.377900
19.282699
19.280910
20.875931
22.491813
24.340749
25.373697
23.902655
22.898912
23.805499
21.923780
20.390749
20.098686
17.412901
15.947819
14.840961
14.069676
12.987852
13.470650
13.858676
13.016462
13.225675
12.230873
12.163520
11.672974
12.654662
13.017654
12.455583
12.454987
13.128519
##ZVALUE=240
3.036857
2.770424
8.925796
38.955808
88.482499
203.720927
338.369608
586.133003
771.553516
938.803554
1015.870571
1015.870571
895.015001
741.398931
517.383814
350.772738
200.865865
138.306618
111.465454
103.753805
111.781955
116.133690
108.795762
93.073845
76.064467
55.007935
42.807460
26.618838
18.800497
13.407469
10.966659
10.572672
10.062456
10.459423
10.954738
11.330843
12.338758
13.237596
13.583899
13.586879
14.201999
14.892817
15.037656
15.560985
15.467405
16.745925
15.988946
15.753508
16.620755
15.039444
15.403628
15.165806
15.631914
15.886426
14.744997
14.337897
13.448000
14.247894
13.854504
14.101863
12.840629
13.380647
13.112426
13.248920
13.182759
14.164448
14.527440
15.336871
15.420914
17.673969
18.577576
19.338727
20.043850
19.562840
20.378828
18.394589
17.993450
16.792417
16.121864
14.793873
13.954639
12.388825
12.491941
11.760592
11.219978
11.159778
11.228919
10.330677
11.315942
11.334419
10.867715
11.167526
10.861754
12.341738
11.569858
12.565851
##ZVALUE=245
1.950860
1.913905
2.212524
2.117753
5.968809
18.815994
67.672729
143.330693
323.424935
502.817631
794.644952
990.063548
1015.871763
1015.871763
1015.871763
903.645754
715.886950
471.685529
315.493941
169.788003
116.128922
99.267960
104.814768
113.714933
119.144917
114.105940
98.812580
84.475875
61.840415
46.989918
33.759475
21.104813
16.467571
12.144446
11.736751
11.274815
11.979938
11.458993
11.510849
12.132525
12.425780
12.587905
13.283491
12.888908
12.928843
12.500882
13.335943
13.469458
12.986660
12.950897
13.556480
12.577772
12.615919
12.309551
11.990666
11.333823
10.978580
11.688471
10.917783
11.317730
11.072755
10.937452
10.863543
10.690689
10.636449
11.133552
11.356473
12.278557
13.162494
14.513731
14.933944
15.870929
16.195774
16.189814
16.090870
15.277863
14.617443
13.227463
12.018681
11.465549
10.671616
10.577440
10.358691
10.101795
9.614825
8.882880
9.355545
9.821653
9.428859
9.606481
9.139776
9.801984
9.989738
10.329485
10.247827
11.010766
##ZVALUE=250
1.654625
1.718998
1.841784
1.850724
1.809597
2.121925
3.111959
11.701584
37.823915
91.310740
236.401558
416.348577
715.252757
927.986503
1015.870571
1015.870571
1015.870571
1015.870571
964.567661
662.488937
446.638465
232.621431
142.631531
93.239546
92.514753
106.337667
117.267966
122.640729
116.125941
103.982687
90.000629
67.218542
50.582886
32.950640
24.700761
16.359687
13.730526
11.625886
11.674762
12.268424
12.264848
12.507439
12.110472
12.788773
12.339950
11.856556
11.952519
11.983514
12.345910
12.354851
11.821985
11.224747
11.516809
11.099577
10.697842
11.209846
10.914803
10.060668
10.209680
10.442734
9.676814
9.761453
9.297729
9.501576
9.319782
9.983778
9.412766
10.799766
10.873675
11.757612
12.912750
12.993813
13.660789
13.003945
13.487935
12.192726
12.044907
10.618567
9.970665
9.489655
9.288788
8.724928
8.526444
8.076429
7.351637
7.683635
7.555485
7.687807
7.941723
7.975698
7.954836
8.133650
8.092523
8.493662
8.504987
8.865595
##ZVALUE=255
1.637936
1.550913
1.655817
1.628995
1.746416
1.866817
2.065897
2.155900
2.180934
5.942583
20.502806
79.434514
166.880488
368.533731
568.189621
891.134739
1015.926003
1015.926003
1015.926003
1015.926003
1015.926003
926.078558
575.838685
357.297659
173.707604
110.417604
83.660483
89.424849
108.497739
120.777488
127.320886
122.169852
114.438534
91.437697
74.529648
51.313639
37.184954
25.214553
18.618703
14.771819
13.519526
13.433695
13.644695
13.207793
13.258457
13.015866
13.060570
13.088584
12.301803
12.710690
12.440681
12.189746
11.482835
11.149645
11.326671
10.981560
10.911822
10.286570
9.819865
9.840727
9.601712
9.510517
8.985996
9.084940
8.618832
9.293556
9.316802
9.936690
9.999871
10.862947
10.736585
11.488795
11.955500
11.272430
11.475682
10.419488
10.150671
9.325743
8.660555
7.794499
7.713437
7.466674
7.160902
6.825924
7.192492
6.905794
6.526709
6.654859
7.323623
6.784797
6.982684
6.655455
6.605983
6.830692
6.841421
6.866455
##ZVALUE=260
1.580715
1.657605
1.645684
1.858473
1.859665
1.901984
1.874566
2.069473
2.306700
2.386570
2.347827
3.341436
9.095669
43.592453
103.990436
262.408853
443.649888
763.370991
1006.345749
1016.097665
1016.097665
1016.097665
1016.097665
1016.097665
765.071511
515.707731
287.182927
162.722468
85.815787
76.833963
89.918971
107.067823
120.182633
132.040977
128.055811
116.157532
100.645423
76.331496
58.852434
39.598942
30.306578
21.195412
17.889738
15.448928
15.303493
15.325546
14.899969
14.449954
14.267564
14.839768
14.508963
13.313890
13.553500
12.789965
12.655854
11.759996
12.028813
11.600852
11.473894
10.823607
10.708570
9.996891
9.970665
9.270906
9.589791
9.435415
9.365678
9.909868
10.042787
10.545850
10.792613
11.045933
11.142492
11.058450
10.505915
10.124445
9.833574
8.919835
8.358955
7.825494
7.137656
6.963611
6.835461
6.854534
6.482601
6.253719
6.714463
6.219745
6.161928
6.364584
6.401539
6.517768
6.136894
6.498694
6.540418
6.157756
##ZVALUE=265
1.186728
1.214743
1.530647
1.392961
1.417994
1.439452
1.447797
1.701713
1.637936
1.747608
1.865625
2.043843
2.022982
2.427697
5.064607
27.100444
70.993900
192.723870
356.323719
691.230893
980.935693
1015.870571
1015.870571
1015.870571
1015.870571
1015.870571
999.692082
740.208030
406.621695
235.457420
130.543709
71.460605
69.640875
92.025995
110.818744
127.324462
132.654905
130.092502
119.507909
97.499490
80.907941
58.304667
43.896437
30.587912
23.781657
19.499660
17.424822
17.016530
16.433001
16.441941
16.109943
15.981793
14.997721
15.144944
14.130473
14.039874
13.165474
12.848973
12.344718
11.628866
11.352897
10.864735
10.745525
10.099411
9.963512
9.752512
9.760857
10.045767
10.349751
10.003448
10.405779
11.111498
10.822415
10.675788
10.142922
9.809732
9.150505
8.112788
7.920861
7.042885
7.142425
6.722808
6.599426
6.177425
6.103516
6.410480
6.279945
5.875826
6.018877
6.039739
5.860925
5.584955
5.935431
5.876422
5.945563
5.845428
##ZVALUE=270
1.266599
1.155734
1.272559
1.341701
1.200438
1.410842
1.348853
1.410842
1.397729
1.586676
1.601577
1.524687
1.832843
1.866817
2.033710
2.385974
2.660751
10.836720
36.473870
128.600001
265.326500
483.201742
887.814760
1015.871763
1015.871763
1015.871763
1015.871763
1015.871763
1015.871763
983.606577
677.960515
362.861753
193.371773
80.891848
57.885647
71.022511
89.707971
112.835765
126.205683
136.033893
135.003924
121.396780
106.631517
81.526637
65.032840
45.115948
35.004616
26.211739
22.647977
19.353628
18.902421
18.126965
17.304420
17.037988
16.417503
15.952587
15.268922
14.516711
13.946891
13.732910
12.838840
12.281537
11.880994
11.437535
11.460781
10.913610
10.742545
10.575652
10.730624
11.096597
11.217594
11.219978
11.033416
10.713935
10.267496
9.875894
9.302497
8.601546
7.622838
7.336736
7.264614
6.642938
6.342530
6.355643
6.171465
6.156564
6.068945
5.934834
5.518794
5.812645
5.714893
5.814433
5.425811
5.934834
5.881786
5.762577
##ZVALUE=275
1.295805
1.119971
1.146793
1.092553
1.244545
1.357794
1.293421
1.323819
1.253486
1.347661
1.403689
1.623631
1.631975
1.457930
1.710653
1.988411
1.988411
2.205968
2.370477
4.896522
19.695759
61.047673
196.883678
389.652848
764.678717
1015.870571
1015.870571
1015.870571
1015.870571
1015.870571
1015.870571
1015.870571
907.751918
486.157537
273.442864
110.796690
61.694980
53.371787
66.989660
90.865493
108.575821
127.838850
134.390593
133.143663
124.208927
103.244781
87.032914
65.512657
49.883723
35.732985
27.618408
21.849871
19.823909
17.655492
16.989708
16.224980
16.390681
15.073419
14.531612
14.210939
13.294816
12.792945
12.581944
11.704564
11.699796
11.080503
11.120439
10.642409
11.238456
10.952950
11.282563
11.235476
11.064410
10.674000
10.331869
9.724498
9.427667
8.577704
8.117557
7.405877
7.107854
6.391406
6.489754
6.488562
6.278753
5.958676
6.113648
5.837679
6.012917
5.785823
5.844831
5.712509
5.499721
5.557537
5.702972
5.468726
##ZVALUE=280
1.074672
1.173615
1.080632
1.083612
1.257658
1.201630
1.064539
1.169443
1.308918
1.242757
1.203418
1.247525
1.354814
1.489520
1.384616
1.582503
1.733899
1.864433
1.801848
2.270937
2.304912
2.760887
11.823773
43.040514
150.836706
291.854739
580.915809
881.209970
1015.870571
1015.870571
1015.870571
1015.870571
1015.870571
1015.870571
1015.870571
634.858012
380.963683
164.934993
80.034733
44.287443
47.817826
68.586469
85.805655
108.112693
122.295618
131.472945
129.369497
118.998885
104.851723
82.198977
63.958764
44.832826
34.169555
23.995638
19.463897
16.268492
14.793873
14.223456
13.289452
12.936592
12.755990
12.671947
12.170672
11.761785
11.246800
10.663867
10.852814
10.305643
10.413527
10.734797
10.377765
10.739565
10.564923
10.063648
9.929538
9.305477
8.373857
8.338690
7.626414
7.256866
7.106662
6.966591
6.818771
6.687641
6.457567
6.230474
6.247759
6.216764
5.773902
6.013513
6.074905
5.734563
5.738735
5.595684
5.761981
5.738735
##ZVALUE=285
1.092553
1.037717
1.153946
0.952482
1.099706
1.178980
1.121759
1.130700
1.183748
1.225471
1.433492
1.150966
1.139641
1.292825
1.304746
1.510978
1.517534
1.452565
1.690984
1.632571
1.793504
1.980662
2.383590
2.714992
6.509423
22.622943
85.744858
184.402466
420.026779
693.478584
990.550518
1015.870571
1015.870571
1015.870571
1015.870571
1015.870571
1015.870571
874.831676
469.970703
279.280543
55.387616
50.841570
34.208894
57.271719
59.332848
92.466474
99.287629
110.665560
122.087598
122.807622
112.984776
100.508928
79.466701
61.810613
42.238832
30.458570
20.090938
13.924837
12.342930
11.096597
10.994673
10.550618
10.598898
10.011792
9.839535
9.875894
9.462833
9.892583
9.530783
10.191798
10.152459
10.260940
9.947419
9.667873
9.147525
8.642673
8.219481
7.873774
7.532835
7.003546
6.933808
6.741881
6.628633
6.525517
6.100535
6.492734
6.386638
6.145835
6.016493
6.002784
5.872846
5.930662
5.973577
5.850792
5.709529
5.670786
##ZVALUE=290
0.974536
0.950694
0.968575
1.007915
1.199841
0.949502
1.192689
1.167655
1.006722
1.160502
1.221895
1.171827
1.193881
1.186728
1.392961
1.184940
1.446605
1.432896
1.368523
1.570582
1.819730
1.810789
1.916885
2.061725
2.340674
2.481937
4.454851
23.090839
109.185576
226.820707
462.889671
733.076930
1010.007858
1015.870571
1015.870571
1015.870571
1015.870571
1015.870571
1015.870571
1015.870571
755.484700
382.179618
193.266869
64.649582
30.238628
26.803613
35.440922
51.563978
67.138672
88.306665
102.170706
113.170743
115.767717
108.184814
95.066428
73.961616
57.038665
37.770867
27.278662
17.201900
13.428926
9.615421
9.081960
8.787513
8.415580
8.532405
8.231997
8.826852
8.806586
9.244680
9.363890
9.327531
9.208918
9.010434
8.748770
8.304715
7.876754
7.420778
7.277727
7.000566
6.733537
6.743670
6.574988
6.462932
6.440878
6.352663
6.410480
6.392598
6.247759
6.086826
6.207824
5.938411
6.075501
6.095767
6.059408
5.938411
##ZVALUE=295
1.059771
0.981688
0.910759
0.950694
0.969768
0.946522
1.098514
0.979900
1.114607
1.114607
0.986457
1.176000
1.094937
1.223683
1.097918
1.386404
1.468658
1.426935
1.323819
1.620650
1.726747
1.602769
1.662970
1.898408
2.024770
1.957417
2.384782
2.526641
2.894998
4.124641
18.400550
128.075480
309.377909
671.988726
985.292792
1015.871763
1015.871763
1015.871763
1015.871763
1015.871763
1015.871763
1015.871763
951.259732
518.923998
280.906558
95.896721
40.020943
18.713474
21.258593
32.743812
44.275522
63.421726
78.992844
96.956491
105.847716
107.255578
101.888776
87.175965
72.710514
52.845478
38.802624
24.146438
16.895533
11.072755
9.095669
7.577538
7.431507
7.647872
7.574558
8.166432
8.167624
8.270741
8.304715
8.114576
7.731915
7.645488
7.378459
7.139444
7.020831
6.750822
6.552935
6.381869
6.307960
6.091595
6.243587
6.124973
5.982518
5.921721
5.928874
6.001592
5.931854
5.805492
5.745888
5.749464
5.607605
5.463958
##ZVALUE=300
0.906587
0.981688
0.917912
1.008511
1.033545
0.999570
0.763535
0.937581
0.956655
0.920892
0.946522
0.978708
1.073480
1.106858
1.078844
1.123548
1.107454
1.327991
1.181960
1.351833
1.385808
1.247525
1.467466
1.575947
1.672506
1.706481
1.942515
1.907945
2.058744
2.243519
2.574921
2.807975
7.432699
30.274987
121.991634
260.502696
574.078560
909.327865
1015.871763
1015.871763
1015.871763
1015.871763
1015.871763
1015.871763
1015.871763
754.922628
387.457013
204.109550
66.624880
25.490522
14.491677
18.137693
27.779937
38.975477
56.720972
72.050691
90.280771
98.469853
102.219582
97.654462
85.871816
71.996450
52.159429
39.499998
24.932623
17.250776
10.821819
8.810759
7.616878
7.351637
7.350445
7.415414
7.354617
7.088780
7.260442
6.871819
6.430745
6.458759
6.463528
6.149411
6.274581
6.067753
5.993843
6.123781
5.838871
6.011724
5.893707
5.722642
5.778670
5.880594
5.697608
5.892515
5.886555
5.598664
5.713701
5.372763
##ZVALUE=305
0.743866
0.690818
0.915527
0.786781
0.745654
0.849962
0.787973
0.996590
0.835657
0.901818
0.929832
1.003742
1.022816
0.929832
0.919700
0.995994
1.102686
1.098514
1.212955
1.004934
1.140833
1.224875
1.275539
1.265407
1.560450
1.432896
1.452565
1.736879
1.841784
1.720786
1.992583
2.141595
2.326965
2.687573
4.383922
15.396476
73.328614
176.230669
430.773497
719.668865
1015.870571
1015.870571
1015.870571
1015.870571
1015.870571
1015.870571
1015.870571
909.297466
574.625731
317.263007
117.166638
45.349002
14.043450
12.490749
17.536879
24.184585
37.571788
50.864816
69.357753
81.201792
92.704892
97.151995
91.945529
83.711743
66.188574
52.602887
35.966635
25.444627
15.442967
11.301637
8.898973
7.799864
7.086992
6.721616
6.539822
6.461740
6.196499
6.092787
5.960464
6.028414
5.825758
5.662441
5.751848
5.894899
5.702972
5.813837
5.631447
5.609989
5.719662
5.755424
5.886555
5.578995
5.599856
5.348921
5.478859
5.226731
##ZVALUE=310
0.768900
0.852942
0.697970
0.615716
0.872612
0.946522
0.762939
0.860691
0.924468
0.817776
0.794530
0.796914
0.924468
0.873804
0.837445
1.032948
0.951886
1.006722
1.180768
0.975728
1.002550
1.266599
1.105666
1.163483
1.172423
1.375675
1.292825
1.431704
1.451969
1.605749
1.393557
1.768470
1.812577
2.013445
2.224445
2.589822
2.600551
7.929802
28.647780
113.094449
242.204666
544.781685
871.424675
1015.868783
1015.868783
1015.868783
1015.868783
1015.868783
1015.868783
1015.868783
785.291791
402.185917
210.698843
70.714951
24.672747
10.196567
11.369586
15.526414
21.140575
33.224821
44.562817
63.016415
75.321794
86.926818
90.936422
88.593960
80.252886
65.993667
52.858591
35.582781
25.893450
16.943812
11.888742
8.458495
7.118583
6.091595
5.790591
5.655885
5.857944
5.685687
5.426407
5.541444
5.493760
5.779862
5.535483
5.552769
5.462766
5.583763
5.675554
5.507469
5.438924
5.304813
5.504489
5.243421
5.332828
5.361438
##ZVALUE=315
0.864863
0.776649
0.710487
0.870824
0.900626
0.714660
0.962615
0.930429
0.942945
0.787973
0.836849
0.776649
0.983477
0.849962
0.975728
0.915527
0.893474
0.970960
0.994802
1.010895
0.947714
0.870824
1.082420
1.006722
1.194477
1.140833
1.292825
1.305938
1.251698
1.357794
1.577735
1.575947
1.696944
1.753569
1.814961
1.945496
2.295971
2.449751
2.622604
4.027486
13.061762
66.141486
163.094997
406.554937
706.851482
1015.876532
1015.876532
1015.876532
1015.876532
1015.876532
1015.876532
1015.876532
988.308787
559.870005
309.397578
110.972524
41.168928
11.925697
9.342432
10.557771
13.113618
20.537972
28.869510
42.224526
55.201650
71.476698
80.916882
85.813999
84.494948
74.634552
64.915419
49.495697
37.092566
23.616552
16.109943
10.421872
7.648468
6.238818
5.676746
5.373955
5.188584
5.438924
5.209446
5.230904
5.256534
5.142689
5.077720
5.294681
5.444884
5.408525
5.304813
5.248785
5.409718
5.370975
5.348921
5.429983
##ZVALUE=320
0.781417
0.906587
0.968575
0.790954
0.800490
0.894666
0.849962
0.837445
0.875592
0.871420
0.858903
0.794530
0.778437
0.864863
0.900626
1.085997
0.878572
0.871420
0.970960
0.919700
1.125932
1.224875
1.107454
1.178980
1.165867
1.173615
1.052618
1.277924
0.992417
1.339912
1.329780
1.471639
1.489520
1.543760
1.562834
1.667738
1.854897
1.742840
2.030730
2.283454
2.507567
2.780557
5.924702
34.292936
100.813508
296.618342
522.686839
934.577584
1015.916467
1015.916467
1015.916467
1015.916467
1015.916467
1015.916467
1015.916467
736.050010
427.269936
178.140998
75.069666
18.810630
9.554625
8.546710
9.536743
12.638569
17.222762
27.616620
37.519932
52.274466
64.141750
76.990724
81.275702
80.259442
74.193478
60.612559
47.854781
32.979846
23.505688
14.901757
10.381937
7.181764
5.953908
5.457997
5.467534
5.204678
5.360842
5.143881
5.309582
5.143881
5.197525
5.095601
5.210638
5.200505
5.317926
5.177855
5.315542
5.263686
##ZVALUE=325
0.771880
0.713468
0.620484
0.773668
0.718832
0.714660
0.648499
0.859499
0.622869
0.646710
0.731945
0.842810
0.623465
0.650883
0.861883
0.964999
0.844598
0.812411
0.914931
0.946522
0.870824
0.962615
1.004934
0.993609
0.932813
1.141429
1.051426
1.157522
1.090765
1.107454
1.097918
1.236796
1.216531
1.272559
1.180768
1.407862
1.426935
1.523495
1.588464
1.661777
1.827478
1.989603
2.107620
2.508759
3.539920
18.923879
61.324835
194.248557
374.421477
752.337575
1015.870571
1015.870571
1015.870571
1015.870571
1015.870571
1015.870571
1015.870571
893.775821
559.394956
252.813697
114.773512
29.166937
11.145473
7.661581
7.777810
8.726716
11.218786
17.784834
25.379658
37.861466
48.341751
62.929988
70.740581
76.348782
74.498653
66.389441
56.658983
42.686462
31.868815
20.618439
14.084578
9.023547
6.776452
5.845428
5.223751
5.095601
4.813671
5.159974
4.949570
4.943609
4.963875
5.033612
4.973412
4.987717
5.190969
5.274415
##ZVALUE=330
0.743866
0.657439
0.658631
0.758767
0.739694
0.608563
0.622869
0.683665
0.810623
0.679493
0.775456
0.586510
0.708699
0.878572
0.767708
0.903606
0.754595
0.698566
0.756979
0.831485
0.674725
0.851750
0.837445
0.926852
0.975728
1.037717
0.970960
0.995994
1.061559
1.030564
1.268983
1.060963
1.113415
1.181960
1.189709
1.261830
1.300573
1.466870
1.340508
1.458526
1.477599
1.822710
1.798868
2.016425
2.052784
2.328753
2.788901
7.923841
28.327703
114.093423
245.663524
554.234982
886.420012
1015.870571
1015.870571
1015.870571
1015.870571
1015.870571
1015.870571
1015.870571
721.443892
340.989828
171.101689
55.068731
18.220544
7.622838
7.281899
7.304549
8.212924
11.637807
15.695691
23.943782
33.225417
47.025681
57.035685
66.940784
70.437789
69.038868
63.752532
51.602721
40.984750
28.264523
20.614862
13.730526
9.990931
7.030964
5.772710
5.322695
5.021691
4.898906
4.829764
5.161762
5.243421
5.367994
5.438924
5.495548
##ZVALUE=335
0.669956
0.636578
0.724792
0.647902
0.688434
0.718832
0.782609
0.859499
0.688434
0.728965
0.762939
0.677705
0.773668
0.769496
0.861883
0.661612
0.803471
0.772476
0.783801
0.782609
0.867844
0.796914
0.767708
0.836849
0.896454
0.941753
0.947714
0.928640
0.961423
1.040697
0.981688
0.953674
1.031756
1.055598
1.098514
1.083612
1.186728
1.415610
1.283884
1.243949
1.367927
1.320839
1.533628
1.614690
1.599789
1.866817
1.988411
2.144575
2.426505
4.115701
13.287663
64.429641
154.645443
393.622518
687.856674
1015.870571
1015.870571
1015.870571
1015.870571
1015.870571
1015.870571
1015.870571
906.434655
489.531755
257.016420
83.688498
29.394627
9.078979
7.294416
6.656647
7.186532
8.257627
10.037422
15.578866
21.423697
32.250881
41.528940
53.889751
60.856938
66.000819
64.622760
58.186650
50.361753
38.793683
30.080676
20.364523
14.812946
9.796619
7.380843
5.927682
5.478859
5.309582
5.497932
5.637407
5.902648
5.992651
##ZVALUE=340
0.568628
0.650883
0.582933
0.667572
0.760555
0.642538
0.839829
0.756979
0.777841
0.721812
0.577569
0.771880
0.703931
0.626445
0.770688
0.700951
0.749826
0.771880
0.810623
0.841618
0.827909
0.775456
0.890493
0.782609
0.808835
0.865459
0.969768
0.897646
0.971556
1.007915
0.892878
0.938773
0.828505
1.014471
1.105666
1.018643
1.161695
1.118779
1.074672
1.227856
1.176596
1.164675
1.431704
1.280904
1.462698
1.531839
1.536608
1.643896
2.061725
2.099872
2.314448
2.748966
8.128881
31.120777
122.669935
261.657834
581.753850
912.020802
1015.870571
1015.870571
1015.870571
1015.870571
1015.870571
1015.870571
988.969803
663.571954
311.240554
148.036480
37.726760
12.027621
7.630587
6.971955
6.886721
6.903410
7.421970
9.335876
13.938546
20.238757
30.543804
39.575696
50.221682
57.573915
61.017871
61.001778
55.662990
48.605800
38.509965
30.545592
20.170808
14.874935
10.045767
8.023977
6.748438
6.701946
6.799698
6.871819
##ZVALUE=345
0.720620
0.693798
0.505447
0.613928
0.703931
0.589490
0.646710
0.608563
0.644922
0.655651
0.572801
0.661612
0.883937
0.716448
0.686646
0.722408
0.626445
0.873804
0.834465
0.771880
0.646710
0.770688
0.794530
0.702739
0.821948
0.777841
0.949502
0.866652
0.952482
1.027584
0.835657
1.061559
1.024604
0.908971
0.926852
0.975728
0.904799
1.034737
1.114607
1.029968
1.019835
1.135468
1.248717
1.275539
1.343489
1.378655
1.470447
1.471639
1.550913
1.777411
1.709461
2.011657
2.187490
2.406836
3.879666
14.399886
72.512627
167.499781
404.092669
676.440001
1015.870571
1015.870571
1015.870571
1015.870571
1015.870571
1015.870571
1015.870571
843.204856
404.824615
198.690891
60.257912
21.311641
8.532405
7.511973
6.736517
6.254911
6.028414
6.511807
8.960962
12.246966
19.407868
26.114583
36.027431
43.643713
51.869750
55.724978
56.528449
54.094791
46.006441
38.994551
29.156804
21.943450
15.429854
12.019873
9.444952
8.561611
##ZVALUE=350
0.629425
0.734925
0.659823
0.596642
0.780821
0.775456
0.636578
0.656843
0.684857
0.574589
0.680685
0.735521
0.838637
0.719428
0.719428
0.818968
0.768900
0.702739
0.629425
0.769496
0.745654
0.808835
0.866652
0.739694
0.883937
0.683665
0.946522
0.705719
0.850558
0.772476
0.898838
0.817776
0.934601
0.912547
0.962615
0.836849
0.992417
1.089573
0.912547
1.051426
1.046658
0.949502
0.939965
1.126528
1.089573
1.147985
1.317859
1.323819
1.337528
1.509786
1.429915
1.556873
1.742840
1.849532
1.895428
2.261996
2.567768
8.626580
31.679869
118.887424
253.049731
569.337606
887.802839
1015.870571
1015.870571
1015.870571
1015.870571
1015.870571
1015.870571
908.137560
576.166511
267.821550
120.364428
29.174685
10.269880
6.824732
6.037951
5.360842
5.117655
5.141497
5.939603
8.190870
11.170506
16.355515
22.451878
31.812787
39.115548
47.654510
51.059723
52.392483
50.342679
44.714808
38.473606
29.161572
23.619533
17.020702
##ZVALUE=355
0.638962
0.651479
0.669956
0.569820
0.618696
0.661612
0.656843
0.781417
0.725985
0.659823
0.605583
0.495911
0.624657
0.716448
0.752807
0.592470
0.782609
0.817776
0.799894
0.751615
0.733733
0.695586
0.787973
0.686646
0.856519
0.824928
0.786781
0.918508
0.989437
0.967979
1.139641
0.831485
0.748634
0.969768
0.795722
0.995994
0.959635
0.914931
1.058578
0.970960
0.978708
1.013875
0.960827
1.075864
1.107454
1.126528
1.047850
1.209974
1.239777
1.296997
1.413822
1.537800
1.604557
1.621842
1.586676
1.815557
1.875758
2.270937
2.450943
4.501939
15.319586
72.275400
165.226460
394.128561
668.818951
1015.864015
1015.864015
1015.864015
1015.864015
1015.864015
1015.864015
1007.379889
701.913834
324.675441
155.694485
43.095946
13.703704
6.397963
5.903840
5.351901
5.135536
4.838705
5.046725
5.826950
6.971955
10.213852
14.009476
21.123886
27.324557
35.702586
41.982532
47.691464
49.349666
48.139691
44.449568
37.353635
##ZVALUE=360
0.713468
0.551939
0.800490
0.684857
0.799894
0.705719
0.762939
0.729561
0.768900
0.605583
0.825524
0.703931
0.785589
0.618696
0.605583
0.731945
0.743866
0.721812
0.775456
0.875592
0.645518
0.916719
0.750422
0.685453
0.951886
0.790954
0.909567
0.908971
0.785589
0.867844
0.854731
0.859499
0.922680
0.943542
0.870824
0.922680
0.916719
0.830889
0.963807
1.001954
0.856519
1.061559
1.139641
1.027584
1.180768
1.160502
1.218915
1.193881
1.141429
1.416802
1.326799
1.267791
1.295805
1.445413
1.467466
1.620650
1.673698
1.902580
2.018809
2.099872
2.537966
3.035665
6.548762
33.033490
93.007684
267.095566
484.931469
878.702998
1015.871763
1015.871763
1015.871763
1015.871763
1015.871763
1015.871763
843.926668
431.247950
227.795839
81.044436
27.257800
7.461905
5.778670
5.312562
4.948974
4.732609
4.764795
4.615784
4.865527
6.120801
8.057952
11.897683
16.562939
24.132729
30.028820
38.175583
42.546988
44.975877
##ZVALUE=365
0.789762
0.626445
0.659823
0.688434
0.637770
0.643730
0.722408
0.700951
0.667572
0.658631
0.642538
0.682473
0.729561
0.630617
0.625849
0.754595
0.849962
0.597835
0.739694
0.782609
0.725985
0.800490
0.629425
0.693798
0.722408
0.642538
0.828505
0.941753
0.782609
0.873804
0.817776
0.762939
0.787973
0.903606
0.925660
0.907779
0.869632
0.956655
1.016855
1.030564
1.057982
1.130700
1.064539
1.020432
1.149774
1.011491
1.225471
1.181960
1.205802
1.184940
1.229644
1.169443
1.239777
1.335740
1.434684
1.566410
1.410842
1.475811
1.643896
1.727939
2.003908
1.965761
2.203584
2.604723
3.577471
17.122626
54.466724
170.997977
349.162817
724.211931
1007.095575
1015.890837
1015.890837
1015.890837
1015.890837
1015.890837
983.121991
584.087968
323.408842
115.951896
42.527914
9.472966
5.719662
5.172491
4.785657
4.380941
4.330873
4.219413
4.149675
4.660487
5.392432
7.428527
10.110736
15.097857
19.869804
26.765466
##ZVALUE=370
0.620484
0.579953
0.548959
0.600815
0.770688
0.678897
0.706911
0.576973
0.773668
0.631809
0.759959
0.695586
0.581741
0.823736
0.689626
0.655651
0.765920
0.584722
0.718832
0.618696
0.638962
0.780821
0.759959
0.763535
0.738502
0.782609
0.847578
0.948906
0.860691
0.889897
0.775456
0.768900
0.809431
0.933409
0.765920
0.926852
0.861883
0.805855
0.823736
0.985861
0.793934
0.944734
0.745654
0.966787
0.979900
0.979900
0.912547
1.032948
1.087785
0.986457
1.109838
1.146793
1.127720
1.191497
1.201630
1.227856
1.302958
1.369715
1.429915
1.362562
1.515746
1.730919
1.796484
1.763701
2.000928
2.310872
2.765656
6.949902
40.017962
112.200975
305.862427
528.181791
929.186940
1015.871763
1015.871763
1015.871763
1015.871763
1015.871763
1015.871763
753.825903
368.660688
191.820860
68.134665
24.286509
6.533861
4.890561
4.710555
4.610419
4.424453
4.122853
4.266500
4.236698
4.744530
5.390644
6.677508
8.917451
##ZVALUE=375
0.528693
0.616908
0.558496
0.558496
0.626445
0.593662
0.681877
0.438690
0.548959
0.642538
0.701547
0.644922
0.581741
0.628829
0.473857
0.700951
0.690818
0.694990
0.740886
0.744462
0.873804
0.711679
0.724792
0.630617
0.862479
0.702739
0.699759
0.588894
0.747442
0.760555
0.699759
0.664592
0.785589
0.807643
0.972748
0.755787
0.821948
0.918508
0.843406
0.634789
0.881553
0.968575
0.924468
0.802875
0.848770
0.821948
0.906587
0.934601
0.883937
0.883937
1.111627
0.836849
0.993609
0.931621
1.071692
1.002550
1.054406
1.180768
1.238585
1.147985
1.323819
1.147985
1.443624
1.296997
1.653433
1.671910
1.752973
2.061725
2.676845
4.112720
20.572543
59.555769
183.107853
367.767811
743.341446
1015.870571
1015.870571
1015.870571
1015.870571
1015.870571
1015.870571
945.188999
556.657910
321.692824
125.278831
49.704909
11.006594
5.485415
4.534721
4.656911
4.463792
4.369617
4.553795
4.335642
4.347563
4.603863
##ZVALUE=380
0.568628
0.592470
0.558496
0.460744
0.633597
0.534654
0.569820
0.536442
0.640750
0.468493
0.559688
0.426769
0.626445
0.755787
0.582933
0.692606
0.488758
0.459552
0.567436
0.535846
0.663996
0.530481
0.607967
0.659823
0.810623
0.720620
0.769496
0.769496
0.872612
0.818968
0.883937
0.866652
0.874996
0.797510
0.770688
0.796914
0.732541
0.871420
0.723600
0.862479
0.739694
0.853539
0.777841
0.767708
0.843406
0.814795
0.975728
0.817776
0.911951
0.794530
0.818968
0.818968
1.003742
0.820756
0.983477
1.086593
0.975728
1.075864
0.973940
0.938773
1.195669
1.179576
1.148582
1.327991
1.324415
1.584888
1.583695
1.885891
2.106428
2.191663
2.525449
3.196597
7.708669
42.458773
114.425421
310.687423
546.678901
947.307944
1015.867591
1015.867591
1015.867591
1015.867591
1015.867591
1015.867591
785.311460
411.566496
218.112469
74.171424
26.311874
6.924868
4.842877
4.889965
4.741549
4.686713
4.790425
4.381537
##ZVALUE=385
0.477433
0.493526
0.573993
0.528693
0.370741
0.496507
0.479817
0.557899
0.428557
0.635982
0.484586
0.558496
0.578761
0.657439
0.445843
0.518560
0.607967
0.568628
0.604987
0.579953
0.576973
0.580549
0.543594
0.556707
0.580549
0.726581
0.707507
0.809431
0.728965
0.895858
0.814795
0.902414
0.900626
0.993609
0.889897
0.913739
0.936985
0.853539
0.838637
0.821948
0.871420
0.884533
0.989437
0.779629
0.931621
0.766516
0.817776
0.981688
0.788569
0.907779
0.926852
0.959635
0.983477
0.946522
0.840425
0.949502
1.100898
0.952482
1.040697
1.029968
0.974536
1.099706
1.050830
1.158714
1.308918
1.347661
1.482964
1.606941
1.734495
1.870990
2.145767
2.030730
2.161860
2.330542
3.860593
21.337867
64.588785
195.226669
386.253595
767.990947
1015.871763
1015.871763
1015.871763
1015.871763
1015.871763
1015.871763
981.115103
591.865778
351.188779
146.789551
57.333708
12.032986
5.747676
4.801750
4.608631
4.623532
##ZVALUE=390
0.537634
0.504851
0.499487
0.521541
0.490546
0.558496
0.269413
0.245571
0.347495
0.497699
0.430942
0.581741
0.576973
0.469685
0.593662
0.602603
0.472665
0.459552
0.421405
0.442863
0.425577
0.560880
0.529885
0.536442
0.553727
0.686646
0.549555
0.646710
0.749826
0.673532
0.759959
0.792742
1.076460
0.889897
0.958443
0.888705
0.797510
0.894666
0.869632
0.897646
0.864863
0.926852
0.922680
0.918508
1.037717
0.877976
0.994802
0.939965
0.804663
0.865459
0.863671
0.906587
0.894666
0.772476
0.882745
0.806451
0.978708
0.762939
0.836849
1.007915
0.987649
1.121759
0.953674
1.030564
1.217723
1.272559
1.274943
1.496673
1.728535
1.652837
1.835823
1.628995
1.772642
1.888871
1.775622
2.044439
2.434850
9.794831
36.939979
138.379931
294.152498
627.400875
928.382874
1015.776992
1015.776992
1015.776992
1015.776992
1015.776992
1015.776992
811.027884
500.246882
215.040445
97.330809
23.378730
7.835627
4.902482
##ZVALUE=395
0.530481
0.476837
0.440478
0.442863
0.495911
0.490546
0.507832
0.468493
0.487566
0.543594
0.635982
0.524521
0.348687
0.636578
0.377893
0.434518
0.699759
0.558496
0.487566
0.579953
0.486970
0.531673
0.618696
0.505447
0.751615
0.670552
0.603795
0.691414
0.753999
0.745654
0.802875
0.770688
0.867844
0.758767
0.955462
0.962615
1.097918
1.020432
1.034737
1.009703
0.915527
0.969768
0.998974
0.861883
0.886917
0.887513
0.982881
0.997782
0.896454
0.976920
1.148582
0.871420
0.928640
0.760555
0.840425
0.983477
0.910759
0.940561
0.976920
1.066923
0.970960
1.211762
1.046658
1.011491
1.174808
1.329780
1.330972
1.425743
1.516938
1.622438
1.589656
1.719594
1.722574
1.675487
1.487732
1.703501
1.759529
1.930594
2.273917
5.693436
22.562742
96.858740
204.342604
441.414714
709.017515
1015.847921
1015.847921
1015.847921
1015.847921
1015.847921
1015.847921
957.412720
630.455613
296.026468
144.987702
45.693517
##ZVALUE=400
0.494719
0.542998
0.633597
0.519753
0.485778
0.612736
0.469685
0.436902
0.447631
0.389814
0.503659
0.574589
0.546575
0.540614
0.429749
0.475645
0.547767
0.526905
0.440478
0.494719
0.545979
0.585914
0.522733
0.700951
0.634789
0.648499
0.864863
0.835657
0.758767
0.888705
0.863671
0.812411
0.844598
1.009703
1.031756
1.110435
0.927448
1.074672
0.970960
1.108646
0.804663
0.952482
0.918508
1.074672
0.913739
0.991821
0.948906
1.040697
1.092553
0.970960
1.056790
1.125932
0.968575
0.870824
0.925660
0.935793
0.871420
0.861883
0.803471
1.069903
1.009703
1.020432
1.080632
1.157522
1.274943
1.315475
1.437664
1.453757
1.688600
1.573563
1.593828
1.525879
1.445413
1.415610
1.302958
1.446605
1.439452
1.594424
1.588464
1.770854
2.072453
2.731681
11.744499
40.048957
137.785673
282.737613
596.318841
897.473693
1015.845537
1015.845537
1015.845537
1015.845537
1015.845537
1015.845537
736.365914
466.485620
##END
