##TITLE=C510_R5
##FORMAT=SPECTACLE-ASCII V-1.2
##DATA TYPE=ULTRAVIOLET SPECTRUM
##SECOND TYPE=ULTRAVIOLET SPECTRUM
##DATE=05/28/18
##TIME=12:17:44
##SPECTROMETER/DATA SYSTEM=SPECTACLE
##XUNITS=NM EM
##YUNITS=ENERGY
##YFACTOR=1
##FIRSTX=220
##LASTX=410
##NPOINTS=96
##3DDATA=Equidistant
##ZUNITS=NM EX
##FIRSTZ=210
##LASTZ=400
##ZPOINTS=39
##XYDATA=(Y..Y)
##ZVALUE=210
55.189729
51.170588
39.875507
30.446649
27.586818
20.647645
21.075606
16.157627
13.794899
11.663437
9.003878
8.216500
7.845759
8.010864
8.027554
7.988811
7.919669
9.810925
9.973645
11.282563
10.956526
11.721849
13.354421
15.366673
19.007921
19.353628
21.855831
22.962689
26.154518
28.032660
31.329989
31.098723
33.007860
32.714605
33.627748
33.900738
35.452843
32.866597
34.922957
34.359694
33.252835
34.040809
34.179688
33.168793
33.550858
33.004880
31.798482
32.405853
33.197999
32.323599
33.854842
30.380487
31.852722
32.623410
32.413602
33.322573
31.674504
32.595992
30.020475
28.448701
27.919412
29.647946
30.247569
31.274557
32.371879
37.220716
39.683580
46.757460
55.945516
63.769817
71.921945
81.918836
87.022781
90.157986
90.920925
91.850758
89.839697
81.666708
75.684786
65.693855
54.167509
48.205853
39.661527
35.167933
30.064583
28.196573
26.377439
24.818778
28.448701
34.782887
47.710538
63.589811
94.208717
120.529532
159.783959
194.004774
##ZVALUE=215
202.481747
198.633671
154.807568
106.125474
72.913766
52.778721
43.233633
35.120845
34.187436
28.569698
24.347901
20.265579
13.491511
11.562705
10.307431
8.444786
9.019971
8.628964
8.870959
9.980798
10.513663
12.497902
12.460947
15.723705
17.457604
21.182895
21.778941
23.531914
25.566816
28.355718
29.981732
33.722520
32.214522
34.741759
33.437610
35.368800
34.187436
35.634637
36.234856
36.955476
35.638809
36.573410
37.050843
33.389926
34.399629
34.334660
33.500791
36.417842
34.732819
35.219789
34.256577
32.986999
34.820437
34.250617
32.906532
34.204721
33.755898
34.126639
33.668876
30.940771
30.366778
30.967593
30.539632
32.253861
32.075644
35.680532
38.378835
42.969584
46.843886
54.838657
60.326457
65.986514
70.581436
75.041652
73.518753
73.408484
68.957806
62.211752
58.235526
53.532720
46.580434
39.742589
34.352541
31.567812
28.096437
25.750995
24.391413
23.494959
22.912621
21.530986
22.367835
24.180412
23.256540
29.747486
38.153529
58.965683
##ZVALUE=220
441.913009
436.396003
406.428576
343.378782
275.132656
187.871456
134.951472
84.896684
64.933896
54.066777
50.971508
47.025681
39.677620
34.957528
24.395585
18.276572
14.282465
11.283755
9.819865
8.951426
9.654760
10.723472
12.140870
12.431741
13.193488
15.783906
16.433597
18.534660
20.088553
21.060705
23.362637
26.747584
26.464462
27.111769
28.242469
29.844642
30.725598
33.148527
31.977892
33.250451
33.977628
34.027696
33.216476
34.304857
33.765435
31.581521
34.077764
34.677982
34.187436
34.605861
33.036470
34.137964
34.979582
36.411881
34.966469
34.512877
33.387542
33.234954
33.533573
32.400489
32.948852
31.698942
32.312870
32.709837
32.753944
33.061504
34.772754
38.688779
42.353868
46.882629
53.349733
54.472685
59.844851
60.730577
60.527921
56.206584
55.303574
49.026608
46.192408
40.122867
36.576986
31.983852
29.102564
27.059913
23.488998
23.099780
21.431446
19.801855
20.376444
21.275878
19.561648
19.090772
20.319819
18.934608
20.318627
20.017624
##ZVALUE=225
492.780805
504.272580
600.184798
654.654503
632.663965
549.086928
460.291505
310.534835
215.907693
147.824883
90.862513
74.127913
66.000819
65.303445
59.678555
51.958561
38.539767
31.425953
23.319721
17.568469
13.507605
10.384917
10.336637
11.407733
11.827946
12.523532
12.965798
14.386773
15.848875
16.142726
16.754866
18.049479
21.432638
21.161437
24.713874
25.542974
27.215481
28.693676
29.463768
31.103492
31.731725
31.869411
32.292604
33.762455
33.841729
32.135844
33.089519
33.625960
33.566952
34.186840
32.707453
34.855604
34.397840
32.898784
33.651590
33.471584
31.752586
31.848550
31.137466
31.718612
31.053424
30.887723
29.955506
31.238794
31.630993
31.215549
33.117533
35.097599
39.164424
40.601492
45.901537
47.609806
49.078465
51.554441
51.016808
49.062967
46.931505
41.035414
37.311912
34.548640
29.207468
28.273463
25.256872
22.659898
21.861792
21.490455
18.717647
19.615889
19.322634
19.417405
17.947555
18.197894
18.300414
17.852783
17.798543
18.556714
##ZVALUE=230
276.865959
295.973420
448.325872
669.185519
824.323893
934.841633
938.127637
860.403776
722.157955
560.564995
340.852737
222.316980
130.585432
100.060701
88.980794
83.966851
84.465742
75.173974
128.697753
53.873658
39.484501
26.619434
18.466711
13.222694
10.591745
10.979772
11.472702
11.949539
11.919737
13.022423
14.334917
15.513897
16.275644
17.469525
19.055605
20.897985
22.380948
23.937821
24.884939
26.915669
28.052926
28.974414
28.936863
31.165481
29.944777
30.155778
30.025840
28.893948
30.572414
30.555725
29.544830
29.917955
29.689670
29.992461
30.090809
28.913617
28.264523
29.267669
28.566718
28.694868
27.875900
28.402805
27.691722
28.512478
27.520657
29.481649
30.920506
32.514930
34.538507
38.200617
40.449500
42.772889
43.785572
43.676496
43.178797
41.316748
38.382411
35.858750
31.015873
29.818416
25.844574
23.703575
22.783875
21.811724
20.124912
19.568801
19.334555
19.096732
17.727613
17.310977
17.411709
17.429590
17.393827
16.395450
16.133785
16.596913
##ZVALUE=235
55.705905
65.094829
141.080618
321.800709
509.955883
786.090493
996.574759
1015.870571
1015.870571
1015.870571
1010.866761
812.058449
514.257550
339.567661
196.497440
136.773586
104.936957
104.546547
108.792782
103.527904
89.738965
77.143908
54.800510
40.909648
26.941895
19.804835
15.436411
11.772513
11.215806
11.139512
11.467934
12.452602
13.685822
14.257431
15.934706
16.611814
17.783642
19.125938
19.717813
20.723939
21.227598
21.937490
22.954941
23.028851
23.419857
23.458600
23.404956
23.327470
24.211407
23.407936
22.635460
22.523999
23.999810
23.513436
23.798943
23.417473
22.143722
22.731423
22.014976
22.550821
22.098422
23.163557
22.701621
21.568537
23.160577
23.662448
26.711822
26.889443
28.018951
32.943487
34.008622
34.706593
35.715699
36.971569
35.418868
33.058524
31.092763
29.117465
25.805831
24.694800
21.891594
20.459890
18.790960
17.640591
17.037988
16.721487
17.151833
16.786456
16.604662
16.022921
16.375780
16.538501
14.826655
16.103983
15.857816
14.505982
##ZVALUE=240
3.450513
3.350973
11.908412
53.311586
124.313831
288.139582
486.668944
830.614567
1015.870571
1015.870571
1015.870571
1015.870571
1015.870571
1015.870571
779.107809
517.606735
278.086662
177.087784
116.014481
106.878877
113.257766
115.861893
112.911463
94.807744
80.940723
57.936907
43.760538
30.286908
20.519495
15.397668
12.543797
11.724830
11.832714
12.482405
13.508797
13.808608
13.917685
15.165806
15.985966
15.850663
17.075539
17.729998
18.169880
18.222928
18.290877
18.381476
18.450618
19.450784
18.926859
18.816590
18.673539
18.216968
17.715693
18.871427
18.048882
17.549992
17.100573
18.763542
17.975569
17.021894
16.794801
17.423630
17.656684
18.959641
17.866492
19.148588
20.425916
21.682978
23.761988
25.782585
27.306676
28.441548
30.170679
30.758977
29.085875
28.231740
26.348829
23.382902
22.003651
21.022558
19.784570
17.849803
16.794801
15.762448
16.140938
15.087724
14.691949
15.023947
14.816523
13.921857
14.460683
14.104843
13.261437
13.869405
14.004707
14.355779
##ZVALUE=245
2.361536
2.556443
2.789497
2.839565
8.093715
24.830699
97.425580
211.006999
479.244590
744.074583
1015.870571
1015.870571
1015.870571
1015.870571
1015.870571
1015.870571
1015.870571
716.888905
464.074612
237.638950
148.676634
107.810497
108.441710
116.629601
119.816661
113.610625
100.783706
85.346699
63.703656
47.454834
35.688877
23.731589
17.463565
14.144778
12.773871
13.090968
13.130903
13.440847
14.095902
13.595819
14.227629
14.711618
14.996529
14.567971
15.061498
15.615821
14.610887
15.144944
15.176535
15.522838
15.590787
15.044808
15.574694
14.821887
14.787912
15.343428
14.439821
14.949441
14.198422
14.521480
14.513731
13.908744
14.513731
14.205575
15.065670
15.308857
15.652776
17.366409
18.255711
20.283461
21.598935
23.705959
24.252534
24.610758
23.751855
21.855831
21.894574
19.863844
17.599463
15.945435
14.658570
14.111996
13.238788
12.411475
12.662411
12.466908
12.064576
12.249947
11.607409
12.002587
11.907816
12.175441
11.987686
11.718869
12.165904
12.054443
##ZVALUE=250
1.951456
2.006888
2.112985
2.191663
2.500415
2.913475
4.331470
13.978481
66.929460
156.100988
389.751792
655.549765
966.686606
1015.864611
1015.864611
1015.864611
1015.864611
1015.864611
1015.864611
938.405991
625.670552
381.384492
186.004639
117.203593
96.284747
106.825829
120.301843
124.110579
119.384527
109.001994
93.683600
71.464777
54.045916
34.457445
25.201440
18.085837
15.223622
13.545752
13.166666
13.112426
13.776422
14.395714
13.938546
14.006495
13.971925
14.063716
13.754964
13.990998
14.533997
14.321804
14.079809
14.545918
13.864636
13.687611
13.543963
13.473630
13.144612
12.592673
12.552738
12.800694
13.014674
12.576580
12.241602
12.780428
13.071895
13.847947
14.501810
15.150905
15.703440
17.709732
18.724799
19.531846
19.522905
20.616651
20.039678
18.837452
17.418861
15.795827
14.556646
13.169646
12.483597
11.708736
11.094809
11.051893
10.740757
10.245442
10.254979
10.299683
10.172725
9.891987
10.079741
10.788441
9.974837
10.013580
9.808540
9.817481
##ZVALUE=255
1.805425
1.856685
2.124906
2.108812
2.312660
2.176762
2.223849
2.670884
3.456473
7.345676
41.666627
110.478997
235.556960
530.620813
836.529732
1015.870571
1015.870571
1015.870571
1015.870571
1015.870571
1015.870571
1015.870571
827.480555
508.158803
237.889886
139.220953
90.249777
90.817809
109.297633
122.575760
126.696825
124.110579
113.743544
93.435645
74.995756
52.785873
38.716793
25.199652
19.414425
15.853643
15.074611
15.365481
14.845729
14.938712
14.940500
15.117526
14.190674
14.934540
15.134811
13.875961
14.604926
14.360547
14.176965
13.401508
13.625622
13.163686
12.929440
12.976527
12.893677
12.994409
12.329817
12.012720
12.254715
12.289882
11.934638
12.001991
13.253689
13.399720
14.395714
15.526414
15.273690
17.290711
17.241836
16.741753
15.736818
15.530586
14.000535
13.350844
12.162924
10.961890
10.655522
10.323524
9.733438
9.373426
8.865595
9.015799
9.079576
8.552670
8.973479
9.226799
8.963943
8.591413
8.368492
8.858442
8.918643
8.683801
##ZVALUE=260
1.725554
1.722574
1.739860
1.832843
1.999736
2.073646
2.080798
2.238750
2.418756
2.545714
3.072619
4.393458
13.683438
65.415502
158.108473
400.702357
679.335594
1015.854478
1015.854478
1015.854478
1015.854478
1015.854478
1015.854478
1015.854478
1015.854478
785.717964
420.430899
234.939456
108.648539
81.332922
85.042715
107.972622
122.737885
131.353736
129.632950
116.762519
101.135969
77.024698
58.472753
41.001439
30.853748
23.026466
19.714832
17.434955
17.432570
16.985536
17.275810
17.223954
17.396808
16.131997
16.811490
15.942454
15.981793
15.556812
15.680790
14.848709
14.568567
13.898611
13.851523
13.285875
13.011694
12.567639
12.880564
12.537837
13.011694
12.885928
13.175607
13.131499
13.954639
14.499426
15.658736
16.103983
16.196966
15.883446
15.171766
14.214516
13.350844
12.556911
11.344552
11.151433
9.563565
9.551644
9.327531
9.085536
8.806586
8.747578
8.425713
8.170605
8.048415
8.054972
8.010864
8.011460
7.852912
7.856488
8.212924
8.038878
##ZVALUE=265
1.537800
1.531839
1.866817
1.873970
1.671910
1.965761
1.850724
1.942515
2.217889
2.200603
2.486706
2.684593
2.866983
3.248453
7.335544
41.964650
111.911893
299.566984
549.412966
1000.452638
1015.870571
1015.870571
1015.870571
1015.870571
1015.870571
1015.870571
1015.870571
1015.870571
604.627728
342.196822
181.210637
83.988905
73.474646
92.799664
110.813975
130.184889
135.644674
132.155418
120.764971
102.028847
83.928704
61.039925
47.167540
34.007430
27.029514
22.808909
21.335483
19.873977
19.937754
19.689798
18.774867
19.336939
18.678904
18.096566
18.346906
17.560720
16.307831
15.766621
15.769601
15.298724
14.841557
14.397502
13.933778
13.739467
13.737679
13.693571
14.107823
14.256835
14.737844
15.925765
15.681982
16.367435
16.532540
16.117692
14.840961
13.807416
13.506413
12.806654
11.236668
10.189414
9.874701
9.424686
9.134412
8.705854
8.431673
8.407831
8.222461
8.413792
7.865429
8.001924
7.900000
7.611513
7.623434
7.744431
7.922649
7.621646
##ZVALUE=270
1.613498
1.700521
1.440644
1.590848
1.677871
1.690984
1.763701
1.872778
1.861453
2.048612
2.035499
2.151728
2.230406
2.596974
2.808571
3.059506
4.466772
13.458729
68.460703
171.732903
449.537039
795.217752
1015.870571
1015.870571
1015.870571
1015.870571
1015.870571
1015.870571
1015.870571
1015.870571
973.134041
503.655672
270.642638
109.268427
67.493916
72.804689
90.606809
116.007924
128.953457
138.638616
137.533545
125.571489
110.719800
86.918473
67.637563
48.407912
37.272573
30.045509
26.380420
23.042560
22.525787
21.241903
20.902753
20.317435
20.107627
18.905997
18.297434
18.639565
17.201900
17.134547
16.554594
15.722513
15.231967
14.894605
14.967918
14.626980
14.740825
14.366508
15.318990
15.546679
15.686750
16.089678
16.132593
15.892982
15.047789
14.262795
12.903810
12.312531
11.484623
10.556579
9.832978
9.460449
9.338856
8.960962
8.640885
8.317828
8.293986
8.010864
7.912517
7.824898
7.895827
7.804632
7.344484
7.363558
7.516742
7.412434
##ZVALUE=275
1.429915
1.395941
1.287460
1.326799
1.615882
1.506805
1.611710
1.459718
1.746416
1.880527
1.824498
1.801848
2.161860
2.051592
2.299547
2.579689
2.524853
2.951622
3.490448
7.092953
29.142499
94.450712
305.850506
606.694818
1015.870571
1015.870571
1015.870571
1015.870571
1015.870571
1015.870571
1015.870571
1015.870571
1015.870571
762.556791
431.452990
167.670846
82.151890
58.015585
70.315599
93.745589
113.300681
129.807591
137.902498
135.733485
127.373934
107.754469
89.965463
68.891644
53.857565
38.431883
31.811595
24.944544
22.993684
21.278858
20.713806
19.438863
19.275546
18.509626
18.089414
17.565489
17.355680
16.293526
16.228557
15.192628
15.238523
15.130639
14.595985
15.358925
15.106797
15.776753
16.469955
16.293526
16.067624
16.049743
15.175939
13.977885
13.619661
12.527704
11.735559
10.435581
10.148883
9.569526
9.669662
9.103417
8.993745
8.305907
8.278489
8.209944
8.026958
7.875562
7.850528
7.705688
7.748604
7.739663
7.006526
7.342696
##ZVALUE=280
1.345873
1.315475
1.385808
1.346469
1.504421
1.515746
1.728535
1.530647
1.558661
1.627803
1.651645
1.675487
1.867414
1.733899
2.008677
2.017617
2.210736
2.568960
2.721548
3.014803
3.318787
3.890991
17.834902
66.687465
237.017870
460.330844
915.712714
1015.865803
1015.865803
1015.865803
1015.865803
1015.865803
1015.865803
1015.865803
1015.865803
960.659385
588.632822
251.239538
114.654899
51.778555
52.004457
71.200728
88.705420
111.009479
126.044750
134.202838
131.332874
120.683908
107.905865
85.235834
66.982508
48.025846
37.003756
26.652813
22.293925
18.916726
18.644929
17.187595
16.929507
16.252995
15.953779
15.813708
14.921427
14.863610
14.255643
14.517903
14.397502
14.063716
14.414787
14.642477
14.824867
15.143752
14.585853
14.541745
13.676882
13.073683
12.327433
11.439919
10.824800
10.468960
9.592772
9.223819
9.401441
8.896589
8.639693
8.446574
8.167624
8.481741
8.058548
7.843971
7.755756
7.740855
7.398725
7.509589
7.186532
7.258654
##ZVALUE=285
1.241565
1.331568
1.458526
1.305938
1.403689
1.390576
1.474619
1.401901
1.383424
1.662970
1.697540
1.613498
1.634955
1.802444
1.798868
1.802444
1.878738
2.231598
2.252460
2.539754
2.320409
2.608895
3.106594
3.598928
8.002520
30.573606
120.000839
270.165801
631.752014
996.166468
1015.864611
1015.864611
1015.864611
1015.864611
1015.864611
1015.864611
1015.864611
1015.864611
821.782947
381.120443
183.757544
62.472820
38.030744
46.067834
61.743855
83.486438
99.279881
116.797686
123.472810
124.703646
117.115974
100.385547
84.139705
60.910583
46.709776
31.099916
23.034811
17.755628
15.752912
14.196634
13.899803
13.125539
12.796521
13.088584
12.753606
12.840629
13.170838
13.240576
13.142824
13.475418
13.798475
13.819933
13.776422
13.187528
12.947917
12.382865
11.429787
11.083484
10.489821
10.327697
9.677410
9.220839
9.376407
8.869767
8.736849
8.433461
8.354783
8.439422
7.900000
7.706881
7.984638
7.548928
7.353425
7.535815
7.425547
7.288456
##ZVALUE=290
1.287460
1.259446
1.317859
1.368523
1.138449
1.215935
1.420975
1.194477
1.459718
1.312494
1.466870
1.517534
1.545548
1.612902
1.622438
1.826882
1.749992
1.822710
1.993775
2.023578
2.252460
2.228618
2.528429
2.849698
3.119707
3.268719
4.581809
11.373758
60.443878
161.133409
346.359015
796.854496
1015.898585
1015.898585
1015.898585
1015.898585
1015.898585
1015.898585
1015.898585
1015.898585
1015.898585
548.424721
281.546712
94.518661
38.634539
29.667616
38.299561
54.715872
70.133805
91.618896
104.278922
115.335584
117.728710
109.770894
97.290874
75.917840
59.000850
40.134788
29.527545
19.645691
15.474558
12.103915
11.612773
11.051893
10.885596
11.164546
11.144876
11.509657
11.799932
12.195706
12.331605
12.422800
12.583733
12.234449
11.933446
11.247993
10.406971
10.408759
9.647608
9.254813
9.007454
9.015799
8.827448
8.491874
8.583665
8.479953
8.468628
8.194447
8.245707
7.947683
7.825494
7.971525
7.719994
7.457733
7.611513
7.716417
##ZVALUE=295
1.006722
1.325607
1.286864
1.243949
1.182556
1.056790
1.218915
1.177788
1.246929
1.256466
1.366735
1.388788
1.448989
1.506805
1.402497
1.559854
1.440644
1.656413
1.768470
1.741648
1.787543
1.669526
2.175570
2.369881
2.643466
2.611876
2.757907
3.376603
3.611445
5.216599
17.687678
91.968775
232.630968
607.858896
989.269018
1015.866995
1015.866995
1015.866995
1015.866995
1015.866995
1015.866995
1015.866995
1015.866995
759.500861
411.057472
139.649510
56.486726
22.849441
23.726821
34.859776
46.368837
65.320730
81.587434
99.708438
107.366443
110.219717
103.717446
89.229941
74.400902
54.561496
41.101575
26.837587
19.037724
13.803840
11.254549
9.736419
9.994507
10.107756
10.372996
10.565519
11.031628
11.299849
11.535883
11.181831
10.769963
10.212660
10.077953
9.460449
9.464622
9.156466
8.485913
8.464456
8.474588
8.327961
8.184910
8.053780
7.870793
7.985830
7.709861
7.689595
7.532835
7.727742
7.490516
7.654428
7.371902
7.648468
##ZVALUE=300
0.982881
1.083612
1.169443
1.053810
1.300573
1.134872
1.171827
1.049638
1.237988
1.201630
1.247525
1.186728
1.384616
1.329780
1.293421
1.367927
1.379848
1.483560
1.501441
1.531839
1.545548
1.879930
1.946688
1.899600
2.222657
2.391934
2.534986
2.518892
2.672672
3.023744
3.349781
3.771782
11.320710
42.613745
172.551870
369.482636
840.286613
1015.870571
1015.870571
1015.870571
1015.870571
1015.870571
1015.870571
1015.870571
1015.870571
1015.871167
574.327707
303.545594
101.908445
35.529733
17.600656
20.640492
30.715466
41.155815
58.665872
74.550509
92.247725
100.940466
104.362965
99.744797
87.556839
74.412823
55.002570
41.404963
26.736856
19.333959
13.326406
11.099577
10.124445
10.433793
10.920763
10.587573
10.472536
10.624528
10.173917
9.839535
9.450912
9.012818
8.588433
8.485913
8.362532
8.509755
8.228421
8.239746
8.087754
8.033514
7.898808
7.789731
7.527471
7.461905
7.700920
7.499456
7.668734
7.545948
7.372499
7.401705
##ZVALUE=305
0.978708
1.040697
1.097918
1.148582
1.071692
1.058578
1.239777
1.166463
1.072884
1.198649
1.190901
1.148582
1.196861
1.152754
1.459718
1.251698
1.340508
1.347661
1.317859
1.637936
1.634955
1.836419
1.628995
1.772642
1.816750
1.905560
2.056956
2.333522
2.304912
2.418756
2.516508
2.876520
3.186464
3.885627
5.240440
27.877688
90.601444
299.763680
600.052476
1015.868783
1015.868783
1015.868783
1015.868783
1015.868783
1015.868783
1015.868783
1015.868783
1015.868783
881.776810
397.465825
188.709497
53.164959
20.206571
15.769601
19.495487
28.945804
39.135814
56.131482
70.179701
86.860657
95.901489
98.704696
95.219612
83.457828
71.104765
53.109527
39.734840
26.216507
19.144416
13.805628
12.206435
10.885596
10.471940
9.987950
9.749532
9.390712
8.835793
8.270741
8.185506
8.195639
8.023977
8.203983
7.804632
7.981658
8.029938
7.673502
7.798672
7.567406
7.530451
7.335544
7.293820
7.288456
7.473826
7.411838
7.280707
7.295609
##ZVALUE=310
1.008511
1.035929
1.093745
1.067519
1.073480
1.104474
1.174808
1.118779
1.092553
1.200438
1.296997
1.056790
1.268983
1.142621
1.247525
1.381636
1.271963
1.153946
1.449585
1.164675
1.392961
1.391768
1.448989
1.528859
1.717806
1.687407
1.919866
1.852512
1.969934
2.206564
2.342463
2.279878
2.481937
2.942681
3.001690
3.614426
4.098415
11.869669
43.944716
174.169540
377.001762
867.908001
1015.870571
1015.870571
1015.870571
1015.870571
1015.870571
1015.870571
1015.870571
1015.870571
1015.870571
633.831024
331.903696
109.747648
35.724640
13.486743
13.823509
17.703772
23.852587
35.753846
47.518611
64.953566
77.103972
89.006424
93.043447
90.783834
83.055496
68.312883
54.795742
38.616657
28.771758
19.768476
15.038848
11.309981
9.961724
8.868575
8.718967
8.021593
7.813573
7.543564
7.425547
7.662773
7.439852
7.315874
7.235408
7.267594
7.368922
7.242560
7.196665
7.258654
7.137656
7.054806
7.202625
7.041693
7.235408
6.813407
##ZVALUE=315
1.072884
1.005530
1.043677
1.070499
0.925660
0.993609
1.074672
1.011491
1.063943
1.029968
1.119971
1.106858
1.180768
1.031756
1.166463
1.192689
1.102686
1.464486
1.290441
1.328588
1.351833
1.538992
1.473427
1.523495
1.561642
1.536608
1.623631
1.787543
1.794696
1.872778
1.983643
2.047420
2.173781
2.396703
2.439618
2.745986
3.065467
3.280640
3.846884
5.950928
21.504760
107.120872
264.961720
668.148994
1015.870571
1015.870571
1015.870571
1015.870571
1015.870571
1015.870571
1015.870571
1015.870571
1015.870571
887.175798
478.765965
168.477893
60.581565
16.217828
11.933446
12.972951
15.769601
22.819638
31.062961
44.992566
57.873726
73.671937
82.820654
88.719726
86.480975
77.836514
67.943931
51.709414
39.781928
26.254654
18.349886
12.527704
9.899735
8.170605
7.628798
7.324815
6.881952
7.096529
6.855726
6.708503
6.868839
6.816983
6.975532
6.607771
6.999969
6.676912
6.878972
6.862879
7.171631
6.686449
6.797910
7.051826
##ZVALUE=320
0.911951
0.890493
0.984669
0.991821
0.925660
1.076460
0.999570
0.965595
0.966787
0.848770
1.026988
1.152754
1.052618
1.075864
1.125932
1.197457
1.217723
1.056790
1.318455
1.238585
1.254678
1.277924
1.314878
1.367927
1.333952
1.457930
1.602769
1.590848
1.716614
1.788735
1.683831
1.797676
1.902580
2.129674
2.089739
2.234578
2.462864
2.658963
2.752542
3.318787
3.488660
4.284978
9.115934
57.118535
163.717866
473.852754
854.573846
1015.870571
1015.870571
1015.870571
1015.870571
1015.870571
1015.870571
1015.870571
1015.870571
1015.870571
705.225468
291.010737
122.185946
29.559731
12.580752
10.887980
11.434555
14.389753
18.861890
28.731823
39.547682
55.694580
67.353845
79.079866
82.601905
82.157850
76.610446
62.621832
49.613714
33.981800
24.804473
16.262531
12.019873
8.774996
7.220507
6.793737
6.545782
6.582737
6.643534
6.380677
6.279945
6.418824
6.362796
6.446838
6.595850
6.565452
6.581545
6.684661
6.738901
6.740689
##ZVALUE=325
0.963807
0.992417
1.054406
0.786781
0.960827
1.057982
0.999570
1.092553
0.967979
1.181960
1.140833
1.044869
1.191497
1.170635
1.210570
1.096725
1.187921
1.138449
1.188517
1.068711
1.331568
1.462698
1.420975
1.404881
1.388788
1.598597
1.479983
1.623631
1.553893
1.630783
1.703501
1.778603
1.957417
1.831651
2.045631
2.027750
2.270937
2.231598
2.399683
2.684593
2.858639
3.294945
3.624558
3.884435
5.848408
33.697486
105.699897
334.292650
652.135015
1015.946865
1015.946865
1015.946865
1015.946865
1015.946865
1015.946865
1015.946865
1015.946865
1015.946865
969.358683
437.500477
195.875764
47.321916
15.666485
10.127425
9.934902
10.927916
13.359785
19.307733
27.055740
40.442944
51.726699
63.935518
73.542595
78.363419
76.558590
68.173409
58.449507
44.261813
33.164620
21.277666
15.073419
9.953976
8.177757
7.099509
6.452799
6.212592
6.197691
6.224513
6.099939
6.256700
6.156564
6.463528
6.404519
6.565452
6.744862
6.521940
##ZVALUE=330
0.893474
0.885725
0.824928
0.874996
0.850558
0.782609
0.842810
0.882745
0.946522
1.015663
0.862479
0.978708
0.922680
0.918508
1.022816
1.087785
0.980496
1.104474
0.985861
1.005530
1.111627
1.231432
1.201630
1.313686
1.322627
1.380444
1.292825
1.412630
1.355410
1.382828
1.677871
1.398921
1.610518
1.691580
1.698732
1.826882
1.759529
2.061725
1.960993
2.235770
2.442598
2.479553
2.669692
2.900958
3.356934
3.682971
4.293919
13.972521
54.041743
225.000978
501.054525
1015.870571
1015.870571
1015.870571
1015.870571
1015.870571
1015.870571
1015.870571
1015.870571
1015.870571
1015.870571
623.191595
312.763453
99.330544
30.736923
10.441542
9.825826
9.569526
10.890961
13.914704
17.938614
27.236938
35.776496
49.404502
58.570504
68.536997
71.788430
69.780946
64.843893
52.970648
42.324662
29.521585
21.825433
14.489889
10.698438
7.942915
6.852746
6.264448
6.066561
5.940795
6.032586
6.200671
6.354451
6.553531
6.615520
6.514788
##ZVALUE=335
0.930429
0.895858
0.797510
0.848770
0.860691
0.852942
0.850558
0.780821
0.977516
0.794530
0.856519
0.990629
0.969768
1.041889
0.842810
0.949502
0.926852
1.093745
0.967979
1.017451
1.070499
1.078844
1.126528
1.085997
1.242757
1.373887
1.243949
1.277924
1.404881
1.339912
1.461506
1.497865
1.402497
1.465678
1.573563
1.720786
1.831651
1.843572
1.887679
2.026558
1.970530
2.065897
2.098680
2.310872
2.546906
2.725720
2.966523
3.414750
3.639460
6.445646
21.951795
109.154582
269.175768
737.808943
1015.836000
1015.836000
1015.836000
1015.836000
1015.836000
1015.836000
1015.836000
1015.836000
1015.835404
859.878659
456.879735
143.815875
46.939850
12.864470
9.744763
9.498000
9.637475
10.503531
12.520552
17.690659
23.312569
34.524798
43.208599
54.499507
61.861873
66.017509
65.666437
58.556795
51.572919
40.672421
31.907558
21.556616
15.683770
10.552406
8.333921
6.818771
6.246567
6.238818
6.396770
6.411672
6.666780
6.827712
##ZVALUE=340
0.871420
0.961423
0.840425
0.946522
0.761747
0.785589
0.905991
0.778437
0.888705
0.928640
0.850558
0.864863
0.948906
0.949502
0.997782
1.068711
1.087785
1.021624
0.959635
1.067519
1.037717
1.004934
0.993609
1.094937
1.153946
1.199841
0.991821
1.252890
1.277924
1.293421
1.218915
1.320839
1.308918
1.444817
1.497865
1.401901
1.472831
1.505613
1.656413
1.739860
1.780987
1.945496
2.014637
2.157688
2.181530
2.414584
2.455711
2.685785
3.089905
3.227592
3.550649
4.556775
10.238886
61.010718
172.996521
508.286953
942.948461
1015.876532
1015.876532
1015.876532
1015.876532
1015.876532
1015.876532
1015.876532
1015.876532
974.807739
585.009456
234.931707
84.054470
16.501546
10.179877
9.437799
9.278655
9.017587
9.436607
11.543632
15.172958
22.285581
29.801726
41.596889
50.277710
59.028864
62.141418
60.987473
57.094693
48.095584
39.985776
29.337406
22.331476
15.658736
11.550784
8.619428
7.620454
7.057786
7.206798
7.162690
##ZVALUE=345
0.823736
0.851750
0.672936
0.845790
0.871420
0.844598
0.766516
0.897646
0.945926
0.785589
0.884533
0.860691
1.007915
0.884533
0.863671
0.934601
0.931621
0.934601
0.857711
1.057982
0.949502
0.913739
0.914931
0.960827
1.037717
1.163483
1.024604
1.095533
1.098514
1.209974
1.110435
1.306534
1.314878
1.225471
1.272559
1.367927
1.350641
1.491904
1.489520
1.351833
1.525879
1.643896
1.724958
1.827478
1.863837
1.998544
2.060533
2.216697
2.265573
2.348423
2.665520
2.995729
3.213882
3.786683
5.319715
30.884743
100.318789
314.756632
622.537732
1015.870571
1015.870571
1015.870571
1015.870571
1015.870571
1015.870571
1015.870571
1015.870571
1015.870571
738.756061
307.413936
127.636790
31.171441
12.632608
9.798408
8.965731
7.988811
7.492900
7.902980
9.543896
13.800859
18.982887
28.625727
36.456585
46.686530
52.193999
56.687593
57.541728
53.094625
47.633648
38.693547
30.276775
21.585822
16.788840
12.085438
10.081530
8.633733
##ZVALUE=350
1.001954
1.028776
1.066923
1.030564
0.950694
1.049638
0.976920
0.804663
1.104474
1.002550
1.036525
1.066923
1.189709
0.976920
1.137853
1.183748
1.173615
1.087785
1.223683
1.177788
1.199841
1.118779
1.216531
1.352429
1.195669
1.318455
1.280904
1.230836
1.437664
1.398921
1.242757
1.479983
1.420975
1.453757
1.354814
1.385808
1.475811
1.569986
1.528859
1.484752
1.594424
1.593828
1.934767
1.855493
1.933575
2.094507
2.013445
2.110600
2.204776
2.244711
2.374649
2.756715
2.795458
2.965927
3.235936
3.565550
4.267693
14.711618
52.637458
197.672844
418.433547
937.168598
1016.048789
1016.048789
1016.048789
1016.048789
1016.048789
1016.048789
1016.048789
1016.048789
926.064849
424.193740
186.834931
43.084621
14.500618
8.731484
8.092523
6.943941
6.787777
6.423593
7.337928
9.500980
12.378693
17.534494
23.455620
32.872558
39.964914
48.219562
51.661730
53.201914
51.516891
45.250654
38.761497
30.838847
24.705529
17.951727
##ZVALUE=355
0.716448
0.793934
0.877976
0.812411
0.913739
0.777841
0.914931
0.884533
0.898838
0.940561
0.782609
1.016855
0.945926
0.893474
1.021624
1.090765
1.020432
0.973940
0.917912
1.145601
1.015663
1.038909
0.936985
1.105666
1.118779
1.023412
1.140833
1.076460
1.137853
1.210570
1.170635
1.183748
1.218915
1.176000
1.190901
1.180768
1.319647
1.363754
1.451969
1.397729
1.416802
1.459718
1.635551
1.623631
1.732707
1.734495
1.589656
1.961589
1.862645
1.901984
2.167821
2.049804
2.318621
2.460480
2.746582
2.619624
3.013611
3.299713
3.699660
6.970763
26.256442
126.769543
290.788412
681.267977
1015.870571
1015.870571
1015.870571
1015.870571
1015.870571
1015.870571
1015.870571
1015.870571
1015.870571
534.949899
252.153873
66.522956
19.511580
8.803606
7.675886
6.718636
6.595850
6.038547
6.097555
6.923676
8.017421
11.341572
14.810562
21.170974
27.671456
37.093759
43.617487
49.000978
50.197840
48.922896
44.899583
38.451552
##ZVALUE=360
0.861883
0.788569
0.841618
0.965595
0.838637
0.841618
0.847578
0.786781
0.695586
0.978708
0.913739
0.942945
0.928640
1.069903
1.040697
1.033545
1.076460
1.032948
0.971556
1.056790
0.999570
1.019835
1.042485
1.014471
1.076460
1.059771
1.265407
1.211762
1.338720
1.205802
1.080632
1.322627
1.272559
1.205802
1.466870
1.264811
1.176000
1.278520
1.394749
1.360774
1.488924
1.430511
1.592636
1.712441
1.686811
1.745820
1.606941
1.704693
1.825690
1.832843
1.865625
2.054572
2.269745
2.267957
2.320409
2.412796
2.579689
2.777576
2.951622
3.363490
3.818870
4.851818
10.780692
57.262778
162.570477
469.326973
846.178532
1015.870571
1015.870571
1015.870571
1015.870571
1015.870571
1015.870571
1015.870571
1015.870571
756.841898
400.968790
140.850544
45.361519
10.001659
7.580519
6.920695
6.463528
5.980730
5.900860
5.773902
5.990863
7.403493
9.053946
13.156533
17.813444
25.573969
32.090545
39.422512
43.606758
46.856999
##ZVALUE=365
0.805855
0.783801
0.989437
0.973940
0.798702
0.758767
0.869632
0.683665
0.910759
1.021624
0.957847
0.890493
0.953674
0.824928
0.910759
1.035929
0.948906
1.027584
0.919700
1.073480
0.958443
1.090765
1.046658
0.961423
1.221895
1.043677
1.038909
1.235604
1.143813
1.190901
1.298785
1.211762
1.198649
1.139641
0.983477
1.362562
1.211762
1.205802
1.300573
1.348853
1.308918
1.421571
1.402497
1.399517
1.452565
1.449585
1.530647
1.571774
1.702905
1.569986
1.597404
1.801848
1.773834
1.808405
2.026558
2.069473
2.156496
2.505779
2.438426
2.705455
2.972484
3.260970
3.512502
4.286766
5.675554
28.062463
94.289780
311.395526
618.073940
1015.870571
1015.870571
1015.870571
1015.870571
1015.870571
1015.870571
1015.870571
1015.870571
953.850746
546.955466
201.576948
74.182749
14.467835
7.421970
6.655455
6.161928
5.777478
5.423427
5.519986
5.418658
5.965829
6.909966
9.208918
11.784434
16.639829
21.575689
28.471947
##ZVALUE=370
0.802875
0.852942
0.841618
0.693798
0.941753
0.928640
0.841618
0.845790
0.698566
0.890493
0.925660
0.765920
0.949502
0.966787
0.873804
0.791550
0.834465
0.888705
0.773668
0.911951
0.901818
0.771880
0.930429
1.043677
1.010895
1.112819
0.981688
0.927448
1.049638
1.003742
0.996590
1.006722
1.101494
1.127720
1.141429
1.086593
1.186728
1.085997
1.259446
1.048446
1.403689
1.334548
1.226664
1.477599
1.344681
1.277924
1.269579
1.392961
1.410842
1.537800
1.508594
1.475811
1.613498
1.603961
1.572967
1.655817
1.736879
1.914501
1.913905
2.151728
2.109408
2.399683
2.690554
2.899766
3.144741
3.384948
4.229546
14.824867
56.672692
218.836665
449.561477
941.759944
1015.871763
1015.871763
1015.871763
1015.871763
1015.871763
1015.871763
1015.871763
1015.871763
663.484931
261.142850
113.352537
30.003786
10.030866
6.447434
5.788803
5.601645
5.544424
5.456805
5.578995
5.865693
6.375909
7.382631
8.556843
11.243820
##ZVALUE=375
0.837445
0.693798
0.827909
0.786781
0.716448
0.779629
0.899434
0.687838
0.706911
0.791550
0.813603
0.791550
0.832677
0.914931
0.970960
0.874996
0.851750
0.860691
0.805855
0.925660
0.842810
0.926852
0.956655
0.906587
0.816584
0.892878
0.915527
1.044869
0.898838
1.097918
0.960827
1.043677
0.952482
1.019835
1.119971
0.981688
1.060963
1.129508
1.155734
1.082420
1.291633
1.171827
1.048446
1.105666
1.049638
1.080632
1.130700
1.283884
1.321435
1.310706
1.347661
1.378655
1.372695
1.461506
1.444817
1.519918
1.597404
1.646876
1.729727
1.664758
1.763701
1.903772
1.901984
2.102852
2.336502
2.487898
2.853870
3.360510
4.047751
7.929802
27.710795
123.440623
302.622914
745.058656
1015.870571
1015.870571
1015.870571
1015.870571
1015.870571
1015.870571
1015.870571
1015.870571
946.941376
477.127433
235.774517
66.154599
19.388795
6.895661
6.442666
6.132722
6.148815
6.182790
6.433725
6.562471
6.687641
6.718636
##ZVALUE=380
0.774860
0.775456
0.748634
0.689626
0.702739
0.644922
0.761747
0.681877
0.720620
0.741482
0.851750
0.847578
0.668764
0.736713
0.776649
0.714660
0.857711
0.649691
0.726581
0.774860
0.867844
0.793934
0.713468
0.748634
0.828505
0.972748
0.848770
0.897646
0.873804
0.900626
0.916719
0.989437
1.026988
1.080632
1.036525
1.053810
1.054406
1.101494
0.939965
1.019835
1.150966
1.223683
1.056790
1.042485
1.004934
1.064539
1.134872
1.147985
1.196861
1.240969
1.172423
1.127720
1.276731
1.280904
1.313686
1.424551
1.454949
1.437664
1.416802
1.540780
1.535416
1.753569
1.672506
1.861453
2.100468
2.194643
2.387762
2.746582
3.203750
3.713965
4.187822
4.993677
13.278723
78.426600
214.102864
580.433011
972.023606
1015.871763
1015.871763
1015.871763
1015.871763
1015.871763
1015.871763
1015.871763
1015.871763
647.760034
344.099998
116.909742
40.173531
10.212660
7.040501
6.682873
6.769896
7.064939
6.888509
6.961823
##ZVALUE=385
0.669956
0.593662
0.606775
0.777841
0.582933
0.646710
0.720620
0.644922
0.613928
0.671744
0.686646
0.600815
0.713468
0.662804
0.781417
0.730753
0.735521
0.736713
0.752807
0.650883
0.829697
0.678897
0.717640
0.749826
0.844598
0.939965
0.987649
0.909567
1.004934
1.019835
1.129508
1.075864
1.004934
1.112819
1.134872
1.154542
1.017451
1.171827
1.131892
1.283884
1.181960
1.214743
1.225471
1.252890
1.093745
1.200438
1.105666
1.113415
1.306534
1.096725
1.121759
1.253486
1.125932
1.162887
1.151562
1.203418
1.128912
1.313686
1.379848
1.428723
1.541972
1.535416
1.564622
1.756549
1.816750
1.961589
2.302527
2.583861
2.760887
3.021955
3.222823
3.346801
3.707409
3.790855
7.448792
27.110577
125.139356
313.411951
770.714879
1015.871763
1015.871763
1015.871763
1015.871763
1015.871763
1015.871763
1015.871763
1015.871763
989.887118
500.329733
250.287652
77.525973
23.032427
7.763505
7.241964
6.744862
6.527901
##ZVALUE=390
0.506639
0.699759
0.515580
0.547767
0.625849
0.413656
0.535846
0.542998
0.716448
0.724792
0.623465
0.578761
0.549555
0.635982
0.640750
0.649691
0.615716
0.709891
0.668764
0.671744
0.798702
0.904799
0.782609
0.787973
0.793934
0.826716
0.939965
0.867844
1.044869
1.043677
1.031756
1.074672
1.004934
1.054406
1.030564
1.155734
1.141429
1.081824
1.140833
1.034737
1.112819
1.246929
1.158714
1.048446
1.191497
1.161695
1.191497
1.254678
1.197457
1.217723
1.280904
1.274943
1.212955
1.343489
1.335740
1.257658
1.177788
1.367927
1.365542
1.440644
1.426935
1.453757
1.432896
1.683831
1.747608
2.086759
2.420545
2.356768
2.777576
2.887845
2.930760
2.929568
2.832413
2.955794
3.015995
3.200769
4.383922
19.635558
69.551468
253.928900
533.132553
1015.855670
1015.855670
1015.855670
1015.855670
1015.855670
1015.855670
1015.855670
1015.855670
1015.855670
819.602013
347.033739
159.558654
43.869615
13.359785
7.161498
##ZVALUE=395
0.608563
0.663996
0.629425
0.545979
0.604987
0.539422
0.632405
0.733733
0.677705
0.578761
0.760555
0.800490
0.533462
0.618696
0.499487
0.692606
0.815988
0.726581
0.681877
0.695586
0.824928
0.760555
0.814795
0.843406
0.778437
0.787973
0.927448
0.936985
0.956655
0.999570
1.018643
0.918508
1.019835
1.108646
1.181960
1.209974
1.176000
1.199841
1.224875
1.278520
1.308918
1.233816
1.247525
1.240969
1.326799
1.446605
1.352429
1.265407
1.317859
1.132488
1.252890
1.240969
1.119971
1.337528
1.328588
1.268983
1.337528
1.272559
1.502633
1.386404
1.365542
1.402497
1.520514
1.738667
1.758933
1.998544
2.291799
2.303720
2.517700
2.616644
2.624989
2.583861
2.659559
2.442598
2.626777
2.574921
2.850890
3.135800
3.701448
8.174777
52.971840
152.424574
415.327549
765.697956
1015.871763
1015.871763
1015.871763
1015.871763
1015.871763
1015.871763
1015.871763
1015.871763
972.119570
575.492978
219.935775
90.664625
##ZVALUE=400
0.836849
0.800490
0.751615
0.702739
0.785589
0.739694
0.801682
0.692606
0.459552
0.453591
0.598431
0.659823
0.597835
0.627637
0.642538
0.671744
0.691414
0.637770
0.624657
0.637770
0.701547
0.637770
0.723600
0.688434
0.786781
0.947714
0.787973
0.786781
0.790954
1.011491
1.033545
1.027584
0.934601
1.066923
1.082420
1.110435
1.213551
1.098514
1.137853
1.215935
1.198649
1.319647
1.169443
1.288652
1.106858
1.256466
1.196861
1.166463
1.259446
1.405478
1.094937
1.122952
1.149774
1.267791
1.370907
1.212955
1.301765
1.353621
1.343489
1.294613
1.403689
1.301765
1.319647
1.737475
1.827478
1.692772
2.073646
2.332926
2.330542
2.405643
2.489686
2.415776
2.361536
2.377629
2.228618
2.252460
2.427697
2.579689
2.613664
3.067851
3.435612
4.724860
21.812916
74.392557
261.235833
535.398722
1015.870571
1015.870571
1015.870571
1015.870571
1015.870571
1015.870571
1015.870571
1015.870571
1015.870571
805.544853
##END
