##TITLE=C510_R1
##FORMAT=SPECTACLE-ASCII V-1.2
##DATA TYPE=ULTRAVIOLET SPECTRUM
##SECOND TYPE=ULTRAVIOLET SPECTRUM
##DATE=05/28/18
##TIME=12:04:45
##SPECTROMETER/DATA SYSTEM=SPECTACLE
##XUNITS=NM EM
##YUNITS=ENERGY
##YFACTOR=1
##FIRSTX=220
##LASTX=410
##NPOINTS=96
##3DDATA=Equidistant
##ZUNITS=NM EX
##FIRSTZ=210
##LASTZ=400
##ZPOINTS=39
##XYDATA=(Y..Y)
##ZVALUE=210
52.253604
48.213601
35.896897
29.775500
25.917888
24.943948
18.525720
15.435815
13.672709
11.540651
8.814931
7.990599
7.959604
7.849932
7.140636
8.412600
8.071661
9.032488
10.547638
10.861754
10.989904
12.241602
13.480783
15.363693
19.910932
20.486712
23.891926
25.724769
26.374459
30.364990
32.676458
34.684539
33.151507
36.081672
34.342408
35.421848
35.669804
33.684969
36.451817
33.424497
35.826564
34.183860
32.665730
34.874678
35.073757
32.456517
32.713413
32.078624
32.529831
32.150745
32.551885
33.229589
31.336546
33.209920
32.188892
33.146739
30.085444
30.624866
30.181408
30.181408
29.388666
30.539632
30.829906
32.742620
32.771826
35.059452
40.829778
45.049787
56.255460
63.926578
73.220730
81.871748
88.996887
92.979670
100.537539
96.835494
94.486475
90.627670
80.960989
70.025921
58.196783
48.440695
42.437911
35.510659
30.453801
27.343631
27.753711
25.911927
29.304624
34.891963
50.140619
61.269999
89.194775
120.398998
151.621699
179.044604
##ZVALUE=215
176.428556
165.701509
134.029984
86.793900
63.813925
48.963428
42.049885
35.791993
34.901500
30.605793
22.129416
19.339919
14.611483
12.396574
9.869933
8.477569
9.240508
9.232759
8.502603
10.312796
9.920597
12.093782
13.780594
15.412569
18.458962
18.778443
23.357868
25.806427
28.247833
29.664636
31.115413
31.831861
34.320951
35.463572
35.184622
34.252405
35.806894
36.083460
36.694407
35.910606
33.702850
35.429597
34.927726
34.452677
34.467578
34.040809
32.473803
34.079552
34.843683
35.207868
33.279657
35.283566
33.520460
31.999946
33.064485
33.752918
33.484697
32.485723
33.390522
33.685565
33.063889
32.905936
30.858517
32.614470
34.150481
33.981800
36.520958
44.431686
46.972632
55.464506
62.810779
67.632794
71.321726
73.168874
73.686838
74.966550
71.281791
64.812899
59.122443
52.459836
47.899485
39.355755
35.200715
29.209852
27.073622
25.598407
24.764538
22.636652
21.312833
20.997524
21.202564
20.861626
21.943450
27.358532
37.666559
53.309798
##ZVALUE=220
392.231941
388.066769
362.598896
298.168659
239.517689
160.053968
115.489960
74.406862
61.482787
52.620769
48.516989
45.736432
37.824512
32.097697
24.808645
19.263625
14.378428
10.879636
8.626580
9.093881
9.614825
9.579659
10.545850
11.796951
12.350678
15.064478
15.702844
18.475652
19.086599
20.179749
21.604896
24.234653
23.672581
25.477409
26.841760
26.450753
28.552413
30.105710
28.668642
30.103922
30.081868
30.249953
30.070543
30.913949
30.473471
30.808449
31.491518
30.922890
32.195449
31.564832
31.437874
31.722784
32.265782
29.582977
31.621456
30.251741
28.830767
28.983951
29.594898
30.748844
30.154586
27.124882
27.303696
27.874708
29.571652
30.195713
31.870604
35.650730
38.765669
43.849945
47.601461
49.297810
53.914785
55.163503
57.023764
52.187443
50.249696
46.792626
44.745803
38.179755
34.007430
30.677915
29.080510
24.413466
21.318793
20.059943
20.434856
19.627810
18.522739
18.436909
19.461513
18.262863
16.909838
15.951991
16.533732
17.303824
##ZVALUE=225
471.809506
491.582751
581.208467
628.631711
618.093610
536.041856
445.603728
299.719572
202.410817
135.016441
84.349513
67.794919
66.604614
64.189434
58.250427
51.639676
40.187836
29.607415
23.733974
17.253757
12.467504
10.151863
9.337664
10.559559
10.808706
11.000633
11.527538
12.771487
13.821721
14.395714
16.130805
15.571713
17.247796
19.102693
20.863414
22.051930
23.770928
24.843812
23.973584
26.502609
28.023720
27.625561
28.806925
29.684901
30.149817
30.101538
30.189753
30.452609
29.017925
30.476451
28.570890
30.791759
30.391812
29.570460
30.203462
29.066801
30.353665
29.501915
29.533505
28.195977
28.823614
27.416945
26.493669
26.658773
27.142763
29.201508
29.298663
33.918619
35.870671
38.452744
41.385889
46.213865
47.913790
48.677921
47.241449
45.172572
42.767525
37.570596
35.219789
32.613873
27.340651
24.452806
22.649765
21.935701
19.497871
19.253492
18.839836
17.744899
17.602444
16.482472
17.240644
15.548468
16.353726
16.939640
15.869737
16.198754
##ZVALUE=230
254.751444
274.219513
422.223806
633.005500
765.624642
873.385668
887.098908
804.216862
670.768619
523.415804
313.346982
209.675431
121.947527
96.338987
86.268783
86.046457
83.315969
75.799823
66.557527
50.919652
35.950541
24.186969
18.024445
12.512803
10.322928
11.177659
10.454655
11.628866
10.855794
11.755824
12.889504
13.664961
14.358759
14.801621
17.177463
19.130707
20.110607
21.260977
23.883581
24.700761
23.962855
26.274920
26.904941
26.773810
27.880669
26.237965
27.447939
26.864409
27.420521
27.561784
28.269887
27.183890
27.475953
26.878715
28.076768
26.119947
25.540590
25.701523
26.360750
25.171638
25.581717
26.787519
25.404692
26.160479
27.093887
26.526451
28.597713
30.542612
33.056736
36.924481
38.450956
41.352510
42.099953
44.122934
40.553808
40.326715
36.761761
35.384893
31.797886
29.523969
25.165677
23.976564
20.757914
20.996928
18.790960
18.024445
18.299818
17.401576
17.953515
15.732646
17.061830
17.095804
16.724467
14.856458
16.265512
15.993714
##ZVALUE=235
54.001808
60.911775
128.360391
307.298899
498.147607
769.445896
979.436636
1015.870571
1015.870571
1015.870571
968.902707
753.592849
473.398566
317.263603
184.900761
128.012896
102.462769
101.279616
104.448795
100.162625
91.381669
71.277618
57.276487
38.335919
27.817488
18.288493
14.715791
11.505485
10.752678
11.161566
11.264682
12.507439
12.659431
13.735890
13.792515
15.454888
17.448664
18.029809
18.116832
19.380450
19.868612
21.293759
21.862984
23.304820
23.773909
22.707582
22.543669
22.794604
23.175478
22.798777
22.180676
22.775531
22.929907
21.927953
22.336841
22.446513
22.275448
20.383000
20.617843
21.397471
20.392537
20.769835
20.147562
21.876693
20.050406
22.838712
23.977757
25.671721
27.539730
30.560493
34.074783
35.142899
36.032796
37.135482
35.789609
34.012794
31.928420
30.400753
27.803779
24.695992
22.313595
21.080971
18.659830
17.711520
17.301440
15.808940
16.266704
15.479922
16.186833
15.699863
15.547872
15.108585
13.776422
15.504956
15.543699
15.155673
##ZVALUE=240
3.115535
3.342628
10.997653
49.816966
116.192698
278.076530
474.392772
830.042958
1015.870571
1015.870571
1015.870571
1015.870571
1015.870571
1013.080478
713.117719
474.415421
249.000788
162.523985
122.758746
106.719732
111.332536
114.466548
110.457540
93.616843
80.738664
56.554675
43.936968
29.156804
20.868778
14.889836
12.436509
11.435747
11.661649
12.451410
12.246966
13.973713
15.153885
15.152693
14.948845
16.169548
16.518831
16.521811
17.753839
17.293692
17.712712
18.156767
18.329620
17.840862
18.480420
19.303560
17.868876
18.031597
18.202662
17.888546
17.687678
17.548800
16.847849
16.585588
16.370416
16.222000
17.403960
16.679764
17.339587
16.846657
17.267466
18.733740
19.479990
21.423697
23.449659
24.642944
26.584864
29.531717
30.674934
30.234456
30.113459
29.256940
27.293563
23.886561
22.928715
20.076632
18.301606
16.563535
16.427636
15.616417
15.466809
13.923645
14.226437
14.163852
13.536811
13.337731
13.742447
13.479590
13.585687
12.970567
13.697743
13.036728
##ZVALUE=245
2.491474
2.539754
2.663732
2.665520
8.063912
24.729967
89.671612
196.297765
444.149971
702.334642
1016.096473
1016.096473
1016.096473
1016.096473
1016.096473
1016.096473
974.660516
629.524589
405.490994
208.466649
132.264495
102.759004
106.842518
116.871595
117.793679
115.574598
98.723769
86.415410
62.150955
47.369599
32.533407
23.192763
17.355680
13.492703
12.410879
13.941526
13.483763
13.621449
14.137626
14.110804
14.699697
14.701486
14.703870
15.041828
14.916658
14.821887
15.428662
15.161633
16.042590
15.625954
15.717745
14.323592
14.614463
14.759898
14.509559
14.772415
13.950467
14.167428
14.431477
13.388991
13.667941
14.704466
14.317632
14.076829
14.557838
14.881492
15.746951
16.530752
18.196702
20.432472
21.817684
23.689866
23.368597
23.897886
24.560690
22.028685
20.846725
19.416809
18.172860
16.694665
15.136600
14.096498
13.835430
12.929440
13.159513
12.018681
11.759996
12.403727
11.658669
11.844635
11.576414
11.795759
11.118650
11.322498
11.096597
11.137724
##ZVALUE=250
1.795888
1.785755
1.885891
2.276897
2.372861
2.703667
3.416538
15.859604
49.967766
123.680830
328.141451
580.462813
977.110863
1015.870571
1015.870571
1015.870571
1015.870571
1015.870571
1015.870571
840.050578
553.648472
280.851722
162.404776
101.012588
94.306469
110.226870
118.370652
120.892525
119.297504
103.249550
89.407563
67.007542
50.923824
34.107566
24.761558
17.909408
15.173554
13.586879
12.787580
13.116598
13.936758
13.970733
14.044642
14.500618
14.735460
13.915896
13.715625
14.399886
13.919473
13.502836
13.492703
13.579726
13.248920
13.136864
13.293624
12.688637
11.888742
12.423992
11.850595
12.447834
12.074709
11.512637
11.947751
11.802912
11.647940
12.611747
13.216734
14.284849
14.895797
16.258955
17.507672
18.423796
19.331574
19.892454
19.461513
17.335415
17.389655
15.446544
14.228821
12.935996
12.042522
10.768771
10.534525
10.342598
9.733438
9.636879
9.715557
9.234548
9.487867
9.374619
9.458661
9.451509
9.037852
9.686947
9.750724
9.758472
##ZVALUE=255
1.681447
1.555681
2.033710
2.024770
2.017617
2.070665
2.159476
2.330542
2.795458
6.464720
36.788583
100.984573
221.668482
512.653589
815.297961
1015.873551
1015.873551
1015.873551
1015.873551
1015.873551
1015.873551
1015.873551
704.149604
432.307720
202.751756
120.854974
86.227655
88.902712
109.467506
121.420622
126.317739
121.346712
114.196539
90.363622
74.405670
52.147508
39.598942
26.264787
20.691752
16.773939
15.523434
14.854670
15.201569
15.322566
15.653968
15.269518
15.238523
15.075803
15.400648
15.279651
14.744997
14.457703
13.846755
14.265776
13.344884
13.396740
13.109446
12.720823
12.837648
12.554526
12.273788
12.716651
12.526512
11.993647
11.993647
12.302995
12.618899
13.711452
13.851523
15.252829
15.757680
16.427636
17.843843
16.944408
16.332865
16.053915
14.767647
13.744831
13.054609
11.021495
10.195971
9.697676
9.630919
9.317994
8.765459
8.308887
8.562803
8.541942
8.301735
8.234978
7.917881
8.467436
8.603930
8.230805
8.003712
8.277893
##ZVALUE=260
1.862645
1.645684
1.767874
1.827478
1.765490
1.948476
1.912713
2.032518
2.222657
2.330542
2.704859
3.587604
16.801953
52.113533
163.290501
343.109369
732.018948
1015.870571
1015.870571
1015.870571
1015.870571
1015.870571
1015.870571
1015.870571
986.008644
575.098991
351.413488
169.692636
101.308823
78.410506
87.648630
108.959675
123.180747
131.402612
128.001571
115.719438
101.115704
75.987577
59.170723
40.767789
32.988787
23.668408
20.144582
18.671751
18.191934
17.856956
18.070936
17.931461
18.065572
17.337799
17.067790
16.795993
16.323924
16.372800
16.013980
14.931560
14.822483
14.449954
13.953447
13.785958
13.731718
13.368726
13.301969
12.514591
12.361407
12.385845
12.627840
13.391972
13.470650
14.299750
15.419722
15.229583
15.907884
15.730858
15.067458
14.149547
13.219714
12.131929
11.395812
10.604858
9.471774
9.216666
9.028912
8.295774
8.406639
8.104444
8.125901
7.894635
7.598996
7.507801
7.479787
7.568598
7.356405
7.181764
7.354617
7.258654
##ZVALUE=265
1.555681
1.680851
1.632571
1.630783
1.544952
1.797676
1.921654
1.807809
2.030730
2.177954
2.348423
2.469420
2.696514
3.373623
6.959438
37.732720
101.888776
290.029645
532.255769
990.736485
1015.871763
1015.871763
1015.871763
1015.871763
1015.871763
1015.871763
1015.871763
875.603557
456.354618
263.034701
124.453902
76.626539
71.139932
92.565417
109.733939
128.901601
133.823752
132.187605
121.139884
100.903511
84.041953
61.975718
47.375560
33.151507
27.983785
23.129582
21.546483
21.457672
20.874739
20.542741
20.485520
19.297600
19.548535
18.593669
18.092990
17.714500
17.431974
15.924573
15.862584
15.506744
14.933944
14.723539
14.621615
13.870597
13.242960
13.487935
13.512969
14.005899
14.046431
14.778972
15.551448
15.597939
15.481710
14.988780
14.455914
13.600588
12.912750
11.488795
10.515451
9.642839
9.446740
8.876920
8.270741
8.202791
7.673502
7.594824
7.637739
7.299781
6.870627
7.199645
7.290840
7.058978
7.299781
6.902814
6.887913
7.270575
##ZVALUE=270
1.378655
1.378655
1.598597
1.411438
1.482964
1.595616
1.563430
1.627803
1.771450
1.833439
1.944900
2.022982
2.160668
2.290606
2.514720
2.583861
3.505945
14.189482
46.701431
173.665881
370.938778
683.363676
1015.870571
1015.870571
1015.870571
1015.870571
1015.870571
1015.870571
1015.870571
1015.870571
831.330419
410.530567
221.685767
90.049505
63.288808
73.180795
91.157556
116.001964
129.060745
138.625503
136.765838
124.452710
109.846592
87.118745
69.453716
49.274564
38.488507
30.500889
26.721954
24.504662
22.699833
22.672415
21.810532
21.029711
20.212531
19.749999
19.374490
18.084645
17.762780
18.067956
16.949773
15.812516
15.606880
15.486479
14.570951
14.263988
14.471412
14.435649
14.527440
15.571713
15.705824
15.898943
15.772581
15.173554
14.756918
13.735890
12.629628
11.889935
10.637641
10.032654
9.535551
8.980632
8.671880
8.094907
7.891655
8.040667
7.837415
7.617474
7.581711
7.328987
7.373691
7.301569
7.042885
7.032752
6.701946
6.908774
##ZVALUE=275
1.392961
1.289845
1.218915
1.430511
1.419783
1.318455
1.469851
1.614690
1.427531
1.630783
1.671910
1.782775
1.825690
1.940727
1.970530
2.318621
2.475977
2.660751
2.706647
6.378889
25.012493
80.303550
267.316699
535.242558
1004.653573
1015.870571
1015.870571
1015.870571
1015.870571
1015.870571
1015.870571
1015.870571
1015.870571
579.268932
324.252844
132.449865
71.433783
56.528449
69.709420
95.137954
112.669468
130.355954
137.371421
137.647986
127.379894
107.169747
91.345906
68.365932
53.498745
39.275885
31.423569
25.446415
23.499727
21.702647
21.058917
20.315647
19.509792
18.729568
18.639565
17.615557
17.126799
16.293526
16.109943
15.137792
15.337467
14.564991
14.535785
14.603734
14.441609
14.680624
15.478730
15.420914
15.351772
14.906526
14.432669
13.374686
12.534857
11.382699
10.777712
9.714961
9.261966
8.872747
8.479953
8.128881
7.814765
7.643700
7.365942
7.524490
7.202625
6.908774
7.132888
6.650686
6.936789
6.757975
6.697774
6.422997
##ZVALUE=280
1.409650
1.377463
1.136661
1.255870
1.417994
1.285672
1.365542
1.464486
1.441836
1.514554
1.632571
1.705885
1.670718
1.639724
1.941919
1.884699
1.822710
2.004504
2.240539
2.765656
2.906919
3.605485
14.994740
56.477785
201.374888
394.318700
800.014734
1015.871763
1015.871763
1015.871763
1015.871763
1015.871763
1015.871763
1015.871763
1015.871763
766.359568
452.284813
192.809701
92.997551
49.648881
52.047968
71.394444
88.373423
110.920668
124.712586
133.239627
131.621957
121.230483
107.005835
84.304810
68.093538
47.475696
37.086606
27.080774
22.564530
19.525886
18.726587
17.123818
16.883612
16.019940
15.937686
15.489459
15.005469
14.209747
14.198422
13.765693
13.790727
13.803840
14.423728
14.080405
14.101863
14.311671
13.875961
13.598800
13.360977
12.341738
11.278987
10.820627
10.168552
9.418726
9.374619
8.847713
8.539557
8.072853
7.920861
7.847548
7.402897
7.541776
7.362962
7.038713
7.215738
6.829500
6.710887
6.484985
6.415844
6.754994
##ZVALUE=285
1.117587
1.211762
1.264811
1.266599
1.091957
1.284480
1.222491
1.154542
1.320839
1.436472
1.357794
1.446605
1.557469
1.582503
1.653433
1.649857
1.705885
1.763701
1.819730
2.211928
2.246499
2.509952
2.807975
3.087521
6.978512
25.661588
102.527738
226.941705
540.605783
922.917724
1015.870571
1015.870571
1015.870571
1015.870571
1015.870571
1015.870571
1015.870571
998.683572
660.859942
303.017497
148.255825
53.336620
36.239624
45.475960
59.853792
83.368421
98.772645
115.949512
123.263597
122.301579
116.642714
99.374652
83.292723
61.409473
45.536757
30.760765
22.977591
17.110705
14.723539
13.350844
13.434887
12.711883
12.460947
12.689829
12.049675
12.056828
12.106895
12.448430
12.459755
12.697577
12.764931
12.783408
12.679696
12.527704
12.124777
11.035800
10.784864
10.290742
9.615421
9.196997
8.701682
8.320808
8.253455
8.057952
8.026958
7.451773
7.657409
7.562637
7.588863
7.275939
7.132888
6.839633
6.969571
6.751418
6.495714
6.735921
##ZVALUE=290
1.081824
1.141429
1.076460
1.170635
1.192689
1.183748
1.373887
1.387596
1.430511
1.374483
1.384616
1.377463
1.551509
1.446605
1.636744
1.531839
1.686811
1.500845
1.841784
2.031922
2.122521
2.299547
2.500415
2.611876
2.912879
3.021955
4.019737
9.773970
51.129460
138.595700
310.713649
759.243965
1015.870571
1015.870571
1015.870571
1015.870571
1015.870571
1015.870571
1015.870571
1015.870571
967.389941
489.603877
252.164006
84.748864
35.485625
29.082894
37.705898
53.995848
69.063902
90.376735
104.234815
114.740729
116.409659
108.215809
96.886754
74.421763
58.290958
40.016770
28.758645
19.056797
14.650822
12.031794
11.119843
10.569692
10.182858
10.772943
10.666847
10.813475
11.359453
11.957884
12.383461
12.269616
12.476444
12.187958
11.339784
10.780692
10.465980
9.773970
9.343624
8.755922
8.581877
8.539557
8.209944
7.986426
8.074641
7.769465
7.849932
7.545948
7.471442
7.185936
7.142425
6.937981
7.026792
6.885529
6.931424
6.837845
##ZVALUE=295
1.097918
1.137853
1.220703
1.202822
1.119971
1.171827
1.402497
1.350641
1.326799
1.251698
1.278520
1.337528
1.283884
1.412630
1.307726
1.641512
1.496673
1.650453
1.665950
1.800656
1.911521
1.796484
2.097487
2.068877
2.216697
2.443790
2.689958
3.184676
3.660917
4.889965
15.457869
78.197718
200.945735
542.406440
950.357914
1015.870571
1015.870571
1015.870571
1015.870571
1015.870571
1015.870571
1015.870571
1015.870571
707.468987
377.355814
131.175518
52.608848
22.225976
23.366809
34.348965
46.253800
66.049695
79.754591
98.427534
106.311440
109.023452
102.355480
88.027716
73.905587
53.133965
39.633512
25.359988
18.309951
12.227893
10.248423
8.957982
8.918643
9.511709
9.764433
10.119677
10.400414
10.532737
10.972619
10.448694
10.220408
9.875894
9.122491
8.812547
8.173585
7.980466
7.809997
7.498860
7.485747
7.424951
7.319450
7.192492
7.049441
6.941557
6.876588
6.671548
6.790757
6.727576
6.596446
6.587505
6.519556
6.557703
##ZVALUE=300
1.066923
1.012683
1.106858
1.018643
1.112819
1.020432
1.188517
1.086593
1.220703
1.330972
1.291633
1.290441
1.267791
1.160502
1.319647
1.352429
1.311898
1.400709
1.579523
1.572967
1.650453
1.745820
1.690984
1.787543
2.086759
2.096891
2.202988
2.607703
2.603531
2.972484
3.306866
3.591776
7.090569
43.576956
124.328732
358.754992
663.364530
1015.870571
1015.870571
1015.870571
1015.870571
1015.870571
1015.870571
1015.870571
1015.870571
1006.429791
634.568930
265.467763
113.409758
29.766560
17.338991
21.255612
28.468966
42.001605
56.594610
75.960755
89.601874
100.166798
103.409886
97.305775
88.009834
69.354773
55.591464
38.288832
27.489662
17.047524
12.790561
10.186434
9.382963
9.623766
9.903908
9.843707
9.780526
9.494424
9.156466
8.997917
7.999539
8.137822
7.648468
7.430911
7.172823
7.190704
7.176995
7.036924
6.930828
6.955862
6.835461
6.834865
6.563663
6.393790
6.468892
6.554723
6.423593
6.422997
6.331801
6.335974
##ZVALUE=305
1.074672
1.208782
1.015663
1.074672
1.116991
1.162887
1.085997
1.231432
1.064539
1.199841
1.112819
1.195669
1.172423
1.385808
1.308918
1.206994
1.472831
1.425743
1.339912
1.391768
1.516938
1.578927
1.654625
1.519918
1.815557
1.848936
1.923442
1.949668
2.148747
2.265573
2.620816
2.766848
2.889633
3.502965
4.912615
23.050904
73.746443
240.587592
480.214357
966.468453
1015.871763
1015.871763
1015.871763
1015.871763
1015.871763
1015.871763
1015.871763
1015.871763
961.514711
442.059636
204.064846
55.307746
19.747615
15.279651
18.869638
28.046966
39.170980
55.226684
69.202781
85.004568
93.567967
97.431540
93.752742
82.021952
69.388747
50.608516
38.404465
25.663972
17.917752
12.619495
10.901690
10.016561
9.605885
9.157658
8.898973
8.346438
7.818937
7.327795
7.081628
7.080436
7.047653
6.796718
6.908774
6.877780
6.690621
6.471872
6.566644
6.542802
6.581545
6.430745
6.489754
6.146431
6.290674
6.028414
6.175637
6.143451
##ZVALUE=310
1.037717
0.925660
0.913739
1.052618
0.957847
1.061559
1.000762
1.124740
0.975728
0.974536
1.176596
1.022816
1.152754
1.024604
1.220703
1.227856
1.264811
1.143813
1.322627
1.324415
1.227856
1.262426
1.557469
1.304746
1.464486
1.751781
1.713634
1.581907
1.899600
1.987815
2.160668
2.033710
2.434850
2.574921
2.611876
3.165603
3.490448
9.195805
33.001900
132.327676
293.356776
687.912703
1015.870571
1015.870571
1015.870571
1015.870571
1015.870571
1015.870571
1015.870571
1015.870571
1015.870571
647.758842
333.294868
104.962587
33.997893
12.719631
13.155937
16.717911
22.523999
34.638643
46.080947
63.895583
75.812936
87.175965
91.422796
88.956952
80.935955
66.615939
53.392649
37.368536
27.517676
18.412471
13.680458
10.518432
8.958578
7.865429
7.376671
6.930828
6.597638
6.423593
6.251931
6.407499
6.498694
6.172657
6.377697
6.401539
6.320477
6.392598
6.300807
6.061792
6.081462
6.010532
6.082654
6.016493
6.045699
6.230474
##ZVALUE=315
0.779629
0.786781
0.875592
0.844598
0.961423
0.869632
0.861883
1.031756
0.984669
1.026988
0.839829
1.058578
1.024604
1.018643
1.091957
1.131892
1.207590
1.152754
1.170635
1.170635
1.204610
1.217723
1.287460
1.221895
1.426935
1.484752
1.435876
1.669526
1.599789
1.712441
1.679659
1.883507
1.965761
2.077818
2.149940
2.418756
2.642870
3.042817
3.271699
4.773736
15.647411
77.164769
190.868974
489.623547
869.146585
1015.870571
1015.870571
1015.870571
1015.870571
1015.870571
1015.870571
1015.870571
1015.870571
853.195786
464.732647
161.121488
55.886507
14.742613
10.540485
12.006760
14.790893
21.794438
29.792786
43.668747
55.875778
71.980953
81.162453
86.793900
84.523559
76.157451
65.819621
50.165653
38.256645
24.608970
17.416477
11.325479
8.903742
7.151961
6.506443
6.292462
5.962849
5.968809
5.929470
5.775690
5.912781
5.978942
5.947948
5.732775
5.843639
5.800724
5.840659
5.862713
5.963445
5.697608
5.755424
5.548596
##ZVALUE=320
0.801682
0.833869
0.753999
0.866652
0.844598
0.694990
0.685453
0.934601
0.860691
0.888705
0.897646
0.912547
0.994802
0.885725
0.916719
0.949502
1.019835
0.918508
1.049638
1.102686
1.019835
1.194477
1.332760
1.187921
1.263618
1.427531
1.243949
1.103878
1.439452
1.427531
1.519918
1.591444
1.552701
1.694560
1.768470
1.818538
1.854897
2.229810
2.429485
2.619624
2.853870
3.280640
6.978512
38.408637
112.520456
342.931747
615.893006
1015.783548
1015.783548
1015.783548
1015.783548
1015.783548
1015.783548
1015.783548
1015.783548
1015.783548
671.723485
281.192660
115.563869
24.914742
10.904670
9.606481
10.376573
13.506413
17.964840
28.281808
38.383603
52.752495
64.688921
77.320933
81.196427
80.458522
74.542761
60.621500
48.913956
33.383965
24.074912
15.229583
10.688901
7.169843
6.418824
5.851984
5.209446
5.595684
5.401969
5.372763
5.321503
5.375743
5.252957
5.352497
5.291700
5.170703
5.573630
5.535483
5.490780
5.474687
##ZVALUE=325
0.828505
0.896454
0.881553
0.725985
0.758767
0.829697
0.749826
0.730753
0.944734
0.911951
0.946522
0.921488
0.918508
0.890493
0.978708
0.882745
0.997782
0.931621
0.927448
0.955462
1.169443
0.966787
1.160502
1.082420
1.206994
1.162887
1.108646
1.280904
1.409650
1.398921
1.423955
1.348853
1.508594
1.556873
1.633763
1.700521
1.822710
1.952648
2.117753
2.034903
2.134442
2.444983
2.846718
2.985597
4.282594
24.785995
73.144436
223.377347
439.063907
917.438865
1015.870571
1015.870571
1015.870571
1015.870571
1015.870571
1015.870571
1015.870571
1015.870571
801.343918
363.113880
167.819858
42.778850
13.968945
8.746982
8.603930
9.751916
12.108684
18.206835
25.603771
38.219690
49.993992
63.103437
71.329474
76.718926
74.705482
66.132545
56.794882
42.268634
32.161474
20.775795
14.315844
9.130836
7.296801
6.089807
5.461574
5.077720
5.201697
5.054474
5.089641
4.991889
5.115867
5.003810
5.249977
5.238652
5.122423
5.240440
##ZVALUE=330
0.682473
0.792742
0.633597
0.792742
0.641942
0.603795
0.664592
0.674725
0.793934
0.880957
0.860691
0.770688
0.688434
0.967979
0.812411
0.883937
0.952482
0.949502
0.955462
0.945926
0.908971
1.077652
0.936985
0.894666
1.135468
1.083612
1.120567
1.176000
1.145601
1.268983
1.234412
1.342893
1.394749
1.341701
1.487732
1.451969
1.566410
1.815557
1.621842
1.705885
1.856685
1.909733
1.929998
2.137423
2.334714
2.847910
3.230572
9.941459
35.786629
143.056512
305.159688
678.848624
1010.250449
1015.870571
1015.870571
1015.870571
1015.870571
1015.870571
1015.870571
1015.870571
959.028006
469.622016
233.522654
73.388815
22.903681
8.759499
8.103848
8.126497
9.176731
12.786984
16.783476
24.825931
33.697486
47.926903
56.657791
67.247748
70.115924
68.879724
63.354969
51.019788
40.788651
28.349757
20.664930
13.970733
10.307431
6.970763
6.033778
5.309582
5.187988
4.925728
4.812479
4.846454
4.919767
4.893541
4.952550
5.032420
##ZVALUE=335
0.623465
0.729561
0.845790
0.619888
0.713468
0.711679
0.574589
0.787973
0.715852
0.768900
0.781417
0.930429
0.972748
0.902414
0.818968
0.979900
0.740886
0.909567
0.890493
0.865459
0.830889
0.921488
0.933409
1.052618
1.111627
1.107454
0.996590
0.982881
1.103878
1.097918
1.362562
1.193881
1.128912
1.255870
1.364946
1.314878
1.392961
1.323819
1.538992
1.656413
1.630783
1.645684
1.824498
2.045631
2.085567
2.264977
2.362728
2.614856
2.870560
4.822612
16.950965
83.088875
196.934938
493.533015
854.393840
1015.875936
1015.875936
1015.875936
1015.875936
1015.875936
1015.875936
1015.875936
1015.875936
652.266741
352.766514
120.232701
39.702654
10.106564
8.258820
7.845759
7.971525
8.971691
10.957718
16.155839
21.775961
33.092499
41.906834
53.880811
60.280561
65.312982
64.731836
57.598948
50.196648
38.762689
30.284524
20.214915
14.398694
9.510517
7.351637
5.874634
5.136728
4.824996
5.104542
5.038977
5.074739
5.041957
##ZVALUE=340
0.758767
0.685453
0.690818
0.727773
0.715852
0.700951
0.792742
0.721812
0.795722
0.800490
0.701547
0.820756
0.759959
0.699759
0.881553
0.803471
0.822544
0.994802
0.853539
0.861883
0.902414
1.029968
0.915527
0.907779
0.949502
0.901818
0.940561
1.046658
1.091957
1.095533
1.002550
1.035929
1.177788
1.137853
1.207590
1.208782
1.217723
1.321435
1.362562
1.431704
1.500845
1.427531
1.493692
1.588464
1.668930
1.799464
2.054572
2.056956
2.261996
2.625585
2.760887
3.432631
7.830858
45.802593
128.964782
370.398760
684.647560
1015.871763
1015.871763
1015.871763
1015.871763
1015.871763
1015.871763
1015.871763
1015.871763
759.908557
429.697037
171.877742
61.320662
13.241768
8.597970
7.981658
7.711649
7.726550
8.292794
10.456443
14.125705
21.004677
28.752685
40.782690
49.526691
58.449507
61.100721
59.754848
56.548715
47.073960
39.084554
28.422475
21.331906
14.085770
9.904504
6.937981
5.940795
5.441904
5.281568
5.089641
##ZVALUE=345
0.691414
0.683665
0.861883
0.788569
0.726581
0.634789
0.813603
0.762939
0.797510
0.930429
0.864863
0.662804
0.873804
0.790954
0.743866
0.742674
0.903606
0.842810
0.702739
0.827909
0.778437
0.734925
0.941753
0.904799
0.839829
0.929832
1.052618
1.061559
0.825524
1.119971
1.006722
1.023412
0.842810
1.178980
0.980496
0.969768
1.302958
0.996590
1.224875
1.452565
1.314878
1.293421
1.439452
1.428723
1.450777
1.471639
1.700521
1.704693
1.798868
2.103448
1.945496
2.241731
2.512932
2.990961
4.280806
23.618937
76.918006
238.751769
465.359688
934.307575
1015.884876
1015.884876
1015.884876
1015.884876
1015.884876
1015.884876
1015.884876
944.624543
549.862981
213.765502
89.391470
23.222566
10.009408
8.108616
7.515550
6.898642
6.525517
7.111430
8.694530
12.887716
18.525720
27.527809
35.352707
45.327544
51.217675
56.136847
56.125522
51.956773
46.460629
37.224889
29.675961
19.889474
14.713407
10.235906
7.721782
6.208420
##ZVALUE=350
0.657439
0.692606
0.647902
0.717640
0.724792
0.790954
0.664592
0.709891
0.776649
0.762939
0.782609
0.720620
0.711679
0.887513
0.870824
0.752807
0.812411
0.727773
0.927448
0.767708
0.858903
0.823736
0.766516
0.875592
0.914931
0.981688
1.043677
1.006722
0.870824
0.915527
1.037717
0.922680
1.112819
1.045465
1.128912
0.969768
1.082420
1.192689
1.123548
1.271963
1.240969
1.239777
1.210570
1.221895
1.377463
1.396537
1.524687
1.508594
1.579523
1.762509
1.900792
2.034903
2.065897
2.259612
2.379417
2.597570
3.212690
11.137724
38.669705
144.371986
316.642523
712.808967
1015.870571
1015.870571
1015.870571
1015.870571
1015.870571
1015.870571
1015.870571
1015.870571
685.738921
308.510661
138.012767
32.074451
11.014938
7.278919
6.625652
5.844831
5.464554
5.659461
6.233454
8.491874
11.189580
17.133951
23.096800
32.138824
38.929582
46.191812
50.511956
51.556826
49.836636
42.666793
36.396980
27.415752
21.398664
14.941692
##ZVALUE=355
0.581741
0.537634
0.668764
0.684857
0.703931
0.658631
0.552535
0.755787
0.595450
0.786781
0.654459
0.599623
0.698566
0.647902
0.662804
0.800490
0.786781
0.747442
0.828505
0.802875
0.714660
0.702739
0.790954
0.819564
0.903606
0.860691
0.844598
0.715852
0.966787
1.020432
0.941753
0.944734
1.006722
0.868440
1.022816
1.017451
0.967979
1.066923
1.122952
1.198649
1.077652
1.284480
1.158714
1.113415
1.310706
1.224875
1.381636
1.440644
1.403689
1.461506
1.439452
1.690984
1.713634
1.721978
1.991987
2.085567
2.284646
2.544522
2.818704
5.331635
19.082427
91.417432
212.695599
500.581861
853.595734
1015.796661
1015.796661
1015.796661
1015.796661
1015.796661
1015.796661
1015.796661
850.178003
389.587879
183.883905
49.878955
15.554428
7.256866
6.346703
5.914569
5.207658
5.143881
5.303621
5.647540
6.919503
10.150671
13.839602
20.967722
26.468635
34.855604
41.228533
46.581626
48.093796
46.108961
42.330623
34.983754
##ZVALUE=360
0.781417
0.832677
0.760555
0.846982
0.674725
0.598431
0.758767
0.726581
0.969768
0.774860
0.781417
0.866652
0.712872
0.671744
0.789762
0.813603
0.858903
0.871420
0.914931
0.776649
0.898838
1.091957
0.854731
0.945926
1.048446
0.826716
0.979900
1.189709
0.971556
0.939965
1.140833
1.040697
0.888705
1.049638
1.010895
1.133680
1.082420
1.062751
1.188517
1.150966
1.146793
1.192689
1.151562
1.201630
1.342893
1.400709
1.268983
1.425743
1.488924
1.542568
1.589656
1.735687
1.679659
1.630783
1.702905
2.015829
2.072453
2.323985
2.261996
2.641678
3.062487
3.625751
7.856488
40.846467
112.965703
323.035717
608.048439
1015.870571
1015.870571
1015.870571
1015.870571
1015.870571
1015.870571
1015.870571
995.169878
540.128946
282.751918
99.198818
32.845736
8.429885
6.471872
5.891919
5.493760
5.280972
4.996657
4.791617
5.206466
6.299615
8.053780
12.066960
16.380548
23.899674
29.858947
37.259459
40.974617
44.250488
##ZVALUE=365
0.756979
0.819564
0.797510
0.713468
0.817776
0.784993
0.641942
0.753999
0.718832
0.736713
0.864863
0.784993
0.748634
0.759959
0.789762
0.770688
0.902414
0.852942
0.787973
0.912547
0.874996
0.787973
0.823736
0.836849
0.931621
0.874996
0.853539
0.979900
0.938773
1.056790
0.940561
0.990629
1.096725
0.995994
0.987649
1.040697
1.027584
1.156926
0.970960
1.171827
1.181960
1.081824
1.262426
1.124740
1.251698
1.180768
1.227856
1.275539
1.226664
1.329780
1.266599
1.356602
1.394749
1.480579
1.643896
1.662970
1.727939
1.837611
1.849532
2.048612
2.162457
2.767444
2.775788
3.227592
4.539490
20.480752
64.923763
206.258893
430.177450
889.394879
1015.870571
1015.870571
1015.870571
1015.870571
1015.870571
1015.870571
1015.870571
755.428672
422.359705
149.930716
53.742528
10.774732
6.600618
5.706549
5.328655
4.931688
4.658699
4.562736
4.472733
4.787445
5.505681
7.730722
10.163784
14.503598
19.020438
26.610494
##ZVALUE=370
0.761747
0.665784
0.708699
0.636578
0.799894
0.581741
0.678897
0.668764
0.730753
0.796914
0.690818
0.668764
0.695586
0.626445
0.788569
0.899434
0.797510
0.829697
0.825524
0.611544
0.730753
0.753999
0.802875
0.987649
1.031756
0.857711
0.703931
1.028776
0.858903
0.870824
0.939965
0.930429
0.910759
0.965595
0.997782
0.975728
1.057982
1.008511
0.951886
0.974536
1.040697
1.119971
0.953674
1.047850
1.215935
1.051426
1.029968
1.149774
1.107454
1.274943
1.194477
1.342893
1.140833
1.183748
1.350641
1.366735
1.424551
1.363754
1.477599
1.723766
1.773834
1.864433
2.180934
2.189875
2.444983
2.610683
3.269911
10.402799
37.323833
147.126913
308.714509
661.376715
997.405648
1015.879512
1015.879512
1015.879512
1015.879512
1015.879512
1015.879512
932.100415
560.459495
229.685903
97.744465
22.187829
7.763505
5.402565
5.185604
4.970431
4.736781
4.409552
4.618764
4.722476
4.851818
5.770922
6.746650
9.172559
##ZVALUE=375
0.679493
0.556707
0.668764
0.607967
0.729561
0.633597
0.687838
0.643730
0.761747
0.763535
0.731945
0.733733
0.705719
0.622869
0.590682
0.731945
0.747442
0.706911
0.698566
0.753999
0.652671
0.694990
0.677705
0.674725
0.834465
0.783801
0.928640
0.900626
0.762939
0.866652
0.822544
0.801682
0.838637
0.946522
0.986457
0.721812
0.751615
0.977516
0.951886
0.974536
0.814795
1.031756
0.897646
1.064539
0.831485
1.041889
1.021624
0.990629
1.140833
1.150966
1.096725
1.088977
0.926852
1.176000
1.167655
1.269579
1.031756
1.276731
1.359582
1.424551
1.397729
1.542568
1.584888
1.713634
1.644492
2.098680
2.262592
2.521873
2.901554
5.488992
18.108487
79.376698
191.555023
491.102934
836.168528
1015.870571
1015.870571
1015.870571
1015.870571
1015.870571
1015.870571
1015.870571
725.767612
350.877643
177.092552
51.587820
15.876889
5.924702
5.180836
4.770756
4.849434
4.931688
4.880428
4.908442
4.730821
5.090833
##ZVALUE=380
0.506639
0.555515
0.571609
0.625849
0.635982
0.606775
0.547767
0.565648
0.599623
0.613928
0.630617
0.763535
0.795722
0.682473
0.634789
0.752807
0.897646
0.671744
0.625849
0.579953
0.629425
0.732541
0.664592
0.756979
0.673532
0.707507
0.678897
0.687838
0.905991
0.911951
0.757575
0.868440
0.953674
0.948906
0.829697
0.885725
0.734925
0.852942
0.803471
0.991821
0.811815
0.833869
0.959635
1.052618
0.951886
0.995994
0.932813
1.096725
0.860691
1.002550
0.868440
0.985861
1.069903
0.942945
1.029968
1.037717
1.088977
1.061559
1.127720
1.082420
1.209974
1.235604
1.381636
1.378655
1.430511
1.808405
1.834631
2.065897
2.232790
2.848506
2.880692
3.689528
9.529591
52.520633
139.608979
379.116535
669.058561
1015.831828
1015.831828
1015.831828
1015.831828
1015.831828
1015.831828
1015.831828
942.576528
493.667722
262.587667
89.599490
31.570792
7.985830
5.355477
5.220771
5.033612
5.071759
4.961491
4.926920
##ZVALUE=385
0.648499
0.602603
0.449419
0.560880
0.612736
0.601411
0.553727
0.600815
0.649691
0.733733
0.642538
0.600815
0.740886
0.607967
0.541806
0.512600
0.649691
0.704527
0.567436
0.583529
0.612736
0.675917
0.773668
0.643730
0.783801
0.684857
0.751615
0.794530
0.843406
0.958443
0.785589
0.912547
0.898838
1.018643
0.987649
0.991821
1.042485
0.859499
0.923872
0.927448
0.894666
0.897646
0.896454
1.092553
1.038909
0.936985
0.946522
1.019835
1.044869
1.057982
0.893474
1.044869
1.062751
0.966787
1.015663
1.109838
0.929832
1.061559
1.104474
1.144409
1.112819
1.245737
1.205802
1.318455
1.444817
1.675487
1.701713
1.895428
2.073646
2.127886
2.388954
2.435446
2.588630
2.668500
4.688501
27.722716
83.383918
248.083472
475.911498
928.256512
1015.870571
1015.870571
1015.870571
1015.870571
1015.870571
1015.870571
1015.870571
690.176487
408.257842
170.590878
66.510439
13.485551
6.343722
5.382895
5.124807
5.045533
##ZVALUE=390
0.657439
0.555515
0.560880
0.490546
0.666976
0.556707
0.579953
0.541806
0.565648
0.725985
0.631809
0.508428
0.632405
0.466704
0.521541
0.568628
0.586510
0.679493
0.520945
0.697970
0.801682
0.579953
0.570416
0.570416
0.701547
0.660419
0.760555
0.801682
0.950694
0.896454
0.929832
0.972748
0.849962
0.872612
0.900626
0.959635
0.994802
0.989437
0.978708
1.137853
1.131892
1.081824
1.010895
1.108646
1.013875
1.095533
1.105666
0.944734
0.901818
1.081824
1.030564
1.053810
0.970960
1.043677
1.032948
0.982881
1.154542
1.105666
1.192689
1.108646
1.102686
1.199841
1.265407
1.387596
1.561642
1.419783
1.764894
1.885891
2.043843
2.355576
2.231598
2.281666
2.172589
2.404451
2.259612
2.466440
3.070831
14.043450
54.183006
194.267631
395.150781
806.306601
1015.871763
1015.871763
1015.871763
1015.871763
1015.871763
1015.871763
1015.871763
959.070921
595.801473
256.749988
114.580989
27.045608
8.779764
5.292892
##ZVALUE=395
0.637770
0.748634
0.612736
0.662804
0.562668
0.589490
0.294447
0.379682
0.644922
0.618696
0.767708
0.529885
0.614524
0.492930
0.483990
0.622869
0.618696
0.627637
0.698566
0.516772
0.717640
0.706911
0.623465
0.659823
0.808835
0.713468
0.725985
0.811815
0.829697
0.786781
0.692606
0.939965
0.923872
0.814795
0.956655
1.075864
0.869632
0.918508
1.031756
0.949502
0.976920
1.095533
1.062751
1.206994
0.984669
1.032948
1.028776
0.979900
1.104474
1.113415
1.028776
1.061559
1.094937
1.011491
1.007915
1.010895
1.076460
1.093745
1.048446
1.039505
1.071692
1.110435
1.303554
1.275539
1.397729
1.517534
1.498461
1.686811
1.651645
1.879930
2.029538
1.963973
1.970530
1.910925
1.905560
1.917481
1.999736
2.425909
2.636909
7.330775
32.006502
134.786963
279.498696
587.186813
926.612616
1015.870571
1015.870571
1015.870571
1015.870571
1015.870571
1015.870571
1015.870571
762.674809
355.694890
174.132586
53.643584
##ZVALUE=400
0.742674
0.716448
0.639558
0.806451
0.560880
0.480413
0.576973
0.626445
0.577569
0.585914
0.644922
0.566840
0.545979
0.539422
0.458956
0.616908
0.690818
0.684857
0.621676
0.646710
0.550747
0.592470
0.776649
0.592470
0.678897
0.685453
0.730753
0.849962
0.887513
0.900626
1.079440
0.983477
0.779629
1.030564
1.135468
0.902414
1.051426
0.966787
0.938773
1.130700
1.104474
1.103878
1.145601
1.104474
1.054406
1.037717
0.916719
1.039505
1.005530
1.139641
1.056790
1.193881
0.986457
1.176000
1.002550
0.978708
1.071692
1.027584
0.946522
1.109838
1.084805
1.230836
1.113415
1.265407
1.436472
1.506805
1.659989
1.782775
1.868606
1.949668
1.833439
1.695752
1.659989
1.744628
1.731515
1.695752
1.731515
1.987815
2.096891
2.344847
2.421737
4.278421
14.180541
67.417622
168.084502
432.994962
739.231706
1015.870571
1015.870571
1015.870571
1015.870571
1015.870571
1015.870571
1015.870571
934.868455
506.945848
##END
