##TITLE=DDW01
##FORMAT=SPECTACLE-ASCII V-1.2
##DATA TYPE=ULTRAVIOLET SPECTRUM
##SECOND TYPE=ULTRAVIOLET SPECTRUM
##DATE=01/11/18
##TIME=17:50:26
##SPECTROMETER/DATA SYSTEM=SPECTACLE
##XUNITS=NM EM
##YUNITS=ENERGY
##YFACTOR=1
##FIRSTX=220
##LASTX=410
##NPOINTS=96
##3DDATA=Equidistant
##ZUNITS=NM EX
##FIRSTZ=210
##LASTZ=400
##ZPOINTS=39
##XYDATA=(Y..Y)
##ZVALUE=210
16.615987
15.789866
13.589859
12.862682
10.605454
10.385513
11.599660
7.915497
7.206798
5.807877
4.425645
4.207492
3.534555
2.412796
2.393723
3.014803
3.259778
2.831817
3.256798
3.268719
3.098845
3.628731
3.606677
3.546476
3.218651
3.381968
3.984571
3.412962
3.888607
3.257990
4.624724
3.993511
4.332662
4.493594
4.575849
4.588962
5.077720
4.310608
4.404783
5.035996
4.059672
4.747510
5.859733
5.607605
4.586577
5.038977
5.268455
4.734993
4.460812
4.617572
4.414916
5.695820
5.564690
5.190969
4.935861
5.907416
6.182790
5.096793
5.448461
5.174875
5.165935
5.747676
5.521774
5.783439
5.576611
5.635619
5.385876
5.914569
6.620884
8.218884
9.574890
9.751916
10.444522
11.674762
13.824701
12.224913
12.846589
13.844967
12.095571
11.214614
10.598898
9.680986
8.528829
7.969737
6.821752
6.410480
5.352497
5.510449
5.848408
6.471872
7.950664
11.209846
16.431808
23.281574
29.049516
36.072731
##ZVALUE=215
41.913986
41.222572
33.837557
28.924942
24.852753
19.571781
17.127991
15.969872
17.783642
14.640689
13.374686
9.798408
7.619858
5.253553
3.833771
2.807975
3.430843
3.337860
3.157854
3.975630
3.021955
4.053712
3.274679
3.230572
3.367662
3.707409
3.900528
3.499985
4.099607
4.850626
4.218817
4.243851
4.977584
4.736781
4.738569
4.510880
4.657507
5.368590
6.007552
5.879998
5.002618
5.825758
5.166531
4.893541
5.653501
5.054474
5.635619
5.627871
5.426407
5.304813
6.039739
5.644560
6.000996
5.776882
6.017685
4.713535
5.980730
5.940795
5.620718
5.128980
5.484819
6.340742
6.592870
6.221533
6.427765
6.040931
5.879998
6.718636
6.399751
6.523728
7.399917
9.688735
9.591579
11.672974
11.169910
11.706948
13.771653
11.439919
11.275411
9.643435
10.403991
8.919835
7.880926
6.803870
7.071495
6.652474
6.309748
4.616976
4.957914
4.740953
5.090833
4.848838
4.453659
6.475449
7.912517
11.076927
##ZVALUE=220
89.552999
86.834431
89.021921
77.514648
66.868663
53.575635
41.377544
31.093955
26.961565
26.608706
25.847554
24.992824
22.266507
20.501614
15.765429
11.432767
7.846951
5.399585
4.506707
3.528595
3.556609
3.558993
3.836751
4.053712
3.533959
3.904700
4.166961
4.711747
4.344583
4.606843
4.504919
6.102920
4.428625
6.535649
4.663467
6.028414
5.582571
5.433559
5.154610
6.061792
5.561709
5.688667
5.463958
5.340576
5.495548
4.292727
5.742908
5.977750
5.690455
5.968809
6.120801
5.865693
5.988479
6.010532
6.485581
6.863475
6.672740
5.882978
6.105900
6.509423
6.394982
6.866455
7.291436
5.925894
6.283522
6.087422
6.960630
7.500648
6.675720
7.542968
8.676648
9.375811
11.196733
10.837913
11.707544
11.371970
12.836456
11.790991
10.565519
11.441708
10.597706
9.789467
8.211732
7.626414
6.377697
6.500483
5.277991
5.132556
4.795790
4.698634
5.441904
4.327893
4.792809
5.506873
5.195737
4.349947
##ZVALUE=225
100.586414
106.285810
129.459500
149.613619
155.357718
145.924687
129.588842
94.586611
72.721839
53.032637
44.848919
42.851567
42.335987
41.675568
40.493608
34.344792
29.872656
22.256970
16.674995
11.101961
6.916523
5.381703
4.347563
4.623532
4.402995
4.374981
4.470944
5.236864
4.490614
5.107522
5.716681
5.524755
5.680919
5.610585
5.780458
6.050467
5.513430
5.937815
5.523562
5.824566
5.907416
5.754828
6.011724
6.786585
6.331801
5.527735
6.092787
6.223917
6.345510
6.853938
6.471872
6.871819
7.316470
6.471872
6.621480
6.753802
6.947517
5.965829
7.328987
7.629991
7.936954
7.687807
6.799698
8.137822
6.963611
6.813407
7.453561
7.894635
7.401705
9.222627
9.539723
9.742975
9.173751
10.118484
11.527538
11.788607
11.061430
10.988712
10.754466
9.915829
9.391904
8.992553
9.023547
7.228851
6.460547
6.296635
5.921721
5.702972
5.548596
6.116629
5.240440
5.392432
5.334616
5.119443
5.430579
5.470514
##ZVALUE=230
61.425567
69.864988
115.430951
157.507658
198.225975
245.665908
254.543424
247.259736
219.888687
168.280005
127.310753
94.648600
71.324706
61.479807
61.337948
64.424872
67.440867
59.979558
52.713752
40.467978
31.986833
20.923615
12.980700
8.828640
5.790591
5.903840
5.233884
5.222559
6.066561
5.991459
5.097985
6.321669
5.846620
6.195903
5.436540
6.738901
6.079674
5.816817
6.046891
6.359816
6.271601
6.890893
6.473660
6.825924
6.336570
6.701946
6.273985
6.395578
5.930662
7.160902
6.581545
7.049441
6.726980
8.059740
8.088946
8.140802
7.981658
8.063912
8.148551
8.034706
7.513762
8.239746
8.454919
8.395910
8.448958
8.723736
8.588433
8.590817
9.332895
9.392500
10.036826
10.878444
11.532903
11.626482
11.600852
11.586547
12.092590
11.602640
12.155771
10.320544
9.652972
9.035468
9.191632
7.592440
6.737709
7.187724
6.367564
5.854964
6.264448
6.321669
6.367564
5.694628
5.796552
6.056428
5.536675
5.753636
##ZVALUE=235
18.735528
39.326549
43.238997
91.538429
144.104958
212.378502
295.904875
361.485481
408.511758
406.520963
354.525447
290.239453
226.245522
146.165490
109.902620
88.377595
86.714625
91.261864
93.483925
95.422864
88.187456
76.476932
54.790974
42.697787
24.640560
16.854405
11.505485
8.558631
6.334782
7.278919
6.851554
7.053614
6.676912
7.147789
7.732511
7.931590
7.254481
6.988645
6.789565
6.464720
7.778406
6.892681
6.920695
7.828474
7.615685
8.374453
7.687807
6.893873
7.648468
7.421970
7.807612
8.333921
9.055734
7.533431
8.934736
8.968711
9.137988
9.560585
9.787679
10.428429
10.063648
9.163618
9.074807
9.773970
9.174943
9.131432
9.905696
9.605885
10.067821
10.776520
12.444854
12.149811
12.987852
13.009906
13.808608
13.835430
13.515949
13.415813
13.280511
11.509657
10.936856
9.691715
9.811521
9.157658
8.696914
8.156896
7.401705
7.252693
7.738471
6.927848
7.934570
7.006526
6.434917
7.144809
6.661415
6.634593
##ZVALUE=240
2.419949
2.817512
6.254911
17.449856
39.642453
94.415545
164.712667
281.646848
383.536816
498.108864
562.347770
575.941801
536.073446
434.897542
347.052813
231.802464
166.331530
117.352605
106.563568
110.864639
121.944547
124.336481
122.085810
107.691884
86.893439
47.562718
46.977997
19.992590
19.329786
12.620687
8.926988
7.148981
6.787777
6.525517
7.017851
6.058812
6.701946
6.531477
6.258488
7.147789
6.609559
7.707477
7.125735
6.520748
6.660819
7.180572
7.331967
7.358789
6.928444
7.274747
7.985830
8.173585
8.337498
8.215904
8.848906
8.981824
8.652806
8.212924
7.900596
8.983612
9.877682
9.882450
9.729862
9.073615
10.589957
9.179711
9.763837
8.905530
10.743737
10.301471
11.812449
11.923909
13.409853
13.524890
13.415813
13.734698
13.697743
12.588501
11.234879
10.942817
10.537505
9.350777
9.772778
9.141564
8.879900
7.288456
7.811785
7.158518
7.259846
7.453561
6.792545
6.657839
6.622672
5.893707
6.263852
6.267428
##ZVALUE=245
1.928806
2.237558
1.554489
2.099872
5.253553
10.580420
36.213994
75.373650
168.764591
262.772441
422.599912
538.366437
618.187785
677.019954
663.108826
561.037660
463.717580
331.147909
232.294798
144.811869
114.356875
102.458000
120.714903
132.076740
136.935711
131.895542
117.772818
99.392533
73.248744
53.345561
39.065480
20.198822
14.662743
8.460879
6.743670
7.015467
6.067753
5.557537
6.306767
5.983710
6.028414
6.244779
6.483793
7.092953
6.765723
7.439852
6.549954
6.174445
5.823970
7.002950
6.520748
8.210540
7.329583
7.280707
6.726980
7.411838
7.341504
7.389784
7.894635
7.909536
8.144975
9.047985
8.098483
8.963943
7.674694
8.149743
8.331537
8.357763
7.971525
9.513497
10.148883
10.525584
11.151433
11.309981
11.706948
13.244748
11.566877
11.037588
10.686517
9.274483
8.770823
7.938743
7.920861
7.340908
6.949902
6.901622
6.416440
6.387830
5.956888
5.724430
6.196499
6.103516
6.222725
6.090999
5.721450
6.262660
##ZVALUE=250
1.888871
1.575947
2.098680
1.730919
1.554489
1.828671
2.994537
7.061958
26.745796
59.064627
143.772960
241.202712
352.283716
529.282689
648.748875
750.069618
765.115023
701.628923
605.063438
431.011915
303.061604
205.456614
128.618479
100.998878
106.823444
121.144652
138.958693
145.209432
139.208436
124.219656
106.760859
77.986717
60.381889
34.337640
22.855997
12.114644
8.146763
6.041527
6.055832
6.294847
5.793571
6.766915
5.732775
6.305575
6.265640
6.100535
6.217957
5.956888
6.167889
5.795956
5.879998
6.783605
6.445646
6.523728
7.076859
6.529689
6.905794
6.906986
6.882548
6.854534
6.876588
6.599426
7.262826
6.884933
7.750988
7.960796
7.401705
7.487535
8.037686
7.739663
8.083582
8.819699
10.240674
9.872913
10.307431
9.925961
10.119677
9.076595
8.986592
8.351803
7.431507
7.051826
6.679893
6.224513
5.881786
5.098581
6.005764
5.462766
4.933476
4.673600
5.331635
5.510449
5.627871
4.806519
5.078912
5.491972
##ZVALUE=255
1.195669
1.628995
1.694560
1.355410
1.692772
1.706481
1.971722
2.059937
2.400875
3.638864
15.601516
38.321614
108.676553
189.425945
333.833694
481.974483
680.525899
795.127749
859.479904
834.227800
759.118795
579.845905
418.113470
242.674947
153.330564
97.327828
91.779828
126.314759
129.638910
142.404437
151.024461
149.710774
112.854838
87.156892
57.687759
53.984523
37.657619
19.348860
13.386607
7.795691
6.530881
5.907416
5.780458
6.141663
5.561709
5.955696
5.828738
5.632639
5.619526
5.746484
6.186962
6.306767
5.865693
5.769730
6.349683
5.960464
6.177425
6.726980
6.120801
5.986691
6.211996
7.058978
6.075501
6.609559
6.171465
6.944537
6.547570
6.563663
6.180406
8.748770
7.401705
8.271933
7.738471
8.505583
8.805990
8.312464
7.897615
7.696748
7.580519
6.986856
6.644726
6.920695
5.762577
5.905628
4.889965
5.130768
4.780889
4.819632
4.835725
4.723668
4.555583
4.771948
4.140735
4.128814
4.485846
5.073547
##ZVALUE=260
1.397729
1.188517
1.439452
1.397729
1.262426
1.610518
1.423955
1.708865
1.703501
1.902580
1.850724
2.409816
7.033944
28.939843
64.354539
155.876875
259.527564
444.730520
611.876845
825.170875
927.369595
960.294604
892.107487
754.813552
525.788665
365.386605
212.237835
134.961605
86.361766
86.836815
107.830763
127.592683
151.842833
156.780481
149.420500
139.178634
113.691688
88.141561
57.357550
40.299892
22.470951
14.578700
8.381605
6.561875
6.329417
5.759597
5.481839
6.168485
6.019473
6.411672
6.061792
6.040931
6.641746
5.714893
5.578995
5.258918
5.917549
5.432963
5.803704
6.007552
5.790591
5.991459
5.813837
5.597472
5.733967
6.555915
5.895495
6.434917
7.092953
6.549954
6.412864
6.990433
7.079840
7.696748
7.561445
7.270575
7.740855
6.918907
6.644726
6.424785
5.497932
5.256534
5.216599
4.525781
4.347563
4.496574
4.840493
4.731417
4.306436
3.883839
4.551411
3.973842
4.133582
4.271865
3.889799
3.947616
##ZVALUE=265
1.438856
1.466870
1.374483
1.264811
1.235604
1.266599
1.328588
1.461506
1.428723
1.486540
1.578927
1.728535
1.880527
1.937747
3.916621
19.217730
48.288703
125.343800
218.079686
423.341990
602.644682
769.749880
978.395939
1015.724540
1003.375649
890.781879
684.522986
493.558645
277.110934
172.158480
99.066496
77.843666
83.034635
114.042759
134.375691
154.332519
159.068704
153.363943
138.487816
111.070871
86.980462
58.378577
37.869811
21.714568
13.502836
8.493662
6.609559
5.970597
6.108880
5.443692
6.316900
6.223917
6.155968
5.903840
6.037951
5.895495
5.762577
6.092787
6.336570
6.724596
5.554557
6.036758
5.826950
6.154776
6.041527
5.919933
5.895495
6.116629
6.186962
6.111860
6.295443
6.785989
6.956458
6.887913
7.147789
6.576777
6.767511
6.856918
6.045699
5.520582
5.018711
4.972816
4.886985
4.951954
4.492998
4.329681
3.900528
3.839731
4.464984
4.034638
4.300475
3.947616
4.008412
3.365874
3.964901
4.176497
##ZVALUE=270
1.187921
1.197457
1.274943
1.298785
1.284480
1.099706
1.257658
1.355410
1.299977
1.121759
1.458526
1.719594
1.696944
1.915693
1.809597
1.926422
2.481937
9.607673
26.618838
86.558461
167.707801
282.026529
536.695719
747.229457
986.371636
1015.716791
1015.716791
1011.836529
822.222829
633.823872
402.679443
252.183676
127.080679
79.241991
67.948699
82.912445
114.626884
136.090517
155.918002
162.833929
154.968500
141.852498
111.691952
88.404417
57.284832
40.680766
24.123788
15.516877
9.139776
7.068515
5.941987
6.256700
6.195903
6.006956
6.465912
6.432533
6.348491
6.583929
6.289482
6.489754
5.785823
6.150603
6.472468
6.244779
5.990863
6.100535
5.572438
5.620718
5.803704
6.267428
6.094575
6.744862
6.322861
6.771684
6.841421
6.247759
6.404519
6.501675
5.558729
5.689859
5.134940
4.430413
4.614592
4.239678
4.258752
3.937483
3.920794
3.723502
3.880858
4.257560
3.406405
3.436804
3.754497
3.665686
3.722906
3.747940
##ZVALUE=275
1.078844
1.363754
1.061559
1.275539
1.001954
1.140833
1.142621
1.054406
1.222491
1.184940
1.259446
1.398921
1.538992
1.383424
1.536608
1.504421
1.508594
1.762509
1.858473
4.564524
15.611649
42.067766
130.568743
248.094797
481.919646
672.766566
915.212035
1015.681624
1015.681624
1015.681624
978.192687
794.152021
579.680800
318.642855
187.691450
87.723732
57.803988
62.401891
82.092881
112.583637
132.902861
152.802467
159.294605
154.104829
139.699578
111.969709
87.147951
59.656501
41.005611
24.174452
15.180707
9.697676
7.445812
6.502867
6.349683
6.544590
6.465912
6.569624
6.743670
6.525517
6.684661
6.328821
6.480813
6.026626
6.100535
5.948544
6.037951
5.963445
6.012917
6.263852
6.245971
6.122589
6.761551
6.658435
6.265640
6.677508
6.087422
5.829930
6.241798
4.960895
4.794598
4.683733
4.240870
3.855824
3.664494
3.954768
3.860593
3.765821
3.751516
3.680587
3.445745
3.335476
3.459454
3.446937
3.529787
3.616810
##ZVALUE=280
0.971556
0.990629
1.150966
1.145601
1.105666
1.116991
1.131892
1.152754
1.095533
1.151562
1.224875
1.286864
1.293421
1.128912
1.276731
1.623631
1.507998
1.509786
1.592636
1.805425
2.040863
2.388954
9.466410
30.686855
99.727511
191.622972
377.394557
565.726757
835.832953
1008.046865
1015.681624
1015.681624
1015.681624
885.259509
677.877665
400.905013
244.030952
113.447905
62.682629
45.047998
55.922866
84.274411
106.426477
136.188865
151.133537
154.973865
150.581598
132.285953
113.244653
85.011721
61.417818
38.404465
25.729537
15.038848
10.064840
7.538795
6.836653
6.468892
6.798506
6.922483
6.714463
6.637573
6.959438
6.818771
6.370544
6.244779
6.628633
6.507635
6.094575
6.178617
6.464720
6.411672
6.661415
6.897449
6.569624
6.603599
6.061792
5.893707
5.628467
5.026460
5.277991
4.538894
4.106760
4.213452
3.835559
3.674626
3.396869
3.389716
3.532767
3.601909
3.572702
3.458858
3.418922
3.259778
3.789663
3.534555
##ZVALUE=285
1.076460
1.005530
0.951886
0.889897
1.203418
1.108646
0.830889
0.982881
1.050830
1.133680
1.297593
1.171827
0.935793
1.067519
1.066923
1.156926
1.193881
1.425743
1.464486
1.589656
1.577735
1.636744
1.923442
2.192855
5.237460
16.125441
54.949522
115.194917
265.285969
433.548689
633.329749
917.287469
1015.697718
1015.697718
1015.697718
1002.299786
818.494558
529.509783
341.517925
169.606805
86.517930
40.781498
35.849810
54.903626
74.296594
105.695724
125.565529
144.894719
153.468847
147.982836
136.053562
109.503865
88.710785
60.280561
42.949915
25.516748
16.967654
10.220408
8.592606
7.426739
7.335544
7.047653
6.721616
6.564856
6.479621
6.458759
6.527901
6.981492
6.851554
6.906986
6.665587
6.932616
6.439686
6.331801
6.777644
6.404519
5.803704
5.554557
5.714893
4.682541
4.715919
4.572868
4.330873
4.166961
3.981590
3.838539
3.845692
3.825426
3.595948
3.611445
3.547668
3.435612
3.394485
3.348589
3.243685
3.168583
##ZVALUE=290
0.957847
0.814795
1.052618
0.916719
0.767708
0.936985
0.906587
0.837445
0.881553
1.044869
0.964999
1.135468
1.132488
1.130700
0.885725
1.312494
1.380444
1.154542
1.325607
1.133680
1.317859
1.460910
1.492500
1.599789
1.764894
2.041459
2.440810
6.480813
28.306842
70.005655
145.632625
321.865678
520.419478
830.627680
1012.204885
1015.681624
1015.681624
1015.681624
970.570445
675.953031
460.273623
236.250758
127.666593
49.767494
28.942823
35.930872
50.590634
73.686838
95.243454
122.307539
137.054920
147.196651
147.472620
130.996704
112.808943
83.367825
63.377619
40.708780
27.758479
17.083883
12.088418
8.380413
8.018613
6.946921
7.535815
7.012486
6.958842
7.148981
6.787777
6.659627
7.234812
6.847978
6.688833
6.740689
6.249547
6.503463
5.974770
5.729795
5.217791
5.016923
4.654527
4.459620
4.396439
3.841519
3.931522
4.018545
3.857613
3.726482
3.662705
3.834963
3.570914
3.463626
3.377795
3.353953
2.725720
3.436804
##ZVALUE=295
0.687838
0.808835
0.877976
0.855923
0.831485
0.892878
0.863671
0.914931
0.943542
1.001954
0.978708
0.935793
1.018643
0.951886
0.840425
1.087785
1.137853
0.998974
1.208782
1.191497
1.369715
1.384616
1.321435
1.327991
1.489520
1.552701
1.622438
1.978874
2.087951
3.859997
11.573434
46.724677
107.407570
262.439847
430.985689
711.936951
943.639874
1015.681028
1015.681028
1015.681028
1015.681028
817.250609
585.227609
318.852663
179.755688
68.784952
33.298731
22.727847
30.336976
48.280954
66.217780
94.536543
113.054514
135.616660
140.185952
138.112903
125.660896
104.614496
85.982680
59.432983
42.360425
26.253462
17.583966
12.296438
9.222627
7.850528
7.219911
6.991625
7.115602
6.997585
7.008910
6.812811
6.709695
6.653666
6.525517
6.273985
6.219745
5.478859
5.552769
4.863739
4.593730
4.586577
4.168749
3.967881
4.168749
3.591776
3.630519
3.793836
3.574491
3.317595
3.282428
3.119707
3.143549
3.047585
2.974868
3.254414
##ZVALUE=300
0.710487
0.705719
0.713468
0.734925
0.844598
0.752807
0.767708
0.934601
0.783801
0.838637
0.882745
0.810623
0.943542
0.769496
0.848770
0.892878
0.984669
1.023412
1.089573
0.953674
1.056790
1.103878
1.136661
1.256466
1.272559
1.178980
1.364946
1.590848
1.641512
1.422763
1.840591
2.047420
5.984902
21.620989
75.436831
154.605508
331.210494
533.478856
837.343931
1015.681624
1015.681624
1015.681624
1015.681624
1004.683971
709.007978
475.248694
246.183872
130.729675
47.010779
22.909641
20.455718
27.334690
44.796467
60.612559
86.627603
105.924010
127.180815
133.822560
132.437944
123.980641
103.519559
83.336830
59.463978
42.803884
26.568770
18.385649
11.473894
9.365678
7.401705
6.973743
6.873608
6.852746
6.386638
6.661415
6.197691
5.848408
5.845428
5.439520
5.260706
4.926920
4.723668
4.467964
4.167557
4.119873
3.815889
4.033446
3.908873
3.334880
3.364682
3.692508
3.360510
3.100634
3.348589
3.004670
3.014803
2.825856
##ZVALUE=305
0.824928
0.666976
0.763535
0.692606
0.752807
0.678897
0.693798
0.828505
0.846982
0.957847
0.858903
0.820756
0.820756
0.765920
0.951886
0.772476
0.835657
0.875592
0.940561
1.024604
0.941753
1.125932
0.964999
1.239777
1.235604
1.343489
1.328588
1.307726
1.412630
1.625419
1.588464
1.663566
1.706481
2.033710
2.939701
14.997721
41.274428
122.868419
226.774812
448.100567
663.225651
972.831845
1015.705466
1015.705466
1015.705466
1015.705466
891.965628
584.830642
374.604464
170.757771
85.052848
28.606653
16.355515
18.670559
26.436448
43.275952
59.618950
83.910823
100.439787
119.309425
127.862692
125.492811
116.579533
98.755956
79.934597
55.153966
40.195584
25.470853
17.224550
10.715723
8.061528
7.038713
6.599426
6.405711
6.072521
5.640984
5.487800
5.025864
4.846454
4.411936
4.496574
4.167557
4.073977
3.890991
3.871918
3.525615
3.524423
3.541708
3.454685
2.950430
2.975464
2.990961
3.006458
2.972484
3.094673
2.887845
##ZVALUE=310
0.750422
0.722408
0.646710
0.851750
0.646710
0.623465
0.776649
0.695586
0.644922
0.822544
0.715852
0.926852
0.816584
1.042485
0.939965
0.935793
0.878572
0.911951
0.916719
0.976920
0.971556
1.017451
0.928640
1.036525
0.940561
1.191497
1.197457
1.285672
1.386404
1.237988
1.283884
1.227856
1.464486
1.506805
1.499653
1.782775
2.141595
6.319880
21.094680
72.329640
147.239566
316.993594
510.593653
817.736983
1015.684605
1015.684605
1015.684605
1015.684605
1015.684605
784.614086
535.831451
275.429487
146.696568
50.604939
21.309853
13.481975
16.977787
25.318861
35.423636
55.000782
72.205663
94.703436
109.209418
118.902922
117.699504
108.766556
95.904469
74.684620
57.046413
37.127733
26.173592
15.318990
10.143518
7.203817
6.152987
5.491972
4.959702
4.482865
4.464984
4.225969
3.761649
3.715754
3.515482
3.412962
3.414750
3.467798
3.254414
3.163815
3.230572
3.166795
3.121495
3.001690
2.988577
2.812743
2.801418
2.931952
##ZVALUE=315
0.597835
0.742674
0.680685
0.676513
0.698566
0.760555
0.682473
0.706911
0.807643
0.694990
0.767708
0.723600
0.823736
0.777841
0.862479
0.879765
0.900626
0.828505
0.790954
0.890493
1.011491
0.890493
1.019835
0.972748
1.021624
0.971556
1.053810
1.075864
1.070499
1.087785
1.076460
1.281500
1.383424
1.386404
1.364946
1.414418
1.534820
1.575947
1.844764
3.261566
10.842681
43.899417
101.903677
241.394639
402.300954
685.369968
903.779864
1015.689969
1015.689969
1015.689969
1015.689969
934.333801
688.622594
381.532907
210.405588
76.401830
30.075908
12.720823
11.730790
15.334487
22.057891
34.219623
47.394633
67.287683
84.353685
102.560520
109.161735
110.919476
104.880929
86.886883
72.714686
51.783919
37.903786
22.342801
14.785528
8.871555
6.618500
4.978776
4.427433
3.643632
3.448725
3.318787
3.322959
3.225803
3.026724
3.086925
3.088713
2.971888
2.856851
2.934933
2.832413
2.848506
2.804995
2.772808
2.813935
2.720952
##ZVALUE=320
0.766516
0.732541
0.719428
0.711679
0.681877
0.667572
0.632405
0.658631
0.771880
0.696778
0.777841
0.735521
0.951886
0.578761
0.825524
0.728965
0.847578
0.769496
0.789762
0.799894
0.891685
0.883937
0.766516
0.847578
0.878572
0.996590
0.887513
0.946522
0.955462
0.893474
1.398921
1.048446
1.087785
1.114607
1.195669
1.366735
1.281500
1.490712
1.390576
1.782775
1.877546
2.049804
5.086660
24.825931
62.341690
168.994665
293.628573
516.600013
724.247694
996.942520
1015.667915
1015.667915
1015.667915
1015.667915
840.349793
508.396626
301.589966
128.706694
55.390000
15.926957
9.871721
10.197759
12.400746
19.169450
27.293563
43.253899
58.299899
77.747703
91.172457
103.070736
104.138851
96.581578
86.160898
66.093802
49.720407
31.929612
22.378564
13.289452
8.623600
5.522966
4.021525
3.346801
3.284812
3.185868
2.893806
2.905726
2.916455
2.628565
2.604723
2.402663
2.771616
2.755523
2.472997
2.534986
2.599955
2.696514
##ZVALUE=325
0.718832
0.790954
0.835657
0.721812
0.892878
0.811815
0.910759
0.889897
0.816584
0.885725
0.840425
0.910759
1.039505
0.986457
0.764728
0.829697
0.801682
0.892878
0.763535
0.925660
0.844598
1.038909
0.885725
1.016855
0.871420
1.009703
1.141429
0.968575
1.105666
1.078844
1.064539
1.119971
1.042485
1.114607
1.225471
1.215935
1.250505
1.414418
1.338720
1.413822
1.557469
1.662970
1.807809
2.090931
3.201962
16.354918
41.710734
113.716722
210.208893
416.218638
604.276657
875.651836
1015.806794
1015.806794
1015.806794
1015.806794
927.575827
630.545020
409.160852
191.913843
90.125799
24.232864
10.466576
7.804632
8.453727
11.738539
16.157627
27.139783
39.111972
58.690906
72.749853
87.981820
95.291734
96.957684
90.961456
75.675845
61.785579
43.487549
31.413436
18.376708
11.491776
6.706715
4.810691
3.580451
3.028512
2.800822
2.685785
2.776980
2.629757
2.655983
2.747774
2.633929
2.469420
2.380610
2.729893
2.608895
##ZVALUE=330
0.760555
0.820756
0.750422
0.775456
0.506639
0.747442
0.539422
0.566840
0.728965
0.716448
0.693798
0.724792
0.887513
0.861883
0.615716
0.740886
0.713468
0.703931
0.808835
0.676513
0.761747
0.670552
0.804663
0.745654
0.811815
0.839829
0.772476
0.782609
0.789762
0.874996
0.809431
0.763535
0.956655
1.069903
1.093745
1.145601
0.991821
1.135468
1.252890
1.240969
1.039505
1.288652
1.295805
1.349449
1.831651
1.803637
1.968741
6.907582
21.779537
74.258447
147.575736
308.579803
474.606752
734.763741
925.551653
1015.704870
1015.704870
1015.704870
960.463881
702.983737
499.886870
259.870887
139.907598
47.823787
15.652776
7.157922
6.500483
7.434487
9.861588
16.286969
23.770928
37.924647
51.256418
70.526600
80.965757
89.115500
89.530945
83.447695
72.132945
54.108500
41.371584
26.529431
18.464923
11.289716
7.623434
4.595518
3.384948
2.904534
2.709627
2.607703
2.214909
2.334714
2.254844
2.243519
2.298951
2.479553
##ZVALUE=335
0.602603
0.465512
0.596642
0.566840
0.725985
0.507832
0.677705
0.550747
0.608563
0.701547
0.642538
0.639558
0.681877
0.635982
0.563860
0.604987
0.684857
0.627637
0.684857
0.895858
0.802875
0.553727
0.691414
0.787973
0.708699
0.707507
0.892878
0.678897
0.738502
0.806451
0.844598
0.717640
0.866652
1.056790
0.898838
0.961423
1.038909
0.884533
0.945926
1.150966
1.094937
0.996590
1.046658
1.092553
1.189709
1.414418
1.512766
1.356602
1.673698
3.444552
10.954738
43.341517
95.434785
223.377943
371.089578
622.068644
809.645653
1005.634665
1015.681624
1015.681624
962.264538
720.956922
522.743464
300.669670
168.944597
64.659715
24.265647
7.473826
6.236434
6.005764
6.665587
9.502769
13.987422
23.506880
34.172535
50.487518
63.603520
76.211691
82.793832
82.953572
78.221560
65.639615
54.387450
38.969517
29.068589
18.175840
11.986494
7.127523
5.043745
3.294945
2.798438
2.444983
2.554655
2.514720
2.506971
2.326965
##ZVALUE=340
0.554919
0.680685
0.569820
0.514984
0.513792
0.537634
0.584722
0.395775
0.579953
0.626445
0.496507
0.632405
0.665784
0.651479
0.588894
0.727773
0.863671
0.721812
0.602603
0.655651
0.641942
0.501871
0.691414
0.777841
0.776649
0.543594
0.578761
0.803471
0.679493
0.803471
0.626445
0.870824
0.903606
0.844598
0.773668
0.764728
0.819564
0.691414
0.910759
0.967979
0.958443
1.017451
1.005530
1.143813
1.088977
1.136661
1.234412
1.300573
1.342893
1.449585
1.629591
1.881719
7.444620
22.655725
72.951913
148.036480
323.048830
483.189821
715.670586
879.326463
1015.681624
1015.681624
959.133506
804.621577
548.366904
362.247825
177.580714
87.646842
24.900436
9.011626
5.955696
5.917549
5.796552
6.558895
8.673668
13.071895
21.630526
31.338930
46.838522
59.304833
71.652532
76.729655
77.740550
72.903633
63.518882
52.764416
38.603544
28.642416
17.819405
11.830926
6.858706
4.662871
3.127456
2.745986
2.420545
2.451539
##ZVALUE=345
0.556707
0.401735
0.628829
0.512600
0.499487
0.667572
0.570416
0.565648
0.676513
0.627637
0.668764
0.603795
0.589490
0.661612
0.613928
0.588894
0.570416
0.607967
0.740886
0.625849
0.600815
0.596642
0.630617
0.784993
0.835657
0.830889
0.662804
0.604987
0.800490
0.787973
0.655651
0.630617
0.835657
0.642538
0.740886
0.751615
0.787973
0.810623
0.864863
0.910759
0.907779
0.865459
0.853539
1.026988
0.813603
1.012683
1.078844
1.086593
1.082420
1.128912
1.314878
1.413822
1.456738
1.566410
2.968907
14.764667
41.252971
111.891627
207.379460
396.702886
564.991832
797.498822
940.414667
1015.681624
998.942852
841.405988
666.798949
425.376892
253.886580
105.570555
46.623945
13.683438
6.832480
5.658865
5.367994
5.206466
5.539656
8.095503
11.601448
19.903779
29.274821
42.805672
52.736998
63.320994
69.666505
72.568655
68.385601
60.095787
51.144958
38.381815
28.059483
17.578602
11.815429
6.979704
4.899502
3.442764
##ZVALUE=350
0.579953
0.590682
0.608563
0.689626
0.552535
0.443459
0.569820
0.470877
0.625849
0.602603
0.623465
0.659823
0.582933
0.530481
0.567436
0.613928
0.477433
0.607967
0.643730
0.640750
0.694990
0.676513
0.587702
0.751615
0.671744
0.621676
0.731945
0.695586
0.827909
0.607967
0.718832
0.669956
0.676513
0.736713
0.835657
0.794530
0.866652
0.786781
0.722408
0.671744
0.767708
0.819564
0.893474
1.021624
0.984669
0.895858
1.113415
0.943542
1.018643
1.065731
1.051426
1.092553
1.046658
1.343489
1.204610
1.623631
1.876950
7.176995
22.674799
74.205995
143.510699
303.561687
457.271934
679.395795
839.958787
983.949900
997.605920
891.926885
730.292797
475.569963
309.544802
149.005651
69.933534
18.249750
7.500648
5.309582
5.238652
4.688501
4.625916
5.367994
6.906986
11.427999
17.109513
26.140809
34.585595
47.410727
56.410432
63.235760
65.659881
62.593818
57.188869
46.043992
37.251711
25.671721
18.406510
11.429787
##ZVALUE=355
0.510812
0.547767
0.591874
0.507832
0.661612
0.703931
0.692606
0.610948
0.592470
0.627637
0.604987
0.700951
0.631809
0.576973
0.536442
0.694990
0.432730
0.633597
0.526905
0.677705
0.602603
0.533462
0.653863
0.656843
0.585914
0.665784
0.625849
0.830889
0.788569
0.616908
0.615716
0.727773
0.861883
0.742674
0.741482
0.792742
0.674725
0.701547
0.838637
0.775456
0.768900
0.942945
0.945926
0.665784
0.941753
0.832677
0.800490
0.947714
0.978708
1.060963
0.960827
1.205802
1.087785
1.202822
1.262426
1.386404
1.434684
1.371503
1.555681
3.831983
12.514591
48.510432
101.741552
223.944783
365.661979
597.101450
760.619640
922.351480
977.770686
911.109447
784.123540
563.412905
378.431678
179.751515
88.761449
26.266575
9.749532
5.654693
4.952550
4.394650
4.353523
4.360676
4.778504
6.436706
8.889437
14.954805
21.630526
31.957626
39.788485
50.222874
56.439638
59.538484
57.712793
52.428842
45.088530
35.355687
##ZVALUE=360
0.431538
0.399947
0.421405
0.399947
0.317693
0.385642
0.512600
0.522733
0.477433
0.376701
0.378489
0.404716
0.362992
0.514984
0.613928
0.481606
0.441670
0.567436
0.424981
0.434518
0.508428
0.601411
0.399947
0.483990
0.518560
0.606775
0.393987
0.619888
0.365973
0.546575
0.766516
0.590682
0.438690
0.648499
0.556707
0.515580
0.533462
0.611544
0.652671
0.557899
0.846982
0.600815
0.659823
0.667572
0.703931
0.787973
0.700951
0.869632
0.813603
0.819564
0.746846
0.893474
0.959635
1.118779
1.003742
1.021624
0.888705
1.089573
1.173615
1.257658
1.504421
2.310872
5.761981
24.987459
61.154962
158.149004
272.369981
466.238856
642.564893
847.353935
935.177803
939.072967
847.269893
633.430481
449.344516
235.333443
128.306746
48.338771
17.527938
5.941987
4.717708
4.347563
3.987551
3.696680
3.839731
4.053712
4.996657
7.442832
10.530949
17.526746
24.677515
35.302639
42.650700
50.654411
53.852797
53.723454
##ZVALUE=365
0.615716
0.692606
0.615716
0.663996
0.426769
0.569820
0.552535
0.542998
0.599623
0.463724
0.576973
0.542998
0.600815
0.680685
0.662804
0.522733
0.571609
0.656843
0.717640
0.534654
0.684857
0.687838
0.551939
0.592470
0.618696
0.687838
0.671744
0.811815
0.801682
0.844598
0.579953
0.871420
0.742674
0.662804
0.701547
0.693798
0.661612
0.769496
0.823736
0.882745
0.743866
0.771880
0.763535
0.756979
0.795722
0.781417
0.873804
0.775456
0.922680
0.944734
0.716448
0.921488
0.951886
1.021624
0.953674
0.956655
1.009703
1.130700
1.176000
1.285672
1.526475
1.501441
1.608729
1.584888
3.320575
10.720491
41.342974
91.287494
217.444897
357.558727
573.076010
721.402764
875.687599
927.362442
863.340497
741.402507
523.263812
341.692567
161.181688
78.386664
22.258759
8.623600
4.860759
4.377961
3.959537
3.832579
3.480911
3.397465
3.759861
4.113913
6.399751
9.082556
15.055537
21.112561
30.085444
37.109852
##ZVALUE=370
0.562668
0.602603
0.691414
0.647902
0.655651
0.628829
0.637770
0.600815
0.660419
0.582933
0.491738
0.454783
0.536442
0.514984
0.600815
0.621676
0.615716
0.706911
0.581741
0.706911
0.588894
0.666976
0.592470
0.757575
0.604987
0.468493
0.681877
0.704527
0.650883
0.561476
0.569820
0.581741
0.669956
0.643730
0.657439
0.747442
0.778437
0.718832
0.764728
0.797510
0.661612
0.646710
0.735521
0.899434
0.724792
0.698566
0.800490
0.801682
0.727773
0.809431
0.843406
0.865459
0.777841
1.049638
0.921488
0.783801
1.009703
0.930429
0.934601
0.993609
1.023412
1.108646
1.146793
1.244545
1.261830
1.454949
1.885891
7.251501
23.345947
75.070858
146.337748
295.605659
447.134972
670.318604
808.303952
910.841823
895.603895
768.417716
611.535907
380.718708
230.664611
97.364783
43.105483
11.933446
5.436540
4.417896
3.975630
3.672838
3.424883
3.203750
3.103614
3.416538
3.732443
5.435944
7.769465
12.616515
##ZVALUE=375
0.532866
0.470877
0.565648
0.591874
0.665784
0.532866
0.606775
0.532866
0.567436
0.644922
0.553727
0.521541
0.608563
0.596642
0.613928
0.645518
0.532866
0.658631
0.629425
0.592470
0.567436
0.672936
0.635982
0.535846
0.743866
0.702739
0.630617
0.581741
0.634789
0.601411
0.489950
0.611544
0.670552
0.535846
0.518560
0.665784
0.667572
0.474453
0.613928
0.748634
0.712872
0.823736
0.692606
0.814795
0.651479
0.715852
0.808835
0.760555
0.747442
0.730753
0.690818
0.695586
0.634789
0.767708
0.725985
0.791550
0.835657
0.969768
0.803471
0.991821
0.805855
0.928640
1.106858
1.033545
1.127720
1.234412
1.242757
1.509786
1.673698
3.562570
11.681914
42.877793
95.375776
225.175619
365.722775
582.168698
734.003782
873.760581
907.129645
824.059844
687.264800
459.281802
306.605697
161.297917
83.313584
26.113987
9.132624
4.182458
3.765821
3.569722
3.438592
3.095865
2.993941
2.908707
2.865791
3.329515
##ZVALUE=380
0.501871
0.650883
0.435710
0.555515
0.595450
0.553727
0.543594
0.599623
0.496507
0.532866
0.290871
0.430942
0.419617
0.630617
0.543594
0.407696
0.550747
0.540614
0.550747
0.580549
0.564456
0.551939
0.661612
0.629425
0.574589
0.539422
0.534654
0.743866
0.499487
0.582933
0.651479
0.537634
0.748634
0.692606
0.711679
0.705719
0.741482
0.640750
0.633597
0.711679
0.600815
0.457764
0.741482
0.749826
0.668764
0.720620
0.676513
0.620484
0.698566
0.568628
0.611544
0.679493
0.822544
0.663996
0.745654
0.745654
0.730753
0.732541
0.843406
0.803471
0.724792
0.826716
0.811815
0.958443
0.810623
1.108646
1.092553
1.247525
1.369715
1.379848
1.773834
2.327561
6.729960
30.315518
72.493553
177.896619
299.649835
497.762561
660.278797
842.957497
905.259848
869.921446
759.785771
558.965802
396.037698
210.504532
113.823414
40.471554
15.212893
5.054474
3.917813
3.518462
3.477931
3.299713
2.839565
2.990961
##ZVALUE=385
0.531673
0.404716
0.448823
0.513792
0.563860
0.658631
0.621676
0.531673
0.552535
0.494719
0.504851
0.401735
0.434518
0.573993
0.526905
0.694990
0.574589
0.624657
0.477433
0.508428
0.569820
0.460744
0.428557
0.556707
0.513792
0.529885
0.596642
0.567436
0.643730
0.563860
0.488758
0.623465
0.564456
0.649691
0.647902
0.607967
0.613928
0.561476
0.608563
0.578761
0.619888
0.624657
0.680685
0.775456
0.708699
0.625849
0.609756
0.584722
0.610948
0.714660
0.690818
0.721812
0.725985
0.621676
0.794530
0.724792
0.892878
0.758767
0.764728
0.821948
0.741482
0.746846
0.841618
0.787973
0.842810
0.935793
1.003742
0.925660
1.061559
1.082420
1.240969
1.463890
1.418591
1.802444
3.366470
16.384721
43.479800
115.370750
212.978721
399.887562
563.143492
760.957003
860.252976
884.872675
823.063850
657.180548
496.179461
295.159817
176.282525
76.698661
30.782819
7.261634
4.025698
3.740788
3.435612
3.242493
##ZVALUE=390
0.386834
0.518560
0.448823
0.342727
0.328422
0.602603
0.515580
0.284910
0.452995
0.530481
0.454783
0.478625
0.472665
0.426769
0.464916
0.508428
0.561476
0.413656
0.494719
0.481606
0.446439
0.398755
0.373721
0.603795
0.444651
0.453591
0.571609
0.649691
0.483990
0.441670
0.753999
0.835657
0.649691
0.432730
0.584722
0.717640
0.669956
0.660419
0.634789
0.558496
0.708699
0.632405
0.602603
0.557899
0.739694
0.686646
0.671744
0.642538
0.660419
0.680685
0.764728
0.709891
0.755787
0.748634
0.558496
0.630617
0.699759
0.662804
0.659823
0.665784
0.716448
0.690818
0.747442
0.798702
0.851750
0.850558
0.800490
1.019835
1.063943
1.248717
1.241565
1.268983
1.170635
1.355410
1.412630
1.352429
2.131462
8.629560
26.274920
85.332990
169.989467
338.519812
483.394861
673.196912
801.362991
899.105668
885.376930
766.106844
626.216531
413.509607
257.437825
111.661553
52.763820
15.142560
5.453825
3.796816
##ZVALUE=395
0.747442
0.420809
0.559688
0.549555
0.599623
0.563860
0.440478
0.488758
0.345707
0.594854
0.711679
0.601411
0.465512
0.530481
0.473857
0.396967
0.541806
0.635982
0.491738
0.476837
0.609756
0.629425
0.558496
0.535846
0.599623
0.560880
0.652671
0.696778
0.668764
0.669956
0.581741
0.508428
0.651479
0.644922
0.623465
0.816584
0.713468
0.616908
0.617504
0.797510
0.644922
0.533462
0.740886
0.502467
0.760555
0.755787
0.733733
0.561476
0.767708
0.795722
0.603795
0.612736
0.598431
0.592470
0.617504
0.717640
0.634789
0.847578
0.676513
0.692606
0.741482
0.874996
0.782609
0.920892
0.777841
0.966787
0.914931
0.888705
1.019835
1.150966
1.058578
1.387596
1.119971
1.152754
1.264811
1.183748
1.265407
1.340508
1.464486
4.862547
16.122460
57.028532
116.905570
248.185396
383.625627
593.896508
747.558475
892.407894
926.860571
858.283639
721.246600
490.916967
330.583453
167.295933
83.446503
27.060509
##ZVALUE=400
0.759959
0.722408
0.784993
0.543594
0.585914
0.546575
0.575781
0.572801
0.591874
0.537634
0.580549
0.514984
0.731945
0.572801
0.710487
0.624657
0.589490
0.618696
0.521541
0.572801
0.579953
0.625849
0.583529
0.542998
0.544786
0.607967
0.626445
0.677705
0.645518
0.707507
0.589490
0.562668
0.483990
0.748634
0.620484
0.670552
0.664592
0.648499
0.666976
0.660419
0.768900
0.764728
0.692606
0.650883
0.824928
0.663996
0.722408
0.825524
0.684857
0.851750
0.821948
0.818968
0.673532
0.597835
0.828505
0.751615
0.738502
0.665784
0.720620
0.796914
0.635982
0.826716
0.798702
1.013875
0.890493
0.846982
0.985861
0.813603
0.960827
1.022816
1.124740
1.066923
1.158714
1.345873
1.142621
1.189709
1.128912
1.345873
1.279712
1.431704
1.674891
3.029704
9.149909
33.025742
72.845817
174.221992
294.163823
491.268635
646.728873
814.287663
890.643597
865.531564
763.933659
560.791492
396.710634
217.720866
##END
