##TITLE=DDW02
##FORMAT=SPECTACLE-ASCII V-1.2
##DATA TYPE=ULTRAVIOLET SPECTRUM
##SECOND TYPE=ULTRAVIOLET SPECTRUM
##DATE=01/11/18
##TIME=17:54:48
##SPECTROMETER/DATA SYSTEM=SPECTACLE
##XUNITS=NM EM
##YUNITS=ENERGY
##YFACTOR=1
##FIRSTX=220
##LASTX=410
##NPOINTS=96
##3DDATA=Equidistant
##ZUNITS=NM EX
##FIRSTZ=210
##LASTZ=400
##ZPOINTS=39
##XYDATA=(Y..Y)
##ZVALUE=210
21.436810
18.478632
15.697479
12.428761
10.631680
11.246800
11.590719
9.965897
8.197427
6.282926
4.929900
4.265904
3.459454
3.029704
3.139973
3.529787
3.996491
3.730655
4.229546
3.648996
3.721714
4.203916
4.463792
4.588962
5.614758
5.388856
5.551577
6.032586
5.855560
5.837679
5.123615
6.130934
6.477833
6.056428
6.908774
6.900430
6.757975
6.526709
6.266832
7.025599
6.528497
6.822944
7.218719
7.579923
7.109642
7.234812
6.618500
6.418824
6.706715
6.480813
7.992983
7.422566
7.309914
6.886721
7.825494
8.333921
6.758571
7.666945
7.445812
7.665753
7.235408
7.640719
7.554889
7.492900
8.228421
8.265972
7.136464
9.220839
9.899735
11.489987
12.350678
15.313625
16.090870
19.179583
21.900535
22.276640
22.215843
20.767450
21.364689
19.452572
17.072558
14.159679
13.328791
12.787580
10.154843
9.725690
7.808805
7.750988
8.631945
9.130836
12.769699
17.991662
22.081733
30.584931
38.024783
47.863722
##ZVALUE=215
55.371523
54.408908
45.997500
35.818815
27.124882
22.178888
18.920898
16.552806
17.048717
14.766455
12.482405
11.197925
7.844567
6.976724
5.149841
3.867745
3.966689
3.608465
4.630685
3.419518
3.865957
4.252791
4.223585
4.604459
4.822612
5.628467
5.290508
5.324483
4.694462
5.062819
5.971789
6.469488
6.632805
5.426407
6.614923
6.706715
6.360412
6.654859
7.050633
7.348657
6.776452
5.132556
6.799698
8.178949
6.637573
7.325411
7.699728
7.715821
7.819533
7.361770
6.857514
8.153915
7.531643
7.026792
6.726980
6.874800
6.537437
6.912947
8.501410
7.721782
8.018613
8.098483
7.614493
8.298755
7.969737
8.429885
8.240938
9.689927
10.365844
10.422468
11.471510
13.932586
15.756488
18.103719
19.763708
19.227862
19.791722
20.391941
20.644665
18.755794
16.868711
13.892651
13.029575
11.979938
9.784698
9.323955
8.116961
7.513762
7.140636
6.003976
6.112456
6.084442
6.564856
8.541942
10.698438
15.943646
##ZVALUE=220
107.331872
107.139945
108.436942
96.200705
84.492564
67.293644
50.672889
37.627816
32.120943
26.448965
26.094913
23.959875
22.532940
19.203424
15.745759
11.690855
8.363724
6.272793
5.655885
4.738569
3.769994
4.424453
4.096627
4.870892
5.108714
5.550981
5.012751
4.978776
6.263852
5.938411
7.157922
5.884767
6.753802
6.724596
5.592704
7.374883
7.272959
6.821752
7.075667
7.402897
6.501675
7.738471
7.900596
7.504821
8.363724
7.508993
7.427931
6.772876
7.316470
8.168817
7.463694
8.132458
8.326769
8.657575
8.169413
9.056926
8.284450
8.838773
7.653832
7.878542
8.342862
9.074807
7.966757
8.022785
9.238720
7.403493
8.602738
8.502603
10.412931
11.503696
12.024641
13.701916
15.191436
16.270876
16.523600
17.433763
17.600656
17.864704
16.052723
15.835762
15.389919
13.189912
12.556911
11.727810
9.839535
9.102821
8.106828
7.280707
6.981492
6.521940
6.288886
6.190538
6.207824
6.123781
5.543828
5.923510
##ZVALUE=225
122.859478
124.325752
150.757432
170.014501
170.395970
157.443881
139.445662
105.203986
82.936883
61.983466
47.059655
43.084621
39.924979
41.460991
40.551424
36.923885
28.739572
22.232533
17.533898
11.208653
6.954670
4.482865
4.465580
5.762577
4.997849
4.823804
5.511642
5.024672
5.766749
5.209446
6.355643
6.020665
6.131530
6.527901
5.850792
6.983876
7.041693
6.311536
7.219911
6.245971
7.848740
5.895495
7.249713
6.799698
6.441474
6.915927
6.946921
7.050633
7.318854
7.166862
6.929636
7.515550
8.485913
6.796718
8.416772
8.895993
9.498000
9.156466
8.292794
8.378625
8.365512
9.635687
8.642673
7.624626
8.063912
8.073449
7.853508
7.926822
8.367896
9.023547
10.765791
11.773705
11.699796
13.367534
13.260841
13.370514
14.172792
14.226437
12.565851
10.841489
10.841489
10.436773
9.076595
8.053780
7.046461
7.068515
6.386638
7.254481
5.904436
5.981922
5.940795
5.847812
5.200505
4.940629
6.235838
6.268620
##ZVALUE=230
76.475739
85.009933
129.984617
196.625590
231.730938
275.191665
289.776921
276.787877
240.911841
178.477764
137.006640
85.641742
70.186853
58.200955
61.475635
62.920451
63.205957
60.474873
51.877499
43.945909
29.257536
21.915436
12.190938
8.931756
5.724430
5.776882
5.958676
5.776882
5.891919
5.804896
6.421804
6.426573
6.867647
5.619526
6.258488
7.003546
6.148815
6.749630
6.455779
7.060766
6.922483
6.781816
6.784797
6.868839
7.734895
6.613731
6.920695
7.952452
7.524490
6.888509
7.726550
7.132888
8.213520
9.254813
8.411407
9.333491
9.254813
9.225607
8.512735
8.998513
9.074807
8.359551
8.344650
9.059906
8.127689
8.659959
8.217692
7.879734
9.778738
10.150671
10.213852
10.716915
11.872649
13.242960
13.107657
13.153553
12.806654
12.733936
11.147857
10.683537
9.608865
10.049939
7.585883
7.946491
7.428527
7.654428
6.529689
6.435513
6.028414
5.686879
6.347895
5.223751
5.778670
5.701780
5.361438
6.234646
##ZVALUE=235
19.449592
22.354722
44.092536
103.063583
160.818696
248.205662
319.853425
402.186513
426.683426
420.370698
372.112989
302.022696
211.876631
153.345466
106.086731
88.079572
85.381866
93.978643
97.106695
94.057918
87.806582
70.917606
55.573583
37.986636
24.988651
16.903877
10.761619
7.019639
6.602407
6.898642
6.548762
6.581545
6.580949
6.486773
6.373525
7.308722
6.809831
6.919503
6.066561
7.167459
6.979704
7.068515
7.583499
7.145405
7.023811
6.958842
7.773638
7.288456
7.453561
7.406473
7.770658
7.742643
7.854700
8.377433
8.847713
8.494854
8.172989
10.305643
8.615851
9.322762
9.210706
8.799434
9.315610
8.613467
10.224581
9.652972
10.470748
10.092854
9.736419
10.224581
10.790825
11.582971
12.759566
12.899637
13.870597
12.784600
12.532473
11.607409
11.792779
10.116696
10.263920
9.436607
9.661913
8.151531
7.690787
7.974505
6.724596
6.570816
6.632805
6.080866
6.536841
6.809831
5.928874
6.432533
6.038547
6.124973
##ZVALUE=240
2.439618
2.313852
8.084774
18.593669
49.499869
92.636943
184.346437
287.286639
419.515967
515.473485
589.801669
603.216887
560.215712
447.518826
344.012976
227.236748
159.665942
118.263960
103.715658
108.493567
116.814971
125.831962
119.837523
110.045671
86.108446
67.649484
49.549937
35.142899
18.700957
12.895465
9.350777
7.009506
7.220507
6.565452
6.101727
6.502867
6.156564
6.164908
6.613731
6.474853
7.168651
6.656647
6.340742
6.180406
6.575584
5.842447
6.938577
7.403493
8.385777
6.966591
7.397532
7.411838
8.381605
7.594824
8.405447
8.939505
9.649992
9.439588
8.840561
8.427501
9.438992
9.309649
8.822680
9.399652
9.778738
9.261966
8.429885
9.465814
10.034442
11.325479
10.304451
12.422800
12.703538
12.036562
12.922883
14.061928
12.932420
12.822747
11.973977
11.492968
11.211634
8.896589
9.370446
7.995963
7.896423
7.676482
7.243752
6.867647
6.165504
6.435513
6.351471
6.695986
5.575418
6.760955
6.804466
6.014705
##ZVALUE=245
1.955628
1.660585
1.681447
1.742840
3.655553
13.139844
31.495690
89.366436
163.030624
261.831880
431.059599
562.898517
680.675507
721.946955
675.199032
599.007607
446.236730
323.444605
217.278004
147.121549
113.557577
107.902884
114.944577
130.896568
132.649541
128.591657
118.721724
94.808936
74.542761
48.819780
37.062764
21.119714
14.379621
8.158684
6.929636
5.907416
6.779432
5.708933
5.760789
5.423427
5.972981
6.916523
6.729960
6.641746
6.443858
6.544590
6.923676
7.291436
7.666945
6.276965
7.722974
7.843971
7.731915
7.845759
8.253455
7.967949
8.195639
8.280873
8.435845
8.938909
8.704662
8.768439
8.919835
9.187460
8.722544
9.131432
9.905696
10.059476
9.688735
9.689927
10.096431
11.883974
11.734962
12.902617
13.132691
12.226701
12.291670
11.547804
11.018515
10.277629
9.771585
7.637739
7.956624
7.860661
6.690621
6.928444
6.501675
6.013513
6.455779
5.755424
6.421804
6.398559
5.748868
5.655885
5.832911
5.507469
##ZVALUE=250
1.516938
1.832843
1.528859
1.967549
1.936555
1.833439
2.859831
6.335974
27.296543
62.740445
154.371858
272.856951
409.164429
601.404905
726.305842
805.421472
792.694688
715.968013
599.822998
412.277579
286.255479
188.854933
117.061734
96.201897
108.676553
125.426650
139.641762
144.185424
139.628649
123.462677
105.816722
77.423453
59.782863
35.005808
22.905469
12.870431
9.155869
6.814599
6.698966
5.820990
6.391406
5.991459
6.309748
7.001758
6.248951
6.198883
6.275773
6.164908
7.120967
6.326437
7.268786
6.981492
6.589890
7.631779
7.013679
7.300973
7.663965
7.299781
6.968975
7.662773
7.795691
7.745624
6.735921
7.449985
8.268952
7.447600
7.871985
7.384419
8.256435
8.024573
8.832812
9.803772
9.845495
9.454489
10.573864
10.513663
10.449886
9.875894
9.035468
7.869601
7.227659
6.958842
6.805658
6.960630
6.892681
5.841851
5.479455
5.806684
5.883574
5.114675
5.223751
4.973412
4.973412
4.745722
5.040765
4.455447
##ZVALUE=255
1.349449
1.489520
1.258850
1.552701
1.638532
1.857877
1.883507
1.761913
2.235770
4.221797
18.539429
45.890808
100.240707
228.322744
357.611775
563.155413
713.875890
847.404003
897.534490
842.090845
726.761818
572.799444
367.098451
246.070623
134.213567
101.969838
93.461871
106.068850
132.270455
141.329765
150.879622
147.433877
134.181976
105.287433
82.974434
55.137873
38.771629
21.306872
13.274550
8.215904
6.293654
6.593466
6.100535
6.345510
5.921721
5.591512
5.936623
6.589890
6.898642
6.618500
6.898642
7.131696
5.922914
6.193519
6.681681
6.911755
7.164478
7.595420
6.853938
6.440878
7.012486
6.936789
6.541610
6.757975
6.915927
7.172823
7.317662
7.465482
7.346869
7.260442
8.425713
8.259416
8.124709
8.972883
9.298921
8.813739
8.147955
8.176565
7.685423
7.319450
7.211566
6.264448
5.861521
5.803704
5.878806
4.511476
5.140901
5.155802
4.751682
4.868507
4.868507
4.385710
4.552603
4.962683
5.347729
4.393458
##ZVALUE=260
1.367927
1.378655
1.368523
1.490712
1.463890
1.554489
1.745820
1.582503
1.512766
1.638532
1.952648
2.368689
7.131696
29.219985
66.664815
167.102814
281.754732
478.254557
644.358993
844.553709
935.256481
956.537724
854.361653
702.862740
475.187898
330.634713
192.574859
122.209787
83.114505
84.340572
102.234483
130.209923
145.874619
157.360435
154.591799
133.616924
114.896894
82.071424
61.700940
37.187934
23.941994
13.710856
8.915663
6.390810
5.939603
6.055832
5.729795
6.471872
6.690621
5.788803
6.634593
6.334782
6.506443
6.923676
6.836653
6.329417
6.396770
5.651712
6.417632
6.246567
6.582737
6.136894
6.589890
6.975532
6.582737
6.945729
6.889701
6.828904
7.156730
6.935596
7.764697
7.334948
8.180737
8.149743
7.911921
7.876754
7.316470
7.625818
7.037520
6.644726
6.572604
5.509853
5.536675
5.236864
5.063415
4.715919
5.227923
4.817843
4.215837
4.688501
4.805923
3.979802
4.011989
4.544854
3.866553
4.026890
##ZVALUE=265
1.081824
1.214743
1.298785
1.242757
1.187921
1.415610
1.505613
1.453757
1.496673
1.857877
1.738667
1.701713
1.907945
1.966953
4.132986
19.195676
49.018860
127.292871
227.646828
435.134768
608.620644
770.363808
964.228511
1015.681624
951.087475
828.807950
622.075796
442.667007
251.135826
155.794621
92.703700
74.125528
87.091923
109.998584
140.786767
153.409839
162.350535
154.339671
137.275457
114.456415
84.664822
62.366724
37.893653
23.362637
13.082623
8.835793
6.998777
6.091595
5.914569
6.567836
6.420612
6.086826
6.470680
6.538630
6.817579
7.027984
7.067919
6.375909
6.768703
7.037520
6.490946
6.522536
6.578565
6.984472
6.285906
6.551743
6.207824
6.610751
6.978512
7.142425
6.874800
7.701516
6.976724
7.193685
6.949902
7.181764
7.228851
6.779432
5.975962
5.667806
5.502701
5.061626
5.151629
4.281998
4.568696
4.345775
4.563928
4.632473
4.321933
4.332662
4.215837
4.152656
3.926754
3.979802
3.902912
4.058480
##ZVALUE=270
1.272559
1.076460
1.140833
1.248717
1.298785
1.231432
1.315475
1.155734
1.267791
1.345873
1.546741
1.424551
1.413822
1.592636
1.638532
1.909733
2.145767
8.466840
25.779605
88.242888
182.680488
329.561830
586.814880
804.545879
1013.615727
1015.682817
1015.682817
1003.766656
797.227025
601.457953
422.292948
219.394565
130.760670
69.714785
63.860416
88.729858
110.963583
138.799548
158.015490
161.119699
154.934525
136.536956
115.414858
85.950494
61.972737
37.304759
24.489760
14.406443
9.695888
7.615685
6.604791
6.661415
6.667972
6.441474
6.683469
7.310510
6.996989
6.797910
7.198453
7.085800
6.621480
6.779432
6.917715
6.642938
6.087422
6.522536
6.219745
6.308556
6.275773
6.837845
6.840825
7.038713
6.778836
7.488728
7.413626
6.821752
6.585717
6.323457
6.027818
5.946755
5.292892
5.155802
4.830956
4.827976
4.191995
4.272461
4.173517
4.073977
4.060864
3.958941
3.978610
3.744960
3.815889
3.682971
3.903508
3.585815
##ZVALUE=275
0.932813
1.020432
0.968575
1.027584
1.246929
1.078844
1.165867
1.226664
1.115799
1.073480
1.285672
1.314878
1.445413
1.443624
1.557469
1.650453
1.869798
1.646876
1.914501
4.721880
14.415979
45.504570
150.272846
295.326710
558.193922
775.735974
1005.087495
1015.673876
1015.673876
1015.673876
989.046693
733.552575
528.723598
282.551646
164.879560
78.418851
54.366589
61.716437
82.124472
112.494826
132.703781
153.765678
161.682963
153.398514
138.857961
110.708475
87.437630
59.567690
42.220950
24.663806
16.128421
10.019541
8.202791
7.252693
6.897449
6.611943
6.676912
6.821752
6.772876
6.915927
6.622672
6.732941
7.063746
7.213950
6.880760
6.704926
6.695986
6.940961
7.017851
7.024407
7.170439
6.846786
7.425547
7.356405
7.251501
7.151961
6.908774
6.294847
6.217957
5.407929
5.390644
4.786849
4.559755
4.444718
4.327893
4.017949
4.013777
4.082918
4.010797
3.601909
3.867745
3.654957
3.634691
3.362894
3.567934
3.633499
##ZVALUE=280
0.992417
0.978708
0.733733
0.927448
0.980496
1.208782
1.301765
1.110435
1.095533
1.023412
1.410842
1.183748
1.397729
1.170635
1.359582
1.270771
1.462698
1.792908
1.702905
1.747608
1.934767
2.364516
10.018945
32.904744
119.329691
242.449641
470.046997
694.521666
991.287827
1015.677452
1015.677452
1015.677452
1015.677452
843.247771
626.587868
361.524820
217.958689
98.998547
56.989789
45.733452
57.561994
83.621740
106.802583
135.705471
150.658488
156.005621
151.177645
131.573677
113.251805
82.157850
62.339902
38.827658
26.581883
15.438795
10.685921
8.288622
7.207990
7.244945
7.295609
7.072687
6.622672
6.802678
7.018447
7.091761
7.189512
6.794930
6.667972
6.960630
6.552935
6.990433
6.862879
6.462932
6.851554
6.733537
6.922483
6.956458
6.657839
6.113648
5.918741
5.668998
5.297661
4.802942
4.359484
4.450679
4.581809
3.915429
3.828406
3.897548
3.710985
3.657937
3.576875
3.607869
3.171563
3.517866
3.375411
3.363490
##ZVALUE=285
0.996590
1.007915
0.994802
1.003742
1.055598
1.031756
0.973940
1.002550
1.027584
1.107454
1.072884
1.279712
1.173615
0.966787
1.138449
1.059771
1.396537
1.365542
1.356602
1.396537
1.615882
1.800656
1.990795
2.224445
5.046725
16.214848
58.420897
140.156746
353.032947
573.953986
889.226794
1015.681028
1015.681028
1015.681028
1015.681028
989.710689
782.984495
488.739014
309.414864
148.808956
78.236461
38.331747
36.727786
56.274533
75.495839
106.678605
127.223730
144.765973
150.810480
145.461559
134.845972
110.767484
88.787675
61.441660
43.244958
25.047660
16.811490
10.569692
8.940697
7.814765
7.281899
7.173419
7.504821
7.487535
7.064939
7.021427
7.067919
6.993413
6.992817
6.929636
6.977916
6.948709
7.044673
6.689429
6.730556
6.716847
6.318688
5.991459
5.889535
5.147457
5.434752
4.778504
4.320741
4.339814
4.279613
3.995895
3.726482
3.909469
3.467798
3.446937
3.085732
3.419518
3.183484
3.480911
3.163815
3.172755
##ZVALUE=290
0.972748
0.885725
0.740886
0.844598
0.876784
0.948906
0.898838
0.778437
0.883937
0.840425
0.942945
0.829697
1.039505
1.129508
1.096725
1.231432
1.016855
1.191497
1.234412
1.398921
1.278520
1.248717
1.390576
1.661777
1.996756
2.106428
2.760887
6.557703
29.150844
75.730681
165.325403
398.103595
650.999546
1000.469923
1015.640497
1015.640497
1015.640497
1015.640497
947.904587
634.561777
421.593785
212.184787
111.788511
44.109821
28.611422
35.828948
49.401522
74.809790
95.696449
123.894811
139.808655
146.986842
143.727660
132.292509
111.700892
84.572434
63.423514
40.242672
27.853847
17.001629
12.460947
9.266734
8.112788
7.668734
7.550716
7.309914
7.236600
7.078648
7.041693
7.141829
7.005930
7.147789
6.885529
6.795526
6.595850
6.043911
6.196499
5.793571
5.111694
5.240440
4.891753
4.128814
4.472733
4.078746
3.991723
3.880858
3.866553
3.752708
3.367662
3.305674
3.451705
3.335476
3.250837
3.406405
3.292561
3.230572
##ZVALUE=295
0.906587
0.806451
0.773668
1.043677
1.078844
0.977516
0.935793
1.042485
0.965595
0.811815
0.801682
1.015663
0.930429
1.018643
0.975728
1.085997
1.019835
1.010895
1.246929
1.206994
1.136661
1.326799
1.395941
1.335740
1.533628
1.718998
1.812577
2.104640
2.102852
3.433824
10.530949
44.203997
104.228854
264.930725
458.080769
779.640675
1000.960469
1015.681624
1015.681624
1015.681624
1015.681624
761.291981
529.959798
282.285810
156.436563
58.234930
29.480457
22.601485
30.156970
48.775673
66.933632
93.664527
114.857554
134.303570
141.346455
139.691830
126.988888
103.901625
85.308552
59.863925
42.466521
26.175976
18.162727
11.981726
9.623766
8.183718
7.282495
6.988645
7.586479
7.037520
7.145405
7.196665
6.872416
6.903410
6.323457
6.546974
6.284714
5.245805
5.173683
5.087852
4.978776
4.444718
4.245639
4.063845
4.184842
3.624558
3.638864
3.773570
3.521442
3.548861
3.434420
3.384948
3.319979
3.420711
3.008842
2.849698
##ZVALUE=300
0.933409
0.941753
0.775456
0.646710
0.822544
0.791550
0.786781
1.023412
0.875592
0.807643
0.822544
0.882745
0.857711
0.840425
0.811815
0.958443
0.957847
0.961423
1.080632
1.014471
0.979900
1.049638
1.192689
1.109838
1.141429
1.346469
1.678467
1.543760
1.495481
1.673698
1.720786
2.143979
6.780624
22.334456
76.489449
157.542825
332.751870
516.370535
774.172544
946.074724
1015.681624
1015.681624
994.842649
843.531489
582.024455
392.138958
203.734636
112.431645
42.099953
21.329522
19.937754
28.081536
44.535995
62.107444
86.492896
106.205940
127.410889
134.126544
132.037997
124.858618
104.643703
84.683895
60.050488
43.665767
26.760697
18.268824
11.661649
9.095669
7.360578
6.742477
6.683469
6.749630
6.385446
6.341934
5.642772
5.869865
5.725622
5.532503
4.921556
5.049706
4.558563
4.386902
4.149675
4.033446
3.839731
3.813505
3.422499
3.528595
3.713965
3.115535
3.109574
3.078580
2.872944
3.000498
2.971888
2.868772
##ZVALUE=305
0.784993
0.708699
0.821948
0.644922
0.786781
0.776649
0.843406
0.879765
0.894666
0.814795
0.821948
0.900626
0.892878
0.813603
1.025796
0.916719
0.771880
1.134872
1.045465
1.054406
1.179576
1.223683
1.002550
1.101494
1.167655
1.051426
1.192689
1.366735
1.522899
1.294613
1.553893
1.825690
1.746416
1.948476
3.996491
12.352467
50.352812
111.402869
258.806944
412.172675
657.465458
844.578743
1015.763879
1015.763879
1015.763879
919.823647
684.055686
495.563745
276.301503
154.738426
60.381889
27.801991
15.267730
18.175840
27.839541
40.118694
62.164664
80.570579
101.289749
116.308928
127.600431
126.610994
114.645958
100.848675
76.317787
58.941841
38.775802
26.582479
15.741587
10.968447
8.038878
6.785989
6.298423
6.112456
5.927682
5.559921
5.199909
5.179644
4.519820
4.337430
4.477501
4.300475
4.332662
4.108548
3.796816
3.518462
3.683567
3.460646
3.247857
3.296733
3.280640
2.955794
2.846718
3.110766
2.925992
2.749562
##ZVALUE=310
0.694990
0.765920
0.630617
0.496507
0.543594
0.737906
0.631809
0.712872
0.700951
0.895858
0.791550
0.737906
0.732541
0.745654
0.924468
0.751615
0.847578
0.709891
0.803471
0.850558
0.941753
0.847578
0.877976
1.026988
0.967979
1.152754
1.096725
1.033545
1.126528
1.140833
1.169443
1.290441
1.312494
1.580715
1.686811
1.815557
1.889467
6.582737
21.049976
71.482658
146.054626
312.465429
481.583476
729.094744
906.322002
1015.677452
1015.677452
980.314612
832.184553
583.266616
402.156711
211.694837
117.788911
42.940974
19.482970
13.015866
16.136765
24.270415
34.528971
54.794550
71.441531
93.385577
107.263923
119.176507
120.113492
109.039545
96.940994
74.815750
56.745410
36.250949
25.300980
15.804768
10.896921
6.916523
6.095767
4.989505
4.818439
4.345775
4.101992
3.835559
3.749728
3.714561
3.726482
3.365874
3.377795
3.345609
3.313422
3.344417
3.065467
3.310442
2.737641
2.969503
2.793670
2.788901
2.580881
2.765656
##ZVALUE=315
0.598431
0.736713
0.663996
0.689626
0.711679
0.782609
0.630617
0.617504
0.691414
0.547767
0.572801
0.776649
0.672936
0.486970
0.683665
0.637770
0.851750
0.845790
0.932813
0.738502
0.740886
0.923872
0.696778
0.823736
0.779629
0.861883
1.010895
1.126528
0.965595
0.891685
1.172423
1.160502
1.075864
1.140833
1.129508
1.327991
1.571774
1.579523
1.736879
2.648830
13.017654
37.522912
111.460686
208.202600
409.129858
596.258640
832.446814
975.046754
1015.641689
1015.641689
879.864693
712.873936
466.355681
302.349925
149.444938
73.685646
23.471713
12.259483
11.359453
14.103651
22.246838
31.402707
49.393773
65.306425
86.869001
99.864602
109.711885
111.418962
101.783872
89.275837
68.040490
52.481890
35.555959
23.748875
13.738871
9.503961
5.964637
4.664660
3.950000
3.575683
3.568530
3.191829
3.296733
2.985597
2.990961
2.941489
2.917647
2.918839
2.814531
2.767444
2.753735
2.828836
2.693534
2.537966
2.693534
2.569556
##ZVALUE=320
0.706911
0.604987
0.624657
0.703931
0.748634
0.514984
0.549555
0.673532
0.679493
0.778437
0.596642
0.729561
0.649691
0.900626
0.666976
0.753999
0.606775
0.770688
0.980496
0.770688
0.786781
0.744462
0.789762
0.869632
0.908971
0.965595
0.918508
0.980496
0.856519
1.040697
0.948906
1.088977
1.016855
1.143813
0.970960
1.083612
1.187921
1.320839
1.464486
1.498461
1.622438
2.002716
4.896522
24.719834
63.169599
164.644718
287.631750
506.254435
687.419772
903.002620
1009.634733
1015.681624
976.626873
782.498717
591.561794
345.426798
206.080675
91.308951
43.187737
14.402866
9.463429
9.825826
12.184978
18.688440
27.210712
43.223500
58.886409
79.128742
92.347860
102.297664
104.257464
96.592903
86.308718
65.181851
50.234795
31.973720
21.712780
13.132691
8.257627
5.178452
3.686547
3.326535
3.246665
2.880692
2.756715
2.936721
2.644658
2.463460
2.519488
2.642870
2.498627
2.626777
2.374649
2.492666
2.766848
2.657771
##ZVALUE=325
0.567436
0.553727
0.546575
0.600815
0.572801
0.685453
0.609756
0.621676
0.699759
0.621676
0.766516
0.788569
0.711679
0.686646
0.655651
0.730753
0.832677
0.568628
0.643730
0.559688
0.660419
0.591874
0.799894
0.855923
0.657439
0.656843
0.774860
0.954866
0.879765
0.933409
0.916719
0.813603
0.921488
0.901818
1.064539
1.096725
1.110435
1.092553
1.151562
1.230836
1.280904
1.467466
1.547933
1.744628
3.376603
11.767745
46.005845
97.450018
221.766829
367.826819
598.967671
769.554973
951.362848
1015.526652
979.095697
860.614777
618.968606
443.615913
246.750712
138.240457
51.687956
21.562576
8.601546
7.265806
8.088946
10.280609
16.603470
24.922490
41.321516
56.429505
76.061487
87.080002
95.428824
97.071528
89.821815
78.075528
61.073899
45.720935
28.910637
19.514561
10.619760
7.126927
4.650950
3.725886
2.842546
2.869964
2.598763
2.552867
2.419949
2.289414
2.194643
2.324581
2.361536
2.216697
2.244711
2.592802
##ZVALUE=330
0.602603
0.496507
0.567436
0.566840
0.708699
0.610948
0.616908
0.612736
0.734925
0.806451
0.716448
0.577569
0.667572
0.661612
0.621676
0.439882
0.612736
0.610948
0.673532
0.756979
0.736713
0.499487
0.630617
0.808835
0.900626
0.917912
0.766516
0.733733
0.836849
0.866652
0.933409
1.091957
0.839829
1.077652
1.050830
1.031756
1.096725
1.180768
0.911951
1.081824
0.988841
1.191497
1.298785
1.415610
1.421571
1.771450
1.868606
6.994605
22.310615
73.734522
145.024657
300.791860
454.229712
686.205626
843.038559
973.708034
978.722572
869.323611
722.206831
490.721464
327.971578
159.322619
82.526803
29.941797
12.362599
6.708503
6.386638
7.294416
9.247661
15.580654
23.480654
36.794543
50.827861
69.176555
79.794526
89.269876
89.811683
82.497597
72.592497
55.855513
42.219758
27.430654
18.799901
10.879636
7.221699
4.643798
3.414750
2.681613
2.480745
2.214909
2.240539
2.099872
2.100468
2.245903
2.329946
2.058744
##ZVALUE=335
0.569820
0.662804
0.688434
0.621676
0.567436
0.697970
0.607967
0.707507
0.655651
0.616908
0.545979
0.662804
0.743866
0.523925
0.686646
0.635982
0.789762
0.650883
0.832677
0.817776
0.674725
0.760555
0.749826
0.849962
0.656843
0.598431
0.838637
0.673532
0.813603
0.847578
0.890493
0.803471
0.777841
0.706911
0.888705
0.734925
0.847578
0.864863
0.888705
0.832677
0.899434
1.010895
1.128912
1.186728
1.142621
1.309514
1.396537
1.545548
1.632571
3.395677
10.864735
44.140816
94.919801
218.764544
359.143615
584.375858
755.555034
917.780995
962.342024
903.998613
788.366795
564.320683
398.710966
219.814777
118.602514
41.818619
16.774535
6.907582
5.946755
6.019473
6.379485
9.118915
13.022423
23.125410
33.457875
49.987435
62.375665
75.737834
82.472563
83.359480
77.711940
64.449906
54.288507
39.802790
29.431581
18.383861
12.065768
7.242560
4.953742
3.300905
2.866983
2.427697
2.264977
2.162457
2.121925
2.153516
##ZVALUE=340
0.470877
0.480413
0.607967
0.600815
0.539422
0.531673
0.529885
0.425577
0.400543
0.518560
0.598431
0.517964
0.453591
0.586510
0.631809
0.654459
0.574589
0.484586
0.694990
0.580549
0.529885
0.556707
0.598431
0.712872
0.557899
0.569820
0.618696
0.562668
0.722408
0.763535
0.646710
0.743866
0.605583
0.778437
0.767708
0.676513
0.869632
0.757575
0.863671
0.746846
0.837445
0.789762
0.938773
0.941753
0.911951
0.913739
1.186728
1.117587
1.234412
1.354814
1.412630
1.982450
7.191896
22.383928
73.614717
147.358775
313.769579
461.827517
665.680766
808.769464
919.386744
917.946696
808.168650
666.940808
444.478989
288.841724
140.608549
69.238544
19.875765
8.192658
5.701780
5.720854
5.585551
6.162524
8.863807
12.785792
21.566749
31.311512
46.826601
58.951974
71.148872
76.023936
77.472925
73.072910
62.665939
52.603483
38.640499
28.823614
17.700791
11.865497
7.124543
4.732609
3.071427
2.522469
2.271533
2.426505
##ZVALUE=345
0.610948
0.606775
0.553727
0.432730
0.604987
0.626445
0.626445
0.564456
0.602603
0.492930
0.429749
0.609756
0.604987
0.656843
0.751615
0.523925
0.556707
0.630617
0.552535
0.596642
0.540614
0.705719
0.822544
0.793934
0.672936
0.719428
0.558496
0.636578
0.634789
0.704527
0.596642
0.637770
0.661612
0.731945
0.832677
0.741482
0.824928
0.834465
0.830889
0.832677
0.868440
0.883937
0.870824
0.911951
1.026988
0.931621
1.001954
1.077652
1.128912
1.223683
1.199841
1.118779
1.413822
1.604557
2.877712
14.791489
42.075515
117.002726
207.298994
376.825929
530.950427
736.686587
844.382644
900.004506
856.706500
695.471764
537.149906
334.558487
197.062492
80.924630
35.592914
11.029840
6.057620
5.526543
5.019903
4.991889
5.796552
7.877946
11.428595
20.539761
29.354692
43.505430
53.561926
63.779950
68.737864
71.618557
68.883896
60.088634
51.196814
38.508773
28.366446
17.772913
11.696815
7.131696
4.462600
3.291965
##ZVALUE=350
0.455976
0.629425
0.594854
0.628829
0.559688
0.565648
0.643730
0.675917
0.509620
0.638962
0.536442
0.478625
0.536442
0.545979
0.648499
0.611544
0.503659
0.593662
0.726581
0.701547
0.606775
0.873804
0.729561
0.624657
0.479817
0.607967
0.495911
0.810623
0.671744
0.598431
0.778437
0.684857
0.497699
0.883937
0.734925
0.831485
0.768900
0.726581
0.678897
0.779629
0.900626
0.785589
0.787973
0.813603
0.960827
0.945926
0.901818
1.069903
0.959635
0.949502
1.007915
1.057982
1.059771
1.193881
1.397729
1.589656
2.096891
6.204844
27.750731
64.648986
156.022906
264.777541
455.890894
607.670546
780.478716
859.642029
850.250721
761.323571
565.345883
402.965546
227.785707
125.591755
44.901967
17.959476
6.650686
5.293489
4.791617
4.333854
4.341602
4.826784
7.222891
10.565519
17.182827
24.602413
36.470890
46.300888
57.285428
63.087940
65.072775
63.055754
55.662990
48.103929
36.064982
26.915669
17.262697
12.209415
##ZVALUE=355
0.521541
0.433922
0.406504
0.509620
0.578761
0.456572
0.699759
0.541806
0.607967
0.472665
0.521541
0.529885
0.602603
0.657439
0.495911
0.530481
0.586510
0.505447
0.677705
0.659823
0.638962
0.572801
0.584722
0.663996
0.654459
0.522733
0.605583
0.601411
0.574589
0.753999
0.811815
0.672936
0.724792
0.633597
0.702739
0.710487
0.858903
0.726581
0.674725
0.784993
0.731945
0.834465
0.785589
0.838637
0.784993
0.848770
0.911951
0.971556
0.883937
0.760555
0.907779
0.958443
0.987649
1.204610
1.096725
1.277924
1.314878
1.403689
1.511574
3.631711
12.066960
48.722625
101.002455
216.577649
346.465707
550.511479
689.210892
815.061927
844.071507
765.494704
646.826625
452.834964
301.036835
141.882896
69.547892
21.726489
8.777976
5.409718
4.669428
4.211664
4.215837
3.961921
4.600883
6.125569
8.809566
14.870763
20.934939
31.497478
40.079951
49.828887
56.528449
59.695840
58.197975
52.295923
45.818686
34.956932
##ZVALUE=360
0.234842
0.221729
0.328422
0.413656
0.206828
0.392795
0.344515
0.141859
0.304580
0.356436
0.212789
0.334978
0.353456
0.237823
0.463724
0.530481
0.294447
0.360608
0.330806
0.256896
0.312924
0.423789
0.327826
0.306964
0.433922
0.271797
0.359416
0.477433
0.451803
0.479817
0.453591
0.565648
0.346899
0.442863
0.602603
0.521541
0.411868
0.311732
0.564456
0.586510
0.389814
0.555515
0.581741
0.611544
0.440478
0.558496
0.559688
0.590682
0.599623
0.624657
0.735521
0.663996
0.787973
0.823736
0.748634
0.793934
0.916719
1.027584
1.037717
1.141429
1.085997
1.881719
5.198717
23.391843
58.384538
150.405765
253.495574
427.009463
578.579903
743.482709
808.160901
790.177584
702.828765
515.954494
360.880494
186.680555
100.302696
37.581921
14.319420
5.173683
4.510880
4.029870
3.806949
3.495812
3.178716
3.875494
4.533529
7.209778
10.527968
16.967654
24.244785
34.885406
42.162538
49.890876
52.673817
53.110719
##ZVALUE=365
0.445843
0.600815
0.382662
0.525713
0.618696
0.513792
0.495911
0.521541
0.665784
0.550747
0.578761
0.569820
0.435710
0.626445
0.708699
0.481606
0.800490
0.577569
0.465512
0.692606
0.631809
0.740886
0.536442
0.518560
0.529885
0.738502
0.700951
0.710487
0.499487
0.555515
0.645518
0.689626
0.662804
0.675917
0.608563
0.683665
0.710487
0.698566
0.754595
0.765920
0.666976
0.629425
0.728965
0.667572
0.638962
0.650883
0.755787
0.774860
0.757575
0.825524
0.827909
0.936985
0.964999
1.028776
0.962615
0.956655
1.059771
0.922680
0.947714
1.044869
1.161695
1.318455
1.399517
1.581907
2.567768
12.914538
35.629869
96.240640
182.097554
348.614454
489.974618
663.825870
759.288669
781.376958
719.040036
576.555729
431.061983
241.184831
137.794614
53.163767
20.716786
6.252527
4.594922
4.068613
3.971457
3.550649
3.312826
3.180504
3.416538
4.115701
5.810857
9.694695
14.336705
22.224784
28.998852
37.773848
##ZVALUE=370
0.683665
0.564456
0.580549
0.614524
0.514984
0.607967
0.550747
0.394583
0.535846
0.696778
0.566840
0.514984
0.549555
0.507832
0.573993
0.611544
0.483990
0.465512
0.648499
0.597835
0.586510
0.612736
0.504851
0.558496
0.603795
0.571609
0.593662
0.525713
0.587702
0.525713
0.606775
0.629425
0.771880
0.509620
0.712872
0.660419
0.769496
0.626445
0.701547
0.860691
0.772476
0.733733
0.723600
0.740886
0.644922
0.736713
0.621676
0.593662
0.731945
0.780821
0.656843
0.811815
0.875592
0.841618
0.953674
0.950694
1.023412
1.037717
0.991821
0.987649
1.065731
1.000762
0.988841
1.213551
1.452565
1.505613
1.894832
6.837845
22.229552
73.249936
138.354897
271.870494
406.453609
596.225858
707.692504
773.248672
742.956996
620.191693
482.002497
290.862918
172.008872
71.149468
32.911897
11.109710
5.265474
4.074574
3.805757
3.374815
3.126860
2.949834
3.029704
3.045797
3.637671
5.336404
7.783771
12.836456
##ZVALUE=375
0.604987
0.591874
0.628829
0.649691
0.526905
0.591874
0.519753
0.346899
0.561476
0.395775
0.633597
0.624657
0.483990
0.613928
0.545979
0.570416
0.454783
0.429749
0.455976
0.595450
0.514984
0.672936
0.540614
0.568628
0.384450
0.468493
0.649691
0.613928
0.660419
0.602603
0.735521
0.663996
0.763535
0.586510
0.637770
0.588894
0.576973
0.524521
0.670552
0.717640
0.517964
0.680685
0.627637
0.584722
0.747442
0.478625
0.614524
0.715852
0.691414
0.635982
0.614524
0.752807
0.750422
0.902414
0.740886
0.941753
0.699759
0.873804
0.816584
0.857711
0.810623
0.923872
0.821948
0.876784
0.963807
1.031756
1.322627
1.263618
1.478791
3.807545
12.153983
44.329762
94.238520
214.186907
339.469910
524.290800
646.225810
748.325586
757.398605
669.450760
549.000502
360.188484
233.812928
113.812685
58.432817
18.668771
7.353425
4.215837
3.684759
3.474951
3.222823
3.010631
2.823472
2.709627
2.685785
3.007650
##ZVALUE=380
0.589490
0.427961
0.564456
0.577569
0.480413
0.443459
0.430942
0.517964
0.357628
0.602603
0.479817
0.531673
0.494719
0.508428
0.347495
0.659823
0.628829
0.573993
0.554919
0.537634
0.566840
0.510812
0.546575
0.482798
0.525713
0.569820
0.514984
0.539422
0.578761
0.576973
0.591874
0.669956
0.561476
0.623465
0.536442
0.619888
0.650883
0.629425
0.560880
0.623465
0.604987
0.767708
0.603795
0.638962
0.643730
0.480413
0.667572
0.562668
0.678897
0.834465
0.747442
0.762939
0.704527
0.739694
0.612736
0.647902
0.591874
0.741482
0.738502
0.755787
0.754595
0.826716
0.893474
0.940561
0.967979
1.012683
0.898838
1.168847
1.272559
1.346469
1.472831
2.187490
6.841421
30.832887
71.409941
171.090961
279.799700
450.309515
585.766435
722.856522
761.027932
700.220466
601.379871
443.718433
311.049819
162.996650
87.304711
31.086802
12.346506
4.600883
3.859997
3.402829
3.286600
3.000498
2.955794
2.830625
##ZVALUE=385
0.558496
0.680685
0.561476
0.716448
0.478625
0.705719
0.677705
0.725985
0.756979
0.517964
0.624657
0.519753
0.520945
0.500679
0.517964
0.559688
0.584722
0.628829
0.604987
0.661612
0.690818
0.628829
0.705719
0.503659
0.656843
0.700951
0.620484
0.692606
0.581741
0.674725
0.525713
0.749826
0.754595
0.697970
0.574589
0.595450
0.737906
0.814795
0.687838
0.693798
0.714660
0.609756
0.779629
0.753999
0.626445
0.791550
0.717640
0.794530
0.770688
0.811815
0.708699
0.697970
0.752807
0.792742
0.752807
0.800490
0.758767
0.822544
0.863671
0.909567
0.786781
0.847578
0.964999
0.782609
0.961423
0.920892
0.989437
1.075864
1.141429
1.124740
1.437664
1.272559
1.515746
1.665950
4.248619
13.122559
47.431588
103.747845
227.459669
352.466702
532.034636
639.879704
726.680756
732.325912
651.106834
544.160604
367.372632
246.071815
119.002461
60.128570
20.643473
7.555485
3.771782
3.429651
3.172755
3.200769
##ZVALUE=390
0.503659
0.573993
0.533462
0.343919
0.448823
0.467896
0.427961
0.443459
0.367761
0.548959
0.387430
0.442863
0.608563
0.435710
0.377893
0.427961
0.403523
0.469685
0.504851
0.504851
0.410676
0.495911
0.517964
0.491738
0.537634
0.583529
0.444651
0.586510
0.396967
0.607967
0.528693
0.585914
0.468493
0.605583
0.541806
0.326633
0.567436
0.523925
0.569820
0.467896
0.430942
0.602603
0.617504
0.687838
0.574589
0.692606
0.569820
0.605583
0.667572
0.527501
0.545979
0.619888
0.610948
0.676513
0.656843
0.585914
0.687838
0.704527
0.714660
0.824928
0.690818
0.578761
0.719428
0.824928
0.861883
0.894666
0.864863
0.933409
0.986457
1.071692
1.121759
1.115799
1.116991
1.150966
1.228452
1.424551
2.048612
9.853840
30.525923
91.710687
171.486735
323.965549
445.420742
594.172478
687.555671
745.479465
718.426704
600.074530
480.321646
310.307741
189.769864
81.889629
37.052631
10.015965
4.291534
3.427863
##ZVALUE=395
0.496507
0.540614
0.438690
0.627637
0.603795
0.572801
0.392795
0.616908
0.578761
0.542998
0.446439
0.532866
0.620484
0.645518
0.526905
0.490546
0.526905
0.553727
0.520945
0.554919
0.482798
0.586510
0.464916
0.549555
0.575781
0.525713
0.531673
0.571609
0.604987
0.552535
0.731945
0.399947
0.477433
0.561476
0.662804
0.628829
0.618696
0.552535
0.600815
0.533462
0.592470
0.550747
0.703931
0.713468
0.662804
0.672936
0.549555
0.625849
0.634789
0.710487
0.601411
0.581741
0.681877
0.688434
0.846982
0.661612
0.657439
0.677705
0.814795
0.635982
0.697970
0.860691
0.734925
0.751615
0.740886
0.834465
0.910759
0.924468
0.941753
1.100898
1.042485
1.076460
1.195669
1.322627
1.125932
1.168847
1.121759
1.236796
1.572967
5.405545
19.397736
67.483783
131.050944
257.310867
380.090475
550.827980
663.616657
752.102733
760.908723
682.006478
563.850999
374.267697
249.094963
124.210715
61.700940
20.149946
##ZVALUE=400
0.652671
0.527501
0.531673
0.533462
0.552535
0.473857
0.353456
0.600815
0.540614
0.597835
0.478625
0.498891
0.393987
0.387430
0.528693
0.467896
0.327826
0.561476
0.579953
0.435710
0.564456
0.770688
0.476837
0.461936
0.610948
0.554919
0.656843
0.529885
0.367761
0.645518
0.515580
0.507832
0.556707
0.585914
0.641942
0.573993
0.511408
0.572801
0.736713
0.765920
0.659823
0.564456
0.657439
0.669956
0.590682
0.559688
0.706911
0.550747
0.585914
0.718832
0.657439
0.690818
0.669956
0.751615
0.751615
0.633597
0.665784
0.731945
0.720620
0.650883
0.720620
0.760555
0.704527
0.767708
0.800490
0.846982
0.752807
0.844598
0.788569
1.062751
1.159906
0.984669
1.115799
1.077652
1.137853
1.173615
1.082420
1.040697
1.121759
1.362562
1.300573
2.995729
11.158586
43.594837
97.105503
206.837654
318.545699
472.922921
590.922832
718.309879
753.275752
692.003965
600.323677
440.669656
308.214426
167.526007
##END
