##TITLE=FDDW2
##FORMAT=SPECTACLE-ASCII V-1.2
##DATA TYPE=ULTRAVIOLET SPECTRUM
##SECOND TYPE=ULTRAVIOLET SPECTRUM
##DATE=01/11/18
##TIME=18:04:29
##SPECTROMETER/DATA SYSTEM=SPECTACLE
##XUNITS=NM EM
##YUNITS=ENERGY
##YFACTOR=1
##FIRSTX=220
##LASTX=410
##NPOINTS=96
##3DDATA=Equidistant
##ZUNITS=NM EX
##FIRSTZ=210
##LASTZ=400
##ZPOINTS=39
##XYDATA=(Y..Y)
##ZVALUE=210
17.692447
18.267632
13.211966
12.265444
11.653900
10.864735
10.100603
8.914471
6.979704
6.301999
4.767776
4.069805
3.116727
2.849698
2.789497
3.075600
2.599955
3.018975
3.193617
4.188418
3.571510
3.756881
4.189610
4.555583
5.532503
6.685853
7.093549
7.123947
10.527968
10.490417
12.062788
12.494922
14.655590
13.587475
14.603734
14.645457
15.104413
14.178753
16.447902
15.707612
13.771653
14.624596
14.526844
15.565753
13.618469
11.831522
12.192726
11.255741
11.321902
11.073947
10.420680
10.627508
10.037422
9.950995
10.176897
10.003448
10.209680
10.108948
8.948445
8.554459
8.568764
9.443760
9.011626
9.796619
8.901954
9.552836
8.680820
8.695722
9.542704
10.562539
11.623502
12.809634
14.980435
14.917850
17.171502
17.916560
19.435883
18.897653
19.060969
18.262863
18.149614
17.498732
15.061498
13.327599
11.133552
10.271668
9.291768
8.935928
9.463429
10.429621
12.172461
15.206933
20.599961
26.296973
34.396648
40.198565
##ZVALUE=215
49.999952
49.580932
40.061474
28.538704
23.608804
18.844604
18.672943
15.162826
16.715527
16.146898
12.494922
11.106730
7.637739
5.236864
4.618764
3.548861
3.325939
4.042983
3.201962
3.946424
3.646612
3.794432
4.398823
5.203485
6.013513
7.200837
7.610917
9.878874
10.379553
13.170838
14.946461
16.014576
17.124414
18.159747
17.835498
19.102693
19.731522
19.223690
18.110871
18.636584
17.576814
15.518665
15.798807
16.043782
15.957952
14.439821
12.913942
14.028549
12.706518
13.297796
12.949705
11.540651
11.953712
11.195540
11.130571
11.364818
11.114478
11.013746
10.026693
9.650588
9.598732
9.792447
8.936524
9.674430
9.806752
9.913445
9.636879
10.144711
10.822415
11.593699
12.371540
13.219714
14.138818
15.967488
16.831756
17.389655
17.661452
17.994642
17.024875
18.061996
17.860532
15.444756
15.584826
13.574958
11.234879
9.941459
10.124445
8.222461
8.204579
7.234812
7.661581
7.129908
8.023977
9.245872
10.118484
13.247728
##ZVALUE=220
107.816458
109.928846
102.970004
91.533661
75.689554
56.155920
41.366816
32.779574
27.427673
26.486516
24.914742
25.873780
21.916628
18.813610
14.948845
11.239648
8.496642
6.554723
4.919767
3.504753
3.968477
4.093647
4.688501
5.128980
6.452799
7.287860
9.572506
11.041760
12.105703
14.753938
18.042922
20.615458
21.914840
24.774671
22.875667
24.201870
24.662614
23.682714
23.394823
24.839640
22.049546
21.020770
20.214915
19.964576
19.515753
18.676519
17.347932
16.424656
16.508698
17.068982
15.311837
15.612841
13.956428
13.927817
12.892485
12.447834
13.112426
12.167692
13.026595
13.159513
12.897849
12.793541
11.388659
11.907816
12.284517
10.384917
11.677742
11.354685
10.910630
13.472438
13.665557
15.298724
15.696883
18.341541
17.208457
21.110773
20.359755
21.333694
20.214915
20.390749
17.783642
18.982887
17.964840
16.401410
15.903711
12.794733
11.518598
9.899735
8.917451
8.490682
7.794499
7.829666
7.295609
7.764697
7.817745
6.786585
##ZVALUE=225
127.048492
135.444999
161.663890
189.232826
192.512870
181.428790
163.561702
119.540691
88.854432
69.438815
48.314929
42.081475
44.027567
42.732954
39.004683
35.740733
28.107762
23.672581
16.125441
12.091994
7.602572
5.123615
5.959868
6.013513
8.028746
8.128881
10.177493
12.107491
14.685988
17.004609
21.052957
21.481514
24.117827
25.590658
26.776791
26.722550
27.411580
26.883483
25.674701
26.857853
24.068952
24.200678
22.656918
24.784803
22.620559
20.967722
18.687844
18.642545
19.083619
17.732978
18.493533
18.075705
16.741753
16.454458
16.732812
16.356707
16.760826
16.612411
14.715791
15.664697
15.809536
13.727546
14.009476
13.850927
13.253689
14.012456
12.896657
14.373660
14.787912
15.812516
15.886426
18.699765
18.998981
21.201968
21.516681
22.074580
21.748543
22.118688
20.917654
21.516681
20.550489
18.016696
14.685988
14.641881
13.164878
11.692643
11.723638
10.364652
9.324551
9.419918
9.210706
8.919835
9.125471
9.105802
7.749796
8.820891
##ZVALUE=230
81.115961
97.575784
135.007501
215.381980
271.353722
331.061482
353.651643
335.775614
305.646658
246.773958
166.824460
118.533969
80.507994
68.701506
63.856840
65.684915
67.032576
61.639547
51.484704
42.810440
33.510923
20.697713
14.192462
9.905696
9.216666
10.675788
10.554790
12.371540
14.115572
16.496778
17.596483
19.455552
19.724965
22.703409
23.077726
25.570989
25.626421
25.283694
26.351810
23.413897
23.779869
25.124550
22.961497
21.289587
21.162629
20.662546
19.036531
20.161867
19.149780
19.724965
19.646883
18.719435
18.619895
19.130707
18.755794
17.666817
18.510818
18.549562
17.242432
16.814470
17.537475
17.105937
16.003847
16.781688
17.033815
15.919805
15.605688
15.891790
16.290545
17.213821
18.060803
19.874573
19.929409
22.829771
22.173524
21.818876
23.840666
22.874475
21.766424
18.157959
17.697811
15.865564
14.089942
13.338923
12.533665
12.112856
11.806488
10.653734
10.556579
10.788441
10.128617
9.969473
10.535717
10.540485
10.739565
9.944439
##ZVALUE=235
25.056601
31.822920
59.700608
139.855742
217.159986
330.129862
429.570675
534.918904
567.294955
559.811592
473.381877
373.789668
240.259767
173.774958
118.889809
96.636415
83.974600
89.556575
95.320940
93.296766
87.291002
73.145628
56.543946
40.562749
26.954412
17.466545
13.877749
11.686683
11.009574
12.022853
13.543963
14.823675
15.625954
17.733574
17.909408
18.834472
17.925501
18.441677
19.376874
19.329786
20.016432
19.227862
18.814802
18.416643
19.737482
18.609762
17.850995
18.270612
18.661618
18.088818
18.303990
17.824769
18.070936
16.974807
17.383695
17.361641
16.246438
17.482638
18.068552
17.209649
18.494725
18.037558
18.365979
17.248988
17.613769
16.639829
17.257929
16.922951
18.210411
18.262863
20.029545
20.068884
21.476746
20.354986
20.116568
20.317435
21.008849
20.624995
19.326806
18.299818
18.503666
16.363859
16.069412
13.544559
14.894605
13.721585
12.999773
11.790991
12.668967
11.724830
10.522604
12.079477
11.024475
10.204911
11.009574
11.302829
##ZVALUE=240
2.656579
3.228784
8.489490
24.362803
60.806870
113.311410
216.081738
325.914621
473.498702
564.932823
631.981492
628.591776
568.443537
446.781516
340.116620
214.640498
157.456994
113.931894
103.986859
111.910701
118.472576
127.902627
118.375421
111.664534
87.472796
68.317652
47.435760
34.565926
21.712780
15.795827
10.839701
11.234879
10.166764
11.056662
12.398958
12.086630
13.401508
13.519526
14.292598
14.058948
15.106797
14.569759
16.529560
15.625954
14.648438
16.055703
16.399622
17.171502
16.652942
16.482472
15.558600
16.353726
15.536547
19.215941
18.647909
17.468929
17.997622
18.895864
18.249750
17.014742
16.894937
16.967654
18.087626
17.188787
16.021729
17.946959
17.304420
17.246604
16.439557
19.082427
18.058419
18.232465
18.239617
19.278526
19.387603
20.058751
20.024776
17.137527
17.822981
18.547773
16.342998
16.639829
15.561581
14.868975
13.083816
13.843775
13.427734
12.561679
12.037754
11.500716
11.649728
11.718869
11.337996
10.627508
11.149645
10.641813
##ZVALUE=245
2.803802
2.640486
3.051758
3.122687
6.662607
17.699599
51.237941
98.652840
209.535956
314.502716
486.184955
604.911447
679.727793
717.878938
680.473447
566.215515
452.731848
309.862494
215.616822
133.816600
109.873414
102.118850
118.383765
132.632852
137.313604
132.882595
119.024515
98.189712
73.094964
55.826902
41.088462
24.007559
17.439723
12.534857
12.100935
10.734797
11.709929
12.625456
13.533831
14.810562
14.101863
14.653802
15.340447
15.262961
15.173554
16.207695
16.158819
16.640425
17.255545
15.992522
15.993714
18.605590
17.205477
17.674565
18.180609
17.723441
18.443465
17.647743
18.011928
17.667413
17.016530
18.113852
17.812848
16.029477
15.597939
16.187429
15.135407
16.414523
16.051531
17.635822
17.223954
17.063618
17.989874
17.666817
18.642545
17.619729
18.129945
18.282533
17.138720
15.887618
16.324520
15.221834
14.383793
12.963414
14.168620
12.368560
12.802482
13.099909
11.763573
11.755824
11.688471
11.534691
10.938644
10.196567
11.774898
10.757446
##ZVALUE=250
1.903772
1.622438
2.038479
1.975894
1.930594
1.900792
2.493858
9.251833
27.112961
73.279738
143.733621
291.635990
437.534451
629.431605
755.965710
866.357684
868.562460
792.247653
670.905709
466.378927
329.037905
221.673846
123.299956
97.195506
108.948946
126.442909
143.363476
145.611763
136.699677
127.737522
102.176666
85.186958
64.453483
39.073825
28.682947
18.497705
15.080571
13.387799
14.049411
13.912916
14.329553
14.582872
15.411973
15.745759
15.863776
16.768575
17.363429
16.741753
17.462969
16.832948
16.113520
17.514825
16.524792
17.362833
16.209483
17.280579
18.368959
17.534494
16.837716
16.913414
16.568899
16.796589
15.171766
14.903545
15.910864
15.143752
14.783740
14.786720
15.317798
15.272498
14.790893
15.823841
16.903877
16.433001
16.188622
16.343594
16.049743
15.733838
15.839934
16.187429
14.302731
13.196468
13.613701
12.618899
12.337565
11.825562
10.847449
10.544658
10.166764
9.578466
9.724498
9.722710
9.544492
10.367632
9.208918
9.215474
##ZVALUE=255
1.576543
1.505613
1.502633
1.798868
1.783967
1.783967
2.073646
1.932979
2.368689
4.083514
19.641519
48.643947
103.211403
238.765478
387.697816
639.976859
817.649961
997.951031
1015.685797
996.725559
862.068534
676.332712
422.141552
263.080597
133.077502
95.136762
90.821981
107.577443
133.288503
147.004724
155.019760
152.682662
141.002536
113.396645
92.717409
64.995885
46.767592
31.696558
24.858713
19.624829
16.681552
17.159581
18.068552
17.969608
16.881824
17.317533
16.496778
16.871691
18.069744
17.886758
17.726421
17.694831
18.277764
17.033815
18.060803
17.188787
17.101765
17.255545
17.289519
17.390847
17.039776
16.880631
16.660690
15.778542
15.006661
15.164614
15.375614
14.868975
15.293956
14.661551
14.790893
14.958978
15.831590
15.911460
16.507506
15.372634
15.009642
15.709996
14.063716
13.750792
12.516975
12.276769
10.987520
11.483431
10.216832
10.385513
9.815693
8.645654
8.694530
8.772612
8.511543
8.884668
8.751750
7.854700
8.119941
9.005666
##ZVALUE=260
1.221895
1.370907
1.415610
1.717806
1.500845
1.443624
1.745820
1.664758
1.907945
1.794696
1.907945
2.354980
10.322928
29.195547
85.669756
172.153711
375.855565
575.892925
775.874853
1015.681624
1015.681624
1015.681624
1015.681624
785.063505
557.199717
312.292576
198.399425
109.023452
85.255504
91.766715
113.478899
141.557455
157.935619
169.276595
161.717534
146.284699
125.601888
96.867681
72.983503
51.916838
37.753582
27.046800
23.212433
20.337701
20.055771
19.575953
19.542575
19.113421
19.615889
18.887520
20.117760
20.291805
18.954873
18.527508
18.284917
17.853975
17.987490
17.318726
18.008947
16.562939
16.598701
16.209483
15.586615
15.400648
15.126467
15.139580
14.052987
14.347434
14.697909
14.367700
14.043450
14.382601
14.948845
14.547706
14.587641
13.906956
12.753606
11.762977
11.808872
11.111498
11.253953
10.897517
10.038614
9.111762
10.433793
9.089708
8.682609
8.230805
8.447766
7.907748
7.850528
8.237958
7.982850
8.683801
7.170439
8.100867
##ZVALUE=265
1.339912
1.264811
1.324415
1.361966
1.371503
1.524687
1.707673
1.670718
1.540780
1.838803
1.673698
1.955628
2.291799
2.368689
5.427599
25.035739
57.281852
151.685476
275.592804
547.086000
784.714818
1002.754569
1015.681624
1015.681624
1015.681624
946.148634
678.105950
460.847616
249.461532
150.781870
89.646578
78.570843
93.996525
123.081803
147.203803
168.447495
173.391700
165.449977
151.155591
125.226974
101.434588
71.819425
55.439472
37.567616
29.714704
22.996664
20.982623
21.157861
20.047426
19.765496
19.429922
19.636750
18.869638
19.133687
17.971992
18.345714
17.768741
16.781688
17.473698
16.511679
15.666485
15.796423
15.817881
15.746951
15.691519
15.196800
14.238954
14.185905
14.138818
14.783740
14.531612
13.958812
13.627410
13.640523
13.179779
13.418794
12.286901
12.444854
11.224747
10.094643
10.258555
9.973645
9.313822
9.544492
8.733869
8.497834
9.091496
8.436441
8.666515
8.028746
7.535815
7.650852
6.950498
7.529855
7.179976
7.725954
##ZVALUE=270
1.266599
1.202822
1.009703
1.191497
1.183748
1.263618
1.320839
1.208782
1.335740
1.425743
1.494884
1.669526
1.499653
1.627803
1.803637
2.187490
2.729893
16.800761
47.341585
130.158663
239.567757
395.619869
661.361814
869.517922
1015.684009
1015.684009
1015.684009
992.985964
750.648975
551.675558
378.809571
197.777748
121.276975
73.483586
73.022842
99.538565
124.720931
152.668953
170.934796
179.305673
170.350671
154.174566
132.596493
99.381804
75.984597
51.758885
38.984418
28.212667
23.773909
20.720959
19.619465
18.748641
18.282533
17.992854
18.907785
17.823577
17.814636
16.929507
16.734600
16.094446
16.287565
16.508698
15.604496
14.694929
14.680624
13.779998
13.420582
13.645887
13.281703
13.350844
13.329983
13.181567
12.604594
12.595654
12.260675
12.282729
11.749864
11.004806
11.277795
10.167956
10.552406
9.802580
9.022951
8.725524
8.819699
8.342862
8.520484
7.885695
8.314848
7.515550
7.320642
7.666945
7.385612
7.200837
6.986856
6.482601
##ZVALUE=275
1.048446
1.010895
1.193881
1.161695
0.963807
1.041889
1.167655
1.237988
0.938773
1.228452
1.279712
1.285672
1.187921
1.305938
1.474619
1.507998
1.649857
1.908541
2.013445
4.942417
19.336939
53.232908
147.187710
264.279842
478.148460
637.063980
828.104615
938.552618
994.908810
940.643549
824.510455
605.123639
431.265831
236.201882
142.026544
77.112913
61.612725
71.556568
92.688799
124.205947
146.521926
166.550875
175.301433
167.424679
152.784586
122.307539
100.101829
72.559714
53.854585
35.727620
27.615428
21.313429
18.680692
17.402768
17.197728
16.167760
16.433001
16.740561
16.434789
15.522838
15.538931
15.323758
15.115738
13.878942
14.456511
13.423562
13.257861
12.872815
13.548732
13.205409
13.404489
12.480617
13.103485
12.214780
12.459755
11.524558
11.743903
11.117458
10.602474
10.374784
9.926558
9.237528
9.262562
9.327531
8.719563
8.393526
7.912517
7.603765
7.837415
7.893443
8.273721
7.366538
7.352829
7.281899
7.431507
6.981492
##ZVALUE=280
0.897646
1.049638
1.047850
0.914931
1.066923
0.966787
0.940561
1.034737
1.182556
1.093745
1.179576
1.045465
1.406670
1.307726
1.215935
1.284480
1.551509
1.436472
1.706481
1.865625
2.028942
2.543926
13.334751
50.654411
155.436993
266.171694
475.880504
678.344965
923.752785
1015.686989
1015.686989
1015.686989
976.004004
721.181631
518.522859
286.971927
172.609687
82.581639
54.650903
51.000714
62.955618
92.906952
116.957426
142.796636
158.647895
165.089965
160.243511
142.805576
122.954845
93.541741
70.373416
46.470761
35.088658
24.640560
19.577742
16.193986
15.325546
15.332699
14.932752
14.485717
15.101433
15.162826
14.911890
14.257431
14.192462
14.039874
13.673902
13.402700
13.390779
13.360977
13.657808
13.120770
12.690425
12.812614
12.376904
12.635589
12.098551
12.049675
11.219978
10.780692
11.001825
9.703636
9.686947
8.863807
8.906722
8.632541
8.651614
8.401871
8.335710
8.124709
8.163452
7.674694
7.720590
7.539988
7.407665
7.377863
##ZVALUE=285
0.854731
0.877976
0.878572
0.783801
1.170635
0.918508
1.011491
1.090765
0.853539
1.061559
1.183748
0.924468
1.214743
1.141429
1.308918
1.325607
1.352429
1.340508
1.512766
1.489520
1.547933
1.493692
2.152920
2.391934
5.957484
22.601485
95.945001
204.000473
440.569520
682.633519
938.908458
1015.681624
1015.681624
1015.681624
1015.681624
869.057775
652.378798
391.035676
238.641500
112.114549
62.380433
37.945509
40.950775
60.474873
81.674457
113.407969
133.029819
150.903463
157.005787
154.518485
139.261484
115.781426
95.499754
67.432523
48.807859
31.479597
23.088455
17.666817
15.728474
14.443994
14.087558
13.790727
13.269782
13.327599
13.695955
13.251901
13.493896
13.436675
12.368560
12.894869
12.555718
12.960434
12.947917
12.928843
12.870431
12.145638
11.372566
11.584759
11.306405
10.703802
10.347962
10.168552
9.875894
9.801984
8.970499
9.209514
8.934736
8.475780
8.659959
8.393526
8.009672
8.038878
8.102655
7.576942
7.805824
7.601976
##ZVALUE=290
0.951886
0.922680
0.852942
0.964999
1.058578
0.925660
0.927448
1.016855
0.885725
0.986457
1.059771
0.937581
0.946522
1.086593
1.078844
1.077652
1.256466
1.096725
1.247525
1.393557
1.282692
1.459718
1.517534
1.704693
1.872778
1.967549
2.830625
7.841587
40.946603
97.987652
171.402693
431.007743
682.503581
1004.234552
1015.708447
1015.708447
1015.708447
1002.573967
802.017450
504.162908
321.239829
156.730413
81.749558
36.303997
28.045774
37.840605
52.344799
76.137781
98.402500
126.305819
142.717957
151.593685
148.508549
135.878921
116.992593
88.153481
67.545772
46.206713
32.881498
21.933913
18.020868
14.703870
13.670921
13.202429
12.769699
12.091994
11.877418
12.744665
12.531877
12.268424
11.969805
11.661649
11.798739
11.971593
11.887550
11.608601
11.687875
10.567904
10.323524
10.315776
10.319948
9.771585
9.563565
9.284616
9.027719
8.776784
8.912683
8.979440
8.703470
8.014441
8.062720
8.081794
8.156896
7.942915
7.816553
8.084774
##ZVALUE=295
0.795722
0.965595
0.661612
0.738502
0.802875
0.713468
0.980496
0.950694
0.993609
0.952482
0.941753
1.013875
0.975728
1.002550
1.015663
0.995994
1.130700
0.936985
0.991821
1.225471
1.487732
1.436472
1.392961
1.377463
1.469851
1.664758
1.679659
2.119541
2.146959
5.350709
23.018718
89.386702
174.243450
359.196663
562.951565
867.200494
1015.681624
1015.681624
1015.681624
1015.681624
918.412805
621.762872
411.506891
206.704736
113.201737
44.239759
25.544763
23.500919
32.077432
50.150752
69.335699
94.863772
116.470456
136.940479
143.078566
141.526461
131.352544
107.514858
89.049935
64.363480
46.456456
30.162930
22.077560
16.362667
13.154745
11.807680
11.123419
11.264682
11.528730
11.297464
11.219978
11.146665
10.738969
10.579824
11.196733
10.705590
10.327697
10.227561
9.628534
9.502769
9.276867
9.326935
9.250641
8.820891
8.352995
8.012652
8.509755
8.565784
8.513927
8.426905
7.991791
7.954836
8.070469
7.460713
7.740855
7.983446
##ZVALUE=300
0.795722
0.767708
0.716448
0.768900
0.761747
0.872612
0.712872
0.735521
0.810623
0.806451
1.000762
1.018643
0.995994
0.882745
0.935793
0.928640
0.797510
0.938773
0.986457
0.915527
1.176000
1.273751
1.090765
1.208782
1.437664
1.360774
1.469851
1.647472
1.814961
1.843572
2.019405
2.259612
9.976625
40.110946
135.540962
246.237516
465.129018
678.640008
952.332616
1015.681624
1015.681624
1015.681624
949.980617
750.449896
474.635959
298.070908
146.314502
77.147484
30.661821
18.828511
21.535754
29.155612
46.165586
62.896609
87.718964
108.036995
127.828717
134.504437
135.172606
126.210451
106.310844
86.911917
61.459541
46.468973
30.215979
21.482706
14.590621
12.146831
10.812879
10.745525
10.482669
10.269880
9.893775
9.878874
9.742975
9.904504
9.295940
9.075999
9.173751
9.093881
8.773804
8.380413
8.688569
8.267760
8.297563
8.066893
8.190870
7.726550
7.862449
7.472634
7.788539
7.741451
7.544756
7.461905
7.541776
7.292628
##ZVALUE=305
0.588894
0.821948
0.556707
0.723600
0.864863
0.744462
0.745654
0.776649
0.796914
0.644922
0.917912
0.803471
0.846982
0.698566
0.895858
0.939965
0.883937
0.842810
0.854731
0.914931
0.954866
0.960827
1.060963
0.982881
1.174808
1.228452
1.199841
1.143813
1.243949
1.276731
1.506805
1.591444
1.913905
1.972914
3.383756
19.213557
57.255626
167.178512
303.279757
560.653806
785.725713
1015.681624
1015.681624
1015.681624
1015.681624
832.841992
621.985793
369.576812
222.763419
99.181533
48.662424
20.827651
16.021729
20.135641
27.600527
45.114756
61.020851
83.804727
102.825761
121.843815
128.526688
127.862692
119.367838
100.093484
82.441568
58.363676
42.309761
28.026700
19.162893
13.297796
10.980964
9.591579
9.239912
8.981824
8.621812
8.493662
8.513927
8.257627
8.253455
8.039474
8.367896
7.739663
7.757545
7.775426
7.648468
8.075833
7.954836
7.648468
7.506609
7.367730
7.092953
7.469654
7.587671
7.441640
7.040501
7.167459
##ZVALUE=310
0.751615
0.681877
0.743866
0.822544
0.731945
0.760555
0.847578
0.731945
0.795722
0.785589
0.718832
0.891685
0.656843
0.793934
0.624657
0.848770
0.766516
0.705719
0.850558
0.698566
0.937581
0.814795
0.917912
0.891685
1.061559
0.898838
1.058578
1.139641
1.040697
1.241565
1.215935
1.307726
1.438856
1.707673
1.589656
1.928806
2.097487
6.898642
23.563504
83.534718
167.566538
351.606011
552.458763
845.624804
1009.183526
1015.681624
1015.681624
989.434719
798.826814
511.108637
326.644778
155.105591
79.707503
30.474663
16.058683
14.175773
17.134547
26.119947
37.351847
56.269765
73.438883
94.857812
109.072924
119.322538
120.323896
111.035705
97.857714
77.117682
59.086680
38.637519
27.930737
17.892718
13.206601
9.746552
8.176565
7.783771
7.443428
6.965995
7.184744
7.253885
6.798506
7.092953
6.945729
7.041693
7.133484
6.842613
7.244945
7.184744
7.215738
7.198453
7.212758
6.975532
6.907582
7.135868
6.585717
6.584525
##ZVALUE=315
0.669956
0.764728
0.696778
0.684857
0.648499
0.841618
0.700951
0.665784
0.515580
0.722408
0.719428
0.702739
0.731945
0.783801
0.764728
0.718832
0.950694
0.771880
0.790954
0.868440
0.715852
0.684857
0.789762
0.683665
0.833869
0.851750
0.952482
1.081824
0.944734
0.844598
1.057982
1.134872
1.096725
1.302958
1.132488
1.462698
1.511574
1.608729
2.003908
3.328919
11.292696
48.541427
107.903481
247.385502
405.997634
674.669743
861.066580
1015.681624
1015.681624
1008.626819
877.685547
618.859529
423.682928
214.504600
112.566948
41.233897
20.105839
11.566877
11.858940
15.845895
22.233725
34.864545
47.468543
67.942739
84.309578
103.013515
110.621452
111.840963
105.614662
87.774992
73.217750
53.381920
38.918853
23.535490
16.592741
10.922551
8.495450
7.044673
6.713867
6.439686
6.365776
6.420612
6.370544
6.604791
6.511807
6.597638
6.306767
6.289482
6.349683
6.470680
6.490946
6.552935
6.420612
6.248951
6.272793
6.317496
##ZVALUE=320
0.683665
0.535846
0.560880
0.655651
0.725985
0.756979
0.671744
0.650883
0.756979
0.627637
0.545979
0.760555
0.759959
0.707507
0.646710
0.707507
0.709891
0.860691
0.664592
0.697970
0.768900
0.886917
0.726581
0.812411
0.771880
0.941753
0.835657
0.854731
0.915527
0.980496
0.916719
0.921488
0.995994
0.929832
1.121759
1.152754
1.169443
1.265407
1.299977
1.480579
1.547933
1.997948
4.850626
26.363730
69.436431
180.686712
301.514864
505.097508
673.895478
867.816806
946.826935
928.314924
833.583474
628.880858
456.350446
250.583887
142.054558
60.776472
29.039979
12.089610
9.122491
10.166764
12.834668
19.404888
28.008819
43.479800
59.368610
79.712868
92.340708
103.473663
104.323626
98.048449
86.714625
66.509843
51.195621
33.755898
23.588538
14.894605
10.363460
7.129908
6.206632
6.028414
5.736947
5.665421
5.579591
5.553961
5.616546
5.767941
5.551577
5.792975
5.733967
6.065965
6.074905
6.083846
6.038547
6.152987
##ZVALUE=325
0.546575
0.609756
0.580549
0.712872
0.544786
0.569820
0.487566
0.672936
0.690818
0.680685
0.650883
0.667572
0.673532
0.537634
0.811815
0.605583
0.737906
0.525713
0.744462
0.730753
0.659823
0.716448
0.755787
0.697970
0.752807
0.726581
0.616908
0.997782
0.856519
0.889897
0.829697
0.915527
0.675917
0.815988
1.010895
1.000762
0.959635
1.115799
1.019835
1.274943
1.206994
1.439452
1.285672
1.613498
2.932549
15.747547
43.212771
120.025873
214.805603
408.374667
574.679971
774.727464
880.271792
910.926461
843.165517
662.146807
501.562953
300.247669
181.515813
79.202652
38.229823
14.180541
8.511543
7.472634
8.432865
11.486411
16.623735
27.333498
39.544702
58.265924
73.657632
89.089870
96.130967
98.069906
90.805888
76.104999
62.799454
44.883490
32.328963
19.987822
13.703704
8.578897
7.018447
5.674958
5.630851
5.337000
5.411506
5.246997
5.060434
5.459785
5.263686
5.394816
5.341768
5.913973
5.579591
5.494952
##ZVALUE=330
0.720620
0.587702
0.501871
0.556707
0.729561
0.582933
0.589490
0.562668
0.594854
0.571609
0.570416
0.672936
0.565648
0.532866
0.650883
0.743866
0.696778
0.614524
0.680685
0.694990
0.562668
0.587702
0.657439
0.683665
0.672936
0.706911
0.674725
0.655651
0.733733
0.818968
0.734925
0.847578
0.823736
0.861883
0.810623
0.817776
0.918508
0.986457
0.866652
1.040697
1.147985
1.201630
1.307726
1.159906
1.503825
1.532435
1.920462
7.025599
22.964478
78.516006
151.843429
308.526754
460.258722
675.672889
806.450844
890.422463
856.151581
719.903708
569.794774
363.515615
229.948759
105.833411
54.271817
20.043850
9.775758
6.755590
6.627440
7.663965
9.896755
16.401410
23.947954
37.688613
51.021576
70.817471
82.020760
91.278553
91.379881
84.347725
73.678493
56.110620
42.888522
28.303862
20.214915
13.262630
9.633899
6.890893
5.947948
5.510449
5.240440
5.123615
5.183816
5.031824
5.052686
4.927516
5.027652
5.370975
##ZVALUE=335
0.593662
0.633597
0.476837
0.509620
0.652671
0.629425
0.483990
0.630617
0.450611
0.506639
0.629425
0.510812
0.356436
0.626445
0.633597
0.482798
0.785589
0.594854
0.779629
0.638962
0.740886
0.592470
0.495911
0.678897
0.635982
0.694990
0.682473
0.760555
0.770688
0.656843
0.706911
0.764728
0.796914
0.785589
0.832677
0.834465
0.818968
0.892878
1.018643
0.992417
1.120567
1.064539
1.072884
0.911951
1.237988
1.188517
1.334548
1.320839
1.712441
3.188848
11.458993
47.245622
101.089478
229.700804
373.567939
594.540834
747.202635
870.842934
883.746743
785.230994
646.984577
430.773497
289.853811
149.220824
77.089667
26.562810
12.279749
6.797910
6.010532
6.145835
7.057786
9.794831
14.294982
24.155974
34.606457
50.791502
63.809752
77.035427
83.547831
84.738731
79.060793
67.137480
56.048632
41.837692
31.085610
20.149946
13.991594
9.112954
7.133484
5.559921
5.233884
4.863739
4.942417
4.760623
4.776716
4.812479
##ZVALUE=340
0.637770
0.530481
0.591874
0.504851
0.634789
0.722408
0.582933
0.519753
0.523925
0.504851
0.445843
0.460744
0.481606
0.527501
0.668764
0.568628
0.651479
0.499487
0.608563
0.565648
0.529885
0.590682
0.712872
0.595450
0.719428
0.713468
0.650883
0.774860
0.662804
0.735521
0.767708
0.623465
0.824928
0.769496
0.709891
0.734925
0.852942
0.689626
1.002550
0.916719
0.913739
0.872612
0.872612
0.889897
0.982881
1.111627
1.195669
0.975728
1.304746
1.289845
1.358986
2.217889
6.068945
29.787421
72.837472
182.638764
304.787755
499.895811
648.701787
797.356963
839.125514
785.380602
678.880811
490.404963
344.333649
181.649923
96.860528
37.510991
15.933514
7.079840
6.210804
5.960464
5.976558
7.134676
9.147525
15.148520
21.750927
34.607649
45.255423
61.405897
71.143508
78.644753
79.379678
73.384643
65.474510
51.756501
41.876435
28.709769
21.144748
13.417602
9.354949
6.478429
5.544424
5.138516
4.810691
4.950762
##ZVALUE=345
0.583529
0.653863
0.551939
0.530481
0.552535
0.571609
0.679493
0.603795
0.568628
0.549555
0.421405
0.419617
0.437498
0.566840
0.536442
0.588894
0.656843
0.531673
0.405908
0.567436
0.536442
0.759959
0.673532
0.693798
0.550747
0.720620
0.603795
0.808835
0.542998
0.764728
0.679493
0.655651
0.687838
0.547767
0.769496
0.793934
0.713468
0.795722
0.678897
0.901818
0.718832
0.848770
0.913739
0.950694
0.729561
0.830889
0.968575
0.921488
1.099706
1.085997
1.078844
1.244545
1.392961
1.600981
2.824664
16.425848
46.138763
123.521686
219.415426
399.332643
548.051000
725.491643
803.853869
808.101892
730.660558
548.350811
402.725935
231.376886
129.542947
50.873756
23.569465
8.923411
6.201863
5.701780
5.265474
5.479455
6.055832
8.524656
12.246966
20.819902
30.274987
44.486523
53.832531
65.452456
70.821643
73.695779
69.695711
61.581731
52.372813
39.875507
30.049682
19.410849
13.800859
9.036660
6.922483
5.306602
##ZVALUE=350
0.433922
0.531673
0.380874
0.534654
0.471473
0.616908
0.515580
0.484586
0.405908
0.621676
0.703931
0.648499
0.671744
0.583529
0.668764
0.734925
0.674725
0.587702
0.607967
0.568628
0.399947
0.685453
0.587702
0.607967
0.624657
0.846982
0.617504
0.581741
0.675917
0.614524
0.670552
0.730753
0.820756
0.651479
0.714660
0.723600
0.642538
0.645518
0.707507
0.754595
0.728965
0.762939
0.793934
0.842810
0.867844
0.928640
0.809431
0.960827
0.953674
0.891685
0.954866
0.936985
0.999570
1.136661
1.097918
1.513958
1.744628
7.762909
24.474859
80.520511
153.971910
310.142636
449.624658
627.310872
736.981630
788.526535
744.975805
608.781576
462.135673
269.649625
162.841678
75.125694
34.324527
11.199713
6.328821
5.456805
4.908442
4.795790
4.993677
5.800724
7.561445
12.561679
18.063784
27.018785
35.628676
48.438907
57.230592
65.225959
66.722631
64.675808
58.815479
47.767758
38.516521
27.023554
20.086765
13.251901
##ZVALUE=355
0.582933
0.590682
0.524521
0.503659
0.561476
0.627637
0.488758
0.505447
0.621676
0.543594
0.564456
0.518560
0.669956
0.586510
0.504851
0.548959
0.527501
0.475645
0.446439
0.593662
0.571609
0.518560
0.520945
0.639558
0.534654
0.705719
0.656843
0.713468
0.544786
0.755787
0.656843
0.573993
0.743866
0.589490
0.702739
0.560880
0.607967
0.727773
0.645518
0.773668
0.704527
0.834465
0.781417
0.913739
0.751615
0.842810
0.786781
0.859499
0.854731
0.862479
0.803471
0.882745
0.844598
1.124740
1.121759
1.068711
1.184940
1.369715
1.399517
3.846884
12.971759
51.215887
106.921792
225.966573
357.331634
551.640987
671.015978
753.169656
744.274855
626.153946
501.191616
326.755643
204.244852
90.442896
42.836666
14.126897
6.935596
5.265474
5.065799
4.594922
4.488826
4.881620
5.301833
6.912947
9.541512
15.475750
22.242665
33.065677
41.562915
51.092505
57.176948
60.112476
59.494972
52.756667
45.877695
35.528541
##ZVALUE=360
0.316501
0.422597
0.501871
0.484586
0.345707
0.427961
0.462532
0.437498
0.406504
0.324845
0.294447
0.583529
0.560880
0.488758
0.487566
0.275970
0.349879
0.485778
0.505447
0.391603
0.479817
0.502467
0.463724
0.434518
0.458956
0.450611
0.509620
0.515580
0.538826
0.438690
0.711679
0.512600
0.670552
0.575781
0.468493
0.563860
0.688434
0.546575
0.542998
0.829697
0.689626
0.605583
0.633597
0.595450
0.798702
0.673532
0.609756
0.586510
0.635982
0.664592
0.574589
0.607967
0.609756
0.719428
0.927448
0.860691
0.923872
1.002550
1.097918
1.197457
1.338720
1.841784
5.183816
25.157928
63.673854
161.749721
268.939734
439.416766
577.190518
709.004998
734.708905
671.140552
561.136007
374.818444
246.198773
117.318630
60.345531
22.810698
9.869933
5.251765
4.688501
4.515648
4.311800
4.218817
4.004836
4.420877
5.468726
8.297563
11.882782
18.911958
25.983453
36.333799
43.466687
51.635504
54.936409
54.338574
##ZVALUE=365
0.462532
0.647902
0.392795
0.392795
0.581741
0.554919
0.457764
0.655651
0.556707
0.456572
0.518560
0.545979
0.503659
0.563860
0.533462
0.552535
0.472665
0.452995
0.473857
0.428557
0.481606
0.482798
0.599623
0.571609
0.604987
0.558496
0.550747
0.606775
0.563860
0.594854
0.469685
0.565648
0.545979
0.730753
0.570416
0.654459
0.530481
0.728965
0.604987
0.577569
0.615716
0.594854
0.744462
0.645518
0.754595
0.753999
0.812411
0.734925
0.858903
0.743866
0.720620
0.770688
0.672936
0.656843
0.807643
0.954866
0.903606
1.007915
0.837445
1.164675
0.883937
1.208782
1.426935
1.594424
2.625585
13.937950
38.827658
104.747415
195.419788
364.797711
494.758487
636.387467
701.162815
685.110688
594.013929
426.637530
297.853947
159.999728
86.167455
31.315684
13.313890
5.704761
4.785657
4.408956
4.265904
3.962517
3.965497
3.754497
3.878474
4.927516
6.361604
10.560751
15.271902
23.358464
30.307770
39.069653
##ZVALUE=370
0.543594
0.555515
0.594854
0.568628
0.487566
0.503659
0.600815
0.561476
0.510812
0.594854
0.509620
0.528693
0.526905
0.511408
0.444651
0.532866
0.318885
0.559688
0.646710
0.566840
0.404716
0.542998
0.527501
0.515580
0.613928
0.625849
0.659823
0.490546
0.485778
0.502467
0.620484
0.644922
0.581741
0.808835
0.632405
0.759959
0.572801
0.788569
0.506639
0.617504
0.806451
0.693798
0.758767
0.734925
0.765920
0.646710
0.722408
0.688434
0.788569
0.639558
0.590682
0.780821
0.770688
0.843406
0.773668
0.780821
0.721812
0.835657
0.944734
0.936985
0.919700
1.153946
1.168847
1.070499
1.152754
1.321435
1.733899
7.044673
23.494959
77.939630
146.887898
279.437900
411.559939
578.015447
656.942725
675.577521
616.353750
479.269624
348.751545
192.168951
106.443763
41.641593
19.806623
8.037686
4.787445
4.286766
3.995895
3.739595
3.808737
3.616810
3.556609
3.853440
4.382730
6.463528
8.766651
13.571978
##ZVALUE=375
0.479817
0.388622
0.446439
0.456572
0.493526
0.446439
0.625849
0.489950
0.443459
0.414848
0.361800
0.448823
0.437498
0.514984
0.573993
0.434518
0.370741
0.570416
0.504851
0.448823
0.471473
0.564456
0.437498
0.415444
0.337958
0.384450
0.696778
0.567436
0.444651
0.697970
0.518560
0.565648
0.571609
0.611544
0.610948
0.477433
0.600815
0.593662
0.631809
0.695586
0.782609
0.581741
0.570416
0.684857
0.592470
0.598431
0.603795
0.733733
0.590682
0.584722
0.617504
0.547767
0.661612
0.690818
0.621676
0.699759
0.693798
0.856519
0.711679
0.751615
0.668764
0.798702
0.834465
0.711679
0.945926
0.905991
0.972748
1.156926
1.430511
3.098845
16.675591
42.368770
111.250877
201.376677
363.946557
486.212969
624.856949
676.573515
643.462539
553.017855
385.710001
267.117620
146.683455
82.222819
32.462478
14.117956
5.388856
4.167557
3.802776
3.821850
3.683567
3.441572
3.258586
3.197789
3.323555
3.606677
##ZVALUE=380
0.571609
0.666976
0.704527
0.727773
0.684857
0.586510
0.517964
0.615716
0.630617
0.551939
0.674725
0.638962
0.728965
0.509620
0.610948
0.579953
0.760555
0.710487
0.701547
0.647902
0.567436
0.617504
0.680685
0.556707
0.494719
0.696778
0.812411
0.754595
0.755787
0.810623
0.955462
0.756979
0.882745
0.750422
0.862479
0.874996
0.853539
1.094937
0.892878
0.952482
0.828505
0.900626
0.967979
0.982881
0.870824
0.909567
0.756979
0.882745
0.844598
0.707507
1.024604
0.901818
0.913739
0.882745
0.814795
0.811815
0.881553
0.887513
0.888705
0.900626
0.962615
1.001954
1.136661
0.995994
0.849962
1.045465
1.063943
1.153946
1.257658
1.477599
1.391768
2.273917
6.743670
31.152964
73.225498
173.984766
281.875730
443.310738
562.117696
660.260916
663.245916
569.579601
466.851592
321.250558
214.224458
105.184913
53.995848
19.908547
8.735657
4.586577
3.892779
3.787875
3.625751
3.694892
3.417730
3.251433
##ZVALUE=385
0.420809
0.371933
0.398755
0.349879
0.303984
0.406504
0.361800
0.418425
0.485778
0.493526
0.361800
0.456572
0.317693
0.457764
0.478625
0.395775
0.472665
0.319481
0.410676
0.510812
0.428557
0.408888
0.405908
0.457764
0.508428
0.518560
0.612736
0.498891
0.701547
0.661612
0.709891
0.705719
0.787973
0.890493
0.953674
0.905991
1.084805
0.831485
0.887513
0.810623
0.882745
0.789762
0.809431
0.831485
0.806451
0.902414
0.930429
0.648499
0.708699
0.630617
0.765920
0.815988
0.738502
0.534654
0.707507
0.710487
0.752807
0.821948
0.697970
0.796914
0.718832
0.753999
0.831485
0.677705
0.665784
0.661612
0.818968
0.918508
0.848770
1.016855
1.138449
1.171827
1.206994
1.319647
3.094673
17.336607
46.094656
117.013454
208.137631
369.957685
495.473742
616.879463
649.222732
621.657968
544.615984
399.992466
284.107924
154.904723
88.086724
37.350655
16.044974
5.219579
3.810525
3.536940
3.412962
3.364682
##ZVALUE=390
0.509620
0.483990
0.402927
0.505447
0.476837
0.425577
0.460744
0.468493
0.416636
0.488758
0.354648
0.496507
0.356436
0.284910
0.335574
0.311732
0.510812
0.373721
0.562668
0.535846
0.441670
0.403523
0.544786
0.362992
0.558496
0.622869
0.640750
0.730753
0.793934
0.792742
0.939965
1.031756
1.143813
1.198649
1.291633
1.105666
1.313686
1.174808
1.238585
1.153946
1.179576
0.976920
1.132488
1.120567
0.931621
0.997782
0.985861
0.974536
1.011491
0.782609
0.759959
0.921488
0.696778
0.708699
0.644922
0.638962
0.725985
0.618696
0.660419
0.802875
0.804663
0.703931
0.661612
0.695586
0.572801
0.717640
0.794530
0.760555
0.825524
0.979900
1.056790
1.071692
1.146793
1.109838
1.046658
1.037717
1.800656
9.013414
28.530955
88.283420
165.983438
312.864780
428.723693
556.344986
627.244711
645.481944
592.767000
464.393497
354.041457
215.982795
126.854777
52.566528
24.704933
7.614493
4.151464
3.383756
##ZVALUE=395
0.267625
0.314713
0.142455
0.269413
0.245571
0.190735
0.225902
0.122786
0.230670
0.250936
0.296831
0.382662
0.188947
0.191927
0.292659
0.225902
0.323653
0.236630
0.204444
0.355840
0.251532
0.421405
0.177622
0.280738
0.334978
0.309944
0.576973
0.649691
0.732541
0.922680
0.907779
1.147985
1.109838
1.272559
1.247525
1.115799
1.250505
1.176000
0.953674
1.051426
1.116991
1.145601
1.060963
1.025796
0.996590
0.882745
0.784993
0.945926
0.881553
0.759959
0.750422
0.988841
0.725985
0.724792
0.750422
0.534654
0.682473
0.518560
0.375509
0.520945
0.663996
0.435710
0.585914
0.629425
0.576973
0.710487
0.656843
0.666976
0.572801
0.704527
0.834465
0.832677
0.770688
0.994802
0.866652
0.862479
0.938773
1.063943
1.161695
4.761815
17.956495
63.565969
121.425986
231.119990
345.214009
504.342914
597.362518
656.684637
640.195012
542.683005
424.763560
264.269710
163.836479
72.354674
35.459995
12.596846
##ZVALUE=400
0.389814
0.381470
0.196695
0.240803
0.198483
0.378489
0.246763
0.221729
0.233650
0.085831
0.264645
0.091791
0.166893
0.227690
0.267625
0.099540
0.135899
0.158548
0.148416
0.141859
0.094771
0.189543
0.297427
0.276566
0.260472
0.287890
0.399947
0.546575
0.636578
0.720620
0.781417
1.018643
0.977516
0.950694
1.088977
1.022816
1.107454
1.189709
1.173615
1.078844
0.934601
1.102686
1.167655
1.016855
0.884533
0.922680
0.930429
0.797510
0.711679
0.693798
0.624657
0.556707
0.601411
0.622869
0.440478
0.593662
0.499487
0.563860
0.683665
0.626445
0.372529
0.556707
0.484586
0.625849
0.366569
0.315905
0.535846
0.409484
0.604987
0.588894
0.500679
0.765920
0.680685
0.760555
0.786781
0.685453
0.851750
0.803471
0.703931
0.816584
0.795722
2.286434
8.880496
36.257505
79.440475
176.170468
281.466842
435.887575
542.020798
628.872514
638.513565
556.886792
458.123684
311.986804
204.929709
102.997422
##END
