##TITLE=FQP00301
##FORMAT=SPECTACLE-ASCII V-1.2
##DATA TYPE=ULTRAVIOLET SPECTRUM
##SECOND TYPE=ULTRAVIOLET SPECTRUM
##DATE=01/11/18
##TIME=18:47:45
##SPECTROMETER/DATA SYSTEM=SPECTACLE
##XUNITS=NM EM
##YUNITS=ENERGY
##YFACTOR=1
##FIRSTX=220
##LASTX=410
##NPOINTS=96
##3DDATA=Equidistant
##ZUNITS=NM EX
##FIRSTZ=210
##LASTZ=400
##ZPOINTS=39
##XYDATA=(Y..Y)
##ZVALUE=210
2.577901
2.765656
3.365874
2.427697
2.971888
3.424883
2.944469
3.918409
3.041625
3.094673
3.300905
3.386736
3.692508
3.531575
3.603697
3.948808
4.119873
4.931688
3.840923
5.139709
5.541444
4.887581
6.277561
4.884601
5.726814
6.769896
6.571412
7.264614
7.104874
6.629825
7.265806
7.436872
6.561875
7.121563
8.290410
7.901788
7.923841
7.441640
8.367896
8.580685
8.676648
8.496642
8.549690
8.475780
10.099411
9.036660
9.326935
8.708835
8.833408
8.647442
9.749532
9.050965
8.768439
10.915995
10.354519
9.691715
10.103583
9.998679
9.461641
10.325909
9.610653
10.002851
10.786653
10.415912
10.330677
9.369850
10.400414
12.218952
12.449622
13.953447
20.081997
22.389889
24.992824
29.178858
31.599998
36.184788
37.442446
40.106773
41.357875
43.840408
43.296814
39.415956
35.894513
28.569698
21.576881
18.203855
13.861656
12.292862
10.403991
10.725856
9.945631
9.589791
9.696484
8.640885
9.622574
8.795857
##ZVALUE=215
11.341572
10.002851
8.682609
7.226467
6.290674
6.239414
5.316734
5.668998
6.244779
6.420612
5.550981
4.858971
4.722476
4.521608
3.708601
4.142523
4.663467
4.318953
5.509853
5.517602
5.106926
5.472898
5.914569
5.625486
6.020665
7.194877
7.776618
6.367564
6.874800
7.018447
7.179976
7.671714
8.131862
8.344650
7.054806
8.016825
8.354783
8.530617
9.364486
9.653568
7.691979
8.785725
9.228587
8.709431
8.959770
8.274913
7.751584
8.818507
9.888411
9.399652
9.026527
8.643866
8.962750
9.071827
9.714961
9.658933
8.642673
10.019541
9.601712
9.235740
9.440780
10.010600
10.093451
9.725690
10.575652
10.328889
10.299683
11.245608
12.913942
15.241504
17.455816
21.626949
23.371577
26.914477
30.970573
34.585595
36.131740
39.922595
41.568875
38.400888
35.350919
32.890439
28.044581
21.952987
19.438863
14.112592
12.306571
11.465549
9.872913
9.622574
8.303523
8.692741
9.584427
9.316802
8.682609
10.379553
##ZVALUE=220
30.347705
31.949878
34.957528
32.042861
29.809475
23.948550
21.011829
14.819503
12.576580
11.619925
13.787746
13.539791
11.689663
11.919737
11.486411
8.792877
6.604791
5.472898
6.043911
5.270839
4.844666
6.578565
5.661845
5.374551
6.180406
7.169843
5.924702
7.420778
7.759929
7.626414
9.110570
8.316636
9.421706
9.771585
8.420944
8.820891
10.356903
9.596944
8.977652
9.509921
9.465814
10.873675
10.312796
10.112524
10.279417
10.007620
9.451509
9.958744
10.019541
8.882880
10.558963
11.187792
9.735823
9.963512
9.692907
10.032654
10.731816
9.855628
10.081530
9.579659
8.770823
10.040998
10.063648
10.061860
10.891557
11.021495
11.281967
11.992455
14.191866
15.824437
18.501878
19.597411
21.816492
24.755597
28.212667
31.620860
31.559467
32.317638
35.173893
35.239458
31.710863
30.353665
27.993917
22.632480
19.666553
14.818907
13.583899
12.308955
11.067986
10.682940
10.023713
11.289716
10.048747
9.374619
9.982586
9.941459
##ZVALUE=225
49.443841
49.626827
66.761971
93.596578
101.352930
103.488564
97.196698
81.322789
63.246489
40.251613
30.312538
24.695992
25.679469
28.007627
28.665662
23.180842
21.777749
18.771887
13.433695
10.153651
7.297993
6.375909
5.326867
6.551743
6.532669
6.340742
6.670952
7.128716
8.525848
8.570552
7.790923
10.068417
9.199977
9.784698
10.620952
10.605454
9.739995
10.703802
11.094809
9.885430
10.988712
10.674000
9.613633
10.351539
10.181665
9.436607
11.522770
8.855462
9.423494
9.017587
9.212494
8.118749
8.817911
9.569526
9.016991
9.113550
9.138584
8.613467
8.596778
10.218620
8.974671
10.011792
9.995699
9.275675
9.388924
9.866953
10.819435
11.797547
12.212992
13.852715
15.641451
16.400814
17.089844
20.037889
21.092892
21.512508
22.196770
22.122860
22.436976
22.250414
18.755794
18.615723
16.782880
15.167594
14.155507
14.707446
13.445616
11.469722
12.845993
11.207461
12.061000
11.894703
11.264682
11.298656
12.139678
11.678934
##ZVALUE=230
43.614507
45.743585
76.836944
108.214617
159.504414
181.913972
202.065706
195.570588
170.819759
142.121911
98.000765
73.824525
54.161549
46.934485
46.572685
51.217675
51.788688
48.974752
45.110583
38.265586
29.905438
20.388961
12.401938
9.147525
6.686449
6.643534
6.525517
6.578565
7.137656
8.389950
8.419752
8.508563
9.881854
9.329915
9.560585
11.194944
10.749698
10.399818
10.000467
10.611415
9.752512
10.105968
10.038614
10.252595
10.006428
10.474920
10.131598
9.907484
8.715987
9.669662
9.524822
9.038448
10.978580
10.168552
10.545850
8.973479
8.720756
9.861588
9.464622
11.066794
10.634661
10.590553
11.921525
10.393858
10.233521
11.161566
11.944771
13.207793
15.532970
15.089512
16.252995
15.755892
16.840696
17.844439
20.456910
21.288991
20.965934
20.767450
20.617843
22.020936
18.398762
20.289421
18.927455
19.635558
18.645525
18.553734
17.352700
15.575886
15.145540
16.654730
16.531944
17.158985
15.715957
15.181899
16.123652
16.560555
##ZVALUE=235
12.833476
15.007854
30.277967
71.083903
111.321807
176.226497
226.555467
289.097428
310.750604
315.843821
277.875662
226.834416
159.256458
120.478868
86.122751
72.377920
71.192980
78.267455
81.200600
85.194707
82.322955
65.587759
51.787496
32.937527
24.694800
14.820695
11.213422
7.075667
6.651878
6.226897
7.098913
7.260442
7.292628
7.379651
7.408857
8.016825
8.594990
8.171797
7.727742
8.167624
8.396506
7.826686
8.821487
8.421540
9.018779
7.809997
9.566545
8.302927
8.332729
7.938743
8.782744
8.376837
8.422732
9.155869
8.940697
9.724498
10.272861
9.687543
9.454489
10.887980
10.341406
11.131763
12.170672
12.768507
12.699962
12.131929
14.069676
14.531612
15.125871
15.623569
17.974973
19.596815
19.193888
20.237565
21.484494
23.556948
22.472739
23.270845
22.677779
23.540854
22.800565
24.008751
22.569895
22.944808
22.550821
22.951961
22.976995
22.885799
23.769736
22.902489
21.598935
23.447871
22.256970
21.674633
23.614764
21.514893
##ZVALUE=240
2.141595
2.403855
6.579757
14.874935
39.445758
74.396729
150.896907
233.023763
336.766839
408.451557
467.107892
468.583703
436.030626
357.185602
270.070434
176.756978
131.927729
102.708936
96.164942
102.252960
111.205578
120.768547
114.410520
104.388595
83.370805
66.042542
44.993758
32.705665
19.072890
13.314486
9.081960
7.742643
7.115602
6.905794
6.246567
6.780624
7.366538
7.726550
7.655621
8.528829
8.334517
8.198619
9.250641
8.242726
8.383989
8.713603
8.883476
8.771420
8.901954
10.063648
8.636713
8.761883
9.003878
9.689927
11.051893
9.447932
10.401607
10.757446
10.842681
11.744499
12.069941
11.955500
12.110472
13.149977
14.399886
14.547706
15.221834
16.832948
19.667745
19.197464
21.624565
20.797849
24.322867
25.431514
27.763844
26.473999
27.598739
29.346943
28.658509
28.597713
29.867887
29.789805
28.780699
30.224919
29.351711
29.022694
28.355718
29.430985
31.127930
28.264523
31.239986
31.878948
28.482676
28.915405
28.568506
28.369427
##ZVALUE=245
2.028942
1.900792
1.797676
2.028942
4.778504
10.628700
35.877824
67.405701
159.402490
244.037509
377.035737
468.071699
546.662807
582.856536
574.373603
480.611920
390.426517
261.222720
185.073614
117.758512
101.069808
95.210671
117.634535
128.253698
133.428574
125.275850
113.948584
96.289515
70.474744
51.054955
39.410591
21.064878
13.935566
8.779764
6.915927
7.980466
7.251501
7.004738
6.086826
7.900000
7.690787
7.514954
8.750558
7.313490
7.647872
8.488894
8.339882
8.576512
8.246899
7.566810
8.357763
8.725524
8.700490
9.179711
9.036660
10.107756
9.570718
11.551976
10.975599
10.612607
10.990500
10.995865
12.921691
12.891889
12.085438
14.280677
14.546514
14.556646
16.779900
17.122626
19.451976
20.697713
20.780563
22.841692
23.462772
25.267601
26.053786
26.689768
25.968552
29.005408
27.649999
29.002428
30.347705
29.718876
29.291511
29.028654
29.179454
29.927492
29.687881
30.551553
30.595660
29.845834
29.029846
29.404759
30.283928
29.289722
##ZVALUE=250
1.955628
1.506805
1.499653
2.189875
1.443624
2.168417
2.682805
6.746650
28.948784
59.870481
143.613815
238.083005
348.958969
503.772497
589.229465
667.842627
673.366785
590.902567
498.628616
345.340967
230.537653
159.110427
105.679631
97.032785
106.715560
122.073889
137.977600
145.345926
138.404965
123.673677
109.265447
78.666806
59.493780
36.056638
22.605658
12.785792
9.557605
8.417964
7.247925
7.868409
8.881688
8.516908
7.923841
8.700490
9.011626
9.064674
9.573698
8.157492
9.133816
8.645654
8.422732
8.533597
8.678436
8.586645
8.461475
8.791685
9.403825
9.731650
9.921789
9.605885
10.566711
11.101961
10.796785
12.781620
12.244582
13.223886
13.967752
13.675690
14.628768
16.250610
17.759800
17.667413
20.634532
21.043420
22.281408
24.008751
23.806691
24.713874
25.070906
26.208758
26.114583
26.614666
25.843978
27.378798
27.605891
28.259754
26.033521
27.892590
28.244853
28.642416
28.240681
29.747486
29.217601
28.181672
28.692484
29.574633
##ZVALUE=255
1.612902
1.542568
1.589656
1.721978
1.439452
1.526475
1.710653
1.684427
2.056956
4.064441
20.392537
50.255656
100.932717
222.108960
338.868499
522.158742
647.068620
769.031644
794.078708
726.839900
623.578429
497.128963
310.589671
205.019712
116.669536
91.415644
89.527965
108.161569
127.388835
142.295957
149.226785
145.685673
136.191845
109.248757
87.259412
55.624843
38.684607
24.066567
16.312599
11.068583
9.319782
9.730458
8.711815
9.958744
9.501576
9.617805
9.910464
9.796619
9.700656
9.007454
10.369420
8.603930
9.100437
8.822680
9.124875
10.461807
9.560585
9.341836
9.490848
10.256767
10.266900
10.207891
10.455847
11.132956
11.166930
13.258457
13.196468
14.516711
14.764667
15.967488
16.360879
17.495751
19.457936
20.162463
22.465587
22.153854
22.249818
23.522973
23.625493
23.560524
25.732517
24.404526
25.309920
24.680495
25.106668
26.439428
25.985837
27.116537
25.952458
28.112531
26.018620
25.482774
26.448965
27.888417
27.204752
28.155446
##ZVALUE=260
1.485944
1.486540
1.330972
1.618862
1.425743
1.540780
1.683831
1.445413
1.763701
1.750588
1.983643
2.703667
8.195639
32.793880
75.352788
180.997849
288.686752
474.191904
609.893799
776.484013
844.278932
834.782720
740.567446
611.039996
405.888557
281.260610
163.929462
107.124448
79.733729
83.778501
102.060437
130.388737
149.549842
160.804987
157.643557
135.828853
117.555857
86.361766
64.373612
39.486885
27.523637
17.267466
13.878942
11.667609
11.284947
10.837913
10.967851
10.714531
11.178851
9.724498
9.883642
10.503531
9.971857
10.055900
9.502769
9.533763
9.926558
9.357929
9.560585
10.025501
10.181665
10.674596
10.518432
11.102557
11.421442
11.155605
11.658669
11.789799
13.021827
14.266968
14.947653
15.822649
17.371774
17.868876
18.722415
20.328760
21.381974
21.766424
22.740960
21.929741
23.863912
23.166537
23.256540
24.239421
25.287867
23.839474
24.222732
26.243925
25.503635
25.338531
26.559830
26.024580
25.727749
26.247501
25.744438
26.488900
##ZVALUE=265
1.052618
1.224875
1.114607
1.052618
1.292825
1.220703
1.467466
1.402497
1.319647
1.102686
1.662970
1.667738
1.759529
1.957417
4.201531
21.743774
50.947666
122.278929
213.969946
396.136642
551.998615
699.305534
846.886635
882.135034
819.375515
712.499619
529.359579
383.166671
219.949484
135.163665
87.620616
70.381761
84.541440
115.973949
138.377547
159.926414
167.950988
156.615973
140.783787
114.981532
91.666579
60.529709
44.431686
27.266741
20.008683
13.184547
12.386441
11.729598
10.621548
10.629892
11.211634
10.177493
10.629892
10.118484
10.777712
10.475516
9.753704
9.913445
10.061860
9.493828
9.931922
10.317564
10.157824
11.065602
10.871887
11.097789
11.665821
11.970997
13.006926
13.608932
15.231967
15.322566
16.754866
17.077923
17.388463
18.163919
19.251704
19.123554
19.160509
19.735694
20.291805
21.770000
21.479726
22.273660
21.196604
22.296906
22.912621
23.750663
23.185611
24.293661
23.023486
24.727583
23.967624
24.662614
24.913549
23.920536
##ZVALUE=270
1.022816
1.037717
1.026988
1.098514
1.111627
1.135468
1.435876
1.294613
1.354814
1.316667
1.270771
1.486540
1.315475
1.836419
1.698732
2.032518
2.408624
10.259748
28.589964
90.624690
169.253945
288.745761
497.789979
661.853552
847.467780
910.422802
903.168917
829.888582
651.971698
494.811535
344.331861
179.606676
106.351972
63.474774
65.805912
90.059638
113.865733
142.886639
157.186985
166.633725
160.823464
142.483711
121.824741
90.542436
66.380501
42.216778
30.125976
19.589663
15.060902
11.934638
11.311769
10.240674
10.652542
10.443926
10.583997
10.783672
10.143518
10.764599
9.576678
10.294914
10.749698
10.662675
10.821819
10.579824
10.889769
11.233687
11.629462
12.066960
12.623668
13.401508
13.681650
14.832616
15.643835
16.172528
16.652942
18.202662
16.942620
18.097758
19.587874
19.483566
19.708872
19.913912
21.178722
21.276474
20.369887
21.761656
21.901727
22.272468
22.299886
22.771955
22.136569
22.049546
21.985769
22.035837
23.033619
23.601651
##ZVALUE=275
0.997782
0.962615
1.015663
1.183748
1.086593
1.106858
1.404881
1.211762
1.329780
1.134872
1.139641
1.170635
1.402497
1.289845
1.283884
1.634955
1.727939
1.975894
2.062917
4.753470
17.447472
47.922730
135.240555
242.492557
439.130664
597.071648
773.577690
886.564851
926.920772
888.452530
790.537000
588.177443
414.913893
220.649838
127.629638
63.506961
51.110983
63.583851
85.276961
116.422772
138.036013
157.396793
161.888599
157.342553
140.500665
114.248991
91.021657
64.060688
46.315789
28.458834
19.509792
13.356805
11.186600
9.771585
10.573864
10.113716
9.646416
9.591579
9.800792
9.861588
10.350943
10.133982
10.310411
10.956526
10.625720
11.864901
12.166500
11.982918
12.981892
13.476610
13.724566
14.733672
14.944673
15.819669
16.414523
17.543435
18.303990
18.622875
18.005967
19.691586
18.761754
19.305944
20.278692
19.837618
20.801425
20.723939
20.748973
21.094680
20.496845
21.735430
21.345615
21.864772
22.108555
21.885633
21.421909
22.320747
##ZVALUE=280
0.797510
1.026988
0.787973
1.036525
0.945926
1.134872
1.034737
1.083612
1.199841
0.919700
1.038909
1.265407
1.246929
1.347661
1.368523
1.317859
1.228452
1.346469
1.515746
1.778603
1.731515
2.097487
11.552572
36.390424
111.083984
196.727514
352.674723
505.885482
704.377890
824.694633
900.722742
891.893506
798.409581
607.443452
447.090864
256.390572
154.505968
72.980523
46.443939
44.471622
60.170889
87.355971
109.790564
137.068629
153.563619
158.708692
152.073503
134.265423
113.421679
84.549785
63.378811
40.556788
27.749538
17.306805
13.154745
9.958744
9.181499
9.454489
9.225607
9.298921
9.797812
10.044575
10.393858
10.523796
11.135936
11.241436
11.948943
12.352467
12.786984
13.419986
13.935566
14.534593
14.900565
15.403628
16.650558
16.602874
16.681552
17.304420
18.477440
18.951893
18.358827
18.726587
19.684434
19.530654
19.684434
20.229816
21.078587
20.830631
20.081997
20.971894
21.177530
20.870566
21.007657
20.895600
20.966530
20.709634
##ZVALUE=285
0.847578
0.777841
1.083612
1.003742
0.975728
1.050830
0.970960
1.048446
0.841618
0.970960
1.143813
1.077652
1.154542
0.908971
1.070499
1.157522
1.152754
1.328588
1.498461
1.274943
1.370907
1.633763
1.639724
2.004504
4.530549
24.445653
57.338476
142.483711
241.746902
425.696969
582.912564
781.685710
886.203647
918.394923
863.315463
698.107481
546.513796
334.015489
207.130909
98.662972
54.520965
34.091473
37.098527
57.459474
76.436996
106.948614
126.759410
146.191716
154.614449
147.431493
135.585666
110.763907
89.297891
61.894655
43.490529
26.654601
18.310547
12.365580
10.783672
9.103417
9.158850
10.283589
10.014772
10.891557
11.116862
11.090636
11.545420
12.205839
13.095737
14.073849
14.310479
14.904737
15.342832
15.552640
16.384721
17.301440
17.036796
17.994642
17.921925
18.202662
18.924475
18.910766
19.481778
19.746423
20.578504
19.760728
20.755529
20.785928
20.012856
20.385981
20.437837
20.110607
20.439625
19.838810
20.477772
20.362735
##ZVALUE=290
0.695586
0.677705
0.772476
0.809431
0.837445
0.709891
0.934601
0.709891
0.807643
0.657439
0.901818
0.786781
0.894666
0.825524
0.883937
1.045465
0.991821
0.949502
0.945926
1.131892
1.235604
1.145601
1.263618
1.214743
1.470447
1.570582
2.576709
7.971525
36.276579
81.407428
155.826807
316.450596
479.186773
711.246729
848.865509
946.489573
933.014750
794.570446
642.064810
423.771739
275.685787
138.109922
74.105859
32.800436
25.501847
35.874844
49.376488
74.964762
94.458461
124.091506
139.433742
148.130655
146.157742
129.743814
110.873580
82.343817
62.610507
40.052533
27.400851
17.970800
13.229847
11.025667
10.460615
10.849833
10.650754
11.264682
11.531711
12.212992
12.779832
13.636947
14.315844
14.946461
15.251637
15.840530
16.047955
17.463565
17.534494
17.734766
18.181801
18.699765
18.906593
19.585490
19.618869
19.578934
20.255446
19.766688
19.717813
19.635558
20.039678
19.861460
19.984841
19.799471
20.020604
20.331740
19.574761
19.877553
##ZVALUE=295
0.766516
0.842810
0.818968
0.706911
0.765920
0.776649
0.840425
0.884533
0.816584
0.744462
0.858903
0.978708
0.889897
0.794530
0.949502
1.033545
1.046658
0.968575
1.061559
0.947714
1.240969
1.053810
1.357794
1.118779
1.369715
1.456738
1.616478
1.690984
1.808405
3.686547
11.588931
48.668981
109.203458
251.429677
400.668979
624.108911
772.123933
912.667513
936.056972
843.843818
716.736913
510.067940
353.665948
186.464787
103.564858
40.742755
23.729801
21.714568
29.656887
49.616694
66.690445
95.371604
113.436580
132.503510
141.720772
137.015581
125.300884
103.412867
83.832741
59.840679
43.411851
28.183460
19.798875
14.071465
12.695789
11.615753
11.974573
12.500882
12.976527
13.066530
14.153719
15.221834
15.503764
16.721487
17.210841
17.700791
17.760992
17.931461
18.998981
18.990636
19.414425
19.613504
19.879937
19.877553
20.385981
20.206571
20.581484
20.324588
20.555854
20.621419
19.886494
20.682812
19.933581
20.787716
20.495653
20.555854
##ZVALUE=300
0.739694
0.783801
1.024604
0.621676
0.659823
0.727773
0.741482
0.855923
0.769496
0.837445
0.965595
0.905991
0.857711
0.989437
0.982881
0.998974
0.884533
0.923872
0.733733
1.148582
1.099706
1.238585
1.173615
1.075864
1.050830
1.193881
1.334548
1.334548
1.524687
1.578927
1.610518
2.006888
7.727742
25.552511
83.396435
159.490705
322.458744
484.814644
698.903799
825.249553
916.790962
901.913643
772.837996
630.077720
416.607857
270.749927
134.048462
72.259903
27.843714
17.005801
19.308925
27.501583
44.238567
60.693622
86.079836
105.514526
124.816895
133.132935
131.673813
123.346448
103.601813
85.820556
60.652494
45.516491
29.482841
21.379590
16.714931
14.554858
13.815761
13.798475
14.512539
15.023947
15.775561
16.182661
17.212629
17.511845
18.005967
18.495917
19.541979
18.915534
19.579530
19.939542
20.028949
20.483732
20.929575
20.517707
21.045804
21.454692
20.998716
21.228790
20.597577
20.391941
20.424724
20.165443
20.549893
20.079613
##ZVALUE=305
0.856519
0.837445
0.703931
0.789762
0.610948
0.754595
0.742674
0.932813
0.713468
0.575781
0.878572
0.727773
0.674725
0.671744
0.879765
0.909567
0.730753
0.795722
0.916719
0.968575
0.950694
0.804663
0.927448
0.934601
1.015663
1.063943
1.205802
1.250505
1.343489
1.386404
1.426935
1.508594
1.625419
1.757741
3.087521
17.570853
47.938824
131.192803
232.957602
421.700478
585.398674
787.995458
892.857909
915.971994
845.336914
663.508773
512.765646
324.671865
204.026699
91.517568
45.820475
18.590689
13.169646
17.441511
25.670528
42.171478
59.896708
83.149672
100.391507
119.451880
127.108693
123.433471
118.727684
99.979639
81.644654
59.100986
44.077635
30.336976
23.263693
17.378926
16.371608
15.980601
16.531944
16.745925
17.452836
17.929673
18.386841
18.994808
19.320846
19.793510
20.114779
20.371675
20.173788
21.002889
21.610856
21.510720
21.610856
20.997524
21.153688
21.573901
20.832419
21.386743
21.014810
20.954609
20.776987
20.372868
##ZVALUE=310
0.584722
0.668764
0.569820
0.749826
0.672936
0.670552
0.803471
0.804663
0.742674
0.641942
0.710487
0.694990
0.775456
0.708699
0.700951
0.924468
0.941753
0.872612
0.875592
0.967979
0.823736
0.983477
0.770688
0.946522
0.989437
0.875592
1.030564
1.064539
0.976920
1.132488
1.207590
1.156926
1.357794
1.362562
1.399517
1.671910
1.859665
7.349849
24.857521
79.361796
155.452490
317.261815
475.603938
690.807700
829.188824
919.495821
896.750689
779.448748
634.907484
421.766639
278.359652
138.309598
74.285865
27.949810
14.149547
11.888742
15.430450
23.965836
34.925938
53.821802
72.030425
95.666647
108.682513
120.581985
121.719837
113.699436
101.086497
78.592896
63.172579
44.238567
34.283996
25.191903
20.337701
18.838644
18.000603
18.282533
18.691421
18.897653
19.544959
19.671917
20.035505
20.496845
20.863414
21.314621
21.538734
21.997690
21.849871
21.794438
21.861792
22.250414
21.531582
21.291971
21.488667
21.092892
21.019578
20.955801
##ZVALUE=315
0.916719
0.621676
0.668764
0.625849
0.717640
0.522733
0.781417
0.635982
0.759959
0.602603
0.711679
0.661612
0.775456
0.798702
0.796914
0.599623
0.865459
0.622869
0.806451
0.841618
0.922680
0.844598
0.878572
0.888705
1.004934
0.885725
0.987649
0.988841
0.807643
0.863671
1.100898
0.996590
1.247525
1.266599
1.237988
1.414418
1.307726
1.380444
1.564622
3.560781
12.525916
51.774979
113.899708
254.983902
401.467681
619.239807
763.116479
886.491537
915.459991
833.635926
708.429813
503.732562
353.569984
187.117457
101.709962
39.908886
18.645525
10.772943
11.030436
15.722513
21.671653
36.004782
48.901439
69.954991
87.971687
107.668638
115.247965
117.240548
109.820962
95.038414
79.598427
61.075687
47.814846
33.200979
26.493669
22.521615
20.495653
19.504428
19.693971
20.161867
20.096898
21.041632
21.730661
21.754503
21.638870
22.861958
22.696853
22.337437
22.513866
22.093654
22.393465
21.686554
21.686554
22.017956
21.812916
21.469593
##ZVALUE=320
0.696778
0.787973
0.641942
0.715852
0.650883
0.722408
0.734925
0.801682
0.571609
0.742674
0.670552
0.672936
0.850558
0.821948
0.702739
0.675917
0.844598
0.659823
0.751615
0.714660
0.787973
0.742674
0.858903
0.857711
0.719428
0.859499
0.850558
1.050830
0.975728
1.062751
0.905991
1.120567
1.188517
1.000762
1.161695
1.266599
1.182556
1.236796
1.210570
1.394749
1.345873
2.048612
5.524755
29.380918
72.561502
185.312629
306.034684
500.493646
658.197999
835.501552
896.239877
869.325995
779.159665
591.416955
427.543521
237.325430
137.714744
59.720874
28.232932
12.247562
10.045767
11.092424
14.267564
21.924973
31.054616
48.286915
63.813925
83.912611
99.279881
110.041499
111.368895
106.414557
94.353557
76.488853
61.957836
44.933558
35.790801
27.541518
24.278760
21.438599
21.212697
21.711588
21.810532
21.443963
21.568537
22.141933
22.182465
22.554994
21.950603
22.643805
22.141933
21.923780
21.742582
21.540523
21.406412
21.622777
##ZVALUE=325
0.686646
0.546575
0.606775
0.674725
0.880957
0.661612
0.647902
0.477433
0.527501
0.824928
0.647902
0.436902
0.676513
0.648499
0.686646
0.674725
0.820756
0.863671
0.763535
0.826716
0.699759
0.633597
0.685453
0.889897
0.757575
0.759959
0.904799
0.946522
0.926852
0.903606
0.873804
0.857711
0.980496
0.840425
0.886917
1.112819
1.041889
1.021624
1.359582
1.242757
1.229644
1.375675
1.466870
1.595616
3.817677
13.656616
51.773787
111.482739
247.594714
388.276577
595.421791
739.002824
870.266557
889.191628
800.157785
665.369630
449.700952
308.698416
163.232684
91.120601
36.405921
16.941428
10.260940
10.098815
11.817813
14.433861
22.058487
31.111836
48.145652
64.754486
84.330440
96.087456
104.974508
106.490850
100.656748
90.635419
72.342753
59.296489
44.818521
35.528541
28.123856
24.725795
22.430420
22.052526
22.155643
22.204518
21.934509
22.298694
22.553802
21.835566
21.863580
21.918416
21.399856
21.961927
21.950603
21.492839
##ZVALUE=330
0.647902
0.626445
0.683665
0.805855
0.655651
0.572801
0.559688
0.643730
0.664592
0.626445
0.643730
0.626445
0.676513
0.644922
0.679493
0.657439
0.875592
0.752807
0.775456
0.821948
0.824928
0.520945
0.807643
0.821948
0.624657
0.884533
0.914931
0.877976
0.869632
0.881553
0.757575
0.855923
0.906587
1.031756
1.021624
0.934601
1.056790
0.834465
1.026988
1.060963
1.131892
1.169443
1.380444
1.283884
1.477599
1.612902
2.083778
8.141994
25.876760
83.898902
162.853599
334.313512
499.048829
723.778605
859.015584
927.453637
877.104998
723.058581
568.996668
357.969999
228.239894
106.660724
55.173635
22.750497
12.656450
10.041595
11.033416
12.276769
15.640855
22.901893
31.620860
45.774579
60.644746
80.141425
91.794729
101.439953
102.236867
96.143484
86.889863
70.216656
58.583617
44.148564
36.075711
28.503537
25.517941
22.971630
22.200942
22.150874
21.831989
21.429658
21.127462
21.368861
21.243691
21.301508
21.356940
21.123886
##ZVALUE=335
0.684857
0.738502
0.569820
0.613928
0.620484
0.583529
0.689626
0.571609
0.670552
0.669956
0.776649
0.720620
0.603795
0.739694
0.612736
0.595450
0.718832
0.766516
0.693798
0.769496
0.607967
0.599623
0.534654
0.676513
0.756979
0.654459
0.833869
0.722408
0.828505
0.823736
0.737906
0.925660
0.814795
0.879765
0.930429
0.872612
0.833869
0.918508
0.995994
0.858903
0.890493
1.007915
0.996590
0.989437
1.104474
1.337528
1.308918
1.509786
1.595616
3.713965
13.444424
51.587820
107.331872
237.694979
384.047627
606.110692
753.244758
866.340995
863.932967
761.352777
629.703999
420.840979
283.029675
147.270560
77.793002
29.283762
14.905930
10.589957
10.478497
11.274815
12.751818
16.656518
21.755695
33.126473
43.460727
60.002804
73.695779
88.467598
95.696449
95.765591
92.550516
80.049634
69.927573
56.214929
46.805739
35.851598
29.948950
24.728775
23.583770
21.813512
20.887852
21.353960
20.763874
20.450950
20.741820
20.583868
##ZVALUE=340
0.610948
0.558496
0.643730
0.652671
0.505447
0.416636
0.587702
0.633597
0.673532
0.663996
0.597835
0.594854
0.636578
0.675917
0.634789
0.583529
0.703931
0.688434
0.736713
0.611544
0.707507
0.773668
0.717640
0.634789
0.757575
0.672936
0.840425
0.834465
0.810623
0.763535
0.770688
0.750422
0.660419
0.594854
0.677705
0.692606
0.837445
0.970960
0.897646
0.853539
0.881553
0.921488
0.826716
0.832677
0.970960
0.989437
1.065731
1.325607
1.237988
1.500845
1.480579
2.117753
6.508827
30.863881
75.121522
183.738470
307.094455
505.111814
658.280849
813.062787
861.459970
805.121660
692.541599
502.083898
346.182585
179.188848
98.973513
41.726828
20.268559
11.236668
10.736585
11.046529
11.712909
13.519526
16.458631
22.999644
30.746460
43.878555
55.951476
72.901845
82.417727
90.700984
92.590451
87.187886
79.562664
66.989660
56.331754
43.251514
35.913587
28.827786
24.832487
21.365881
20.465851
20.050406
19.939542
19.904971
##ZVALUE=345
0.674725
0.567436
0.485778
0.603795
0.509620
0.715852
0.584722
0.564456
0.710487
0.471473
0.699759
0.812411
0.873804
0.626445
0.686646
0.756979
0.654459
0.600815
0.502467
0.536442
0.625849
0.695586
0.708699
0.731945
0.818968
0.676513
0.725985
0.717640
0.717640
0.698566
0.698566
0.802875
0.757575
0.644922
0.826716
0.716448
0.722408
0.895858
0.825524
0.866652
0.909567
0.851750
0.832677
0.902414
0.838637
1.011491
1.005530
1.148582
1.039505
1.281500
1.259446
1.432896
1.394749
1.632571
3.232956
17.867684
48.596859
129.076838
237.515569
448.900461
627.707839
842.005610
935.873985
937.765837
840.942860
618.694425
438.120961
243.922472
135.387778
55.167675
27.676821
13.205409
10.765791
11.244416
11.691451
12.316704
13.182759
16.214848
20.826459
30.380487
39.915442
55.107474
65.283775
76.741576
83.470941
86.267591
83.577633
74.805617
66.775680
54.028630
43.713450
33.429861
27.811527
23.092628
20.804405
19.527674
##ZVALUE=350
0.501871
0.667572
0.681877
0.596642
0.755787
0.577569
0.746846
0.560880
0.564456
0.762939
0.582933
0.635982
0.694990
0.607967
0.637770
0.606775
0.720620
0.550747
0.525713
0.694990
0.662804
0.719428
0.732541
0.609756
0.726581
0.560880
0.690818
0.620484
0.766516
0.675917
0.833869
0.695586
0.722408
0.745654
0.756979
0.843406
0.836849
0.731945
0.734925
0.754595
1.024604
0.893474
1.078844
0.972748
0.946522
1.016855
0.992417
1.084805
1.056790
1.079440
1.087785
1.204610
1.206994
1.293421
1.380444
1.484752
2.046824
8.979440
27.698874
84.473491
163.931847
340.082049
513.961911
748.694539
903.836489
991.227031
934.350491
749.889612
549.371839
303.167701
177.781582
80.043674
39.293766
15.811920
11.029840
10.777712
10.968447
11.491776
11.816621
13.354421
15.830994
21.326542
27.578473
36.615729
46.100616
59.372783
68.045855
76.569915
79.237819
76.741576
70.937872
60.502887
51.662922
40.619969
34.014583
26.493669
##ZVALUE=355
0.603795
0.502467
0.672936
0.625849
0.575781
0.611544
0.564456
0.581741
0.592470
0.721812
0.531673
0.730753
0.571609
0.489950
0.553727
0.465512
0.424981
0.550747
0.652671
0.688434
0.712872
0.573993
0.637770
0.607967
0.641942
0.699759
0.746846
0.619888
0.960827
0.641942
0.749826
0.722408
0.671744
0.713468
0.646710
0.743866
0.702739
0.884533
0.601411
0.589490
0.893474
0.759959
0.790954
0.659823
0.766516
0.915527
0.848770
0.909567
0.925660
0.959635
0.926852
0.981688
1.068711
1.142621
1.138449
1.169443
1.367927
1.367927
1.652837
4.352927
14.625788
55.552721
111.076832
228.857994
357.881784
556.137562
683.317780
777.424574
779.848695
668.060780
538.388491
349.360704
218.578577
96.942782
48.547983
18.745661
11.614561
10.111928
10.229945
10.402799
11.115670
11.615753
12.911558
14.706850
18.040538
24.319887
31.344891
42.074919
50.701499
61.768889
67.985654
71.602464
71.349740
65.107942
57.830811
47.492981
##ZVALUE=360
0.701547
0.575781
0.652671
0.509620
0.666976
0.614524
0.589490
0.546575
0.608563
0.465512
0.619888
0.641942
0.554919
0.713468
0.662804
0.732541
0.398755
0.643730
0.677705
0.638962
0.615716
0.695586
0.581741
0.640750
0.762939
0.690818
0.814795
0.717640
0.633597
0.727773
0.495911
0.714660
0.787973
0.661612
0.750422
0.665784
0.715852
0.760555
0.727773
0.839829
0.802875
0.682473
0.799894
0.888705
0.777841
0.749826
0.759959
0.749826
0.783801
0.814795
0.843406
1.019835
0.993609
1.025796
0.958443
1.218915
1.140833
1.142621
1.085997
1.359582
1.465678
2.227426
6.503463
28.896928
69.223642
166.612864
270.312428
437.184572
576.886535
714.078546
753.793716
702.797771
591.682792
404.911637
273.800492
140.418410
73.190928
27.028918
13.803840
9.591579
9.537935
9.811521
10.110736
10.060668
10.571480
11.525750
12.973547
15.815496
20.023584
26.859641
34.438968
45.573711
52.748919
61.901808
64.137578
64.593554
##ZVALUE=365
0.586510
0.660419
0.620484
0.597835
0.554919
0.678897
0.644922
0.655651
0.628829
0.667572
0.581741
0.600815
0.628829
0.413656
0.561476
0.633597
0.534654
0.572801
0.617504
0.661612
0.629425
0.532866
0.733733
0.443459
0.375509
0.625849
0.623465
0.597835
0.578761
0.572801
0.711679
0.781417
0.743866
0.558496
0.719428
0.701547
0.701547
0.672936
0.648499
0.658631
0.764728
0.666976
0.658631
0.706911
0.897646
0.794530
0.705719
0.825524
0.776649
0.719428
0.868440
0.887513
0.887513
0.917912
0.934601
0.884533
1.053810
1.002550
1.087785
1.174808
1.158714
1.140833
1.337528
1.574755
2.963543
16.421676
43.293834
111.179948
201.903582
368.490815
495.097637
634.636879
700.403452
696.573853
619.046688
457.873940
327.633619
181.952715
99.784732
37.659407
17.752647
9.713769
8.543730
8.672476
8.854866
9.291768
9.457469
9.964705
10.392666
11.482835
13.749599
17.600656
22.387505
31.158924
38.607717
46.846867
##ZVALUE=370
0.542998
0.488758
0.454783
0.635982
0.465512
0.508428
0.459552
0.555515
0.594854
0.583529
0.565648
0.504851
0.527501
0.692606
0.608563
0.613928
0.555515
0.639558
0.567436
0.617504
0.543594
0.593662
0.754595
0.720620
0.634789
0.649691
0.689626
0.614524
0.785589
0.690818
0.540614
0.647902
0.659823
0.722408
0.722408
0.853539
0.598431
0.767708
0.674725
0.532866
0.688434
0.676513
0.579953
0.666976
0.596642
0.746846
0.750422
0.970960
0.935793
0.648499
0.840425
0.890493
0.810623
0.719428
0.802875
0.855923
0.781417
0.799894
1.075864
0.783801
1.007915
0.955462
1.101494
1.086593
1.184940
1.436472
2.122521
8.191466
27.171969
84.213614
158.936977
302.843451
434.478521
593.637824
669.029951
691.107512
638.201833
498.103499
369.039774
208.774805
118.520856
48.536658
24.278760
11.105537
8.313656
8.035898
8.252859
8.413792
8.234978
8.868575
8.878708
9.331703
10.592937
12.423992
15.456676
20.670891
##ZVALUE=375
0.584722
0.534654
0.604987
0.717640
0.435710
0.447631
0.544786
0.446439
0.633597
0.504851
0.543594
0.383854
0.607967
0.628829
0.498891
0.545979
0.577569
0.603795
0.668764
0.629425
0.620484
0.595450
0.524521
0.509620
0.548959
0.604987
0.537634
0.573993
0.497699
0.543594
0.659823
0.546575
0.526905
0.547767
0.649691
0.675917
0.688434
0.637770
0.725985
0.705719
0.623465
0.595450
0.608563
0.698566
0.690818
0.436902
0.919700
0.789762
0.778437
0.689626
0.835657
0.650883
0.775456
0.773668
0.739694
0.686646
0.817776
0.816584
0.763535
0.917912
0.873804
0.814795
0.974536
0.938773
0.996590
1.162887
1.032948
1.211762
1.559854
4.513860
14.955997
51.675439
106.860995
231.256485
354.081988
516.031981
616.730452
680.087805
661.837459
551.495552
432.541966
266.575813
170.392990
85.399747
43.780804
15.801787
8.866787
7.365942
7.629991
7.433891
7.727742
7.748604
7.948875
8.168817
8.508563
9.378791
##ZVALUE=380
0.539422
0.508428
0.462532
0.615716
0.644922
0.500679
0.646710
0.577569
0.518560
0.544786
0.481606
0.486970
0.412464
0.452995
0.438690
0.709891
0.594854
0.507832
0.485778
0.533462
0.553727
0.533462
0.480413
0.518560
0.625849
0.606775
0.703931
0.477433
0.610948
0.553727
0.277758
0.410676
0.751615
0.561476
0.508428
0.473857
0.512600
0.633597
0.583529
0.505447
0.592470
0.513792
0.644922
0.544786
0.547767
0.627637
0.546575
0.649691
0.648499
0.681877
0.669956
0.686646
0.629425
0.870824
0.865459
0.777841
0.851750
0.763535
0.803471
0.710487
1.010895
0.749826
0.835657
0.909567
0.970960
0.844598
1.086593
1.058578
1.151562
1.302958
1.340508
2.311468
8.101463
37.083626
83.214641
186.923742
296.371579
452.680588
564.164519
661.149621
668.591857
584.839582
484.339595
340.662599
231.230855
115.867853
60.578585
22.357702
11.147857
7.176995
6.919503
6.941557
6.820560
6.898642
7.160902
7.589459
##ZVALUE=385
0.466704
0.468493
0.481606
0.364780
0.338554
0.627637
0.413656
0.553727
0.495911
0.431538
0.597835
0.478625
0.432730
0.436902
0.477433
0.480413
0.464916
0.548959
0.365973
0.539422
0.512600
0.337958
0.479817
0.507832
0.545979
0.442863
0.519753
0.601411
0.443459
0.426769
0.442863
0.578761
0.471473
0.542998
0.589490
0.527501
0.412464
0.465512
0.485778
0.516772
0.468493
0.555515
0.519753
0.372529
0.526905
0.549555
0.641942
0.613928
0.638962
0.553727
0.639558
0.680685
0.580549
0.479817
0.674725
0.586510
0.582933
0.562668
0.690818
0.713468
0.716448
0.725985
0.704527
0.728965
0.814795
0.747442
0.750422
0.763535
0.939965
1.127720
1.048446
1.055598
1.209974
1.405478
3.732443
20.819902
53.159595
131.119490
226.109624
387.837887
512.701869
632.940531
663.637519
629.037619
550.385714
407.241583
288.524628
157.625675
90.415478
38.830638
17.275810
7.332563
6.041527
6.009936
6.211996
6.323457
##ZVALUE=390
0.270605
0.408888
0.475645
0.422597
0.328422
0.387430
0.319481
0.302792
0.399947
0.500679
0.335574
0.444651
0.574589
0.374913
0.412464
0.429749
0.192523
0.467896
0.368953
0.546575
0.457764
0.258684
0.462532
0.208616
0.423789
0.505447
0.304580
0.417829
0.514984
0.342727
0.430942
0.331998
0.425577
0.606775
0.434518
0.391603
0.358820
0.457764
0.346899
0.539422
0.356436
0.460744
0.555515
0.533462
0.443459
0.442863
0.414848
0.400543
0.528693
0.634789
0.487566
0.574589
0.471473
0.695586
0.496507
0.511408
0.675917
0.497699
0.415444
0.533462
0.621676
0.561476
0.660419
0.477433
0.665784
0.653863
0.796914
0.714660
0.692606
0.849962
1.000762
0.945926
0.992417
1.122952
1.108646
1.109838
2.066493
10.958910
33.750534
99.332929
182.884932
334.491730
452.149510
575.703979
641.201735
657.256842
601.663589
473.201871
357.886553
218.238831
127.002597
52.575469
24.924874
9.812713
6.193519
5.661845
##ZVALUE=395
0.531673
0.645518
0.456572
0.553727
0.347495
0.613928
0.571609
0.584722
0.520945
0.538826
0.619888
0.487566
0.607967
0.567436
0.515580
0.544786
0.602603
0.600815
0.437498
0.543594
0.543594
0.573993
0.545979
0.621676
0.497699
0.617504
0.806451
0.554919
0.427961
0.446439
0.529885
0.533462
0.463724
0.475645
0.414848
0.643730
0.618696
0.582933
0.726581
0.702739
0.616908
0.533462
0.603795
0.601411
0.602603
0.570416
0.762939
0.897646
0.629425
0.542998
0.707507
0.597835
0.639558
0.744462
0.676513
0.591874
0.749826
0.714660
0.511408
0.793934
0.728965
0.770688
0.694990
0.650883
0.626445
0.746846
0.805855
0.957847
0.819564
1.019835
0.936985
0.907779
0.982881
1.212955
1.065731
1.130700
1.238585
1.142621
1.622438
6.214976
21.924973
72.350502
137.595534
266.243815
382.618904
534.949899
628.866553
680.304766
656.100512
552.573800
431.358814
267.416835
169.996619
80.705881
40.030479
14.473796
##ZVALUE=400
0.454783
0.470877
0.437498
0.638962
0.607967
0.399947
0.584722
0.587702
0.415444
0.556707
0.428557
0.515580
0.526905
0.524521
0.507832
0.456572
0.408888
0.383854
0.547767
0.490546
0.550747
0.574589
0.569820
0.616908
0.592470
0.566840
0.480413
0.589490
0.516772
0.553727
0.482798
0.480413
0.595450
0.521541
0.648499
0.603795
0.426769
0.580549
0.554919
0.586510
0.622869
0.621676
0.487566
0.661612
0.608563
0.569820
0.584722
0.598431
0.764728
0.548959
0.718832
0.621676
0.654459
0.635982
0.622869
0.650883
0.576973
0.776649
0.647902
0.666976
0.778437
0.724792
0.686646
0.729561
0.832677
0.839829
0.641942
0.794530
0.736713
0.875592
0.883937
1.079440
1.010895
0.979900
1.084805
0.905991
1.004934
1.256466
1.146793
1.243949
1.354814
3.766418
12.244582
43.340921
90.124607
195.463896
306.404829
466.361642
566.732883
647.985935
656.494498
576.712489
475.567579
318.310857
211.849809
108.442903
##END
