##TITLE=FQP00351
##FORMAT=SPECTACLE-ASCII V-1.2
##DATA TYPE=ULTRAVIOLET SPECTRUM
##SECOND TYPE=ULTRAVIOLET SPECTRUM
##DATE=01/11/18
##TIME=19:04:34
##SPECTROMETER/DATA SYSTEM=SPECTACLE
##XUNITS=NM EM
##YUNITS=ENERGY
##YFACTOR=1
##FIRSTX=220
##LASTX=410
##NPOINTS=96
##3DDATA=Equidistant
##ZUNITS=NM EX
##FIRSTZ=210
##LASTZ=400
##ZPOINTS=39
##XYDATA=(Y..Y)
##ZVALUE=210
2.887845
2.688766
2.739429
2.605915
3.602505
3.642440
3.519654
3.416538
3.267527
3.393888
3.711581
3.500581
3.091693
3.872514
3.711581
3.679991
4.092455
4.354715
4.441738
4.316568
4.900694
5.911589
4.601479
5.411506
5.496740
6.232858
6.204844
7.536411
7.189512
7.847548
7.248521
7.718801
7.259846
7.692575
8.260608
7.623434
8.479953
6.496906
7.758737
7.852912
8.167624
8.987784
9.008646
9.267926
9.324551
9.198785
8.716583
9.751916
9.898543
9.031892
9.309649
9.650588
8.502603
10.573864
9.648800
9.642839
9.150505
10.240674
10.065436
10.960698
9.494424
9.780526
9.337664
10.325909
10.790825
9.637475
10.557771
12.154579
13.072491
15.155673
17.149448
22.580624
23.657680
28.299689
32.172799
36.734939
40.593743
43.161511
41.983724
42.994618
39.282441
34.624934
31.449795
25.346875
22.780895
16.489625
14.744997
13.218522
10.656714
9.044409
10.259748
9.586811
9.554625
9.994507
10.362864
8.880496
##ZVALUE=215
8.777976
8.375645
8.107424
7.956624
5.702972
5.484819
5.423427
5.815625
5.576611
6.666780
5.733967
6.051660
4.619956
4.008412
4.280806
4.315972
3.816485
4.633665
4.334450
5.068779
4.792809
5.588531
5.154610
6.522536
5.646944
6.166697
5.475879
5.984902
5.331635
6.321669
7.133484
7.171631
7.114410
8.495450
7.572770
7.280707
7.901788
9.247661
7.958412
8.573532
7.983446
8.580685
8.489490
8.895993
8.561611
10.067821
8.434653
10.006428
9.641647
9.161830
8.757710
8.867979
10.310411
9.574890
8.515716
9.763837
9.280443
10.159612
10.359883
10.816455
10.403991
10.365844
11.454821
10.816455
11.166930
11.056662
11.273623
12.856722
13.448596
16.866922
16.655922
21.510720
25.380850
29.482841
32.178760
35.439730
35.669804
40.404797
40.278435
40.344000
40.355921
34.764409
33.032894
28.711557
25.059581
18.455982
16.628504
13.429523
12.009740
11.588931
10.249615
11.766553
10.317564
10.232925
9.008646
10.684729
##ZVALUE=220
34.221411
33.291578
42.145848
40.504932
41.999817
33.146739
25.092959
20.257831
14.112592
12.386441
13.483763
14.786720
12.849569
13.067722
11.213422
9.957552
8.575916
7.200837
6.193519
6.917715
6.621480
6.991625
7.717609
7.466674
7.566810
9.309649
8.321404
9.670854
9.306669
10.885000
9.980798
10.699630
10.799766
10.811687
11.188984
11.264682
11.846423
10.997653
11.665821
11.654496
12.052655
11.705756
10.880828
10.867715
11.530519
12.705922
13.067722
11.295676
11.708736
12.797713
11.781454
11.720657
13.099909
13.511777
13.358593
12.968779
12.861490
12.183785
12.748837
12.148619
11.713505
13.158917
12.461543
12.065768
13.291836
14.441609
13.448000
14.406443
16.302466
18.063784
23.348927
26.728511
31.793714
36.065578
39.231777
42.934418
45.786500
49.437881
50.257444
51.242709
50.101876
40.116906
38.517714
34.451485
30.026436
24.794936
19.329786
16.412735
13.874769
12.481809
12.031794
12.256503
10.073781
12.515783
11.790991
11.037588
##ZVALUE=225
67.403913
72.097778
97.323656
142.519474
161.995888
168.894529
165.890455
129.243731
94.121695
64.748526
36.916733
29.716492
27.347803
29.343963
30.741692
29.494762
22.557974
22.289753
16.434789
12.990832
10.591745
8.211732
7.703900
8.800626
9.090900
9.124875
9.509921
10.665655
10.919571
12.333989
10.941625
12.661815
13.980865
14.082789
12.714863
15.103817
13.493896
14.155507
13.522506
13.052821
12.562871
13.219714
13.165474
13.632774
13.163686
13.185740
13.248920
12.817979
14.624596
13.903975
14.570951
14.591813
15.445948
14.323592
14.029741
14.775991
14.158487
15.021563
16.425848
15.819669
16.112924
15.539527
14.319420
15.170574
17.187595
14.899969
17.090440
20.048618
20.264983
24.059415
26.327968
30.613542
36.173463
37.412643
39.699674
41.294694
43.608546
43.886900
39.243698
38.909912
35.062432
32.588840
29.664636
24.821758
22.435784
20.995736
18.194914
16.399622
16.257763
14.582872
15.379786
13.332963
14.123917
14.568567
12.037754
13.171434
##ZVALUE=230
67.649484
70.392489
126.464963
190.419555
276.696682
334.422588
384.981632
385.811925
334.940553
271.493793
163.660645
107.809901
73.769689
54.229498
51.161647
51.985979
57.672858
53.818822
50.496459
42.068958
30.572414
25.409460
17.951727
13.795495
11.245608
9.742975
9.671450
12.023449
12.700558
12.764931
13.739467
13.426542
13.748407
15.348792
14.758706
14.662743
15.370846
15.005469
15.068650
15.249848
15.910864
14.396906
15.636683
15.956759
14.498830
15.951991
16.475916
15.677810
15.764832
16.787648
15.874505
15.471578
16.349554
16.485453
14.915466
16.191602
16.960502
16.088486
14.655590
16.710758
17.553568
16.187429
15.153885
17.685890
16.852617
17.552972
17.395616
19.681454
20.448565
24.027824
25.550723
30.831695
33.421516
36.163926
38.944483
38.951635
42.422414
39.014816
40.041804
37.786961
33.839941
31.725764
29.647946
24.942756
23.456812
21.577477
19.773841
17.391443
18.522739
18.020868
17.635822
16.763806
16.364455
16.806722
16.967654
15.518665
##ZVALUE=235
20.766854
24.097562
52.821636
130.210519
219.097733
361.742973
504.908562
661.099553
737.254620
760.986805
667.902827
539.352894
344.149470
232.943892
139.989853
96.160769
82.161427
83.570480
87.632537
89.895725
82.355738
72.692633
55.945516
40.628910
27.481914
19.737482
15.195608
11.229515
10.526776
11.983514
12.951493
12.568831
13.126731
12.860894
14.951825
13.584495
12.376904
12.202859
14.607906
12.818575
14.074445
13.208985
13.695955
14.997721
15.804768
13.830662
13.992786
15.507936
13.636947
15.383959
15.481710
16.424656
15.655756
16.880631
16.134977
14.940500
16.102791
14.553666
16.667843
16.012788
16.245842
17.091632
17.914772
17.599463
18.428564
18.987656
19.308925
21.166801
22.327900
26.280880
26.276708
33.012629
35.671592
42.621493
44.902563
49.079657
48.365593
51.402450
51.016808
50.155520
49.859881
42.910576
42.600632
34.174919
32.302737
27.184486
23.608804
22.782683
19.561648
20.531416
19.576550
19.372702
19.477606
20.611882
20.127892
19.471645
##ZVALUE=240
2.326965
3.047585
10.072589
24.702549
75.407624
141.728520
309.976935
472.465754
734.229684
901.134610
1015.681624
1015.681624
963.791013
767.403841
608.745813
392.170548
261.228681
167.178512
127.977729
109.295845
118.626952
125.739574
121.449828
109.215975
90.907812
71.081519
52.704811
36.280751
24.202466
16.898513
14.499426
13.962984
12.794733
12.676716
13.498664
13.216734
13.708472
15.278459
14.160872
12.839437
14.023781
14.995933
14.284849
15.646815
13.441443
14.873743
16.454458
13.784766
14.431477
15.197992
14.661551
15.903711
15.215874
16.108751
16.729832
16.154647
15.164614
15.286803
17.368793
16.910434
16.316772
16.734600
17.788410
17.412901
15.974641
18.128753
18.124580
17.888546
20.755529
22.953749
23.869872
28.713942
30.481815
33.001900
34.154654
37.297606
37.568808
38.527846
37.000775
33.508539
33.708811
32.028556
29.355884
27.398467
27.355552
23.362637
23.191571
22.388697
20.670891
21.741986
21.377802
21.433830
20.050406
19.851923
20.714998
20.560622
##ZVALUE=245
2.530813
2.341866
2.104640
2.435446
4.441738
11.187792
42.362809
95.916986
258.230567
425.043702
722.988844
954.864621
1015.684605
1015.684605
1015.684605
1015.684605
895.145535
626.330972
441.502929
250.410438
159.887671
112.593770
122.530460
131.633878
132.907629
130.444765
117.698908
99.302530
74.214935
55.497885
41.064620
23.631454
15.805960
12.707710
10.180473
10.767579
11.124611
9.716749
9.175539
10.594726
9.812713
11.904836
11.236668
10.781884
11.210442
11.308789
11.102557
11.204481
11.725426
12.275577
11.842847
12.014508
11.158586
11.676550
11.460781
11.215806
12.093782
11.346936
11.922717
11.380911
13.678670
11.679530
12.783408
12.180805
14.226437
13.773441
14.037490
15.818477
16.631484
18.333793
19.121766
21.949410
25.225878
27.385950
29.599667
31.626821
33.526421
32.966733
33.181906
33.399463
35.096407
30.458570
30.147433
28.520823
25.848746
23.460984
22.861958
20.060539
20.249486
18.316507
18.980503
17.902851
19.448996
18.180609
18.575788
18.889904
##ZVALUE=250
2.169609
1.724958
2.340674
2.048612
1.892447
1.776814
2.929568
9.193420
46.348572
108.686686
266.764760
446.698666
659.758449
942.674875
1015.681624
1015.681624
1015.681624
1007.323861
835.163593
558.426976
369.566679
229.538679
123.415589
98.617673
110.106468
126.437545
139.891505
143.981576
138.019919
124.234557
108.977556
81.180930
59.332848
36.287904
23.390651
14.387965
10.805726
9.320974
8.786917
8.299947
8.679628
9.341836
8.101463
9.237528
9.408593
9.493828
8.912683
10.257959
8.827448
8.581877
8.983612
9.070635
9.186864
9.053946
8.918643
9.612441
9.832978
9.913445
9.754896
8.911490
10.177493
10.445714
10.351539
10.903478
11.103749
11.117458
12.046695
11.929870
13.382435
16.427636
17.727613
19.027591
20.323992
23.401976
24.742484
26.711822
26.739836
27.396679
26.976466
26.877522
27.467608
25.643706
25.205612
22.967458
22.137761
19.524693
18.294454
18.435717
17.800927
17.428994
17.564893
18.397570
17.798543
18.024445
18.325448
16.914606
##ZVALUE=255
1.538992
1.426935
1.551509
1.659989
1.934767
1.584888
1.978874
2.369881
2.707839
6.579757
40.094852
110.002756
236.663818
483.846664
721.321702
1013.403535
1015.533805
1015.533805
1015.533805
1013.218760
825.093985
600.504875
345.659852
208.097696
113.261938
91.035962
88.457465
107.156634
131.413937
145.117640
150.557756
150.491595
134.485960
109.419823
85.547566
56.738853
39.566755
22.567511
14.551878
9.276867
7.665753
7.730722
7.372499
7.633567
7.835627
7.717609
7.365942
7.640719
7.652640
7.498860
8.026958
7.040501
7.104874
7.241964
7.376671
7.590652
8.228421
8.096695
7.166862
7.524490
7.617474
7.155538
7.849932
7.678866
8.565784
8.035898
8.999705
10.051727
10.951757
11.964440
12.496710
13.993979
14.775991
16.449690
16.663671
18.070936
17.243624
18.178821
18.392801
19.006729
18.848777
16.467571
16.347766
15.161633
15.551448
15.826821
14.753938
14.906526
14.690757
15.847683
15.040636
15.378594
15.877485
14.950633
14.854670
15.125871
##ZVALUE=260
1.226664
1.455545
1.425743
1.634955
1.783967
1.491904
1.601577
1.654625
1.364946
1.512766
2.004504
2.482533
6.918907
28.155446
62.336922
156.830549
270.614624
466.390848
625.689626
822.576880
905.616879
895.598531
771.562457
623.407960
405.225754
272.556543
161.316991
104.694963
77.290535
85.014701
102.239847
128.715634
148.501992
159.814954
155.263543
135.079622
114.012957
85.086823
61.142445
37.749410
25.068521
14.143586
9.871721
7.447600
5.856752
6.196499
6.115437
6.346703
5.890727
6.719828
6.518960
6.318688
5.993843
6.369948
6.234646
6.024837
6.623864
5.793571
6.239414
5.891919
6.242990
6.707907
6.391406
7.333755
6.879568
7.508993
7.494688
7.213950
8.111596
8.581877
9.268522
9.689927
10.876656
10.855794
12.207627
12.692809
11.437535
12.272000
12.436509
11.772513
12.199879
13.033748
12.699962
12.480617
12.411475
12.810826
14.081597
13.084412
13.042688
13.047457
12.847781
13.096929
13.106465
13.175607
13.848543
13.778806
##ZVALUE=265
1.177788
1.293421
1.179576
1.298785
1.096725
1.332760
1.466870
1.426935
1.324415
1.770854
1.444817
1.860857
1.553893
1.776814
3.065467
16.164780
39.871931
106.062889
200.110674
391.607881
572.270751
746.036768
928.379893
977.265835
906.299949
781.918764
565.173626
393.815637
212.376714
131.256580
84.132552
68.199635
81.457496
112.041831
136.120915
154.190660
157.909989
152.837634
138.921738
109.670758
86.096525
56.974888
38.858652
21.634698
14.238954
8.125901
6.496906
5.545616
6.008744
6.295443
5.998611
5.714893
6.241798
5.877614
5.780458
5.739927
5.833507
6.119609
5.835891
5.459785
5.575418
5.349517
5.856752
5.922914
6.061792
6.021857
6.434917
6.835461
7.367730
7.483959
8.460879
8.968711
9.282827
10.495782
10.409951
11.013746
11.175871
11.161566
11.230707
11.366606
10.922551
12.472868
12.491941
12.239814
11.685491
12.844801
12.077689
12.077689
12.399554
12.097955
12.659431
13.340712
12.993813
12.251735
12.432933
12.736917
##ZVALUE=270
1.168847
1.147985
1.130700
1.177788
1.138449
1.181960
1.322627
1.274943
1.325607
1.416802
1.166463
1.387596
1.327991
1.517534
1.563430
2.120733
2.207756
8.043647
23.468733
71.239471
155.121684
299.606919
559.185743
770.293474
1006.872654
1015.679836
1015.679836
961.397886
736.568570
540.480614
368.569493
195.137858
111.781955
65.080523
64.419508
87.181926
110.907555
139.857531
150.478482
160.474777
155.142546
134.443641
116.075873
84.088445
60.974956
35.495758
23.393631
12.608767
8.684993
6.313920
5.916953
5.257726
5.393624
5.262494
5.740523
5.795956
5.188584
5.244613
5.728602
5.344748
5.445480
5.952716
5.882978
5.768538
6.233454
6.110668
6.385446
6.338954
7.234812
6.871819
7.604957
8.610487
8.680820
9.740591
9.704828
10.450482
10.388494
10.346770
10.101795
10.802746
10.414720
10.617971
10.666847
10.982752
10.478497
10.891557
11.268854
11.162758
10.996461
12.069941
11.853576
11.613965
11.215806
11.617541
11.422634
11.941791
##ZVALUE=275
0.959635
1.086593
1.165867
1.063943
1.057982
1.136661
0.952482
1.073480
1.110435
1.233816
1.124740
1.189709
1.356602
1.428723
1.151562
1.348853
1.389980
1.563430
1.492500
3.646612
12.162924
35.908818
106.497407
197.999477
372.492671
517.539978
711.292028
847.370625
947.639942
934.742689
857.390761
649.249554
464.954972
251.642466
144.735575
68.008900
50.125718
60.209632
82.094669
110.814571
133.401752
151.846409
157.123804
151.147842
135.489702
106.088519
86.258650
58.509707
39.969683
22.345781
14.730692
8.245707
6.440878
5.368590
5.801916
5.329847
4.997849
5.470514
4.977584
5.642772
5.567670
5.571842
5.513430
5.695820
6.096959
5.835891
5.693436
5.931854
6.219745
7.039905
7.484555
7.957816
8.506775
8.645654
9.111762
9.498596
9.549856
9.737611
9.612441
9.739995
9.768605
9.972453
9.891987
9.817481
9.741783
9.637475
10.507703
9.638667
10.156631
10.162592
10.072589
10.564923
10.737777
10.467768
10.555983
10.897517
##ZVALUE=280
0.994802
0.829697
0.824928
1.128912
0.998974
1.039505
0.919700
1.112819
1.042485
1.121759
1.071692
1.141429
1.284480
1.128912
1.375675
1.417994
1.503825
1.195669
1.506805
1.619458
1.443624
2.118945
8.307695
27.453899
86.857677
162.293911
302.806497
444.349647
666.952729
828.028917
956.205726
1012.614965
963.327885
749.670863
542.883873
301.999450
171.754956
74.745417
42.317510
41.217804
55.013895
84.368587
105.153918
133.394599
146.769881
152.460933
149.849653
129.895806
110.556483
80.349445
58.272481
36.911964
24.159551
13.098717
9.155869
6.078482
5.297661
5.267859
5.347729
5.535483
6.280541
5.730987
5.725622
5.868673
5.658865
6.570816
6.353855
6.529689
7.021427
7.636547
7.220507
8.051991
7.833838
8.814931
8.677840
9.002686
9.832978
10.154843
9.844899
9.546876
9.447932
9.380579
9.897947
9.975433
9.802580
9.804964
10.350943
9.944439
9.504557
10.267496
10.172725
10.168552
10.030866
10.333657
9.979606
10.188818
##ZVALUE=285
0.832677
0.964999
0.820756
1.000762
0.863671
1.033545
0.913739
0.925660
0.995994
0.877976
1.140833
1.170635
1.043677
1.106858
1.075864
1.106858
1.053810
1.628995
1.378655
1.435876
1.631975
1.609921
1.670718
1.821518
4.579425
14.036894
49.855709
103.977919
224.233866
352.490544
500.046611
722.681880
878.607035
998.885632
987.190008
845.397711
666.985512
403.710604
246.171951
107.746720
54.429770
31.356812
34.258962
54.444671
74.627995
105.460882
125.548840
142.136812
148.744583
146.106482
133.245587
106.880665
85.779428
59.064627
40.241480
22.801757
14.735460
8.708835
6.971955
6.259680
5.706549
5.767941
5.658865
5.624890
5.901456
6.183982
6.755590
6.941557
7.224679
7.267594
7.506609
7.581711
8.424520
8.531809
8.879900
8.860826
8.989573
9.020567
9.168983
9.224415
9.205937
9.762645
9.523630
9.561777
9.656549
9.307861
9.252429
9.536743
9.543896
9.877682
9.362698
9.538531
9.899735
9.413958
9.588599
9.520650
##ZVALUE=290
0.958443
0.781417
0.769496
0.824928
0.879765
0.984669
0.851750
0.892878
0.965595
0.969768
0.969768
1.038909
1.091957
1.194477
1.096725
0.924468
1.033545
1.032948
1.231432
1.053810
1.287460
1.220703
1.340508
1.539588
1.508594
1.652837
2.124906
5.952716
26.659966
64.127445
124.602914
259.148479
393.669605
600.915551
755.536556
906.970501
942.588449
876.778960
750.408769
507.806540
332.755446
161.152482
78.311563
31.291842
23.633838
34.484863
48.532486
72.929859
94.991922
121.385455
136.223435
144.524574
142.470598
126.876831
109.162927
80.373883
59.732795
37.958622
25.413632
14.898777
9.922981
7.071495
6.139874
6.000996
5.952716
5.662441
6.371737
6.313920
7.213950
7.110834
7.752776
7.822514
7.937551
8.828640
8.392930
8.824468
8.924603
9.064674
8.939505
9.124875
8.954406
9.564757
9.226799
9.221435
9.085536
9.360909
9.414554
9.689927
9.107590
9.330511
9.475946
9.149909
9.777546
8.938909
9.191632
9.559989
##ZVALUE=295
0.622869
0.872612
0.761747
0.807643
0.859499
0.804663
0.827909
0.842810
0.707507
0.761747
0.916719
0.914931
0.923872
0.949502
0.908971
0.967979
1.034737
1.120567
0.978708
0.941753
1.110435
1.090765
1.162887
1.273751
1.332760
1.373887
1.537800
1.538992
1.718998
2.891421
13.450980
39.480925
89.170933
207.222700
331.052542
517.222881
651.775599
801.094770
870.136619
849.545598
767.294765
581.800938
411.645770
221.765637
120.529532
40.621758
21.090508
20.717978
28.951764
46.978593
65.981746
92.869997
111.068487
130.347610
137.816668
134.882927
123.040676
100.435615
81.494451
55.114627
40.229559
23.279786
15.502572
9.560585
7.734895
7.054806
6.313920
6.392598
6.859899
7.138848
7.398725
7.645488
7.856488
8.426905
8.628964
8.642673
8.725524
8.947849
9.123683
8.915663
9.015799
9.415746
9.382963
8.983612
9.173751
9.613633
9.540915
9.171963
9.498596
9.607673
9.518862
9.279847
8.922815
9.453893
8.742809
8.959770
##ZVALUE=300
0.683665
0.745654
0.841618
0.727773
0.724792
0.703931
0.768900
0.724792
0.796914
0.797510
0.761747
0.800490
0.780821
0.800490
0.868440
1.031756
0.787973
0.858903
1.176000
0.827909
1.015663
1.008511
1.054406
1.053810
0.986457
1.225471
1.281500
1.301765
1.351833
1.423955
1.705885
1.807809
4.386902
24.829507
61.790943
154.333711
257.638693
428.761840
561.591983
698.266029
753.628016
729.717612
646.291971
484.532714
352.306962
195.554495
116.596818
52.465796
26.801825
14.813542
16.626716
27.025938
38.785934
61.820745
81.371665
107.321739
123.028755
130.281448
128.906965
116.691589
101.380944
77.499747
57.995915
38.414598
26.327968
15.393496
10.715723
8.227825
7.155538
7.221699
6.917715
7.750988
7.776618
8.251667
8.752942
8.448958
8.522868
8.914471
8.644462
9.002686
9.025931
9.097457
9.246469
9.043813
9.326935
9.719729
9.674430
9.370446
9.833574
9.049773
9.108782
9.070635
9.088516
9.160638
9.015799
9.232759
##ZVALUE=305
0.707507
0.726581
0.666976
0.790954
0.965595
0.716448
0.848770
0.713468
0.782609
0.785589
0.663996
0.877976
0.766516
0.845790
0.984669
0.776649
0.843406
0.716448
0.868440
0.813603
0.902414
1.010895
0.974536
0.953674
1.221895
1.261830
1.083612
1.223683
1.162887
1.016855
1.272559
1.346469
1.464486
1.663566
2.668500
14.107823
39.214492
109.550953
199.026465
364.077687
503.324866
674.957633
755.860806
773.514509
709.303021
550.980568
418.808460
257.309675
159.565806
73.345900
37.530661
15.424490
12.008548
16.326904
24.226904
40.293932
57.820678
79.825521
99.469423
117.195845
123.365521
121.978521
114.554763
95.226765
78.286529
53.512454
39.139986
24.859905
17.058849
10.716915
9.026527
8.385777
8.166432
8.316636
8.321404
8.684993
8.409619
8.622408
8.998513
9.197593
9.284616
9.218454
9.553432
9.747744
9.795427
9.947419
9.448528
10.015965
9.411573
9.375811
9.613633
9.195805
9.346604
9.287000
9.150505
9.141564
##ZVALUE=310
0.651479
0.712872
0.660419
0.767708
0.823736
0.649691
0.664592
0.559688
0.736713
0.538826
0.552535
0.584722
0.692606
0.666976
0.741482
0.572801
0.646710
0.764728
0.693798
0.532866
0.684857
0.553727
0.738502
0.741482
0.926852
0.883937
0.752807
1.045465
0.929832
1.046658
0.897646
0.985861
1.180768
1.153946
1.062751
1.202822
1.509786
5.302429
17.914772
61.517954
122.664571
259.564519
403.300524
603.078008
724.627972
808.478594
788.623691
675.642490
546.689630
358.704925
233.613849
113.515854
60.678720
23.487806
12.350678
10.843873
13.796687
23.321509
33.472776
52.958727
69.114566
91.809630
106.415749
116.912723
117.999911
108.080506
94.725490
74.598789
57.187676
37.850738
26.864409
16.671419
12.264848
9.752512
9.018779
8.599758
8.925796
8.830428
8.651614
9.298921
8.923411
8.920431
9.151697
9.089708
9.650588
9.363890
9.745955
9.535551
9.247661
9.613633
9.509921
9.160638
9.227991
8.636713
9.160638
8.636713
##ZVALUE=315
0.553727
0.692606
0.562668
0.638962
0.609756
0.702739
0.662804
0.673532
0.721812
0.743866
0.735521
0.787973
0.834465
0.778437
0.750422
0.689626
0.583529
0.720620
0.749826
0.682473
0.912547
0.943542
0.841618
0.859499
0.850558
0.857711
0.817776
0.852942
0.959635
0.887513
0.908971
1.120567
1.027584
1.257658
1.219511
1.297593
1.319647
1.539588
1.690984
2.872944
9.570718
38.338900
83.712935
192.156434
320.255756
533.429980
673.164725
811.295509
846.325755
782.487988
663.281679
469.126701
321.144462
167.014003
89.600682
34.531951
16.074777
9.255409
9.844899
13.828874
19.534826
33.508539
46.610832
67.233443
84.584951
102.322698
110.711455
112.135410
104.961991
88.203549
72.989464
53.444505
39.613843
25.087595
17.990470
12.526512
10.506511
9.313822
9.398460
9.302497
9.368658
9.380579
9.222627
9.769797
9.504557
9.675622
9.601712
9.684563
9.655952
9.745955
9.398460
9.614825
9.641647
9.069443
9.380579
9.589791
##ZVALUE=320
0.579953
0.640750
0.584722
0.778437
0.704527
0.660419
0.657439
0.661612
0.497699
0.761747
0.719428
0.758767
0.759959
0.710487
0.748634
0.706911
0.617504
0.821948
0.764728
0.841618
0.796914
0.831485
0.895858
0.671744
0.817776
0.917912
0.736713
0.795722
1.037717
0.850558
0.970960
0.920892
0.914931
1.091957
1.010895
0.976920
1.123548
1.180768
1.195669
1.264811
1.467466
1.807809
4.932880
21.849871
53.978562
141.072869
245.262980
435.009003
598.358512
803.107023
904.403925
914.579034
833.832026
629.554987
459.694862
254.680514
143.355727
60.792565
27.851462
10.848641
8.460879
9.268522
12.257695
19.116998
28.179884
45.996904
59.712529
80.593824
93.494654
104.703903
105.755925
100.101829
87.772608
67.645907
54.414868
36.797523
26.683807
18.094778
13.424754
11.000633
9.869933
9.480715
9.504557
9.658933
9.511709
9.721518
9.839535
9.655952
9.726882
9.542704
9.419918
9.246469
9.466410
9.496808
9.785891
9.096861
##ZVALUE=325
0.737906
0.726581
0.755787
0.704527
0.844598
0.653863
0.683665
0.789762
0.639558
0.825524
0.645518
0.571609
0.631809
0.722408
0.775456
0.768900
0.720620
0.832677
0.727773
0.711679
0.752807
0.937581
0.910759
0.812411
0.840425
0.616908
0.904799
0.933409
0.968575
0.858903
0.925660
0.908971
0.993609
0.857711
1.004934
1.013875
0.989437
1.212955
1.125932
1.199841
1.240969
1.237988
1.406670
1.430511
2.648830
13.465881
34.966469
94.846487
177.102685
346.126556
507.430434
713.552833
832.338929
886.381865
837.251544
670.148730
504.028797
295.347571
177.082419
81.882477
40.073991
14.203787
8.564591
7.985830
8.810759
12.591481
17.930865
27.887821
41.286945
60.992837
76.302886
90.985894
98.790526
99.422932
93.213916
80.419779
66.494942
47.898889
36.408901
24.102926
17.429590
12.930632
11.061430
10.108948
9.769797
9.732842
9.705424
9.454489
9.364486
9.269714
9.525418
9.506941
9.173751
9.305477
9.114742
9.097457
##ZVALUE=330
0.504851
0.640750
0.831485
0.504851
0.637770
0.497699
0.590682
0.700951
0.763535
0.688434
0.696778
0.579953
0.526905
0.645518
0.695586
0.722408
0.593662
0.681877
0.591874
0.705719
0.570416
0.804663
0.619888
0.862479
0.824928
0.755787
0.924468
0.980496
0.696778
0.824928
0.804663
0.860691
0.733733
0.834465
0.845790
0.719428
0.881553
0.899434
0.767708
0.834465
0.970960
1.140833
1.095533
1.053810
1.338720
1.348853
1.622438
6.095767
18.415451
59.041977
116.724968
233.600736
349.142551
512.359738
613.967776
682.258606
662.776828
556.680560
449.067950
289.606452
187.660456
89.721680
47.327876
18.807650
10.152459
7.587671
7.721782
8.915663
11.499524
18.413663
26.468635
40.074587
54.397583
72.817802
84.386468
93.231797
94.502568
87.701678
77.238679
60.273409
47.642589
32.089949
24.355650
17.233491
14.008880
11.041760
10.218620
9.610653
9.105802
9.269714
8.999705
8.847713
8.821487
9.004474
8.887649
8.637905
##ZVALUE=335
0.671744
0.777841
0.711679
0.559688
0.696778
0.587702
0.706911
0.632405
0.528693
0.713468
0.729561
0.618696
0.522733
0.764728
0.773668
0.727773
0.744462
0.795722
0.754595
0.650883
0.640750
0.714660
0.657439
0.604987
0.671744
0.639558
0.829697
0.812411
0.841618
0.790954
0.794530
0.807643
0.887513
0.884533
0.865459
0.964999
0.911951
1.004934
0.930429
0.901818
1.061559
1.077652
0.971556
1.127720
1.126528
1.201630
1.245737
1.374483
1.247525
2.928972
9.614825
36.592484
78.787804
177.696943
288.466811
448.287725
553.639531
635.953546
645.451546
565.135479
470.493436
316.481590
213.082433
111.123919
59.538484
22.297502
11.452436
7.962584
7.414818
7.605553
8.818507
11.591911
16.020536
26.648641
37.106872
53.710938
65.790415
80.600977
85.940957
86.994767
82.855821
69.907904
59.214830
45.508742
35.597682
24.499893
18.383861
13.594627
11.183619
9.798408
9.158850
8.859634
8.630753
8.734465
8.690953
8.470416
##ZVALUE=340
0.569820
0.551939
0.608563
0.626445
0.540614
0.497699
0.494719
0.611544
0.681877
0.771880
0.583529
0.688434
0.536442
0.587702
0.369549
0.462532
0.687838
0.749826
0.524521
0.631809
0.599623
0.636578
0.736713
0.680685
0.723600
0.650883
0.661612
0.712872
0.712872
0.784993
0.632405
0.653863
0.810623
0.743866
0.698566
0.783801
0.973940
0.699759
0.756979
0.767708
0.655651
0.767708
0.822544
0.910759
0.887513
1.019835
0.863671
1.023412
0.962615
1.124740
1.176000
1.787543
4.503727
22.057891
53.627491
133.259892
223.308802
367.883444
473.336577
584.356785
619.133711
579.698682
504.030585
371.465683
261.454582
137.864947
78.264475
33.475757
15.635490
8.356571
7.321835
7.103682
7.633567
8.825660
11.036992
17.388463
24.176836
37.487745
48.652887
64.835548
76.246858
82.349777
82.808733
77.030659
70.609450
56.371689
45.704842
32.429695
24.580956
17.543435
13.382435
10.385513
9.338856
8.546710
8.397698
8.074641
##ZVALUE=345
0.576973
0.461936
0.508428
0.570416
0.574589
0.605583
0.566840
0.505447
0.591874
0.619888
0.623465
0.588894
0.602603
0.639558
0.575781
0.497699
0.600815
0.462532
0.727773
0.643730
0.655651
0.677705
0.744462
0.692606
0.610948
0.576973
0.593662
0.726581
0.791550
0.796914
0.888705
0.675917
0.679493
0.671744
0.763535
0.753999
0.564456
0.745654
0.844598
0.558496
0.794530
0.676513
0.808835
0.776649
0.703931
0.819564
0.876784
0.927448
0.974536
0.798702
0.887513
1.027584
1.114607
1.153946
2.947450
10.416508
42.479634
86.754560
179.804564
273.803473
416.250825
510.339737
584.038496
587.920547
515.141487
426.912904
289.428830
190.305710
88.550448
45.737624
17.090440
9.789467
7.257462
7.069707
7.107854
7.306933
8.392930
10.489821
15.517473
22.139549
34.539700
45.382977
58.690906
67.216754
75.080991
76.910853
72.587729
65.621734
53.918958
43.871999
31.893849
24.100542
16.641617
13.186932
10.221601
9.302497
##ZVALUE=350
0.575781
0.703931
0.513792
0.506639
0.570416
0.357628
0.502467
0.559688
0.583529
0.600815
0.596642
0.537634
0.685453
0.649691
0.573993
0.574589
0.436902
0.496507
0.659823
0.635982
0.564456
0.613928
0.557899
0.627637
0.606775
0.614524
0.579953
0.587702
0.622869
0.557899
0.559688
0.775456
0.611544
0.885725
0.596642
0.713468
0.699759
0.574589
0.691414
0.726581
0.733733
0.775456
0.711679
0.676513
0.873804
0.841618
0.894666
0.861883
0.970960
0.970960
0.880957
0.919700
0.893474
1.052618
1.002550
1.115799
1.531839
6.268620
18.642545
57.045817
111.789703
223.541856
322.953463
443.058610
519.138575
558.820963
531.242490
426.402688
327.012539
201.226473
123.311877
55.628419
27.389526
10.644794
7.412434
6.809831
6.752610
6.673932
6.869435
8.149743
9.971857
14.646649
20.269752
30.340552
39.500594
52.179694
59.617758
67.076683
69.310665
67.277551
61.292648
50.542951
41.837692
31.337738
24.141669
16.873479
##ZVALUE=355
0.503659
0.452995
0.508428
0.497699
0.514984
0.443459
0.495911
0.600815
0.514984
0.513792
0.435710
0.598431
0.585914
0.477433
0.487566
0.401735
0.514984
0.516772
0.542998
0.430942
0.619888
0.533462
0.593662
0.580549
0.530481
0.609756
0.573993
0.523925
0.569820
0.581741
0.612736
0.546575
0.588894
0.633597
0.624657
0.674725
0.733733
0.638962
0.641942
0.626445
0.686646
0.494719
0.688434
0.809431
0.834465
0.829697
0.680685
0.873804
0.759959
0.754595
0.729561
0.793934
0.780821
0.912547
0.873804
0.884533
1.075864
0.987649
1.209974
2.951622
10.395646
39.277673
81.284642
167.673826
260.807872
396.726727
480.763912
539.385676
535.065532
452.804565
363.649726
241.094828
153.136849
68.487525
34.335852
13.001561
7.546544
6.309748
6.376505
6.210804
6.496906
6.555915
7.330775
9.032488
11.739731
18.105507
24.448633
35.041571
44.026971
53.727627
59.664845
63.579679
61.522722
56.424737
49.802661
39.587617
##ZVALUE=360
0.569820
0.535846
0.532866
0.568628
0.455976
0.588894
0.559688
0.563860
0.553727
0.730753
0.673532
0.541806
0.763535
0.613928
0.523925
0.529885
0.643730
0.644922
0.593662
0.649691
0.504851
0.562668
0.530481
0.557899
0.498891
0.606775
0.572801
0.626445
0.725985
0.780821
0.584722
0.702739
0.682473
0.673532
0.718832
0.603795
0.718832
0.529885
0.700951
0.700951
0.550747
0.771880
0.676513
0.693798
0.775456
0.746846
0.796914
0.736713
0.719428
1.036525
0.810623
0.819564
0.915527
0.966787
0.888705
0.919700
1.114607
1.075864
0.910759
1.093745
1.202822
1.732707
4.982948
20.833611
47.959685
118.792653
199.861526
331.887603
424.738526
504.777431
524.724722
479.584932
403.047800
271.243453
179.821849
88.231564
47.112703
18.953681
9.806752
6.270409
6.103516
6.186962
6.040931
5.927682
5.957484
6.686449
7.416606
10.243654
13.423562
21.306872
28.589964
38.642883
45.815706
53.452849
57.325959
57.145953
##ZVALUE=365
0.519753
0.504851
0.679493
0.644922
0.812411
0.627637
0.559688
0.593662
0.644922
0.534654
0.473857
0.474453
0.542998
0.513792
0.620484
0.605583
0.639558
0.691414
0.632405
0.609756
0.443459
0.581741
0.631809
0.501871
0.499487
0.584722
0.548959
0.473857
0.678897
0.586510
0.629425
0.572801
0.772476
0.581741
0.694990
0.676513
0.711679
0.535846
0.700951
0.813603
0.638962
0.703931
0.853539
0.695586
0.707507
0.771880
0.664592
0.533462
0.690818
0.805855
0.827909
0.775456
0.845790
0.677705
1.058578
0.752807
0.722408
0.929832
0.827909
1.079440
0.975728
1.176596
1.106858
1.350641
2.278686
12.122989
31.801462
83.919764
153.355002
276.071429
368.500948
465.875864
504.044890
488.911867
424.063802
306.794643
216.358900
120.391846
65.809488
25.339723
12.026429
6.439686
5.699992
5.399585
5.574822
5.298853
5.474687
5.396605
6.016493
6.593466
8.413792
12.564659
17.255545
25.300980
32.587647
40.896535
##ZVALUE=370
0.609756
0.609756
0.477433
0.524521
0.470877
0.494719
0.520945
0.579953
0.568628
0.497699
0.482798
0.420809
0.511408
0.711679
0.532866
0.652671
0.595450
0.563860
0.608563
0.578761
0.594854
0.580549
0.665784
0.582933
0.622869
0.492930
0.541806
0.547767
0.514984
0.502467
0.544786
0.629425
0.615716
0.607967
0.606775
0.650883
0.634789
0.644922
0.715852
0.571609
0.606775
0.645518
0.510812
0.680685
0.522733
0.675917
0.564456
0.644922
0.619888
0.631809
0.701547
0.757575
0.823736
0.740886
0.607967
0.783801
0.729561
0.742674
0.961423
0.912547
0.868440
0.992417
1.032948
1.034737
1.028776
1.215935
1.561642
6.906986
21.090508
63.662529
120.132565
226.839781
322.741866
439.550877
493.126512
494.432449
448.179841
346.280932
255.379677
145.582557
83.429813
34.425855
16.911626
7.321835
5.474687
5.278587
5.146861
5.177855
5.080700
5.019903
5.009770
5.249977
5.967617
7.858872
9.903908
15.313625
##ZVALUE=375
0.513792
0.468493
0.428557
0.532866
0.513792
0.544786
0.494719
0.574589
0.542998
0.484586
0.530481
0.589490
0.545979
0.598431
0.471473
0.472665
0.604987
0.479817
0.496507
0.779629
0.572801
0.659823
0.485778
0.691414
0.489950
0.609756
0.498891
0.575781
0.656843
0.656843
0.571609
0.479817
0.563860
0.545979
0.683665
0.634789
0.627637
0.641942
0.558496
0.633597
0.610948
0.515580
0.414848
0.743866
0.667572
0.564456
0.545979
0.639558
0.569820
0.720620
0.637770
0.644922
0.578761
0.606775
0.548959
0.771880
0.810623
0.742674
0.660419
0.727773
0.773668
0.756979
0.801682
0.836849
0.888705
0.963807
1.127720
1.113415
1.296997
3.268719
10.409951
37.519932
79.590678
175.303817
267.971754
390.436649
458.944440
493.883491
470.542908
382.490754
295.024514
178.817511
113.252997
57.985783
30.191541
11.364818
6.300807
5.143881
4.853606
4.946589
4.829764
4.696846
4.491806
4.701614
4.762411
5.380511
##ZVALUE=380
0.567436
0.584722
0.519753
0.472665
0.571609
0.543594
0.632405
0.477433
0.585914
0.469685
0.508428
0.430942
0.446439
0.474453
0.458956
0.454783
0.497699
0.695586
0.527501
0.571609
0.577569
0.549555
0.489950
0.583529
0.526905
0.570416
0.598431
0.562668
0.685453
0.523925
0.591874
0.557899
0.570416
0.406504
0.572801
0.536442
0.528693
0.650883
0.538826
0.585914
0.529885
0.673532
0.715852
0.568628
0.585914
0.661612
0.565648
0.523925
0.609756
0.611544
0.595450
0.575781
0.583529
0.633597
0.605583
0.653863
0.773668
0.651479
0.658631
0.629425
0.772476
0.819564
0.703931
0.889897
0.840425
0.707507
0.868440
0.858903
0.964999
1.094937
1.206994
1.876950
5.832911
27.088523
64.033866
148.517489
235.098004
353.119969
437.708497
498.397946
491.622686
416.298509
337.648988
230.981708
153.934956
76.416731
40.372610
15.474558
7.907748
5.014539
4.546642
4.495978
4.400611
4.452467
4.576445
4.446507
##ZVALUE=385
0.581741
0.663996
0.737906
0.496507
0.504851
0.562668
0.413656
0.710487
0.472665
0.488758
0.487566
0.600815
0.671744
0.583529
0.529885
0.620484
0.667572
0.543594
0.720620
0.537634
0.584722
0.725985
0.497699
0.574589
0.560880
0.444651
0.571609
0.597835
0.678897
0.574589
0.513792
0.665784
0.647902
0.553727
0.669956
0.679493
0.700951
0.640750
0.751615
0.703931
0.624657
0.709891
0.670552
0.713468
0.680685
0.730753
0.761747
0.658631
0.501871
0.647902
0.576973
0.454783
0.681877
0.709891
0.687838
0.762939
0.680685
0.730753
0.637770
0.652671
0.740886
0.767708
0.765920
0.881553
0.721812
0.729561
0.773668
0.911951
0.888705
1.000762
1.080632
1.123548
1.253486
1.226664
3.331900
14.886856
37.997961
93.565583
165.006518
289.813876
383.825898
468.278527
490.845442
458.778739
395.637751
283.757448
197.965503
106.113553
60.467720
26.170611
12.232661
5.385876
4.252791
3.961921
4.123449
4.199743
##ZVALUE=390
0.455976
0.587702
0.532866
0.418425
0.537634
0.446439
0.399947
0.440478
0.394583
0.565648
0.514984
0.511408
0.539422
0.598431
0.586510
0.547767
0.506639
0.493526
0.478625
0.455976
0.489950
0.411868
0.438690
0.491738
0.591874
0.679493
0.638962
0.581741
0.642538
0.558496
0.517964
0.576973
0.451803
0.553727
0.661612
0.621676
0.450611
0.609756
0.689626
0.659823
0.657439
0.542998
0.482798
0.385642
0.677705
0.616908
0.689626
0.486970
0.535846
0.660419
0.667572
0.492930
0.609756
0.586510
0.505447
0.591874
0.682473
0.719428
0.479817
0.728965
0.595450
0.784993
0.721812
0.793934
0.870824
0.739694
0.791550
0.644922
0.730753
0.904799
0.802875
1.069903
1.052618
1.101494
1.091957
1.160502
2.270937
7.771850
32.194853
71.325898
164.233446
253.604650
370.436907
450.262427
515.317917
510.006547
444.929600
364.560485
241.459608
159.211755
81.312656
41.931868
15.824437
7.238984
4.310608
3.944635
##ZVALUE=395
0.609756
0.477433
0.589490
0.514984
0.551939
0.497699
0.589490
0.471473
0.654459
0.425577
0.493526
0.564456
0.555515
0.442863
0.588894
0.501871
0.482798
0.481606
0.666976
0.377893
0.520945
0.571609
0.534654
0.602603
0.627637
0.509620
0.561476
0.532866
0.650883
0.387430
0.539422
0.666976
0.645518
0.534654
0.542998
0.592470
0.503659
0.531673
0.537634
0.507832
0.548959
0.491738
0.585914
0.480413
0.456572
0.571609
0.614524
0.589490
0.410676
0.509620
0.623465
0.687838
0.565648
0.707507
0.480413
0.547767
0.474453
0.565648
0.656843
0.656843
0.603795
0.666976
0.764728
0.674725
0.684857
0.725985
0.593662
0.889897
0.869632
0.945926
0.733733
0.995994
0.927448
0.745654
0.846982
1.046658
1.009703
0.990629
1.315475
4.667640
16.146898
54.378510
103.345513
203.616619
292.339921
413.125753
481.765866
523.072481
501.138568
419.105887
326.156616
195.501447
121.081471
56.068897
27.194619
10.234714
##ZVALUE=400
0.519753
0.466704
0.579953
0.520945
0.619888
0.626445
0.412464
0.402927
0.489950
0.516772
0.511408
0.557899
0.394583
0.638962
0.565648
0.476837
0.542998
0.512600
0.420809
0.500679
0.603795
0.375509
0.457764
0.618696
0.585914
0.475645
0.550747
0.455976
0.629425
0.598431
0.717640
0.525713
0.548959
0.693798
0.639558
0.577569
0.578761
0.625849
0.556707
0.637770
0.584722
0.402927
0.374913
0.582933
0.575781
0.457764
0.705719
0.551939
0.745654
0.556707
0.619888
0.546575
0.615716
0.714660
0.541806
0.595450
0.451803
0.711679
0.719428
0.677705
0.602603
0.521541
0.691414
0.735521
0.722408
0.687838
0.709891
0.753999
0.671744
0.852942
0.914931
0.790954
0.983477
0.979900
0.724792
0.801682
0.928640
1.101494
0.755787
1.187921
1.172423
2.497435
7.881522
27.927756
60.354471
137.077570
219.588876
340.185761
419.971943
484.483838
490.683913
426.870584
349.319577
229.072571
148.142576
73.248744
##END
