##TITLE=FQP00652
##FORMAT=SPECTACLE-ASCII V-1.2
##DATA TYPE=ULTRAVIOLET SPECTRUM
##SECOND TYPE=ULTRAVIOLET SPECTRUM
##DATE=01/11/18
##TIME=19:36:15
##SPECTROMETER/DATA SYSTEM=SPECTACLE
##XUNITS=NM EM
##YUNITS=ENERGY
##YFACTOR=1
##FIRSTX=220
##LASTX=410
##NPOINTS=96
##3DDATA=Equidistant
##ZUNITS=NM EX
##FIRSTZ=210
##LASTZ=400
##ZPOINTS=39
##XYDATA=(Y..Y)
##ZVALUE=210
2.441406
2.842546
2.822876
2.526641
3.142953
3.289580
3.463626
3.197789
3.134608
4.065633
3.581643
4.203916
3.602505
3.983974
3.918409
4.434586
4.698634
5.029440
5.708933
5.317926
6.510615
5.744696
6.685853
7.203817
7.443428
7.585883
7.909536
9.273887
8.593798
8.396506
9.151697
9.387732
9.880662
9.984970
11.453629
11.248589
12.250543
11.157990
11.265874
11.316538
10.886788
11.041760
11.887550
12.140870
13.069510
12.378693
11.352897
12.298822
12.068748
11.428595
12.541413
11.214614
11.410713
11.034608
12.864470
11.924505
12.640953
11.795759
11.808872
12.057424
12.625456
13.377666
12.200475
12.821555
12.979507
13.154745
13.527870
16.348958
18.196702
20.575523
24.726987
27.453899
32.001734
38.641691
42.057633
45.338869
49.596429
51.706433
51.206946
51.914454
46.477914
44.720769
40.304661
35.703778
31.580925
25.600791
19.102693
15.124679
13.084412
12.387633
12.534857
10.479689
11.483431
12.924671
11.667609
12.009740
##ZVALUE=215
10.829568
10.051727
8.450747
7.635951
7.350445
6.621480
5.523562
6.092787
6.778836
5.981922
6.297827
5.864501
5.350709
5.066991
5.368590
4.463792
5.182624
4.730821
5.396605
6.007552
6.425977
5.734563
7.310510
7.473826
8.145571
7.671714
9.501576
9.477735
9.744763
11.392832
12.879968
13.981462
12.691617
13.330579
14.637709
13.737679
13.173819
14.815927
14.384985
14.080405
12.760758
12.936592
13.710856
14.201999
13.169646
13.608932
13.242960
15.666485
14.266968
13.291836
11.627674
12.696981
13.154745
13.061762
13.250709
12.971759
12.338758
11.331439
13.259649
12.585521
12.980700
13.068914
12.332797
14.155507
13.557673
13.367534
15.083551
14.771819
17.667413
21.407604
22.903681
26.104450
30.270815
34.121871
36.457777
40.515661
45.043826
45.338869
42.990446
42.169690
40.739775
39.074421
37.021637
31.832457
26.947856
21.546483
19.791722
15.486479
14.066696
12.404919
11.549592
10.305643
11.378527
11.171699
10.941625
11.648536
##ZVALUE=220
37.499666
36.629438
40.213466
35.960674
35.853982
27.320981
22.278428
16.243458
14.164448
11.749864
11.620522
13.638735
13.750792
11.905432
10.726452
8.835793
7.784963
6.667972
5.904436
5.689859
5.144477
6.265640
6.422997
6.818771
7.727742
9.234548
11.038780
11.599660
12.587905
13.803840
15.689731
16.311407
17.794967
17.235875
19.503832
20.884871
19.384623
19.319654
17.984509
18.693805
18.926859
18.209815
17.837882
17.753839
16.459823
16.054511
16.346574
14.352798
15.394688
14.959574
14.983416
14.910698
15.033484
14.777780
14.330745
13.845563
13.670921
14.316440
14.861822
14.903545
14.316440
14.236569
14.582872
14.331937
14.383793
13.546944
14.793873
16.523600
18.557906
20.241737
21.832585
28.884411
30.724406
37.358999
40.447712
41.426420
46.146512
49.129725
47.930479
50.805807
49.981475
46.809912
41.971803
36.591887
33.677816
26.411414
22.258759
17.401576
14.469624
13.885498
13.674498
11.867881
14.045835
13.399720
12.757778
13.575554
##ZVALUE=225
68.163872
72.587729
102.346539
113.119483
124.149919
124.236941
109.483600
90.495944
61.137676
46.255589
31.901598
27.417541
27.923584
28.323531
26.539564
23.938417
23.045540
18.417835
15.756488
11.943579
9.743571
8.160472
8.380413
9.234548
9.680986
9.849668
11.367798
13.829470
15.978813
18.257499
20.264983
22.291541
21.975636
24.518967
24.779439
24.920702
23.786426
25.764704
22.815466
23.065805
24.040937
22.938848
21.291971
19.737482
19.226670
19.022822
19.442439
18.478632
18.270612
18.689632
16.742945
16.783476
16.685724
17.860532
16.487837
16.643405
17.625690
17.708540
18.324852
17.279983
17.965436
16.675591
18.799901
18.439889
15.359521
16.066432
17.897487
18.053651
20.940900
21.178722
22.771955
26.651621
29.740930
33.549666
35.204887
37.662983
39.014816
38.644671
42.418838
38.739443
38.062930
35.194755
33.049583
29.947758
26.812553
22.372603
20.935535
18.427968
16.975999
15.084743
14.497638
15.107989
15.811920
16.043782
14.287829
15.049577
##ZVALUE=230
74.600577
80.567002
128.508806
207.256675
265.124440
329.078436
349.007845
337.314606
303.836465
256.044865
179.697871
125.703812
79.873800
59.292912
50.842762
53.048730
54.999590
54.059625
49.000978
39.957762
32.025576
20.194650
16.508698
11.929870
10.489821
10.544658
11.794567
13.757944
15.416741
18.212795
19.964576
20.025969
21.218657
21.503568
23.526549
25.080442
24.544001
25.438666
24.327636
24.429560
23.659468
25.502443
23.670793
22.156835
22.216439
21.965504
20.025969
21.202564
20.408630
18.009543
19.115806
19.898415
19.861460
18.880963
20.318627
18.949509
19.338727
17.835498
19.535422
19.357800
18.072724
19.331574
19.799471
18.954873
19.661784
19.244552
21.106601
21.289587
23.993850
25.474429
26.127696
31.498671
32.649636
35.994649
41.387677
43.557882
44.062734
42.316914
41.403770
37.528872
38.615465
35.977960
31.427741
29.947758
27.619600
23.197532
21.077991
20.845532
20.068884
20.012856
17.762780
19.288659
19.544959
17.338991
17.929673
19.356608
##ZVALUE=235
33.807755
40.435791
97.014904
171.155930
321.688652
457.285643
644.775033
774.670839
865.519643
850.258470
737.208724
602.690578
464.336872
296.286941
200.137496
117.897987
89.571476
85.222721
90.008974
89.506507
82.865953
73.257685
55.126548
42.996407
27.917624
20.941496
17.742515
14.868975
16.480684
16.356707
16.527772
18.331409
19.552708
19.468665
20.915866
19.946694
21.330714
21.822453
23.115873
21.311641
21.896958
23.747683
23.211837
22.959709
22.937655
23.797750
23.329854
22.077560
21.042824
22.039413
22.676587
22.524595
21.341443
21.069646
20.790696
21.639466
22.259951
22.429824
22.202730
21.017790
21.792650
22.451878
22.618771
22.976995
23.761988
23.848414
24.417639
26.797652
28.388500
28.830767
30.995607
35.986900
40.662885
45.117736
46.364665
50.686002
48.951507
50.011873
48.753619
46.292543
43.854713
38.342476
36.596656
33.238530
31.972528
27.892590
27.195811
28.621554
25.195479
25.566816
24.264455
23.232698
24.412870
23.300648
25.817752
23.796558
##ZVALUE=240
3.259778
3.257990
12.239814
50.711632
117.307901
266.036987
437.185764
735.090971
974.663496
1015.681624
1015.681624
1015.681624
1015.681624
921.877623
690.778494
488.283634
280.408859
180.487633
118.566751
109.840631
117.161870
127.846003
123.948455
110.163689
87.020993
73.837638
57.038665
38.981438
28.508902
20.265579
18.219948
17.267466
17.924905
18.629432
18.374920
20.579696
21.378994
21.811724
22.806525
23.014545
22.597909
23.818612
23.952723
22.514462
25.072694
23.309588
23.821592
24.343729
24.516582
25.240779
25.059581
24.261475
23.164749
22.659898
24.679899
24.500489
23.842454
24.277568
24.247766
23.572445
24.001598
23.306608
25.587678
25.133491
26.309490
26.365519
27.157664
28.484464
30.560493
33.875704
36.160946
42.708516
43.198466
46.938658
48.579574
49.497485
52.606463
49.273968
49.990416
44.750571
44.125915
40.984750
38.136840
35.300851
36.905408
33.902526
31.157732
31.242967
30.969977
32.121539
29.364824
29.574633
28.544664
28.643608
26.944876
28.140545
##ZVALUE=245
2.524853
2.567768
2.380610
3.333688
6.921887
30.977726
81.696510
239.506960
456.460714
743.381977
1015.681624
1015.681624
1015.681624
1015.681624
1015.681624
1015.681624
924.642682
654.323697
435.638428
233.008862
154.548883
114.570856
120.750666
136.532784
139.884949
134.992599
121.002793
100.751519
83.208680
59.161782
46.164989
30.019879
23.370981
19.094944
19.040704
19.151568
20.286441
22.638440
21.973848
21.513700
24.379492
24.760962
23.277998
25.838614
23.533702
24.701953
25.161505
23.324490
24.565458
23.416877
24.237633
23.224950
22.477508
25.019646
21.687746
21.672845
21.753907
22.219419
20.735860
22.883415
19.781590
22.270679
22.441745
21.569729
23.135543
23.363829
25.408864
25.403500
26.607513
28.353930
33.513904
35.188794
37.211776
39.418936
44.389963
44.993758
43.717623
43.492913
40.640831
42.207837
43.091774
37.493706
35.761595
34.136772
32.299757
30.851960
31.168461
28.515458
28.908849
29.336810
28.838515
28.531551
27.493834
27.588606
27.460456
27.666688
##ZVALUE=250
2.801418
2.310872
2.330542
2.424717
3.150702
3.237724
4.695654
12.484789
63.264966
170.275569
479.888916
836.533904
1015.692949
1015.692949
1015.692949
1015.692949
1015.692949
1015.692949
1015.692949
906.226635
557.340980
329.622626
165.007710
112.897754
113.460422
128.858685
145.875812
147.807002
148.692727
132.802725
116.147995
91.530681
68.572760
48.209429
35.717487
26.847720
23.229718
22.160411
22.783875
23.452640
24.297833
24.619699
26.195645
25.582910
25.751591
23.519993
25.401711
23.952723
23.519993
24.075508
22.533536
22.909641
22.617579
22.512674
20.590425
20.129681
20.166636
20.644665
20.000935
18.590689
19.226670
19.407868
19.399524
18.758774
18.921494
18.622875
19.433498
20.660758
22.114515
23.067594
25.120974
27.723908
28.093457
31.473637
32.329559
32.722950
32.627583
33.956766
32.716990
31.485558
30.120611
29.263496
29.562712
28.180480
26.874542
25.356412
25.710464
25.717616
25.339723
26.512742
25.541782
25.230646
25.406480
24.494529
23.783445
24.986863
##ZVALUE=255
1.775622
2.130866
1.980662
1.850724
2.029538
2.361536
2.375841
2.785921
2.628565
5.325675
22.060871
60.003400
170.084834
321.543813
627.064705
938.611627
1015.681624
1015.681624
1015.681624
1015.681624
1015.681624
1005.860567
721.327662
383.276939
212.176442
115.681887
100.712776
114.097595
132.912993
152.854919
160.759687
158.009529
146.139860
119.760633
95.630884
69.557428
53.632855
38.957596
30.830503
25.537610
24.711490
25.305748
24.329424
23.038983
23.192763
23.781657
21.743774
22.258759
22.176504
22.146702
21.303892
19.908547
19.245744
18.074512
18.326640
17.638803
17.494559
17.432570
16.560555
16.589761
16.346574
17.110705
16.526580
15.944839
16.135573
15.485883
16.837716
17.023683
18.659830
18.946528
20.840764
22.325516
24.792552
24.117827
26.364923
27.492642
27.707815
27.873516
27.186871
26.580691
26.570559
27.805567
25.348663
25.447607
23.594499
23.502707
23.206472
23.626685
22.580624
22.656918
23.271441
23.068786
22.446513
23.650527
22.387505
22.920966
##ZVALUE=260
1.890659
1.678467
1.691580
1.641512
1.902580
1.756549
1.770854
2.391934
2.560616
2.526641
2.679825
4.242659
14.028549
61.669946
127.273798
304.707885
520.722866
936.708450
1015.510559
1015.510559
1015.510559
1015.510559
1015.510559
1015.510559
1015.510559
927.316546
530.157685
295.727849
141.388774
108.998418
120.587945
143.606663
163.945556
176.926851
171.431899
156.675577
134.036541
103.344917
83.253980
58.396459
44.215918
34.183860
30.049682
26.359558
25.493503
25.268793
24.329424
23.566484
24.389625
22.168756
21.443963
20.838976
20.251870
19.787550
18.662810
17.408729
18.215775
16.693473
16.643405
16.476512
15.953779
15.027523
15.748739
15.947819
15.349984
15.877485
16.262531
17.010570
16.797781
17.932653
18.973947
21.582842
23.069978
23.329854
24.768710
25.043488
24.544597
25.550723
25.413632
24.147630
25.792718
23.947954
22.167563
22.853613
22.311807
21.319985
22.041798
21.517873
20.932555
21.550655
19.740462
20.998716
22.056699
21.469593
21.387935
21.562576
##ZVALUE=265
1.555681
1.721978
1.775622
1.786947
1.959801
1.742840
1.905560
1.853704
1.853704
2.132654
2.280474
2.423525
2.623796
2.960563
7.910728
33.376813
136.011839
269.163847
503.654480
941.841602
1015.681624
1015.681624
1015.681624
1015.681624
1015.681624
1015.681624
1015.681624
712.806582
458.329916
229.859948
142.269731
96.519589
105.273724
135.804415
155.666471
179.135799
181.583762
171.582699
156.012774
129.923820
105.470419
78.561902
59.584975
41.137934
34.435987
26.655793
25.567412
23.239851
22.227764
22.520423
20.858645
20.216703
19.891858
19.099712
18.130541
16.832948
16.561747
16.463995
16.395450
15.539527
15.582442
14.965534
14.652610
14.411807
15.150905
15.130639
14.701486
15.971661
16.042590
17.006993
17.741919
18.669963
19.602776
20.184517
21.317601
21.708608
21.868944
19.897819
19.925833
19.522905
19.880533
19.512773
19.695759
19.564629
18.564463
19.698739
18.992424
18.617511
19.381642
19.040704
19.357800
18.905997
19.062757
20.411611
19.252896
19.628406
##ZVALUE=270
1.470447
1.336932
1.473427
1.470447
1.468658
1.675487
1.667738
1.453757
1.716614
1.766682
1.949668
2.033710
2.095699
2.227426
2.492666
2.796650
3.588796
12.265444
38.350821
164.851546
361.962914
677.356720
1015.681624
1015.681624
1015.681624
1015.681624
1015.681624
1015.681624
1015.681624
884.753466
560.817719
264.007449
146.132708
82.574487
82.021952
106.788874
128.096938
156.774521
173.359513
180.323720
172.835588
155.770779
135.489702
103.485584
78.731775
52.953959
40.914416
30.646920
24.931431
20.392537
19.860864
18.374920
17.382503
18.098950
17.318726
16.252995
15.776753
15.093684
14.766455
14.326572
14.880896
13.677478
14.110804
13.844967
13.279915
13.026595
13.614893
14.188886
14.599562
15.522838
15.971661
15.940666
17.547607
17.983913
18.551946
17.971992
19.074678
19.341707
18.188953
17.394423
17.751455
17.137527
17.967820
17.480850
16.629696
18.097758
17.738938
16.692877
17.546415
18.236637
17.326474
17.260909
17.463565
17.894506
17.809868
17.798543
##ZVALUE=275
1.202822
1.342893
1.252890
1.274943
1.411438
1.489520
1.365542
1.316667
1.415610
1.491904
1.671910
1.567602
1.652837
1.839995
1.984835
2.174973
2.170801
2.333522
2.375841
7.703900
27.470589
82.476735
244.800448
442.352891
811.353922
1015.691757
1015.691757
1015.691757
1015.691757
1015.691757
1015.691757
863.350630
568.935871
276.771784
151.422620
75.740814
63.247681
75.974464
97.183585
124.076605
146.238804
164.283514
171.201825
165.580511
151.357651
123.188496
99.273920
70.018768
52.857995
35.205483
25.983453
19.590855
17.416477
15.230775
15.059710
14.634728
14.184713
13.590455
13.360977
13.168454
13.206601
13.345480
12.763739
12.598634
12.406707
12.391806
12.435913
12.278557
12.920499
13.567805
13.136864
13.715625
14.822483
15.524626
15.757680
15.811920
15.984774
16.397834
15.955567
16.444921
15.935898
15.699863
15.128851
15.921593
15.764832
15.892982
16.106963
16.233921
15.572906
15.905499
15.371442
15.820861
15.979409
16.130805
15.612841
15.842915
##ZVALUE=280
0.992417
1.191497
1.008511
0.789762
1.035929
1.092553
1.119971
1.172423
1.012683
1.199841
1.457930
1.235604
1.188517
1.232624
1.464486
1.260638
1.605749
1.632571
1.960993
1.762509
2.237558
4.902482
24.763942
106.985569
245.859623
497.437716
704.433918
957.265496
1015.681624
1015.681624
1015.681624
946.054459
796.990991
569.577813
412.547588
240.554810
144.116879
71.263909
48.586726
48.098564
63.580871
91.778636
114.911795
141.188502
157.231688
161.682963
156.285763
136.772990
119.052529
87.506771
67.052841
44.218898
32.087564
20.669699
15.380979
13.240576
11.914968
11.792779
12.350678
11.720657
12.581944
12.341738
12.234449
11.940598
11.961460
12.392998
12.162924
12.458563
12.668967
13.617873
13.645887
13.804436
13.795495
14.980435
15.165806
15.079975
15.687943
15.312433
15.440583
15.433431
16.183853
15.728474
15.537739
15.493631
15.497804
15.338659
15.740991
16.081929
15.772581
15.521646
16.301870
15.256405
15.540719
15.864968
15.763640
15.326738
##ZVALUE=285
1.092553
0.942945
1.018643
0.896454
1.001954
1.060963
0.976920
1.071692
1.208782
1.205802
1.145601
1.292825
1.312494
1.301765
1.036525
1.284480
1.425743
1.632571
1.616478
1.705885
1.696944
1.753569
2.009869
2.270937
9.189844
33.152699
104.573965
195.974708
367.128849
519.472957
663.052797
817.658901
881.356597
879.338980
807.942748
642.056465
494.206548
310.308933
192.914605
93.756914
51.907897
33.435822
38.556457
57.592988
78.113675
108.175874
129.134655
146.693587
154.123902
150.836706
137.748718
112.644434
91.223717
64.714551
46.005845
28.276443
19.876957
13.900995
11.910796
11.419654
10.439754
11.419654
10.685921
11.384487
11.569858
11.386871
12.385845
12.508631
13.004541
13.041496
13.495684
13.656616
13.226867
14.234781
14.228821
14.213920
15.196800
14.813542
14.914870
14.755726
15.402436
15.276670
15.843511
15.606880
15.161633
16.130805
15.536547
15.402436
15.382767
15.919805
15.542507
15.434623
15.131831
15.357733
15.492439
15.079975
##ZVALUE=290
0.794530
1.005530
0.857711
0.849962
0.772476
0.936985
0.661612
0.849962
0.897646
0.802875
1.006722
0.894666
0.896454
0.961423
0.957847
1.011491
1.193881
1.081824
1.071692
1.095533
1.110435
1.132488
1.422763
1.352429
1.634955
1.808405
2.790689
16.421676
44.802427
112.932920
190.239549
348.448753
484.920740
662.773848
763.233900
833.505988
815.013647
691.220760
563.240647
375.894904
247.526765
126.333833
68.619847
31.702518
25.417805
35.840869
51.585436
76.890588
98.559856
124.098659
139.119625
147.042871
145.625472
130.952001
112.216473
83.633661
62.929988
42.338967
29.976964
19.188523
14.552474
11.648536
11.237860
11.293888
11.039972
11.275411
11.708736
11.850595
11.600852
12.674928
13.034940
13.417602
14.019608
14.534593
15.043616
14.378428
14.775991
14.556646
15.269518
14.959574
15.476942
15.492439
15.014410
15.877485
15.727878
15.703440
15.691519
16.132593
16.129613
15.578866
15.617609
14.972687
15.611649
15.092492
15.139580
15.078783
##ZVALUE=295
0.799894
0.805855
0.784993
0.723600
0.715852
0.807643
0.857711
0.673532
1.087785
0.764728
0.915527
1.032948
1.067519
0.928640
0.871420
0.899434
0.943542
1.140833
1.017451
0.984669
1.097918
1.259446
1.176596
1.427531
1.414418
1.231432
1.623631
1.685619
1.985431
4.784465
23.767948
92.856884
180.090666
347.058773
490.017533
667.137504
764.957666
836.278796
834.373832
744.974017
630.801916
443.733931
308.402777
164.035559
92.459917
36.623478
22.746921
22.372603
30.532479
49.076676
66.686869
94.569921
113.428831
132.893920
140.915513
137.262940
127.999783
103.693604
84.458590
58.619976
43.300986
28.649569
20.216703
14.748573
12.370944
11.934638
11.727810
12.092590
12.665987
12.003779
12.960434
12.922883
13.849735
14.053583
14.599562
14.682412
15.498996
15.233755
15.254617
15.466809
16.096830
15.591979
15.618801
15.881658
15.971661
16.031861
16.064644
16.296506
16.058683
15.947819
15.654564
15.581846
16.043782
15.792847
15.768409
15.311837
##ZVALUE=300
0.611544
0.722408
0.740886
0.851750
0.611544
0.841618
0.868440
0.872612
0.831485
0.922680
0.884533
0.905991
0.859499
0.918508
0.872612
0.918508
0.886917
0.923872
0.976920
0.799894
1.069903
1.050830
1.033545
1.294613
1.181960
1.233816
1.252890
1.370907
1.569986
1.573563
1.867414
1.907945
8.019805
50.802827
122.686625
268.267989
411.199927
612.366796
737.327933
834.447742
858.263969
795.312524
691.762567
513.612628
374.602675
209.669471
124.612451
57.466626
30.123591
16.589761
18.812418
28.907657
42.447448
64.311624
83.839893
110.050440
124.079585
133.488774
132.748485
120.212436
104.426742
80.787539
63.402653
43.995976
30.952692
19.979477
15.851855
12.935996
12.183785
12.671947
12.611747
13.334751
13.175607
13.916492
13.823509
14.201999
14.513731
15.269518
15.322566
15.284419
15.716553
15.985966
15.642643
16.281605
15.835762
16.261935
15.953779
16.549826
16.409755
16.514659
16.163588
15.724897
15.995502
15.729666
15.698671
15.560985
##ZVALUE=305
0.742674
0.814795
0.669956
0.951886
0.726581
0.818968
0.710487
0.667572
0.937581
0.883937
0.816584
0.750422
0.878572
0.824928
0.772476
0.958443
0.901818
0.898838
0.815988
1.004934
0.788569
0.915527
0.958443
1.303554
1.180768
1.290441
1.103878
1.250505
1.270771
1.215935
1.353621
1.410842
1.508594
1.941919
3.383756
20.262599
55.878758
146.575570
249.296427
425.002575
560.981631
712.156892
782.679915
790.707469
725.326538
567.297935
434.962511
271.441936
168.898702
78.122616
39.703846
16.880631
13.569593
18.015504
26.197433
42.294860
59.673786
83.528757
100.901723
120.495558
126.784444
124.889612
116.198659
96.867681
81.490874
57.290792
42.924881
28.029680
20.702481
16.024709
13.778806
13.139844
13.493896
13.223886
13.727546
14.276505
14.308691
14.322996
14.251471
15.371442
15.893579
15.883446
15.683770
16.457438
16.175508
16.622543
16.337633
15.926957
15.991926
15.786886
16.598701
16.213655
15.768409
15.748739
14.849901
15.803576
##ZVALUE=310
0.643730
0.636578
0.661612
0.673532
0.753999
0.729561
0.628829
0.751615
0.769496
0.820756
0.916719
0.861883
0.852942
0.732541
0.780821
0.640750
0.766516
0.838637
0.843406
1.047850
0.900626
1.001954
0.863671
0.892878
0.880957
0.855923
0.956655
0.952482
1.029968
0.920892
0.913739
1.108646
1.051426
1.338720
1.454949
1.574755
1.834631
6.982684
23.749471
79.482794
156.311989
306.928754
446.527004
619.895458
726.404786
787.958503
764.029026
656.104684
535.637736
350.762606
234.274864
116.249919
62.832832
24.538636
13.323426
12.260675
15.249848
24.022460
34.408569
54.045916
71.596503
95.359683
108.284950
118.230581
120.473504
111.308694
97.319484
78.173876
61.326623
41.978955
30.934811
21.034479
17.282963
14.349818
13.874769
13.794899
14.078617
14.199615
14.583468
15.107989
15.365481
15.437603
16.013980
15.852451
16.521811
16.400814
16.030669
16.419888
16.635656
16.451478
16.403794
15.762448
15.717745
15.588999
15.690923
15.462637
##ZVALUE=315
0.845790
0.740886
0.640750
0.667572
0.501871
0.710487
0.821948
0.728965
0.716448
0.694990
0.826716
0.733733
0.751615
0.759959
0.747442
0.770688
0.807643
0.788569
0.915527
0.762939
0.916719
0.805855
0.852942
0.871420
0.831485
1.001954
1.050830
0.948906
1.015663
1.097918
1.131892
1.279712
1.208782
1.298785
1.242757
1.249909
1.340508
1.455545
1.644492
2.594590
13.155937
37.011504
106.421709
192.633867
356.523991
497.259498
657.069683
736.058950
762.563944
710.128546
568.294525
440.486670
271.373987
168.147683
77.952743
39.051771
14.883876
10.613799
11.250973
14.344454
22.418499
32.752752
50.596595
66.440701
89.076757
102.348924
113.092661
113.029480
104.689002
93.148947
72.888732
58.717728
41.590929
30.910969
22.090673
17.987490
15.847683
14.440417
14.676452
14.570951
14.874935
15.332699
15.423894
15.491843
16.043782
16.178489
15.745759
16.373992
16.036630
15.901923
16.022921
15.678406
15.474558
15.817881
15.797615
15.470982
##ZVALUE=320
0.600815
0.466704
0.615716
0.661612
0.744462
0.846982
0.823736
0.601411
0.723600
0.748634
0.739694
0.509620
0.618696
0.625849
0.708699
0.829697
0.818968
0.817776
0.797510
0.807643
0.857711
0.606775
0.846982
0.915527
0.732541
0.758767
0.826716
0.697970
0.812411
0.904799
0.819564
0.807643
1.070499
0.975728
0.950694
1.124740
1.230836
1.065731
1.309514
1.326799
1.644492
1.978874
5.051494
24.373531
61.698556
158.021450
258.537531
418.801904
548.129678
689.246655
743.719935
724.912882
647.451878
491.842628
357.724428
199.229717
113.239884
49.959421
23.973584
11.066794
9.478927
10.835528
13.197660
20.023584
28.824806
46.825409
61.098933
81.147552
95.287561
106.398463
108.108521
102.011561
91.175437
71.368814
56.934953
39.980412
30.912757
22.349954
18.285513
16.000867
15.251637
15.165806
15.280843
15.609860
15.720725
15.398860
15.289783
15.494823
15.701652
15.940666
15.616417
15.319586
15.219450
15.173554
15.639663
15.630722
##ZVALUE=325
0.539422
0.681877
0.639558
0.780821
0.770688
0.506639
0.640750
0.569820
0.575781
0.766516
0.800490
0.508428
0.589490
0.736713
0.578761
0.671744
0.630617
0.752807
0.684857
0.666976
0.659823
0.776649
0.748634
0.786781
0.686646
0.724792
0.821948
0.910759
0.884533
0.886917
0.776649
0.845790
1.046658
0.885725
1.045465
1.051426
0.879765
0.994802
1.107454
1.229644
1.178980
1.341701
1.450777
1.526475
2.803802
15.030503
40.974617
109.585524
192.732811
346.695781
474.699736
626.880527
699.758530
720.337629
666.538477
525.678992
397.134423
241.919756
148.595572
66.105723
33.354759
13.380647
9.375811
8.817911
10.249615
14.348626
19.120574
29.547811
42.764544
62.395930
77.344775
93.050599
100.900531
102.422833
97.124577
81.630945
68.548918
52.380562
41.120648
28.877854
22.175908
17.860532
16.696453
15.590787
15.528798
15.358925
15.504956
14.799833
15.345812
15.068650
15.761852
15.137792
15.505552
15.367866
15.331507
15.059710
##ZVALUE=330
0.561476
0.494719
0.625849
0.598431
0.596642
0.634789
0.667572
0.569820
0.650883
0.559688
0.641942
0.689626
0.581741
0.636578
0.646710
0.652671
0.735521
0.703931
0.672936
0.522733
0.544786
0.783801
0.876784
0.687838
0.773668
0.604987
0.827909
0.735521
0.925660
0.886917
0.777841
0.792742
0.768900
0.787973
0.828505
0.842810
0.921488
0.868440
1.035929
0.972748
1.123548
1.034737
1.245737
1.191497
1.361966
1.362562
1.725554
6.767511
21.765828
71.594715
138.055682
271.733999
390.044451
556.380749
652.323961
708.945990
681.048036
571.027994
459.594727
293.519497
189.398527
88.964701
45.703650
18.950701
10.779500
8.778572
8.875728
10.314584
13.080835
20.100474
28.141737
42.890906
56.211948
74.357986
87.442994
96.865892
97.088814
91.231465
81.288815
63.847899
52.161813
37.721992
29.549599
22.176504
18.575788
16.077757
15.580654
15.293956
15.112758
15.153885
14.540553
14.700890
15.032887
14.494658
15.069842
14.778972
##ZVALUE=335
0.549555
0.584722
0.589490
0.455976
0.535846
0.703931
0.630617
0.439882
0.542998
0.616908
0.662804
0.604987
0.697970
0.524521
0.567436
0.727773
0.694990
0.569820
0.504851
0.709891
0.784993
0.638962
0.645518
0.592470
0.588894
0.665784
0.714660
0.708699
0.590682
0.748634
0.610948
0.680685
0.667572
0.700951
0.632405
0.854731
0.912547
0.976920
0.844598
0.789762
0.913739
0.890493
1.014471
0.930429
0.913739
1.212955
1.158714
1.423955
1.482964
3.346801
11.200905
44.340491
93.883872
202.456713
318.019986
487.335920
592.941642
675.943494
679.155588
600.578785
503.453612
342.586637
233.109593
122.740865
66.130757
24.509430
12.602806
8.690953
8.367896
8.993745
9.967685
13.607740
18.180609
28.764606
40.322542
57.345629
70.006847
83.195567
90.336800
91.762543
86.827874
74.203610
63.610673
50.467849
39.736629
28.941631
23.333430
18.543601
16.654730
15.076995
14.728904
14.381409
14.346838
14.328957
14.441609
14.409423
##ZVALUE=340
0.621676
0.584722
0.749826
0.665784
0.609756
0.629425
0.641942
0.605583
0.593662
0.699759
0.644922
0.595450
0.659823
0.623465
0.633597
0.606775
0.769496
0.574589
0.739694
0.762939
0.775456
0.882745
0.721812
0.638962
0.669956
0.648499
0.616908
0.766516
0.750422
0.754595
0.568628
0.786781
0.735521
0.763535
0.895858
0.728965
0.749826
0.909567
0.800490
0.907779
0.893474
0.967979
1.023412
0.926852
1.064539
0.971556
1.074672
1.161695
1.109838
1.114607
1.439452
1.929998
5.280972
26.336908
64.205527
156.163573
256.864429
413.693786
525.755882
635.256767
667.521954
619.222522
536.494851
393.873453
277.403593
145.800710
82.407594
35.448670
16.730428
9.156466
8.890629
9.118915
9.324551
10.709763
13.349652
19.626617
27.011633
39.317608
51.578879
68.314672
77.921748
86.512566
86.031556
81.383586
74.514747
60.941577
49.240589
37.842989
29.793978
22.729635
18.615723
15.592575
14.415979
13.765693
13.899803
13.603568
##ZVALUE=345
0.554919
0.542998
0.733733
0.621676
0.478625
0.552535
0.561476
0.612736
0.535846
0.530481
0.576973
0.598431
0.574589
0.549555
0.632405
0.567436
0.697970
0.639558
0.593662
0.624657
0.566840
0.513792
0.541806
0.458956
0.661612
0.809431
0.602603
0.718832
0.590682
0.749826
0.715852
0.661612
0.666976
0.908971
0.678897
0.731945
0.691414
0.871420
0.759959
0.742674
0.785589
0.753999
0.736713
0.833869
0.825524
0.783801
0.933409
0.892878
1.048446
1.146793
1.055598
1.276731
1.335740
1.301765
2.470613
14.055967
40.447712
110.753775
189.999938
330.079794
443.877578
573.855639
627.135634
629.635453
570.279956
433.527827
322.269797
192.050934
111.478567
46.616793
22.391677
10.529757
8.630753
8.652806
8.528829
9.289980
10.306835
13.346672
17.266870
26.556849
36.429763
50.054789
60.516000
71.457624
77.657700
80.337524
77.774525
68.624616
59.858561
47.983527
38.402677
28.027892
22.121668
17.354488
15.152693
13.730526
##ZVALUE=350
0.464916
0.404716
0.471473
0.416636
0.554919
0.739694
0.654459
0.517964
0.550747
0.608563
0.603795
0.460744
0.482798
0.612736
0.463724
0.445843
0.448823
0.655651
0.579953
0.562668
0.567436
0.626445
0.687838
0.695586
0.503659
0.649691
0.682473
0.600815
0.634789
0.681877
0.486970
0.781417
0.686646
0.556707
0.710487
0.607967
0.657439
0.695586
0.735521
0.699759
0.668764
0.891685
0.877976
0.745654
0.670552
0.870824
0.927448
0.858903
0.942945
0.891685
0.998974
0.982881
1.134872
0.997782
1.405478
1.374483
1.905560
5.689859
25.316477
60.471892
146.392584
239.107609
384.992957
491.970778
594.675541
621.648431
577.426553
494.435430
344.840884
231.735706
119.022727
67.462921
27.994514
14.118552
8.778572
8.161664
8.180737
8.480549
9.033680
9.824634
13.086796
16.313791
23.267865
30.911565
42.613745
52.634478
64.099431
70.466995
74.213743
71.136951
65.020919
56.682825
44.354796
36.283731
26.920438
21.727681
##ZVALUE=355
0.603795
0.443459
0.514984
0.524521
0.500679
0.577569
0.678897
0.581741
0.518560
0.587702
0.570416
0.496507
0.471473
0.500679
0.592470
0.645518
0.541806
0.583529
0.511408
0.656843
0.592470
0.522733
0.608563
0.684857
0.613928
0.745654
0.463724
0.551939
0.586510
0.644922
0.523925
0.549555
0.734925
0.744462
0.593662
0.645518
0.743866
0.897646
0.773668
0.854731
0.679493
0.743866
0.620484
0.763535
0.704527
0.836849
0.765920
0.879765
0.867844
0.902414
0.819564
0.920892
0.813603
0.994802
0.887513
1.025796
1.062751
1.299977
1.493692
3.570914
12.207627
46.858788
96.365809
195.076466
298.295617
445.014834
535.789728
595.510006
584.709644
496.183634
398.569703
261.536837
167.362690
77.058673
38.684607
15.053749
9.115934
7.570982
7.809997
7.976890
8.193851
8.612871
9.544492
11.764765
14.753938
21.049976
27.747750
37.703514
45.872927
57.459474
63.709617
67.086816
65.729618
60.333610
53.887963
43.643713
##ZVALUE=360
0.562668
0.623465
0.565648
0.522733
0.560880
0.453591
0.574589
0.588894
0.467896
0.548959
0.455976
0.621676
0.489950
0.515580
0.593662
0.746846
0.701547
0.547767
0.670552
0.459552
0.606775
0.709891
0.742674
0.619888
0.647902
0.460744
0.708699
0.662804
0.646710
0.477433
0.566840
0.635982
0.491738
0.527501
0.679493
0.643730
0.575781
0.620484
0.629425
0.735521
0.607967
0.779629
0.749826
0.739694
0.684857
0.682473
0.630617
0.777841
0.772476
0.765920
0.880957
0.724792
0.896454
0.969768
1.013875
0.815988
0.950694
1.103878
1.045465
1.131892
1.273751
1.930594
5.241632
24.435520
59.439540
144.077539
233.446956
368.268490
474.359989
563.787818
580.966473
525.064468
443.710685
300.882459
201.245546
100.613832
52.915812
22.601485
11.462569
7.672906
7.704496
7.456541
7.480979
7.679462
8.112788
8.859634
9.877682
13.141632
16.722679
23.253560
30.749440
40.981770
49.074888
56.690574
60.324669
60.731769
##ZVALUE=365
0.611544
0.525713
0.428557
0.536442
0.618696
0.551939
0.643730
0.487566
0.574589
0.627637
0.721812
0.667572
0.523925
0.784993
0.739694
0.615716
0.614524
0.490546
0.720620
0.663996
0.583529
0.617504
0.734925
0.681877
0.652671
0.832677
0.612736
0.641942
0.710487
0.724792
0.736713
0.689626
0.685453
0.623465
0.590682
0.920892
0.752807
0.730753
0.790954
0.851750
0.736713
0.601411
0.710487
0.747442
0.805855
0.797510
0.790954
0.717640
0.830889
0.788569
0.835657
0.807643
0.858903
0.947714
0.826716
0.866652
0.952482
0.924468
1.111627
1.082420
1.106858
1.168847
1.257658
1.452565
2.431870
13.529658
37.149787
96.157789
174.258947
310.726762
409.470797
513.518453
554.308891
536.297560
465.638638
339.453816
240.522027
134.126544
74.690580
29.336810
14.105439
7.562637
6.881952
6.937981
6.849766
7.118583
7.125735
7.298589
7.799864
8.917451
10.895729
14.838576
19.330978
27.739406
34.556985
43.947697
##ZVALUE=370
0.460744
0.531673
0.512600
0.475645
0.612736
0.568628
0.572801
0.499487
0.519753
0.554919
0.556707
0.474453
0.469685
0.596642
0.629425
0.568628
0.720620
0.524521
0.422597
0.444651
0.547767
0.501871
0.638962
0.624657
0.604987
0.646710
0.501871
0.586510
0.559688
0.418425
0.526905
0.641942
0.663996
0.620484
0.660419
0.643730
0.658631
0.735521
0.719428
0.732541
0.585914
0.672936
0.650883
0.734925
0.656843
0.638962
0.653863
0.653863
0.769496
0.739694
0.847578
0.831485
0.698566
0.695586
0.803471
0.705719
0.658631
0.839829
0.873804
0.735521
0.887513
1.014471
0.980496
1.007915
1.124740
1.274943
1.555681
6.582737
22.436976
72.644949
133.944750
243.608952
347.604752
473.418832
528.586507
533.190966
483.310819
375.738740
274.770856
153.651834
87.948442
36.475658
18.379688
8.839965
6.583929
6.313920
6.305575
6.517768
6.468892
6.582737
6.760955
7.119775
7.921457
9.884834
12.489557
17.700791
##ZVALUE=375
0.475645
0.519753
0.411868
0.623465
0.468493
0.424981
0.627637
0.503659
0.475645
0.467896
0.534654
0.511408
0.431538
0.432730
0.565648
0.552535
0.563860
0.464916
0.540614
0.544786
0.471473
0.548959
0.570416
0.582933
0.528693
0.619888
0.610948
0.606775
0.491738
0.508428
0.636578
0.520945
0.643730
0.560880
0.546575
0.418425
0.481606
0.586510
0.526905
0.697970
0.680685
0.624657
0.834465
0.654459
0.556707
0.510812
0.717640
0.512600
0.700951
0.709891
0.602603
0.778437
0.764728
0.655651
0.678897
0.681877
0.717640
0.627637
0.863671
0.747442
0.754595
0.676513
0.863671
0.902414
0.941753
1.027584
1.047850
1.149774
1.410842
2.867579
16.296506
40.326715
103.442669
180.945396
310.938954
404.969454
499.030948
532.601476
500.164628
427.735448
300.855637
211.735964
119.777918
68.643689
28.522611
13.786554
6.841421
6.169677
5.701780
5.838871
5.767941
6.008744
5.916953
6.211996
6.403923
7.235408
##ZVALUE=380
0.597835
0.482798
0.500679
0.597835
0.454783
0.382662
0.514984
0.493526
0.513792
0.593662
0.627637
0.524521
0.577569
0.571609
0.597835
0.649691
0.470877
0.484586
0.645518
0.386834
0.311732
0.460744
0.497699
0.469685
0.589490
0.597835
0.502467
0.576973
0.579953
0.653863
0.589490
0.532866
0.667572
0.584722
0.689626
0.628829
0.587702
0.549555
0.685453
0.641942
0.634789
0.687838
0.619888
0.519753
0.658631
0.685453
0.673532
0.624657
0.688434
0.674725
0.595450
0.575781
0.689626
0.713468
0.804663
0.633597
0.635982
0.654459
0.831485
0.744462
0.728965
0.782609
0.634789
0.774860
0.826716
0.929832
0.828505
1.036525
0.997782
1.093745
1.189709
2.027750
6.835461
30.939579
71.588755
161.319971
252.674818
379.181504
462.702513
524.974465
518.354774
443.558693
356.703997
238.102674
158.849955
78.492761
43.384433
18.722415
9.297729
5.804896
5.432963
5.342960
5.441904
5.667806
5.561709
5.598664
##ZVALUE=385
0.591874
0.530481
0.503659
0.710487
0.394583
0.526905
0.527501
0.433922
0.488758
0.556707
0.520945
0.423789
0.636578
0.493526
0.556707
0.501871
0.505447
0.451803
0.462532
0.664592
0.580549
0.521541
0.533462
0.582933
0.594854
0.512600
0.527501
0.487566
0.485778
0.588894
0.563860
0.547767
0.523925
0.820756
0.593662
0.725985
0.734925
0.457764
0.578761
0.634789
0.552535
0.518560
0.600815
0.560880
0.517964
0.645518
0.674725
0.673532
0.739694
0.589490
0.563860
0.561476
0.659823
0.566840
0.679493
0.709891
0.797510
0.668764
0.620484
0.651479
0.844598
0.769496
0.677705
0.621676
0.907779
0.767708
0.777841
0.858903
1.074672
0.875592
1.051426
1.138449
1.068711
1.493692
3.299713
16.931891
43.917894
109.148622
187.302828
317.041874
411.825776
494.555831
511.096716
477.762818
413.981676
301.026702
212.555528
116.028786
66.248775
28.809905
13.147593
5.948544
5.063415
4.919767
5.071759
4.993677
##ZVALUE=390
0.493526
0.533462
0.494719
0.500679
0.450611
0.466704
0.427961
0.514984
0.442863
0.495911
0.565648
0.592470
0.496507
0.507832
0.520945
0.564456
0.470877
0.416636
0.516772
0.440478
0.642538
0.600815
0.533462
0.461936
0.580549
0.510812
0.467896
0.417829
0.500679
0.596642
0.468493
0.563860
0.691414
0.613928
0.497699
0.575781
0.568628
0.540614
0.560880
0.514984
0.602603
0.631809
0.592470
0.680685
0.582933
0.743866
0.529885
0.704527
0.560880
0.727773
0.567436
0.647902
0.513792
0.668764
0.576973
0.629425
0.609756
0.673532
0.644922
0.676513
0.550747
0.601411
0.675917
0.741482
0.627637
0.566840
0.865459
0.827909
0.752807
0.922680
1.031756
0.884533
1.032948
1.028776
1.158714
1.113415
1.872778
8.840561
26.794672
81.573725
149.429440
269.628763
363.629460
462.882519
504.674911
502.664447
456.291437
352.383852
265.740752
161.646008
94.038844
40.116906
20.177960
8.101463
5.328655
4.651546
##ZVALUE=395
0.511408
0.489950
0.450611
0.497699
0.655651
0.447631
0.599623
0.553727
0.543594
0.441670
0.516772
0.552535
0.643730
0.512600
0.465512
0.578761
0.464916
0.547767
0.534654
0.398755
0.403523
0.615716
0.534654
0.596642
0.565648
0.659823
0.498891
0.515580
0.550747
0.580549
0.592470
0.547767
0.434518
0.598431
0.591874
0.615716
0.671744
0.571609
0.566840
0.747442
0.596642
0.612736
0.687838
0.600815
0.527501
0.637770
0.666976
0.447631
0.585914
0.596642
0.641942
0.640750
0.666976
0.654459
0.560880
0.673532
0.636578
0.666976
0.540614
0.633597
0.672936
0.753999
0.544786
0.716448
0.614524
0.852942
0.862479
0.720620
0.824928
0.861883
0.812411
0.939965
1.021624
1.033545
1.113415
1.106858
0.971556
1.185536
1.263618
4.680753
17.937422
61.952472
115.393996
208.882689
301.313996
422.733426
489.750504
524.208546
500.996709
415.748954
320.764780
196.115971
121.267438
53.664446
26.469827
10.518432
##ZVALUE=400
0.552535
0.524521
0.648499
0.485778
0.460744
0.519753
0.378489
0.517964
0.424981
0.336766
0.427961
0.521541
0.372529
0.570416
0.539422
0.528693
0.380874
0.565648
0.556707
0.590682
0.600815
0.470877
0.429749
0.589490
0.499487
0.434518
0.627637
0.610948
0.586510
0.607967
0.633597
0.593662
0.536442
0.772476
0.819564
0.622869
0.608563
0.569820
0.572801
0.663996
0.629425
0.526905
0.593662
0.599623
0.538826
0.578761
0.625849
0.546575
0.477433
0.561476
0.587702
0.618696
0.542998
0.656843
0.654459
0.637770
0.720620
0.594854
0.580549
0.484586
0.489950
0.615716
0.687838
0.645518
0.693798
0.757575
0.755787
0.804663
0.753999
0.846982
0.798702
0.917912
0.852942
0.838637
0.972748
0.888705
0.806451
0.985861
1.027584
0.996590
1.063943
2.576709
9.034872
36.350489
76.492429
163.461566
251.683593
374.411941
450.196862
508.372784
505.931973
434.784889
356.244445
242.261887
159.581900
80.164671
##END
