##TITLE=FQP00601
##FORMAT=SPECTACLE-ASCII V-1.2
##DATA TYPE=ULTRAVIOLET SPECTRUM
##SECOND TYPE=ULTRAVIOLET SPECTRUM
##DATE=01/11/18
##TIME=19:18:57
##SPECTROMETER/DATA SYSTEM=SPECTACLE
##XUNITS=NM EM
##YUNITS=ENERGY
##YFACTOR=1
##FIRSTX=220
##LASTX=410
##NPOINTS=96
##3DDATA=Equidistant
##ZUNITS=NM EX
##FIRSTZ=210
##LASTZ=400
##ZPOINTS=39
##XYDATA=(Y..Y)
##ZVALUE=210
2.920628
2.756715
2.518892
2.479553
2.635717
3.176928
2.781749
2.959967
3.328919
2.928972
3.151894
2.839565
3.783703
2.740622
3.015995
3.974438
3.019571
3.932714
4.012585
4.406571
4.341602
4.787445
4.797578
5.018711
4.746914
5.688667
5.263686
5.953908
6.200671
6.694794
6.199479
6.467700
7.416606
7.546544
7.051826
7.574558
6.830692
7.186532
7.935762
7.403493
7.678866
7.226467
7.313490
7.950664
8.011460
6.193519
7.669926
6.921887
7.725954
7.356405
8.009672
6.840825
7.243752
7.457733
7.232428
7.577538
8.241534
8.606911
7.754564
9.145737
7.509589
6.626844
8.355975
6.886721
8.622408
9.056926
8.103848
8.945465
9.773970
11.890531
13.578534
18.105507
18.821955
20.407438
27.536750
29.090643
31.804442
32.603741
34.080744
34.036636
33.379793
29.920936
26.286840
21.519661
16.716719
13.474822
11.084676
9.589791
8.564591
7.445812
7.050633
7.092953
7.584691
8.446574
8.155704
7.633567
##ZVALUE=215
8.746982
8.570552
7.373691
5.769730
5.346537
6.223917
5.337596
5.171895
6.207824
6.632805
5.922914
5.179644
4.649758
3.946424
3.787875
3.374815
3.643632
3.500581
3.613830
3.472567
3.980994
4.087687
4.200935
4.540682
5.267859
5.609989
5.203485
5.637407
6.632805
7.588863
7.503629
7.754564
8.548498
7.624626
7.914901
8.211732
7.925630
9.450912
8.236766
8.413792
7.959604
7.496476
7.788539
8.012652
7.823706
7.721782
8.773804
7.415414
7.394552
7.537603
6.784797
7.728934
7.163882
7.911921
7.770658
7.080436
7.255673
7.713437
8.006692
6.739497
7.840991
7.745624
7.782578
8.326769
8.433461
7.618666
8.874536
8.911490
9.235740
10.792613
12.999773
13.509989
16.968846
19.120574
22.651553
23.722649
26.113987
28.542876
28.818846
29.499531
27.461648
24.002790
22.741556
19.557476
15.825629
12.955666
11.846423
9.916425
8.124709
8.080602
8.409619
7.720590
6.615520
8.566976
7.943511
7.625818
##ZVALUE=220
29.337406
30.628443
30.953884
31.365752
28.025508
23.410916
20.580888
14.952421
13.156533
12.508631
12.137890
13.617873
13.574958
10.786653
9.173751
8.372664
6.221533
5.985498
4.869699
4.485846
5.007982
4.355907
4.827976
5.413890
5.505681
6.236434
5.862713
7.220507
8.407831
9.550452
9.086728
9.384751
11.900663
11.596680
11.912584
11.958480
11.507869
11.679530
11.186600
12.263656
11.346936
10.885596
11.410713
11.065602
11.064410
9.849668
10.080934
9.703636
10.180473
10.410547
10.185838
10.220408
9.168983
9.035468
8.741617
9.948611
10.319948
8.799434
9.424686
8.943677
9.148717
8.356571
10.211468
10.511875
9.225607
9.371638
10.179877
11.418462
13.239980
13.341904
14.892817
18.153787
19.582510
23.053885
26.071668
27.234554
30.526519
31.954646
33.757687
34.860969
33.304691
32.179952
29.850602
26.038885
21.640658
17.866492
13.423562
12.238622
10.917783
10.504723
11.210442
11.370778
10.533929
11.114478
10.063648
10.092854
##ZVALUE=225
49.112439
55.546761
75.347424
94.278455
105.592608
100.364685
94.325542
75.008869
53.909421
39.085746
29.295683
24.575591
27.088523
27.004480
28.227568
25.375485
21.447539
18.714666
14.224648
10.642409
9.285808
7.077456
6.155968
6.656647
7.534623
8.666515
9.649992
9.142756
11.062622
11.869669
12.191534
14.621615
13.191700
15.990734
14.906526
14.366508
16.293526
16.132593
17.470717
14.963746
14.852881
15.327930
14.085770
14.397502
14.000535
14.921427
11.893511
13.810992
14.097691
13.961792
14.429688
12.444854
13.129711
14.475584
13.288856
11.922717
14.915466
14.298558
14.269948
14.394522
12.970567
13.682842
13.610721
13.945699
14.185905
14.064908
15.549660
16.517639
17.494559
19.880533
21.799803
22.790432
25.817752
32.321811
33.484697
37.020445
38.011670
41.425824
40.071607
38.960576
35.320520
34.735799
32.991767
28.466582
24.379492
22.739768
20.388961
17.556548
15.570521
16.246438
15.636683
14.411807
14.242530
14.649630
13.593435
14.017820
##ZVALUE=230
69.899559
73.395967
136.255622
204.909444
293.305516
351.140499
402.852893
389.846563
324.645638
259.274840
160.083771
99.256635
69.187880
47.231913
46.703815
52.549839
53.928494
50.728917
46.955943
38.620830
31.020641
22.795796
14.572740
11.570454
9.617805
9.949803
11.070967
10.294914
11.821985
13.206601
13.663769
14.056563
14.259815
15.868545
15.771985
15.189648
16.856790
17.281771
16.682744
18.310547
16.675591
15.491843
15.661716
15.573502
16.529560
13.970733
14.665723
14.758706
14.402866
15.102625
15.479922
13.814569
15.312433
14.023781
14.037490
14.823675
15.314817
15.639663
14.973879
15.559793
16.781688
16.115904
16.015768
16.753674
17.861724
17.078519
17.391443
19.612908
20.662546
24.424791
27.251840
28.412938
32.598972
34.975410
37.411451
38.870573
38.680434
41.104555
40.046573
39.571524
37.242770
34.516454
31.495690
29.985905
27.299523
24.465919
22.314787
21.842718
22.538900
20.556450
19.356608
20.226836
20.540953
20.264983
20.029545
21.214485
##ZVALUE=235
19.541979
23.125410
47.675967
127.442479
213.638544
346.107483
454.979539
580.541492
627.464652
609.301925
531.340837
415.564775
267.144442
183.272958
117.415786
90.079904
80.806613
83.540678
88.869929
88.542700
83.036423
70.179701
55.915713
38.646460
27.533770
18.540621
14.136434
10.299683
11.177659
11.573434
11.085868
12.394786
11.598468
14.031529
11.279583
12.289882
12.682676
12.469888
13.790727
13.453960
12.405515
11.913776
12.965798
13.740659
12.298822
13.196468
12.681484
13.870597
13.851523
12.153983
13.832450
12.836456
15.205741
13.394952
13.244748
15.040636
15.372634
13.200641
15.676618
14.187694
15.474558
16.719699
16.932487
17.606616
16.760826
17.144680
20.155907
20.036697
21.137595
24.894476
26.149750
26.845932
30.619502
31.572580
35.852790
36.388636
36.495924
38.364530
39.067864
36.877990
34.407973
34.339428
34.049749
30.018687
29.707551
28.819442
28.267503
27.883649
26.856661
27.197599
25.742650
27.766824
27.499795
26.496649
27.551651
26.018620
##ZVALUE=240
2.295971
2.429485
9.757876
24.126768
71.589947
140.350461
290.321708
444.009900
656.245947
793.443918
885.398984
857.709646
787.873864
605.171919
455.626845
283.581614
199.559927
129.189491
109.868646
110.081434
117.591619
122.337937
120.144486
108.832717
87.589622
67.143440
50.556660
37.628412
21.718740
14.025569
12.386441
9.815693
10.610819
11.002421
10.172725
11.130571
9.861588
11.097789
11.753440
12.191534
11.193752
12.588501
12.143850
12.164712
12.187958
11.923909
11.558533
11.792779
13.135672
13.093948
11.760592
13.304949
12.593865
12.570620
13.246536
12.746453
13.699532
14.147758
14.807582
14.532804
14.287829
15.733838
16.575456
16.627908
16.628504
17.463565
19.000769
20.873547
22.433996
23.472905
25.299788
26.511550
28.927922
32.119751
31.385422
31.268001
31.972528
32.452941
33.073425
32.385588
33.058524
32.320619
34.652948
32.711625
33.701658
30.559897
33.541918
32.012463
32.570958
32.454729
31.073689
30.200481
30.453801
30.685663
31.094551
30.307770
##ZVALUE=245
2.401471
1.892447
2.801418
2.657771
6.199479
17.822981
58.507919
121.877789
272.314548
400.504470
585.368872
702.320933
769.381523
766.964555
714.406967
577.580929
452.997684
293.756723
204.769969
127.221942
102.745891
101.136565
116.919875
130.251646
135.606527
133.471489
117.698908
98.655820
74.559450
53.171515
38.926601
23.941994
15.582442
10.360479
10.105968
9.008646
9.534955
9.674430
9.701848
9.728670
9.816885
9.537935
10.161996
10.637641
11.256933
10.896921
10.288954
9.878874
10.299683
9.880662
10.042787
10.971427
11.207461
11.005998
10.954738
11.729598
11.608601
10.557771
12.019873
11.432767
11.732578
12.093782
13.030767
13.206601
14.911890
15.550852
16.845465
17.029643
18.466711
19.866824
20.362735
21.860600
23.421645
24.447441
26.783943
27.284622
27.036667
28.589964
29.703975
30.532479
30.836463
30.477643
29.895902
27.751923
30.798912
28.321743
30.455589
32.355785
31.095743
30.925870
30.995607
31.644702
31.860471
30.960441
30.354857
29.962659
##ZVALUE=250
1.573563
1.938939
2.281666
2.030730
1.839995
2.134442
2.757907
22.866726
26.241541
64.994693
140.030980
290.889740
427.355766
591.185689
695.181489
725.083947
690.041780
585.716963
463.781953
352.909565
204.457641
99.388957
99.104643
92.670918
106.037855
133.234859
140.772462
141.225457
140.485764
125.370622
91.622472
79.593658
51.862001
39.062500
24.651885
16.860962
10.521412
10.537505
11.116862
10.965466
10.397434
11.225939
11.522770
10.535717
10.990500
10.483861
10.899901
10.563731
10.616779
10.569692
10.833740
11.426806
11.314750
10.435581
10.607839
11.108518
11.008978
11.776686
11.082888
10.940433
10.782480
11.598468
11.271834
12.383461
12.780428
13.600588
14.955997
15.156865
16.550422
17.897487
20.109415
20.884871
23.201704
23.618937
23.702979
25.049448
24.160743
24.468899
26.604533
27.303696
25.976896
26.887655
26.253462
28.865933
27.386546
28.630495
28.714538
27.187467
29.424429
30.033588
29.833913
30.472875
29.380918
28.041601
30.151606
29.586554
##ZVALUE=255
1.805425
1.602769
1.682639
1.507998
1.622438
1.511574
1.567602
2.310872
2.150536
4.321933
14.594793
54.998994
116.733909
280.010700
445.503592
701.440573
869.727731
1010.991931
1015.681624
946.621895
809.068680
637.810826
394.397974
247.176886
126.542449
95.358491
93.460679
108.534694
129.742622
147.218704
155.270696
152.516961
134.603977
114.641786
84.941983
64.751506
40.823817
28.013587
18.984675
15.538931
13.709664
13.426542
12.778640
12.917519
13.484955
12.950897
12.645721
12.368560
11.924505
11.852980
11.753440
11.475682
11.917949
11.690855
10.515451
10.510683
10.635853
11.552572
11.046529
11.835694
11.443496
12.142658
11.733770
12.591481
12.352467
13.561845
13.325810
13.686419
14.133453
15.701652
17.141700
20.009875
20.231605
22.147894
22.398829
22.538900
23.368001
22.709966
23.557544
22.795796
24.898648
25.682449
25.457740
24.686456
26.601553
25.599599
27.190447
27.357936
26.741624
27.374625
28.252602
27.298927
27.425885
28.143525
28.991699
29.008985
##ZVALUE=260
1.668930
1.631975
1.595616
1.623631
1.602769
1.594424
1.877546
1.859665
2.099872
1.895428
2.641678
2.619624
10.914803
28.127432
88.177919
203.288794
497.084856
766.204000
1015.681624
1015.681624
1015.681624
1015.681624
1015.681624
850.251913
565.959811
301.041603
184.847713
103.126764
83.201528
94.232559
111.969709
137.832761
154.879689
165.071487
162.408948
143.208504
123.155713
92.574954
70.197582
46.604872
33.315420
22.551417
18.478632
16.568899
15.635490
15.324950
14.552474
14.328957
14.332533
13.696551
13.022423
13.201833
12.400746
13.021827
12.896657
11.522770
11.850595
11.715889
11.709929
11.548996
11.616945
11.706948
12.061000
12.057424
12.995601
12.552738
13.210773
13.307929
14.642477
16.198754
17.173886
18.875599
18.232465
19.694567
21.319985
21.345615
20.848513
22.928715
22.395849
23.724437
23.296475
24.586916
24.825931
24.707913
24.456978
25.282502
26.450753
25.596619
25.715828
26.125908
27.288795
26.179552
27.386546
26.952624
25.562644
26.750565
##ZVALUE=265
1.221895
1.260638
1.378655
1.339912
1.483560
1.448989
1.707673
1.419783
1.724958
1.794696
1.741648
2.351999
2.341866
2.925992
15.837550
70.888996
136.995912
272.756815
420.960784
695.507526
892.141461
1015.681624
1015.681624
1015.681624
999.782681
822.491646
576.483011
386.297703
211.177468
130.479932
88.394880
76.684952
91.497898
123.438835
146.023631
164.802670
174.338818
161.562562
148.367882
120.629668
97.313523
69.080591
48.706532
33.235550
24.624467
18.193722
16.182661
15.129447
14.657974
14.233589
13.539791
13.239980
12.800694
13.028979
11.908412
11.693835
11.376739
11.280775
11.040568
11.390448
11.469722
11.483431
11.561513
12.013912
11.533499
12.239814
12.058616
12.762547
13.217926
14.171600
15.397668
15.718937
16.187429
17.895699
18.320680
19.161701
19.543767
18.815994
19.648671
21.022558
20.594001
21.397471
21.259785
22.638440
22.213459
23.758411
24.198890
23.366809
23.180842
23.840666
23.881793
25.241971
24.042726
24.823546
24.855733
25.023818
##ZVALUE=270
1.043677
0.822544
1.014471
1.302958
1.059771
1.229644
1.115799
1.210570
1.118779
1.345873
1.297593
1.444817
1.298785
1.444817
1.627803
2.018809
2.089739
7.283688
22.825599
74.509978
152.007937
267.483592
476.504564
625.362992
783.644915
832.420588
808.254480
726.351738
556.069016
418.571830
321.163535
164.639950
98.834634
66.447854
70.038438
96.897483
121.776462
147.797465
164.513588
168.901682
165.307522
147.498846
123.987794
92.360973
70.710778
45.590997
33.405423
22.457838
17.071962
14.867783
13.385415
13.686419
12.609959
11.918545
11.583567
11.688471
11.257529
11.690855
10.874867
10.717511
11.112690
10.901690
10.777712
11.310577
11.305809
11.296868
12.080669
12.805462
12.686849
14.007688
13.494492
15.332699
15.629530
15.851855
17.004609
17.141700
17.881989
18.599629
19.207597
19.030571
19.634962
19.862652
20.725727
21.806955
20.565987
21.895766
21.814704
22.954941
22.059679
23.443699
22.665858
22.040606
22.713542
23.064613
22.628903
23.991466
##ZVALUE=275
1.170635
0.974536
1.000762
1.008511
1.073480
1.014471
0.864863
1.130700
1.179576
1.146793
1.112819
1.029968
1.367927
1.202822
1.467466
1.492500
1.639724
1.583695
1.719594
3.825426
13.876557
38.703680
119.691491
224.519968
424.662828
584.231615
775.249600
881.140828
944.339037
892.027020
774.365664
564.336777
391.453505
207.500458
122.595429
67.157745
55.536628
68.468451
89.607835
119.370818
142.162442
160.369873
168.966651
161.754489
145.919919
116.750002
93.388557
67.363977
49.076676
30.622482
21.504760
15.936494
13.205409
12.154579
11.594892
11.046529
11.698604
11.921525
10.859966
11.248589
10.539889
11.292696
11.402965
11.570454
11.770725
11.382699
12.624860
12.266636
12.953877
13.624430
14.498830
14.758706
15.768409
16.116500
17.375946
17.554760
17.519593
18.182993
18.965602
19.947886
20.077825
19.918680
20.030737
20.637512
19.909739
20.321608
20.529628
20.840764
22.161603
22.100806
22.215843
21.305680
21.950603
21.649599
21.853447
22.493601
##ZVALUE=280
1.022816
1.153946
0.997782
0.955462
0.998974
1.014471
1.112819
1.059771
0.975728
1.188517
1.239777
0.955462
1.189709
1.138449
1.361966
1.307726
1.663566
1.482964
1.681447
1.803637
1.534820
2.474785
10.726452
32.393932
98.806620
178.979635
339.138508
486.169457
692.729950
812.401772
901.568532
898.026824
819.196701
632.406473
467.418432
266.449451
158.450007
77.366829
49.622655
47.933459
61.057806
88.852644
113.878846
141.629577
154.890418
160.149932
155.850649
135.155916
115.804672
86.513758
65.201521
41.896701
29.838681
19.133687
13.843775
11.374950
10.798573
10.135770
10.669827
10.540485
10.894537
11.131763
11.342764
11.441708
12.376904
12.336969
12.659431
12.545586
13.642907
14.379621
14.356971
15.212893
15.708804
16.208887
16.850829
17.786622
17.635822
18.509626
18.689632
19.393563
19.235611
19.602776
19.789934
20.405650
20.506978
21.382570
20.307899
20.642877
20.689964
20.818710
21.480918
22.009611
21.252632
21.070838
21.764636
21.896958
##ZVALUE=285
0.796914
0.875592
1.017451
0.878572
0.957847
1.103878
0.995994
1.085997
0.789762
1.024604
1.181960
1.047850
0.954866
1.144409
0.954866
1.112819
1.273751
1.113415
1.443624
1.511574
1.633763
1.666546
1.714826
1.847744
5.354881
16.590953
55.300593
113.543868
243.546963
381.624699
544.396639
782.174468
949.684978
1015.681624
1015.681624
999.100804
827.989578
538.715720
334.869623
146.324635
69.310665
35.932660
37.831664
57.095885
78.637004
111.208558
129.840970
146.689415
152.346492
148.135424
136.329532
112.559795
90.169907
63.688755
44.729710
27.409792
19.516945
13.859868
11.696815
10.411739
10.262728
10.658503
11.041760
11.658669
11.910796
12.131929
12.527704
13.323426
14.170408
14.715791
15.041828
16.165972
16.367435
16.907454
17.656684
17.787814
18.227696
18.742681
18.354654
19.217730
18.876791
19.292831
19.242764
20.235777
20.525455
20.859838
21.318793
21.336675
21.117926
21.162629
21.336675
21.108985
20.495653
21.323562
21.447539
20.783544
##ZVALUE=290
0.777841
0.899434
1.036525
0.776649
0.818968
1.008511
0.857711
0.898838
0.811815
0.798702
1.023412
1.083612
0.957847
1.099706
0.919700
1.237988
1.094937
1.252890
1.201630
1.280904
1.198649
1.396537
1.390576
1.428723
1.745820
1.830459
2.558827
6.192923
28.123856
67.646503
136.035681
287.526846
443.899632
681.818724
848.148465
1014.829874
1015.681624
1015.681624
976.224542
731.985569
510.500669
259.572864
132.845640
45.679808
27.396679
36.872625
51.716566
75.295568
96.011758
122.947693
139.143467
148.502588
146.316886
130.904913
112.168789
83.889961
63.211918
42.292476
29.451847
18.652678
14.642477
12.159944
11.920929
11.614561
11.608601
12.801886
12.556911
12.920499
14.015436
14.816523
15.192628
15.902519
16.970634
17.158985
17.889738
18.328428
18.586516
19.499660
19.377470
19.677877
19.727945
20.281672
20.430684
20.053983
20.874739
21.154881
20.946860
20.668507
20.577908
21.028519
21.012425
19.781590
20.224452
20.379424
20.969510
20.563602
##ZVALUE=295
0.751615
0.983477
0.933409
0.828505
0.861883
0.903606
0.708699
0.912547
0.966787
0.775456
0.758767
1.020432
1.020432
0.923872
0.974536
1.229644
1.012683
1.135468
1.005530
1.008511
1.264811
1.276731
1.176000
1.347661
1.380444
1.487732
1.524687
1.577735
1.995564
3.208518
10.489821
42.943954
96.195936
225.851536
364.668965
584.960580
732.200742
909.223557
1005.093455
1015.681624
967.378020
805.445910
615.428686
353.147984
201.362967
71.128607
31.456947
22.136569
30.977726
49.690604
67.360997
94.245672
112.717748
132.587552
141.427517
137.286782
125.773549
105.095506
84.086657
59.686899
43.982863
28.651953
20.260811
14.796853
13.606548
12.925863
13.259649
13.330579
13.878942
15.026927
15.269518
15.928745
16.870499
17.528534
18.513799
18.314719
18.935800
19.409657
19.574761
20.140409
20.095706
20.263791
20.439625
20.830631
20.809770
21.446943
21.173954
21.050572
20.906925
21.377802
21.451712
21.095872
20.996928
20.740628
20.779967
20.575523
##ZVALUE=300
0.762939
0.782609
0.722408
0.756979
0.982881
0.855923
0.832677
0.939965
0.700951
0.720620
0.785589
0.843406
0.742674
0.778437
0.761747
0.928640
0.925660
0.897646
0.973940
1.031756
1.006722
1.120567
0.915527
1.086593
1.178980
1.163483
1.156926
1.329780
1.512766
1.597404
1.633763
1.878738
5.239844
25.898814
63.498616
162.821412
275.858641
469.497442
623.174906
784.791708
866.508484
884.881616
832.606554
698.543787
571.884513
377.535820
247.451663
126.574636
63.271523
22.356510
18.448830
28.762817
41.198730
63.738823
83.697438
110.077858
123.729706
134.015679
134.128928
120.894909
105.405450
80.116987
62.819719
43.396950
32.209754
21.370649
17.879605
14.688969
14.945865
14.877915
14.853477
16.074777
16.634464
17.536879
18.025637
18.419623
18.503666
19.323826
19.754767
20.367503
20.855665
20.897985
21.102428
21.061897
21.847486
21.640658
21.864772
21.753907
21.771789
20.912886
21.332502
20.885468
21.285415
20.780563
20.923615
20.662546
##ZVALUE=305
0.784993
0.706911
0.693798
0.722408
0.645518
0.627637
0.870824
0.668764
0.708699
0.823736
0.777841
0.870824
0.800490
0.976920
0.941753
0.900626
0.852942
0.843406
0.795722
0.877976
0.922680
0.971556
1.099706
1.170635
0.876784
1.000762
1.093745
1.133680
0.965595
1.218915
1.174808
1.410842
1.498461
1.801848
2.785921
15.883446
46.062469
129.293799
229.982734
412.404537
562.328696
735.504627
818.068981
831.421018
770.459771
605.434775
475.185513
304.490924
191.631913
90.255737
47.034621
18.960834
14.061928
17.188787
25.811791
42.750835
59.663653
82.744956
101.669431
120.391846
126.373768
126.396418
117.776990
99.810958
81.139803
59.429407
45.169592
30.712485
24.098754
17.951727
16.548634
16.284585
17.115474
16.939640
17.863512
18.605590
19.018650
19.368529
20.224452
20.248890
21.011829
21.487474
21.779537
22.399426
22.243857
22.578835
22.400618
22.401810
22.533536
21.726489
21.355748
21.555424
21.501780
21.264553
21.680593
21.740794
##ZVALUE=310
0.794530
0.823736
0.823736
0.796914
0.861883
0.839829
0.898838
0.849962
0.886917
0.781417
1.042485
0.953674
0.822544
0.945926
1.064539
0.963807
0.888705
0.883937
0.979900
0.939965
1.018643
0.983477
1.105666
1.131892
1.069903
1.121759
0.940561
1.225471
1.122952
1.267791
1.454949
1.305938
1.361966
1.463890
1.615882
1.757741
2.077818
6.985664
22.732615
83.841681
171.125531
339.316726
498.818755
695.461631
809.111595
860.351920
832.309723
709.146857
576.671958
381.112695
250.679851
127.927661
68.609715
27.415752
14.325976
12.324452
16.076565
24.214983
34.915805
55.362582
72.155595
95.871687
109.352469
121.132731
121.775866
112.689734
101.212859
81.132650
64.253807
44.952631
34.361482
26.290417
21.489859
18.663406
18.616915
18.770695
19.525886
19.414425
20.695925
21.272898
21.624565
22.184849
22.287965
22.780895
22.335649
22.882819
22.977591
23.688674
22.680759
22.571683
22.355914
22.723675
22.404790
22.067428
22.340417
22.173524
##ZVALUE=315
0.635982
0.589490
0.623465
0.633597
0.795722
0.789762
0.717640
0.644922
0.622869
0.728965
0.739694
0.787973
0.684857
0.651479
0.774860
0.827909
0.721812
0.796914
0.760555
0.701547
0.736713
0.550747
0.923872
0.748634
0.851750
0.960827
0.933409
0.946522
0.976920
0.942945
0.999570
0.913739
1.100898
1.153946
1.183748
1.344681
1.192689
1.465678
1.631975
3.063679
10.977983
46.442747
100.297928
224.464536
361.290574
563.739538
686.639547
793.089867
816.789865
744.068027
641.041994
456.510782
319.770575
171.510577
93.470812
36.017895
17.311573
10.624528
11.178851
15.991926
21.703839
35.710931
49.143434
71.335435
87.208748
106.068850
115.827918
117.690563
110.991597
94.629526
79.341531
62.103868
47.688484
34.229755
27.295947
22.343993
20.723939
20.240545
20.663738
21.053553
20.879507
21.861792
22.638440
22.803545
22.754669
23.093820
22.688508
23.085475
23.217797
22.795796
22.633672
22.620559
22.153854
22.470951
22.505522
22.102594
##ZVALUE=320
0.587702
0.582933
0.590682
0.770688
0.702739
0.744462
0.560880
0.652671
0.911951
0.713468
0.668764
0.797510
0.696778
0.662804
0.800490
0.585914
0.618696
0.775456
0.668764
0.832677
0.587702
0.811815
0.730753
0.716448
0.767708
0.873804
0.877976
1.035929
0.863671
1.062751
0.835657
1.036525
0.804663
1.035929
1.051426
1.024604
1.248717
1.065731
1.245737
1.378655
1.546741
1.891851
5.021691
28.017759
68.187714
170.942545
278.294683
454.533696
593.557954
744.522810
798.666477
781.121850
698.713660
533.385873
389.799476
216.388702
124.261975
54.399967
26.610494
12.346506
9.991527
11.808872
14.499426
21.630526
31.162500
49.006939
64.119697
84.235668
97.774863
111.270547
111.445785
106.095672
96.001625
75.379610
61.889887
46.058893
36.622882
27.945638
24.415851
22.193789
22.118688
22.218823
22.503734
22.584796
22.311807
22.735000
23.115873
23.142695
23.537874
23.430586
22.371411
22.605658
22.909641
22.340417
22.632480
22.665858
##ZVALUE=325
0.709891
0.646710
0.765920
0.543594
0.667572
0.660419
0.715852
0.643730
0.749826
0.574589
0.590682
0.704527
0.786781
0.684857
0.763535
0.620484
0.675917
0.644922
0.848770
0.767708
0.581741
0.812411
0.816584
0.982881
0.901818
0.658631
0.685453
0.864863
0.780821
0.838637
0.745654
0.813603
0.993609
0.964999
1.039505
0.941753
0.973940
1.025796
1.123548
1.223683
1.180768
1.354814
1.380444
1.472831
2.899766
16.422868
43.703914
115.682483
206.543803
382.847786
521.899462
683.152676
762.768984
779.624581
718.008876
562.795997
426.636934
261.098742
158.599615
70.303679
35.578609
14.248490
10.555983
10.135770
11.400580
15.264750
21.670461
32.217503
45.764446
65.207481
80.838799
96.586943
104.420781
106.585622
101.981759
88.459849
75.229406
58.583617
46.843886
35.099983
29.066801
24.803877
23.171902
22.616982
22.495985
23.125410
22.898912
22.869706
22.463799
23.203492
22.710562
22.839904
22.529960
22.336841
22.509694
22.626519
##ZVALUE=330
0.730753
0.595450
0.583529
0.553727
0.642538
0.754595
0.706911
0.589490
0.627637
0.529885
0.642538
0.637770
0.769496
0.698566
0.638962
0.721812
0.783801
0.959635
0.760555
0.650883
0.763535
0.692606
0.669956
0.738502
0.759959
0.702739
0.750422
0.817776
0.752807
0.683665
0.917912
0.838637
0.864863
1.018643
0.941753
1.032948
0.752807
0.974536
1.163483
1.012683
1.063943
1.080632
1.182556
1.230836
1.319647
1.438856
1.746416
6.998777
22.245646
74.678659
146.673918
294.948816
429.366827
612.304807
718.245506
778.365731
739.381909
618.295670
491.799712
315.189958
203.489661
95.116496
49.989820
20.383000
11.919737
10.409951
10.455847
12.474656
15.267730
22.868514
31.350851
46.085715
60.301423
79.548955
90.801716
100.573897
102.926493
96.329451
86.554885
70.724487
57.309866
43.928623
36.736727
29.656887
26.068687
24.436712
23.219585
22.620559
22.503734
22.515655
22.379756
22.250414
21.993518
22.020936
21.261573
21.963716
##ZVALUE=335
0.633597
0.688434
0.518560
0.614524
0.609756
0.704527
0.528693
0.531673
0.674725
0.542998
0.561476
0.659823
0.728965
0.813603
0.696778
0.860691
0.745654
0.726581
0.686646
0.720620
0.667572
0.558496
0.751615
0.722408
0.767708
0.880957
0.601411
0.834465
0.668764
0.742674
0.820756
0.857711
0.830889
0.828505
0.714660
0.837445
0.812411
1.180768
0.950694
0.939965
0.985861
1.042485
1.112819
1.024604
1.116991
1.171827
1.250505
1.425743
1.611710
3.302693
11.782646
45.615435
97.699761
220.544934
352.561474
541.412830
664.169788
752.880573
752.250552
655.017495
541.784763
364.688635
245.687962
130.104423
69.434643
26.120543
14.198422
10.534525
10.417700
11.426806
12.745857
16.187429
22.007823
32.314658
44.123530
61.165690
74.424744
87.638497
95.222592
96.620917
92.652440
80.732703
70.663691
57.022572
46.758652
36.715865
30.800700
25.991797
23.722649
22.336841
21.963716
21.617413
21.458864
21.093488
21.470785
21.610856
##ZVALUE=340
0.473857
0.525713
0.463724
0.480413
0.262856
0.385642
0.444651
0.435710
0.403523
0.386834
0.346899
0.245571
0.439882
0.470877
0.583529
0.536442
0.425577
0.498891
0.547767
0.567436
0.548959
0.529885
0.501871
0.470877
0.622869
0.459552
0.559688
0.492930
0.531673
0.505447
0.414848
0.620484
0.460744
0.571609
0.520945
0.631809
0.706911
0.651479
0.836849
0.742674
0.728965
0.765920
0.749826
0.685453
0.677705
0.868440
0.811815
1.052618
0.997782
1.129508
1.332760
1.731515
5.482435
27.034879
66.550970
169.599652
285.928845
459.368825
594.864488
716.487765
746.923685
695.043802
598.783493
435.269475
304.131508
157.574415
89.833736
38.409829
18.771887
11.094809
10.580420
10.952950
11.228919
13.708472
16.639829
23.244619
30.465722
43.975711
56.419969
72.399974
83.480477
91.295838
91.965795
86.947680
80.342889
66.942573
56.660771
44.117570
36.196709
29.235482
24.969578
22.099614
20.890832
20.568967
20.693541
20.180941
##ZVALUE=345
0.527501
0.493526
0.342727
0.562668
0.456572
0.520945
0.496507
0.473857
0.434518
0.433922
0.419617
0.480413
0.498891
0.448823
0.496507
0.394583
0.483990
0.468493
0.499487
0.386834
0.484586
0.557899
0.507832
0.764728
0.530481
0.486970
0.613928
0.661612
0.450611
0.443459
0.529885
0.583529
0.509620
0.519753
0.660419
0.515580
0.694990
0.521541
0.691414
0.770688
0.682473
0.712872
0.813603
0.836849
0.765920
0.863671
0.905991
0.769496
1.054406
0.877976
1.096725
1.274943
1.346469
1.294613
2.611876
14.745593
41.249990
112.197995
201.217532
367.142558
501.989722
662.339926
728.385448
726.732016
651.642680
488.663912
359.140635
209.399462
119.863749
49.873590
25.379658
13.020635
10.900497
11.136532
11.242628
11.981726
13.430715
16.476512
21.154881
30.176640
40.153861
55.445433
65.627694
77.000856
82.814693
85.075498
83.140731
74.279904
65.534711
53.700805
44.310689
33.743978
28.115511
23.600459
21.312833
20.278692
##ZVALUE=350
0.503659
0.525713
0.598431
0.696778
0.478625
0.550747
0.582933
0.535846
0.599623
0.493526
0.725985
0.629425
0.654459
0.488758
0.657439
0.680685
0.556707
0.727773
0.684857
0.539422
0.567436
0.631809
0.511408
0.684857
0.680685
0.745654
0.801682
0.705719
0.634789
0.600815
0.820756
0.593662
0.625849
0.582933
0.540614
0.865459
0.670552
0.667572
0.744462
0.774860
0.864863
0.865459
0.766516
0.859499
0.807643
0.967979
0.793934
0.938773
0.926852
0.868440
0.941753
1.213551
1.091957
1.114607
1.265407
1.493692
1.734495
7.338524
22.136569
72.327852
144.907832
298.883915
435.611606
599.076748
697.715878
752.914548
705.426931
555.468798
417.853594
251.307487
149.311423
66.685677
33.910871
14.150739
10.755658
10.598898
10.763407
11.456609
12.039542
13.425946
15.914440
21.345615
27.598739
38.163662
47.651529
59.962869
68.644881
75.875521
78.797936
77.435970
70.274472
60.568452
51.911473
41.120648
34.126639
27.405620
##ZVALUE=355
0.467896
0.553727
0.529885
0.583529
0.573993
0.554919
0.511408
0.641942
0.575781
0.565648
0.536442
0.588894
0.656843
0.570416
0.578761
0.695586
0.678897
0.635982
0.548959
0.595450
0.748634
0.574589
0.808835
0.542998
0.620484
0.606775
0.689626
0.578761
0.728965
0.743866
0.604987
0.671744
0.724792
0.708699
0.663996
0.793934
0.839829
0.674725
0.678897
0.688434
0.717640
0.740886
0.845790
0.949502
0.881553
0.854731
0.783801
0.901818
0.922680
0.880957
0.944734
0.944734
0.921488
0.844598
1.110435
1.133680
1.269579
1.415610
1.354814
3.652573
11.964440
47.245622
97.219944
204.298496
322.524905
504.990816
614.087582
696.997643
698.024631
591.622591
469.594598
301.891565
188.005567
82.406998
41.602850
16.823411
11.033416
10.153651
10.207891
10.498762
11.122823
11.751652
12.795925
15.054941
18.298626
24.875998
31.458735
42.858720
51.641464
61.768889
67.446828
71.488619
71.106553
64.864755
58.072805
47.949553
##ZVALUE=360
0.516772
0.557899
0.614524
0.579953
0.598431
0.611544
0.509620
0.579953
0.739694
0.545979
0.413656
0.456572
0.513792
0.477433
0.624657
0.581741
0.548959
0.715852
0.648499
0.664592
0.683665
0.755787
0.679493
0.705719
0.493526
0.541806
0.713468
0.708699
0.526905
0.664592
0.547767
0.765920
0.829697
0.781417
0.821948
0.775456
0.761747
0.692606
0.802875
0.807643
0.675917
0.728965
0.874996
0.673532
0.689626
0.772476
0.808835
0.790954
0.892878
0.877976
0.786781
0.999570
1.019835
0.933409
0.902414
1.047850
1.067519
1.193881
1.149774
1.245737
1.377463
1.995564
5.786419
24.623871
58.637857
144.320726
247.502923
414.891839
540.921688
654.489994
682.385564
626.152754
527.855754
359.203815
235.257745
111.047626
58.155656
23.909807
12.964606
9.512901
9.487867
9.687543
9.852648
10.450482
10.767579
11.761785
13.142824
16.543865
19.971728
27.020574
34.535527
45.320988
53.215623
60.449839
64.425468
64.954758
##ZVALUE=365
0.535846
0.460744
0.532866
0.528693
0.623465
0.522733
0.576973
0.455976
0.507832
0.556707
0.684857
0.617504
0.592470
0.636578
0.648499
0.615716
0.642538
0.560880
0.626445
0.679493
0.709891
0.645518
0.700951
0.513792
0.598431
0.582933
0.597835
0.723600
0.623465
0.724792
0.752807
0.645518
0.808835
0.584722
0.669956
0.599623
0.649691
0.761747
0.663996
0.787973
0.656843
0.667572
0.805855
0.700951
0.700951
0.692606
0.860691
0.889897
0.699759
0.929832
0.825524
0.861883
0.867844
0.909567
0.803471
1.003742
1.127720
0.933409
1.026988
0.913739
1.100898
1.330972
1.319647
1.579523
2.660751
13.433695
36.712885
99.148750
182.160735
331.651568
453.017950
580.380559
631.448627
606.386662
531.825423
400.381684
281.603932
147.110820
81.779957
32.184720
15.637875
8.935928
8.891821
8.897781
8.979440
9.134412
9.561777
10.083914
10.089874
11.735559
13.580918
18.267632
22.822618
30.558705
38.223863
47.609806
##ZVALUE=370
0.635982
0.518560
0.579953
0.447631
0.548959
0.630617
0.529885
0.505447
0.594854
0.509620
0.404716
0.485778
0.586510
0.671744
0.548959
0.553727
0.590682
0.497699
0.521541
0.597835
0.551939
0.552535
0.580549
0.472665
0.648499
0.594854
0.502467
0.604987
0.658631
0.687838
0.588894
0.767708
0.728965
0.665784
0.801682
0.686646
0.658631
0.527501
0.793934
0.647902
0.595450
0.632405
0.655651
0.682473
0.737906
0.709891
0.670552
0.693798
0.522733
0.732541
0.660419
0.782609
0.671744
0.916719
0.807643
0.911951
0.843406
0.859499
0.830889
0.786781
0.953674
0.958443
0.995994
1.063943
1.209974
1.351833
1.989603
5.780458
28.715730
69.353580
162.948966
258.357525
409.227014
520.866513
621.738434
636.832714
573.688745
474.962592
318.740606
207.580924
98.251700
50.749779
20.560622
11.205673
7.936954
7.952452
8.068681
8.225441
8.629560
8.454919
8.931756
9.532571
10.606647
12.382865
15.971661
19.753575
##ZVALUE=375
0.501871
0.501871
0.485778
0.603795
0.660419
0.453591
0.742674
0.664592
0.442863
0.681877
0.556707
0.471473
0.485778
0.562668
0.322461
0.507832
0.378489
0.605583
0.568628
0.535846
0.665784
0.600815
0.589490
0.582933
0.416636
0.626445
0.537634
0.590682
0.475645
0.614524
0.623465
0.449419
0.566840
0.634789
0.578761
0.623465
0.728965
0.689626
0.588894
0.450611
0.724792
0.495911
0.489950
0.609756
0.538826
0.708699
0.588894
0.636578
0.703931
0.577569
0.696778
0.716448
0.768900
0.802875
0.679493
0.835657
0.730753
0.819564
0.724792
0.768900
0.865459
0.886917
0.925660
0.933409
0.984669
0.934601
1.082420
1.192689
1.380444
3.999472
13.249516
46.605468
98.533630
213.721991
324.310660
470.579863
552.757978
595.666766
573.210716
472.155809
368.474722
227.440000
141.524673
66.323876
35.023689
14.310479
8.641481
7.333755
7.455945
7.329583
7.635951
8.003712
8.258820
8.325577
8.830428
9.610653
##ZVALUE=380
0.526905
0.541806
0.612736
0.536442
0.457764
0.540614
0.510812
0.530481
0.520945
0.450611
0.514984
0.447631
0.566840
0.510812
0.566840
0.579953
0.561476
0.624657
0.501871
0.535846
0.627637
0.525713
0.460744
0.532866
0.525713
0.613928
0.488758
0.611544
0.737906
0.379682
0.552535
0.591874
0.531673
0.571609
0.733733
0.651479
0.449419
0.783801
0.633597
0.496507
0.564456
0.751615
0.585914
0.524521
0.532866
0.649691
0.640750
0.467896
0.566840
0.605583
0.783801
0.490546
0.771880
0.633597
0.580549
0.824928
0.769496
0.636578
0.870824
0.899434
0.776649
0.887513
0.875592
0.747442
0.748634
0.815988
0.896454
0.862479
1.065731
1.238585
1.514554
2.131462
9.077787
28.090477
83.912611
152.253509
282.767415
397.624969
527.805686
583.334565
572.036505
511.047840
396.297574
295.518637
174.529552
104.284883
45.948625
23.054481
9.484887
7.012486
6.695986
6.828904
7.061958
7.113814
7.392764
7.499456
##ZVALUE=385
0.390410
0.499487
0.348687
0.499487
0.542998
0.664592
0.462532
0.458956
0.511408
0.439882
0.486970
0.611544
0.399947
0.542998
0.344515
0.435710
0.527501
0.513792
0.471473
0.620484
0.438690
0.516772
0.560880
0.490546
0.542998
0.569820
0.633597
0.615716
0.475645
0.649691
0.569820
0.605583
0.491738
0.494719
0.544786
0.613928
0.421405
0.545979
0.641942
0.580549
0.477433
0.660419
0.610948
0.536442
0.721812
0.627637
0.660419
0.509620
0.517964
0.737906
0.645518
0.724792
0.601411
0.519753
0.677705
0.541806
0.602603
0.765920
0.693798
0.841618
0.765920
0.618696
0.792742
0.723600
0.730753
0.702739
0.869632
0.859499
1.049638
1.001954
1.186728
1.247525
1.199841
1.494884
3.586411
19.627810
49.925447
123.808980
211.891532
355.187654
459.700823
551.128983
569.188595
523.117781
450.573564
325.475931
231.230855
127.481818
74.546933
33.868551
15.758872
7.122755
6.132722
6.023645
6.156564
6.425977
##ZVALUE=390
0.449419
0.489950
0.425577
0.562668
0.599623
0.511408
0.536442
0.582933
0.598431
0.476837
0.365973
0.537634
0.507832
0.457764
0.413656
0.423789
0.452995
0.622869
0.639558
0.533462
0.492930
0.520945
0.582933
0.500679
0.525713
0.441670
0.506639
0.501871
0.644922
0.499487
0.591874
0.551939
0.662804
0.631809
0.613928
0.597835
0.562668
0.635982
0.601411
0.730753
0.722408
0.732541
0.632405
0.537634
0.688434
0.683665
0.693798
0.687838
0.589490
0.523925
0.689626
0.600815
0.727773
0.648499
0.719428
0.663996
0.691414
0.645518
0.727773
0.667572
0.789762
0.623465
0.667572
0.506639
0.771880
0.934601
0.830889
0.789762
0.865459
0.780821
0.995994
1.126528
1.125932
1.105666
1.242757
1.106858
2.117753
9.635687
29.804707
91.439486
169.124007
308.405757
410.105586
514.625907
562.741756
559.253693
502.884984
387.408733
290.602446
174.876451
103.479624
44.141412
21.241903
8.483529
6.099939
5.967617
##ZVALUE=395
0.508428
0.374913
0.358820
0.521541
0.398755
0.535846
0.382662
0.639558
0.572801
0.605583
0.475645
0.463724
0.402927
0.506639
0.418425
0.618696
0.538826
0.550747
0.603795
0.487566
0.496507
0.526905
0.611544
0.531673
0.539422
0.504851
0.537634
0.656843
0.523925
0.459552
0.620484
0.607967
0.533462
0.601411
0.538826
0.658631
0.498891
0.527501
0.654459
0.623465
0.675917
0.533462
0.576973
0.480413
0.588894
0.582933
0.681877
0.616908
0.544786
0.633597
0.601411
0.617504
0.545979
0.791550
0.604987
0.612736
0.509620
0.740886
0.726581
0.805855
0.696778
0.708699
0.805855
0.743866
0.780821
0.612736
0.699759
0.882745
0.680685
0.996590
0.931621
1.085997
1.059771
1.053810
0.949502
1.116991
1.110435
1.211762
1.207590
5.671978
19.941926
69.357753
133.227706
249.167681
355.740786
492.101908
567.434430
600.048900
568.580627
468.174815
357.506871
215.315819
135.633945
63.316822
31.263828
12.494922
##ZVALUE=400
0.487566
0.477433
0.400543
0.429749
0.353456
0.461936
0.494719
0.526905
0.573993
0.488758
0.479817
0.387430
0.640750
0.565648
0.460744
0.566840
0.535846
0.519753
0.475645
0.445843
0.459552
0.538826
0.515580
0.478625
0.527501
0.732541
0.591874
0.622869
0.691414
0.558496
0.713468
0.640750
0.651479
0.552535
0.726581
0.624657
0.671744
0.716448
0.543594
0.672936
0.622869
0.506639
0.545979
0.547767
0.642538
0.707507
0.538826
0.673532
0.662804
0.711679
0.614524
0.686646
0.564456
0.521541
0.722408
0.663996
0.638962
0.675917
0.675917
0.724792
0.727773
0.771880
0.659823
0.797510
0.744462
0.686646
0.677705
0.833869
0.851750
0.857711
1.057982
0.851750
0.872612
0.865459
0.994802
0.847578
0.837445
0.925660
1.032948
1.118779
1.330972
2.841949
11.024475
43.522716
90.129972
192.411542
301.608443
462.904572
571.300983
654.459000
659.393668
560.608506
453.594923
296.036005
186.064839
91.710687
##END
