##TITLE=FQP00352
##FORMAT=SPECTACLE-ASCII V-1.2
##DATA TYPE=ULTRAVIOLET SPECTRUM
##SECOND TYPE=ULTRAVIOLET SPECTRUM
##DATE=01/11/18
##TIME=19:08:10
##SPECTROMETER/DATA SYSTEM=SPECTACLE
##XUNITS=NM EM
##YUNITS=ENERGY
##YFACTOR=1
##FIRSTX=220
##LASTX=410
##NPOINTS=96
##3DDATA=Equidistant
##ZUNITS=NM EX
##FIRSTZ=210
##LASTZ=400
##ZPOINTS=39
##XYDATA=(Y..Y)
##ZVALUE=210
2.585649
3.053546
2.531409
2.907515
3.039837
2.621412
3.394485
3.332496
3.773570
3.653765
3.765821
3.415942
3.410578
3.359914
3.577471
3.904700
3.563762
3.633499
3.821850
4.453659
4.809499
4.722476
4.726648
6.055832
5.590916
5.656481
6.648898
6.551743
7.134676
6.837845
6.875992
7.463694
8.059740
7.992983
7.675886
9.299517
10.071993
8.677840
8.831620
9.777546
8.744597
9.671450
7.701516
8.166432
9.245872
7.966757
8.651614
8.330941
8.722544
9.454489
8.852482
8.628964
8.520484
8.025765
9.381771
7.231832
8.864999
8.288622
8.862615
8.927584
9.313822
9.482503
9.906888
9.629726
8.915663
9.652972
9.947419
10.985732
11.849999
14.693737
18.867850
21.603703
23.757815
29.360652
32.312870
34.535527
35.841465
35.649538
36.458969
37.957430
35.938621
32.291412
29.455423
24.659634
18.396974
17.508864
13.902783
12.192726
10.780692
8.969903
9.246469
9.299517
10.585785
9.669662
10.034442
9.847879
##ZVALUE=215
9.203553
9.724498
8.952618
6.297827
6.134510
5.453825
5.747676
5.734563
6.775856
4.829764
5.810857
5.528927
4.701614
3.958941
4.263520
4.598498
3.562570
4.024506
4.361868
4.556775
4.385710
4.551411
5.076528
5.380511
6.037951
6.908774
6.415844
7.457733
7.830858
9.468794
9.962916
9.902716
11.001825
11.426806
10.911822
10.323524
12.176633
10.726452
11.295676
11.181831
11.171699
10.656714
10.663867
12.031794
11.231899
10.182858
10.549426
11.269450
9.371638
10.009408
10.771751
10.071993
10.405779
8.856654
9.151697
10.069609
10.438561
10.981560
8.923411
9.235740
10.694861
9.968877
9.687543
9.541512
10.137558
10.932684
11.450648
11.896491
13.993979
14.438629
19.504428
20.794868
26.362538
29.065609
33.638477
33.863783
36.812425
35.905838
37.611723
37.165880
32.798648
29.539466
26.757717
23.867488
20.486712
17.848611
13.767481
12.444854
11.651516
9.721518
9.258986
10.533929
9.209514
9.878874
9.719729
10.043979
##ZVALUE=220
33.485889
33.510923
35.508871
31.024814
26.378632
22.073984
20.501614
13.647676
12.708902
11.700988
12.426972
13.543963
12.728572
13.053417
11.256933
9.527802
7.216930
6.126761
5.898476
4.482865
5.787611
5.579591
5.239844
6.403923
7.155538
8.301735
8.478761
9.452701
10.567904
14.421940
15.530586
15.897751
16.670823
16.818643
17.352700
16.785860
18.095970
17.251968
16.440749
16.092658
16.326904
14.281869
15.760660
14.073849
14.074445
14.150739
12.453794
12.896657
12.464523
12.689829
12.201667
11.531711
11.034608
10.339618
12.174845
10.351539
11.239648
10.636449
12.147427
11.600852
10.933876
11.318922
11.608601
10.863543
11.295676
10.843873
13.054609
12.026429
13.956428
14.398694
18.616915
22.201538
23.790598
27.747750
30.558705
32.967925
33.057928
33.813715
35.818815
32.052994
31.292439
30.320883
26.790500
22.017956
21.605492
14.984608
13.988614
12.790561
11.103749
10.146499
10.872483
10.896921
11.271834
9.444952
8.238554
9.264946
##ZVALUE=225
130.040646
69.947839
87.589622
109.041929
118.979812
115.264654
101.693869
77.342987
57.770610
37.744641
29.222965
22.806525
24.599433
28.359890
25.709867
28.436780
24.977922
18.973947
13.935566
11.366606
7.508993
6.487966
7.214546
7.089972
8.032918
7.872581
10.960698
12.830496
14.273524
15.086532
17.055869
18.468499
20.141602
21.612644
21.069646
21.036863
22.114515
21.094680
20.881891
19.955635
18.976927
18.534660
17.271638
18.813610
15.704632
15.414953
14.687777
14.206767
15.108585
15.195608
12.904406
14.478564
13.630986
11.971593
12.468696
12.616515
12.803674
11.759996
12.105703
11.715889
11.314750
12.273788
12.080669
11.241436
11.760592
12.992620
12.185574
12.819767
12.498498
14.448762
15.507936
17.145872
19.995570
20.762682
23.830533
21.079779
22.798777
22.975802
23.818612
22.779703
20.456910
17.111897
17.617941
14.786720
13.927817
12.563467
11.278987
10.687709
10.699630
10.946989
9.664893
9.379983
10.295510
10.561943
9.308457
8.986592
##ZVALUE=230
54.176450
63.494444
97.940564
156.595707
193.902850
239.868760
253.177881
236.857533
202.620625
167.363882
104.861856
76.205730
53.345561
44.492483
46.582818
48.427582
51.764846
50.306916
44.483542
35.554767
28.744936
18.733740
14.195442
9.077787
9.671450
7.954836
8.837581
10.475516
13.330579
16.181469
15.426874
16.949773
18.696785
19.341707
21.128654
21.950603
22.028685
20.414591
20.013452
19.394755
19.096732
18.157959
17.502904
17.391443
16.308427
15.476942
16.112924
15.796423
14.203787
14.290810
12.917519
13.402700
12.144446
12.724996
13.600588
12.582541
12.686849
13.539791
12.826920
14.153719
12.804866
12.365580
13.501644
12.335777
12.859702
12.910962
13.334751
13.598800
13.720989
15.538931
16.612411
18.065572
19.316673
20.826459
22.456646
22.457838
24.022460
22.847652
23.115873
22.754669
21.570921
18.544793
18.878579
16.768575
15.559793
14.181733
14.652610
14.186502
14.886856
12.787580
13.215542
12.983680
13.386607
13.959408
13.457537
14.544725
##ZVALUE=235
17.061830
23.287535
50.201416
113.578439
185.688734
299.975872
382.226706
484.257936
520.516634
498.997569
448.569655
343.301892
254.614949
161.347985
114.427805
92.013478
75.357556
79.553723
87.723732
87.002516
80.321431
69.514513
51.870942
39.979815
27.368665
21.159649
15.205741
12.711883
11.969805
13.425946
15.964508
14.643669
17.414689
17.768741
17.781854
18.583536
19.217730
18.481612
19.110441
19.906759
20.373464
19.132495
16.746521
19.265413
18.859506
18.077493
18.509626
17.783642
16.534925
16.029477
17.181635
16.336441
15.646815
16.041994
16.533732
17.979741
16.539693
17.713904
16.857982
16.490817
17.444491
18.453598
17.584562
19.993782
19.965768
19.932985
20.524859
20.828843
20.791888
24.160743
25.871992
27.860999
32.624602
32.214522
35.017729
36.097765
40.072799
37.645698
39.510727
37.281513
36.487579
35.158992
32.820702
30.183792
27.308464
26.122928
24.646521
22.886992
21.380782
21.897554
21.358728
21.240711
21.991730
21.125674
21.000504
20.520687
##ZVALUE=240
2.972484
4.429817
10.454655
44.931769
100.268722
226.395726
378.158689
644.695759
855.301023
1015.681624
1015.681624
1015.681624
933.434963
758.486390
520.807505
365.745425
202.401876
136.822462
109.262466
106.474757
122.446418
123.702884
118.255615
109.694600
96.405745
69.761872
52.500963
34.551620
27.351975
17.630458
15.111566
14.313459
14.298558
16.774535
16.064644
18.235445
18.365979
20.836592
19.151568
20.205975
21.028519
20.193458
19.806623
20.788908
19.809604
21.414757
23.644567
20.783544
20.361543
19.022822
20.248890
20.801425
21.723509
21.267533
19.989610
19.923449
21.782517
18.734932
20.759702
19.181967
20.945668
21.656752
20.196438
20.537972
21.695495
23.012757
23.735762
27.374625
26.737452
30.551553
33.346415
36.669970
42.477846
45.803785
47.299862
49.372911
50.292611
51.817894
50.783753
47.768950
47.038794
46.670437
42.707920
37.852526
37.954450
32.838583
31.192899
29.581785
28.454661
26.942492
27.533770
27.122498
25.135875
27.171969
24.542809
24.743676
##ZVALUE=245
1.973510
2.269745
2.962947
3.308654
11.096001
37.343502
128.116608
251.495838
498.664975
715.314746
996.797681
1015.681624
1015.681624
1015.681624
1015.681624
887.676477
700.436831
441.117883
291.283727
162.143707
118.323565
107.950568
122.709870
134.307742
138.810873
129.280686
116.514564
102.301836
75.970888
55.198669
42.305589
27.683973
20.689964
15.667677
15.738606
15.729666
17.049909
17.609596
18.093586
17.983913
18.273592
19.081831
20.170808
19.297600
18.540621
20.780563
18.005967
18.239617
17.931461
20.061731
18.606782
18.175840
17.572641
17.382503
17.648935
16.679764
16.135573
17.365813
17.338991
16.264915
15.889406
16.311407
16.610622
17.417669
18.785000
19.164681
19.851923
21.154881
21.222830
23.072958
27.050972
28.143525
30.042529
33.434629
34.894943
36.097765
37.910938
37.121773
39.231777
35.595894
33.518672
33.697486
31.307936
30.112863
28.339624
26.064515
25.915504
26.990771
25.470853
24.545789
26.547909
25.282502
25.843978
24.864674
22.444725
24.133921
##ZVALUE=250
1.811981
2.058744
2.160668
2.145767
2.759695
2.789497
3.879666
14.847517
80.994964
182.595849
415.989757
648.673773
901.925564
1015.681028
1015.681028
1015.681028
1015.681028
967.234969
756.821632
483.070016
312.726498
191.571712
111.382604
98.463893
109.853745
123.717785
141.445994
143.148899
142.971873
130.325556
113.521814
83.145499
67.320466
43.037534
31.809807
22.421479
19.895434
18.746853
17.452836
18.009543
18.943548
19.556880
19.180775
18.843412
20.014644
18.443465
18.771887
19.622445
17.510653
17.879605
17.231703
16.612411
16.088486
16.315579
15.828609
15.262961
14.728904
14.777780
15.121698
13.756752
14.926791
14.749765
14.606714
15.092492
15.220642
15.820861
16.041994
15.349984
17.621517
19.394755
19.763708
21.703839
21.788478
26.043653
26.539564
28.124452
29.523969
28.056502
29.442906
29.068589
28.853416
27.125478
26.041865
24.760962
25.243759
24.320483
22.884607
22.845864
22.380948
22.253990
23.684502
22.514462
21.252632
22.146702
22.229552
22.006631
##ZVALUE=255
1.405478
1.773834
1.682639
2.259612
1.873970
2.327561
2.090931
2.417564
2.725720
6.896853
40.382743
109.171867
233.710408
484.226942
712.473989
998.362899
1015.686989
1015.686989
1015.686989
981.031656
784.204006
580.216646
343.195796
215.223432
123.794675
95.531940
94.701648
111.008883
135.224462
150.258541
158.652663
156.103969
142.844915
115.486979
96.818805
68.611503
50.802827
34.370422
26.399493
23.490787
21.674633
21.716952
20.801425
20.070672
19.252896
19.361973
18.403530
17.382503
17.727613
16.642809
16.860962
16.250610
15.554428
15.010834
14.788508
14.410615
13.724566
13.130903
13.017654
12.984872
12.816787
12.597442
12.415648
12.800694
12.494922
12.707710
12.888908
14.084578
14.447570
16.166568
16.079545
17.690659
19.049644
19.767880
19.894838
21.500587
21.137595
21.400452
22.699833
22.712946
21.316409
21.185875
20.632744
20.991564
20.422935
21.245480
20.286441
21.262765
20.046830
19.922853
20.040870
19.604564
19.568801
19.765496
19.437671
20.025969
##ZVALUE=260
1.498461
1.535416
1.206994
1.590848
1.446605
1.388788
1.605749
1.974702
1.941919
2.091527
2.409816
3.769994
13.081431
65.810680
152.010918
344.736576
520.609617
774.324536
949.969888
1015.681624
1015.681624
1015.681624
1013.580561
864.085555
597.610474
431.531668
260.061622
167.018771
101.726651
96.162558
112.921000
143.580437
159.241557
171.183944
168.848634
151.610970
131.524801
100.238919
77.284575
53.171515
39.323568
29.492974
25.124550
22.125840
20.691752
20.134449
19.032955
19.254684
18.469691
17.193556
16.197562
16.001463
14.699697
14.793873
14.098883
13.172626
13.494492
12.509823
12.308955
12.527704
11.969805
11.715889
12.001991
11.360645
11.799932
11.247993
11.580586
12.623668
12.799501
13.598800
13.888478
15.225410
15.423894
17.151833
16.817451
19.909739
18.706918
20.236969
20.032525
18.660426
18.201470
18.716455
18.741488
18.054843
17.710924
17.793775
17.662644
18.024445
16.635656
17.274618
17.218590
18.316507
18.573999
17.918944
18.361807
17.541647
##ZVALUE=265
1.463890
1.621842
1.504421
1.428723
1.427531
1.664758
1.628995
1.795888
1.806617
1.774430
1.977682
2.123713
2.060533
2.833605
6.579757
48.770905
136.369467
325.673819
516.607761
814.895034
993.278623
1015.681624
1015.681624
1015.681624
1015.681624
1015.681624
953.425765
731.945634
450.486541
306.255817
169.835687
111.276507
99.349618
131.715536
152.192712
172.188878
177.168846
173.159838
153.424740
127.270818
102.386475
72.359443
53.672791
36.443472
28.237700
22.356510
19.954443
18.348694
18.745661
17.182827
16.476512
15.753508
14.879704
14.588833
13.916492
12.805462
12.978911
12.332797
12.387633
11.557937
11.024475
10.889769
11.254549
10.800958
10.738969
11.659861
10.919571
10.823607
12.118816
12.677908
13.403893
13.446808
14.876723
15.755892
16.775727
16.931891
15.857816
17.576814
16.534925
16.509891
16.376972
15.518665
16.112924
15.667677
16.270876
16.011000
15.601516
16.723871
15.898943
16.558766
17.047524
16.673803
16.524792
17.124414
16.771555
17.759800
##ZVALUE=270
1.527667
1.332760
1.580715
1.242757
1.510978
1.433492
1.591444
1.578927
1.331568
1.642704
1.638532
1.541972
1.760721
1.805425
2.157688
2.726912
3.389716
19.447803
66.891909
211.090446
373.239517
571.732521
917.877555
1015.681624
1015.681624
1015.681624
1015.681624
1015.681624
1007.669568
787.229538
476.942658
289.257765
141.309500
89.224577
82.095861
99.928975
130.434632
151.445866
174.561739
177.500844
170.315504
153.608918
126.827955
102.224946
71.340799
52.324533
34.833550
26.392937
19.374490
17.236471
15.398860
14.608502
14.387965
13.511777
12.930632
12.888908
12.400746
11.931658
12.384653
11.345744
10.957718
11.109710
10.280609
10.991693
10.123849
11.374950
10.479689
10.685921
11.371970
11.310577
12.485981
12.570620
13.317466
14.189482
14.350414
14.385581
14.624000
14.988780
14.677644
14.886856
14.847517
14.734864
14.889836
14.309883
14.528632
14.502406
14.144778
14.883876
14.499426
14.873743
15.256405
15.192628
14.608502
14.994740
14.341474
15.219450
##ZVALUE=275
0.970960
1.117587
1.052618
0.959635
1.190901
0.889897
1.174808
1.188517
1.165867
1.367927
1.445413
1.444817
1.646876
1.408458
1.485944
1.796484
1.729727
2.079606
2.331734
5.162954
20.174980
63.061714
184.303522
343.739390
661.959648
910.573602
1015.601754
1015.601754
1015.601754
1015.601754
1015.601754
949.266553
653.787851
326.847434
183.980465
85.193515
62.467456
72.813630
94.369650
122.143626
143.977404
164.265633
169.938803
163.083673
146.945715
117.669702
95.247626
67.563653
49.991608
31.440854
23.222566
15.895963
14.071465
12.729764
12.298822
11.793971
11.196733
11.294484
11.315942
11.366606
10.623932
11.059642
10.966659
10.677576
10.510683
10.801554
10.890961
11.148453
11.339784
12.120605
11.657476
12.399554
13.248920
14.566779
14.458895
14.884472
15.338659
15.598536
14.669895
14.890432
15.099645
15.050769
14.519691
14.525652
14.212728
14.357567
14.618635
14.679432
14.617443
13.853908
14.140606
14.734864
13.941526
14.012456
14.324784
13.974905
##ZVALUE=280
1.240969
1.094937
1.071692
1.144409
1.041889
1.247525
1.111627
1.213551
1.337528
1.356602
1.355410
1.557469
1.600981
1.385808
1.478791
1.635551
1.748800
1.705885
1.972914
1.974702
2.304912
2.735853
12.102723
41.178465
136.966705
256.844759
479.272008
691.566467
968.683958
1015.740037
1015.740037
1015.740037
1015.740037
1015.739441
964.877605
559.538603
331.288576
139.281750
69.700480
48.015714
60.908794
89.916587
114.739537
139.620900
153.858662
159.609914
154.369473
134.974718
116.875768
86.125731
64.750910
42.741895
29.848814
18.392801
14.725924
11.502504
10.821819
10.309815
10.248423
10.104775
10.202527
10.590553
10.173917
10.576844
10.499954
11.190772
10.881424
11.345744
11.610985
12.400746
12.180805
13.150573
12.938976
14.029741
14.119744
14.329553
14.006495
14.882684
15.169978
14.184713
14.379621
14.612675
14.715791
14.454722
14.003515
14.025569
13.746619
14.158487
14.287829
14.662743
13.564825
13.652444
14.164448
13.626814
13.799667
13.828874
##ZVALUE=285
0.922680
1.003742
0.956655
1.113415
1.132488
1.078844
0.912547
1.151562
1.037717
1.000762
1.184940
1.010895
1.283884
1.170635
1.294613
1.323819
1.518726
1.495481
1.450777
1.645684
1.719594
1.706481
2.008677
2.118945
4.700422
23.674965
58.642626
160.701871
281.955600
519.127846
760.086775
1015.681624
1015.681624
1015.681624
1015.681624
1015.681624
898.599029
518.264771
302.345753
127.452612
62.453747
34.564734
37.479401
57.333708
77.232718
107.177496
128.750801
147.256851
153.040886
148.491859
133.450627
111.778975
89.148879
61.609745
44.313669
25.710464
18.419623
12.756586
10.646582
9.871721
9.744763
10.024905
10.078549
10.669827
10.483861
10.493994
10.769963
11.419654
11.488795
12.254715
12.280941
12.846589
12.962818
13.721585
14.031529
13.871789
13.985634
14.516711
14.152527
14.367700
14.109612
14.470816
13.810992
13.683438
13.827682
13.717413
14.167428
13.944507
13.783574
13.555884
13.420582
13.749599
13.172626
13.410449
13.305545
13.347864
##ZVALUE=290
0.820756
0.841618
0.766516
0.917912
0.754595
0.879765
0.802875
0.742674
0.876784
0.907779
0.937581
1.009703
0.911951
1.152754
1.067519
1.286864
1.385808
1.296997
1.265407
1.229644
1.368523
1.461506
1.543760
1.666546
1.983643
2.010465
2.666712
7.660985
33.960938
78.215003
133.044720
356.602669
579.298735
971.410871
1015.630960
1015.630960
1015.630960
1015.630960
1003.662944
645.197034
397.877693
175.085664
82.238913
32.919645
26.287436
36.825538
50.642490
74.137449
95.708966
123.062730
139.010549
148.109794
145.534873
131.449699
111.536980
82.939863
62.776804
41.606426
28.868914
18.307567
14.181733
11.809468
10.902882
10.788441
10.580420
10.552406
11.476874
11.370778
11.549592
12.288690
12.239814
12.328625
13.445616
13.740659
13.714433
14.372468
13.630986
14.333725
13.867617
13.860464
14.355779
14.154911
14.368892
14.116764
14.062524
13.923645
14.357567
14.033914
14.084578
13.863444
13.565421
13.207793
13.542771
12.972951
12.993813
13.425946
##ZVALUE=295
0.856519
0.870824
0.881553
1.070499
0.992417
0.743866
0.979900
0.980496
0.877976
0.813603
0.984669
0.899434
1.041889
1.003742
1.016855
1.032948
1.032948
1.151562
1.124740
1.062751
1.143813
1.165867
1.236796
1.347661
1.425743
1.556873
1.661777
1.723766
2.094507
3.931522
11.976957
50.999522
116.321445
278.895497
443.523526
692.318678
847.200751
956.297517
938.040018
809.268951
668.518543
457.529426
313.412547
164.722800
89.006424
35.615563
21.734834
21.560788
29.727817
49.151778
66.060424
94.165802
113.329887
132.066607
139.612556
136.275887
125.836730
102.566481
85.420609
58.873892
42.918921
27.249455
19.633770
13.749599
11.736751
11.251569
10.857582
11.301637
11.231899
11.769533
12.384653
12.807846
13.345480
13.034940
13.547540
14.102459
13.842583
13.486743
13.583899
14.144778
14.483929
13.883710
14.173985
13.942719
13.960600
13.926625
14.230609
13.388991
13.825893
13.779998
14.266968
13.865829
13.166666
13.490915
13.422966
12.592673
##ZVALUE=300
0.757575
0.724792
0.823736
0.711679
0.764728
0.821948
0.669956
0.650883
0.683665
0.889897
0.792742
0.876784
0.791550
0.779629
0.886917
0.948906
0.817776
0.987649
0.876784
1.159906
0.917912
1.138449
1.001954
1.082420
1.265407
1.313686
1.372695
1.260638
1.463890
1.477599
1.733899
2.166629
6.626844
23.849607
82.862973
167.979002
345.465541
515.646935
737.103820
855.906606
916.724801
875.470638
728.666782
576.050878
372.405648
240.824819
121.028423
64.359903
26.687980
16.924739
19.477606
26.795864
44.062734
61.442852
85.153580
104.815960
126.103759
132.367611
131.968856
122.475624
102.512836
84.160566
60.903430
45.052767
29.197931
21.058917
14.836788
12.660623
11.598468
11.652708
11.990666
12.008548
12.853742
12.709498
13.136864
13.308525
12.985468
13.615489
13.846755
13.542771
14.128685
14.157891
13.999939
14.075637
14.296770
14.507771
14.359951
13.883710
13.614893
13.987422
13.943911
13.448000
13.426542
13.482571
12.904406
13.498664
##ZVALUE=305
0.690818
0.748634
0.579953
0.717640
0.622869
0.706911
0.740886
0.694990
0.763535
0.732541
0.626445
0.762939
0.675917
0.728965
0.783801
0.697970
0.868440
0.689626
0.827909
0.916719
0.844598
0.894666
0.964999
0.975728
0.885725
0.872612
1.057982
1.078844
1.010895
1.260638
1.425743
1.357794
1.539588
1.766682
2.770424
14.706850
42.600632
119.484663
214.381814
387.346745
534.486771
700.207949
792.133808
805.207491
742.312670
585.239530
452.220440
288.340449
184.455514
92.452765
50.948858
21.030903
13.517737
18.034577
25.634766
41.740537
58.614612
82.607865
100.251436
118.635893
126.427412
125.208497
117.370486
97.252727
80.074668
56.944489
41.819811
27.991533
20.505786
14.564991
12.926459
11.979938
12.037754
11.939406
12.570620
12.990832
12.703538
13.123751
13.346672
13.471842
13.600588
13.517737
13.829470
14.180541
14.209747
13.594627
13.775826
14.135838
13.742447
13.713837
13.611913
13.085604
13.121963
12.850761
12.872815
12.983680
##ZVALUE=310
0.682473
0.784993
0.634789
0.634789
0.513792
0.765920
0.621676
0.806451
0.792742
0.753999
0.506639
0.927448
0.568628
0.673532
0.852942
0.666976
0.710487
0.847578
0.823736
0.824928
0.853539
0.766516
0.832677
1.006722
0.847578
1.067519
1.009703
1.027584
1.067519
1.005530
1.031756
1.223683
1.307726
1.254678
1.378655
1.549721
1.975894
6.640553
21.072626
69.208741
132.196546
267.945528
399.353504
574.482679
687.463880
764.832497
743.265748
638.721585
523.167849
352.426767
234.676600
118.934512
63.705444
24.527907
13.239980
11.656880
14.951825
24.345517
34.845471
53.207874
71.196556
95.022917
107.824802
117.880702
119.256973
111.088753
97.667575
76.881647
59.120655
40.339828
30.495524
20.611882
16.230941
13.254881
12.367964
12.413859
12.185574
12.640953
12.762547
12.797713
13.283491
13.618469
13.813972
13.780594
13.749599
13.329983
13.979673
13.699532
13.706684
13.529658
13.726950
13.294816
12.948513
13.294816
12.578964
12.892485
##ZVALUE=315
0.708699
0.690818
0.631809
0.689626
0.508428
0.647902
0.607967
0.651479
0.836849
0.688434
0.761747
0.629425
0.667572
0.780821
0.623465
0.620484
0.667572
0.685453
0.799894
0.774860
0.775456
0.844598
0.774860
0.851750
0.971556
0.862479
0.843406
0.931621
0.954866
0.949502
1.031756
0.946522
1.237988
1.186728
1.207590
1.330972
1.384616
1.481771
1.622438
3.196001
10.237694
42.540431
92.666745
204.899907
320.555568
494.500995
610.117912
708.740950
729.804635
667.689443
570.017695
404.716730
283.305645
149.875879
83.555579
32.180548
15.814900
10.016561
10.277629
14.855862
21.462440
34.481883
47.360659
68.930984
85.198879
104.479790
112.075806
112.694502
106.355548
90.558529
75.537562
57.200789
43.130517
28.068423
21.027923
15.484691
13.921857
13.107657
12.709498
12.579560
13.062954
13.146996
12.990832
12.932420
13.998747
13.482571
13.415813
13.207793
13.410449
13.336539
13.196468
13.156533
13.184547
13.187528
12.774467
12.508631
##ZVALUE=320
0.543594
0.677705
0.816584
0.593662
0.690818
0.650883
0.698566
0.716448
0.705719
0.628829
0.626445
0.695586
0.710487
0.701547
0.657439
0.805855
0.723600
0.831485
0.783801
0.898838
0.831485
0.730753
1.006722
0.833869
0.758767
0.757575
0.728965
0.769496
0.965595
0.830889
0.870824
0.921488
0.963807
1.033545
0.953674
1.002550
1.040697
1.198649
1.250505
1.348853
1.161695
1.708865
4.878640
25.043488
61.562657
152.950883
248.423815
399.019718
524.467826
658.888817
714.128613
698.792934
632.084608
478.048921
346.068740
192.623734
110.921860
48.168898
24.378896
10.965466
8.944869
10.212660
12.935996
19.184947
28.800964
46.270490
60.735941
81.829429
94.352961
106.964707
107.494593
100.723505
90.206861
69.819689
55.580735
38.338900
29.263496
20.633936
16.670823
14.156699
13.384819
13.074875
13.017654
13.122559
13.263822
13.146996
13.548732
12.933612
13.216734
13.512969
13.501644
12.876987
12.817979
13.042688
12.923479
13.080835
##ZVALUE=325
0.707507
0.774860
0.663996
0.618696
0.429749
0.782609
0.735521
0.625849
0.698566
0.670552
0.615716
0.758767
0.675917
0.569820
0.677705
0.774860
0.762939
0.691414
0.724792
0.839829
0.623465
0.802875
0.800490
0.621676
0.702739
0.758767
0.737906
0.747442
0.723600
0.764728
0.897646
0.966787
0.888705
0.991821
0.874996
0.968575
0.995994
1.035929
1.021624
1.189709
1.184940
1.239777
1.544952
1.592636
3.098845
11.638403
43.883920
92.476606
201.284885
314.587951
474.053621
585.804582
688.062906
704.568624
643.803477
547.759533
376.833677
261.398554
138.505697
77.455640
29.454827
14.335513
8.959770
8.398890
9.962916
12.312531
19.157529
27.643442
44.907928
60.182810
80.795884
91.367960
100.826621
102.149844
94.031692
83.824992
67.592859
53.769946
37.042499
28.415918
19.741654
16.327500
14.388561
13.592839
13.102889
13.301969
13.073683
13.111830
12.885928
12.423992
12.906790
12.583733
12.567639
12.517571
12.675524
12.547970
##ZVALUE=330
0.626445
0.613928
0.594854
0.677705
0.707507
0.574589
0.596642
0.534654
0.730753
0.655651
0.818968
0.673532
0.784993
0.663996
0.619888
0.555515
0.633597
0.717640
0.664592
0.608563
0.692606
0.600815
0.662804
0.786781
0.723600
0.677705
0.761747
0.767708
0.725985
0.864863
0.776649
0.845790
0.801682
0.780821
0.795722
0.843406
0.889897
0.857711
0.962615
1.020432
1.080632
1.143813
1.073480
1.236796
1.265407
1.291633
1.810789
6.817579
21.288991
69.191456
129.967928
255.086422
369.722843
527.220964
624.383688
679.644942
658.159852
559.315681
448.540449
290.379524
189.192891
88.462830
45.544505
18.350482
9.915829
8.221865
8.583665
9.744763
12.644529
19.484758
27.312636
42.311549
54.745674
74.196458
86.354613
95.211864
95.772743
89.198947
80.088973
62.722564
50.065517
35.723448
27.984977
20.475984
16.735792
14.393926
13.280511
12.925863
12.588501
12.425780
12.567639
12.613535
12.172461
12.432933
12.647510
12.082458
##ZVALUE=335
0.531673
0.604987
0.694990
0.594854
0.450611
0.498891
0.665784
0.663996
0.592470
0.456572
0.575781
0.638962
0.488758
0.576973
0.576973
0.634789
0.690818
0.575781
0.634789
0.756979
0.655651
0.839829
0.707507
0.653863
0.538826
0.593662
0.677705
0.864863
0.669956
0.539422
0.778437
0.663996
0.775456
0.839829
0.713468
0.890493
0.965595
0.930429
0.959635
0.880957
0.949502
0.924468
0.893474
0.954866
1.049638
1.152754
1.168847
1.290441
1.356602
3.378987
11.522770
43.723583
89.267492
191.238523
301.926732
461.157560
567.334890
651.998520
654.819012
583.195686
486.218929
331.199765
226.057768
118.457675
63.266754
24.009943
12.625456
8.351803
8.300543
8.860826
9.863973
13.476610
18.044710
28.973818
39.017797
54.368973
68.079829
82.837939
89.064837
90.205669
85.058808
73.132515
62.216520
48.609972
38.417578
27.576685
21.737814
16.385913
14.929771
13.043880
12.428761
12.127757
12.268424
11.902452
11.816621
11.546612
##ZVALUE=340
0.575781
0.688434
0.634789
0.577569
0.570416
0.529885
0.483990
0.561476
0.479817
0.620484
0.601411
0.534654
0.706911
0.567436
0.601411
0.692606
0.560880
0.571609
0.667572
0.758767
0.557899
0.660419
0.633597
0.670552
0.698566
0.645518
0.839829
0.687838
0.724792
0.787973
0.752807
0.726581
0.609756
0.768900
0.608563
0.696778
0.765920
0.794530
0.804663
0.878572
0.877976
0.990629
0.845790
0.966787
1.019835
0.799894
1.005530
1.016855
1.052618
1.261830
1.051426
1.753569
5.486608
27.184486
63.795447
151.531696
248.175859
393.231511
504.944921
608.554482
639.485717
604.122877
528.447628
394.816995
284.554958
155.138969
88.802576
38.619637
17.433763
9.298921
8.078814
8.373857
8.873940
10.061860
12.478828
18.486977
25.757551
42.584538
53.455830
64.292550
76.429844
84.054470
84.506869
80.891848
70.641637
61.212778
46.691895
37.157536
26.744604
21.094680
15.938878
14.115572
12.464523
11.679530
11.463761
11.243820
##ZVALUE=345
0.489950
0.429749
0.399947
0.607967
0.601411
0.625849
0.555515
0.539422
0.499487
0.582933
0.580549
0.605583
0.432730
0.524521
0.568628
0.630617
0.531673
0.731945
0.556707
0.662804
0.663996
0.571609
0.667572
0.712872
0.782609
0.596642
0.712872
0.478625
0.723600
0.669956
0.727773
0.622869
0.719428
0.832677
0.818968
0.723600
0.646710
0.704527
0.783801
0.708699
0.898838
0.926852
0.841618
0.857711
0.921488
0.962615
0.762939
0.923872
1.054406
1.062751
0.990629
1.252890
1.212955
1.325607
3.219843
12.074709
48.580766
95.574856
194.762945
293.724537
438.717604
534.395576
608.567595
614.495873
540.766716
452.526808
310.154557
208.558440
100.730658
52.962899
20.632744
11.245608
8.146763
8.295774
8.376837
8.556843
9.882450
11.746883
17.136931
24.020672
36.007762
46.607852
60.213804
69.507957
76.857805
79.079866
74.913502
68.417788
56.187510
46.605468
35.241842
27.480721
19.920468
15.491843
12.802482
12.144446
##ZVALUE=350
0.472665
0.452995
0.530481
0.546575
0.567436
0.640750
0.636578
0.589490
0.696778
0.672936
0.538826
0.536442
0.654459
0.737906
0.670552
0.506639
0.673532
0.574589
0.747442
0.516772
0.642538
0.584722
0.741482
0.513792
0.590682
0.614524
0.625849
0.657439
0.634789
0.601411
0.649691
0.708699
0.758767
0.618696
0.558496
0.788569
0.674725
0.706911
0.629425
0.892878
0.808835
0.650883
0.907779
0.840425
0.624657
0.937581
0.774860
0.679493
0.762939
0.909567
0.964999
0.991821
0.964999
1.114607
1.139641
1.267791
1.527667
7.709861
23.263693
69.404840
129.311681
249.832869
355.312824
480.376482
557.689667
592.170954
554.552674
453.833938
348.176956
207.995772
127.242804
56.964755
27.654767
11.553764
8.289814
7.927418
7.773638
8.025765
8.220673
9.409785
11.600852
16.672611
21.894574
30.913949
40.733814
53.255558
61.767697
69.706440
72.161555
69.185495
64.174533
53.225756
44.145584
33.399463
25.822520
19.221902
##ZVALUE=355
0.612736
0.480413
0.552535
0.377893
0.559688
0.440478
0.493526
0.474453
0.663996
0.585914
0.493526
0.610948
0.537634
0.458956
0.639558
0.557899
0.557899
0.652671
0.759959
0.641942
0.588894
0.589490
0.515580
0.543594
0.470877
0.690818
0.585914
0.437498
0.715852
0.696778
0.754595
0.783801
0.720620
0.712872
0.603795
0.751615
0.729561
0.608563
0.682473
0.591874
0.629425
0.835657
0.792742
0.625849
0.745654
0.777841
0.707507
0.978708
0.852942
0.758767
0.983477
0.974536
0.908971
0.991821
0.939965
0.974536
1.066923
1.089573
1.486540
3.559589
11.695623
44.912696
91.504455
184.944868
285.201669
427.733660
511.875749
568.409562
560.996532
475.495458
381.763577
253.831744
161.106586
72.335601
35.793781
13.944507
8.571744
7.288456
7.471442
7.436872
7.559657
7.995963
8.677840
10.674596
13.756752
19.918680
26.637912
36.554933
45.421720
55.850744
61.575770
65.156817
64.091682
58.864951
50.914884
41.427612
##ZVALUE=360
0.515580
0.574589
0.433922
0.473857
0.529885
0.498891
0.639558
0.631809
0.625849
0.670552
0.533462
0.501871
0.455976
0.527501
0.517964
0.570416
0.612736
0.559688
0.713468
0.646710
0.616908
0.605583
0.647902
0.548959
0.710487
0.720620
0.567436
0.403523
0.731945
0.673532
0.360608
0.684857
0.816584
0.541806
0.543594
0.723600
0.549555
0.558496
0.643730
0.733733
0.712872
0.789762
0.647902
0.721812
0.680685
0.811815
0.608563
0.719428
0.662804
0.872612
0.819564
0.809431
0.910759
0.869632
0.776649
1.026988
0.922680
0.962615
1.189709
1.189709
1.170635
1.854897
5.315542
23.661852
55.916905
136.214495
220.103860
348.389745
450.421572
545.601845
563.262701
516.023636
437.654853
300.580859
200.881958
98.794699
52.886605
21.383762
10.644794
6.977916
7.033944
6.854534
6.948709
6.911755
7.199645
7.760525
9.018779
11.740923
15.319586
22.611618
29.437542
40.032864
47.587752
55.956841
58.912635
58.766603
##ZVALUE=365
0.571609
0.433922
0.403523
0.603795
0.540614
0.583529
0.579953
0.436902
0.503659
0.538826
0.714660
0.636578
0.617504
0.574589
0.588894
0.641942
0.574589
0.531673
0.435710
0.469685
0.569820
0.554919
0.588894
0.596642
0.593662
0.635982
0.577569
0.706911
0.567436
0.654459
0.547767
0.494719
0.808835
0.537634
0.515580
0.468493
0.632405
0.669956
0.627637
0.726581
0.686646
0.653863
0.776649
0.849962
0.685453
0.666976
0.750422
0.769496
0.663996
0.752807
0.700951
0.862479
0.939965
0.744462
0.883937
0.744462
0.739694
0.962615
0.907779
0.991821
1.115799
1.118779
1.245737
1.360774
2.644658
13.146996
35.166740
89.730620
162.597895
292.060971
388.221741
490.464568
534.046888
518.003702
452.704430
331.721902
235.309601
130.842924
72.453618
28.650761
13.698936
6.966591
6.315708
6.453991
6.311536
6.342530
6.335974
6.396770
6.922483
7.903576
9.534955
13.736486
17.975569
25.587678
32.667518
41.382909
##ZVALUE=370
0.548959
0.577569
0.555515
0.654459
0.424981
0.494719
0.469685
0.629425
0.474453
0.486970
0.645518
0.476837
0.542998
0.534654
0.540614
0.502467
0.570416
0.436902
0.593662
0.589490
0.694990
0.584722
0.537634
0.587702
0.478625
0.545979
0.535846
0.666976
0.590682
0.552535
0.553727
0.710487
0.652671
0.682473
0.651479
0.474453
0.529885
0.666976
0.730753
0.745654
0.700951
0.879765
0.717640
0.784993
0.684857
0.646710
0.556707
0.631809
0.712872
0.753999
0.816584
0.588894
0.771880
0.665784
0.690818
0.781417
0.758767
0.940561
0.742674
1.020432
1.041889
0.910759
0.999570
1.146793
1.089573
1.176000
1.645684
6.596446
21.307468
66.054463
123.197436
230.354667
328.953862
453.189015
509.889722
522.259474
474.636555
374.330878
277.014971
156.298876
89.312792
37.667751
18.939972
8.938909
6.231666
5.906820
5.857944
5.730987
5.740523
5.973577
5.803704
6.259680
6.936789
8.984804
11.605620
16.447902
##ZVALUE=375
0.565648
0.502467
0.478625
0.546575
0.624657
0.614524
0.455976
0.415444
0.632405
0.591874
0.473857
0.439882
0.461936
0.609756
0.623465
0.514984
0.583529
0.535846
0.551939
0.437498
0.593662
0.487566
0.702739
0.514984
0.577569
0.699759
0.395775
0.600815
0.742674
0.691414
0.570416
0.553727
0.594854
0.446439
0.486970
0.589490
0.623465
0.509620
0.595450
0.650883
0.665784
0.676513
0.710487
0.646710
0.600815
0.694990
0.591874
0.527501
0.594854
0.662804
0.732541
0.812411
0.645518
0.829697
0.741482
0.738502
0.919700
0.805855
0.576973
0.815988
0.767708
0.914931
1.065731
0.921488
0.922680
0.887513
1.080632
1.098514
1.170635
3.441572
11.620522
40.735602
85.004568
185.061693
283.310413
416.860580
497.289896
544.431806
525.438786
433.114767
334.054828
201.273561
127.642751
65.326691
33.411980
12.850761
6.998777
5.508661
5.213618
5.380511
5.469918
5.436540
5.441904
5.553961
5.715489
6.484985
##ZVALUE=380
0.581741
0.626445
0.436902
0.497699
0.486970
0.533462
0.656843
0.576973
0.532866
0.555515
0.529885
0.576973
0.618696
0.593662
0.565648
0.561476
0.416636
0.588894
0.467896
0.400543
0.613928
0.581741
0.764728
0.725985
0.428557
0.649691
0.514984
0.582933
0.550747
0.483990
0.710487
0.594854
0.571609
0.572801
0.687838
0.646710
0.652671
0.722408
0.652671
0.562668
0.615716
0.720620
0.565648
0.722408
0.621676
0.597835
0.842810
0.728965
0.690818
0.753999
0.636578
0.768900
0.696778
0.753999
0.676513
0.707507
0.712872
0.708699
0.784993
0.813603
0.851750
0.698566
0.708699
0.808835
0.915527
0.948906
0.986457
0.947714
1.031756
1.180768
1.333952
2.018809
8.119941
24.092793
71.994662
130.011439
241.729617
346.765518
467.546582
525.713563
525.501966
475.562811
374.142528
277.522802
162.661672
95.097423
40.241480
19.635558
7.561445
5.406737
4.923940
5.020499
5.137920
4.979968
5.156994
5.144477
##ZVALUE=385
0.701547
0.758767
0.825524
0.789762
0.773668
0.770688
0.755787
0.653863
0.641942
0.773668
0.789762
0.656843
0.833869
0.803471
0.713468
0.835657
0.755787
0.676513
0.734925
0.739694
0.687838
0.868440
0.779629
0.800490
0.721812
0.810623
0.776649
0.781417
0.643730
0.750422
0.835657
0.845790
0.589490
0.780821
0.830889
0.785589
0.825524
0.808835
0.816584
0.797510
0.762939
0.773668
0.690818
0.714660
0.905991
0.709891
0.818968
0.856519
0.806451
0.921488
0.917912
0.847578
0.822544
0.777841
0.770688
0.972748
0.788569
0.850558
0.770688
0.872612
0.922680
0.941753
0.964999
0.816584
0.988841
1.125932
1.035929
1.114607
1.058578
1.258850
1.241565
1.350641
1.389980
1.702905
3.453493
15.383959
40.754676
106.040835
181.042552
306.030512
398.743749
488.675833
511.628985
484.489799
426.769853
314.039588
224.254727
123.169422
70.830584
30.141473
13.517737
5.987883
5.031824
4.777908
4.751682
4.913807
##ZVALUE=390
0.605583
0.563860
0.661612
0.645518
0.618696
0.706911
0.581741
0.732541
0.670552
0.637770
0.646710
0.545979
0.568628
0.431538
0.654459
0.586510
0.648499
0.507832
0.710487
0.585914
0.671744
0.560880
0.617504
0.766516
0.600815
0.579953
0.660419
0.649691
0.734925
0.655651
0.739694
0.620484
0.755787
0.730753
0.667572
0.785589
0.770688
0.700951
0.696778
0.662804
0.651479
0.601411
0.788569
0.823736
0.549555
0.572801
0.627637
0.521541
0.739694
0.830889
0.523925
0.781417
0.737906
0.656843
0.773668
0.708699
0.676513
0.746846
0.966787
0.792742
0.859499
0.926852
0.690818
0.745654
0.869632
0.942945
0.901818
0.986457
0.917912
1.054406
1.022816
1.022816
1.158714
1.123548
1.283884
1.203418
1.881719
9.362698
28.377771
83.125830
149.940848
268.455744
355.695486
449.280739
500.220656
508.008599
466.528535
366.175771
279.223919
172.257423
101.656914
42.598844
20.808578
7.562637
5.117655
4.430413
##ZVALUE=395
0.650883
0.623465
0.643730
0.654459
0.782609
0.702739
0.734925
0.623465
0.788569
0.852942
0.649691
0.669956
0.672936
0.612736
0.801682
0.642538
0.624657
0.656843
0.580549
0.645518
0.696778
0.756979
0.499487
0.676513
0.724792
0.717640
0.741482
0.729561
0.625849
0.704527
0.697970
0.834465
0.777841
0.778437
0.792742
0.787973
0.877976
0.653863
0.783801
0.700951
0.570416
0.731945
0.900626
0.775456
0.579953
0.921488
0.653863
0.807643
0.813603
0.892878
0.837445
0.771880
0.735521
0.713468
0.970960
0.867844
0.718832
0.852942
0.812411
0.773668
0.772476
0.904799
0.746846
0.886917
0.956655
0.927448
0.950694
0.956655
1.021624
1.193881
1.075864
1.148582
1.190901
1.058578
1.132488
1.323819
1.047850
1.206994
1.514554
5.486608
18.699765
62.099695
112.996697
206.552744
297.361612
416.674018
482.432842
517.718792
495.640635
413.465500
322.844982
201.108456
126.153827
56.674480
28.462410
10.763407
##ZVALUE=400
0.502467
0.533462
0.570416
0.429749
0.590682
0.464916
0.369549
0.504851
0.566840
0.510812
0.398755
0.507832
0.528693
0.429749
0.523925
0.505447
0.585914
0.465512
0.459552
0.385642
0.490546
0.480413
0.512600
0.591874
0.546575
0.650883
0.602603
0.577569
0.575781
0.475645
0.536442
0.664592
0.681877
0.611544
0.710487
0.681877
0.582933
0.434518
0.700951
0.559688
0.437498
0.505447
0.690818
0.557899
0.778437
0.643730
0.726581
0.589490
0.640750
0.663996
0.524521
0.581741
0.669956
0.581741
0.660419
0.563860
0.585914
0.684857
0.539422
0.539422
0.573993
0.708699
0.793934
0.695586
0.633597
0.658631
0.705719
0.774860
0.775456
0.836849
0.772476
0.835657
0.756979
0.932813
0.922680
0.935793
0.895858
1.130700
1.005530
1.067519
1.258850
2.527833
9.237528
34.976602
72.144866
153.998733
238.385797
356.585979
430.767536
488.194823
488.778949
425.402522
352.329612
242.146850
161.501765
84.663630
##END
