##TITLE=FQP00302
##FORMAT=SPECTACLE-ASCII V-1.2
##DATA TYPE=ULTRAVIOLET SPECTRUM
##SECOND TYPE=ULTRAVIOLET SPECTRUM
##DATE=01/11/18
##TIME=18:50:55
##SPECTROMETER/DATA SYSTEM=SPECTACLE
##XUNITS=NM EM
##YUNITS=ENERGY
##YFACTOR=1
##FIRSTX=220
##LASTX=410
##NPOINTS=96
##3DDATA=Equidistant
##ZUNITS=NM EX
##FIRSTZ=210
##LASTZ=400
##ZPOINTS=39
##XYDATA=(Y..Y)
##ZVALUE=210
2.944469
3.112555
2.740622
3.006458
3.084540
3.365874
3.027916
3.612638
3.367662
3.200769
2.986789
3.555417
3.766418
3.930926
3.908873
4.599690
4.956722
4.182458
4.769564
4.853606
5.494952
5.580783
6.155968
5.927682
6.007552
6.685853
7.775426
7.474422
7.492900
9.229779
9.132624
8.667707
9.346604
10.135770
9.578466
9.900928
9.811521
9.923577
10.264516
11.302829
10.316968
10.715723
10.086894
11.981726
10.801554
10.207891
10.621548
11.918545
12.439489
11.823773
11.842847
12.050867
11.431575
11.242628
12.319684
13.050437
12.619495
13.088584
11.977553
12.311935
12.323856
11.895895
12.349486
12.519956
13.173819
13.164878
14.276505
16.600490
15.520453
21.880865
22.773743
30.319691
34.434795
38.416982
43.881536
49.546957
51.740408
51.003695
55.315495
52.786469
52.622557
45.532584
43.433905
33.859611
29.160976
24.522543
20.632744
17.284751
13.980865
13.235807
13.744831
11.000633
11.544824
13.908744
12.296438
11.950731
##ZVALUE=215
9.707808
8.395910
8.412600
7.925630
6.991625
5.803704
5.370975
6.331801
6.065965
6.235838
5.883574
5.622506
4.499555
4.779696
4.924536
4.201531
4.424453
4.834533
4.679561
4.655719
5.770922
6.221533
5.849600
6.914735
6.227493
6.800890
7.073879
8.593798
8.800626
8.882880
10.462999
10.660887
11.489987
11.247993
11.673570
11.644959
12.686849
11.939406
12.959838
12.016892
12.834668
12.464523
11.707544
12.017488
12.057424
12.648702
12.447834
11.557937
10.963678
11.855960
12.188554
11.783838
11.684895
11.585951
11.617541
12.860894
11.920929
11.435747
11.589527
12.496710
10.910630
11.640787
12.823939
12.996793
13.357997
13.299584
13.206601
14.139414
15.395880
18.376708
19.914508
24.632812
28.619766
34.790635
36.282539
38.426518
40.501952
42.904615
43.622851
39.099455
39.625764
34.014583
33.281446
28.789639
24.801493
21.044612
18.561482
14.913678
14.569759
13.498664
13.621449
11.784434
12.072921
12.747645
11.724830
12.351871
##ZVALUE=220
31.343699
31.294823
33.997893
34.954548
32.483935
28.359890
22.385716
15.784502
12.702942
11.873841
13.275743
12.572408
13.643503
10.943413
9.872913
8.450747
6.712675
5.637407
4.671812
4.821420
5.323887
5.825758
5.179644
5.625486
7.426739
8.732677
9.164810
10.278821
10.474920
11.687875
12.983680
13.712645
14.343858
14.464855
14.932752
16.208887
15.760660
14.734864
16.512871
14.881492
17.357469
15.343428
15.492439
15.306473
15.607476
14.988780
14.019608
13.088584
12.740493
13.026595
12.294650
14.523864
13.234615
13.409853
12.773871
13.462901
12.538433
13.439655
13.294816
12.303591
12.872815
12.470484
12.737513
11.052489
12.270808
12.357831
12.836456
13.502836
15.062690
17.707944
19.356608
21.407604
24.828911
26.921630
29.041767
31.738877
32.477975
33.231974
34.268498
32.015443
30.972958
32.113791
27.119517
25.644898
22.178888
18.153787
16.478896
15.514493
12.446642
12.610555
12.923479
11.850595
11.581779
10.402799
11.493564
11.614561
##ZVALUE=225
59.963465
60.985684
83.463788
110.418797
120.221972
126.821995
117.156506
96.751451
73.931813
51.242709
29.795766
27.578473
24.701953
28.362870
28.750896
27.555823
21.979809
20.068884
14.993548
10.674000
8.908510
7.445812
6.833673
7.984638
7.617474
9.128451
9.658933
11.404753
13.017654
14.748573
15.339851
16.498566
20.205975
20.367503
20.874739
20.884871
20.610690
19.715428
20.653605
19.100904
19.452572
20.044446
18.738508
18.897653
18.403530
18.296838
16.521811
17.989874
17.069578
15.676618
16.334653
16.336441
15.388727
14.989972
16.389489
14.038682
14.353991
16.549826
15.301704
15.573502
14.652610
15.917420
14.630556
15.841722
16.439557
15.730858
17.127991
17.584562
19.015670
20.989776
23.134947
25.271773
27.025938
31.758547
34.013987
33.707619
34.865737
35.580993
36.030412
31.991601
32.263994
30.740499
27.279854
26.656985
24.947524
22.217631
19.381642
19.311905
18.143654
17.547607
17.117858
16.770959
15.246868
16.157627
15.326738
16.534925
##ZVALUE=230
56.149960
61.134696
102.865696
183.692575
252.558589
320.030451
361.208916
363.745689
338.105559
285.026431
194.852948
134.464502
77.406764
58.048964
48.331618
50.697923
53.040981
51.278472
44.401884
37.678480
28.736591
21.762848
16.291738
12.227893
10.149479
11.705756
11.381507
12.283921
15.243888
16.673803
17.987490
20.095706
20.902753
21.939874
22.997856
20.823479
22.681952
23.613572
22.328496
22.624731
21.609664
23.591518
20.970702
23.322701
21.103621
20.882487
20.561814
19.694567
18.754601
19.364953
17.478466
20.541549
19.060969
18.110871
19.138455
18.947721
19.078851
18.143654
19.282699
18.491745
19.144416
20.095706
20.409822
19.530654
21.271706
21.643639
22.212863
22.657514
25.091767
25.873780
27.102828
33.063889
34.837723
38.730502
40.883422
44.452548
43.557882
46.441555
42.202473
41.787624
38.407445
36.888719
38.356781
29.892921
31.010509
29.463768
28.079748
26.902556
24.609566
24.542809
24.284720
22.817850
24.580956
23.502707
22.708774
23.734570
##ZVALUE=235
22.774935
26.954412
52.969456
133.377910
222.251415
374.904871
503.554940
667.643547
718.258619
722.854733
628.392696
497.868657
318.823457
220.857859
135.277510
94.940662
78.250766
79.816580
87.552667
88.408589
81.911683
68.627596
56.949854
39.810538
29.391646
20.306706
15.947819
14.288425
13.238788
13.940930
15.343428
17.435551
17.701983
17.647743
18.802881
19.484758
19.210577
20.304918
19.669533
21.065474
20.524859
21.923780
21.208525
20.723939
21.714568
21.846890
19.819736
20.290613
20.643473
20.036697
18.597841
19.287467
21.780729
21.044612
21.208525
19.219518
19.570589
19.207597
22.567511
20.859838
20.435452
21.768808
20.655990
21.990538
21.669865
24.225712
26.320815
27.088523
28.354526
32.396913
33.523440
40.139556
43.003559
46.416521
49.394965
49.939752
50.013661
52.476525
48.461556
49.384832
47.570467
42.512417
39.934516
36.465526
37.064552
34.406781
31.557679
30.651689
30.625463
30.867457
30.934811
30.818582
30.666590
30.658841
27.696490
31.695962
##ZVALUE=240
2.861619
3.342628
10.245442
25.649667
81.248879
155.319571
320.282578
489.805937
749.011636
917.934775
1015.681624
1011.753678
908.147693
702.178478
516.919494
349.200964
200.582743
138.483644
102.893710
107.196569
118.369460
124.376416
114.938617
105.197430
92.275739
68.707466
54.114461
36.753416
26.484728
20.369887
16.898513
15.421510
15.681982
16.342998
15.559793
17.293692
17.508864
18.444657
19.555688
20.601749
20.093918
20.852685
20.479560
20.772815
20.721555
22.141933
21.674633
20.874739
19.932985
19.897819
21.489859
20.707846
20.367503
21.005869
18.497705
21.027923
21.166801
21.521449
20.918846
23.006797
22.005439
21.622777
24.344921
22.775531
24.360418
25.392771
26.725531
26.453733
29.478669
30.451417
35.693645
38.491488
41.571856
43.236613
45.618415
48.060417
46.057701
47.192574
47.045946
46.583414
45.268536
42.995811
45.058727
41.494966
40.258765
36.912560
39.927959
38.648844
35.331845
38.238764
37.588477
36.839843
37.354827
36.341548
36.768913
35.816431
##ZVALUE=245
1.938939
2.345443
2.333522
2.453923
5.758405
21.085739
88.384748
204.364657
447.672606
688.229799
1005.694866
1015.694737
1015.694737
1015.694737
1015.694737
976.455808
740.059018
478.203893
319.615006
179.618001
122.171640
108.744502
116.873980
131.636858
137.061477
133.510828
120.137930
99.071860
76.866746
55.309534
37.640929
27.882457
21.248460
14.817715
14.614463
14.400482
14.765859
15.834570
15.855432
17.187595
19.048452
18.763542
18.139482
18.989444
18.152595
16.902685
18.872619
18.427968
17.762780
17.808676
19.433498
18.633604
17.407537
19.002557
19.455552
18.902421
18.833876
18.141866
18.903613
19.624829
18.729568
19.655824
19.105673
19.732714
20.987988
20.183921
21.963716
23.207664
25.932789
27.929544
30.466914
35.684705
36.289692
38.379431
38.718581
41.700602
42.234659
43.995976
44.126511
43.398738
41.092634
41.520596
40.301681
38.941503
38.487911
37.349463
35.173893
35.817623
34.328699
34.563541
35.871863
34.444928
34.788847
34.359694
34.110546
36.454797
##ZVALUE=250
1.633763
1.508594
1.905560
1.850724
2.310872
2.118945
3.032684
9.900928
46.021938
103.329420
256.633759
421.804786
631.301999
906.853676
1015.681624
1015.681624
1015.681624
960.382819
781.994462
502.529740
325.677991
205.671787
117.392540
98.819733
109.731555
124.382973
140.488744
146.776438
139.472485
130.489469
111.331940
82.722902
64.652562
41.289926
30.331612
22.622943
17.010570
16.134977
16.924739
16.451478
17.624497
17.510653
17.599463
19.011497
18.264651
18.543601
17.457604
18.052459
17.757416
17.254949
17.320514
15.673637
16.820431
16.824603
17.325878
16.532540
16.729832
16.005635
16.372800
15.226603
15.275478
16.542673
16.834736
16.264915
17.089844
17.959476
17.500520
19.330978
19.869804
20.753741
21.887422
23.645759
24.785995
26.579499
29.167533
28.309822
31.708479
32.379627
32.601953
32.473803
32.015443
32.713413
31.181574
31.404495
31.901598
31.242967
31.276941
31.288862
31.657815
29.841661
30.975938
31.378865
30.089617
31.522512
30.577779
32.161474
##ZVALUE=255
1.458526
1.566410
1.610518
1.633763
1.466870
1.704693
1.847744
1.954436
2.107620
6.197691
22.830963
78.676939
150.810480
300.723910
432.522893
603.359938
720.288754
796.393752
787.318945
707.387924
592.604876
427.314639
291.310549
169.941783
113.540888
88.819861
91.130733
114.256740
129.287839
146.525502
157.670975
155.370831
139.350891
119.916797
90.702772
67.195892
48.067570
33.116937
25.014877
20.181537
18.594861
17.668605
18.575788
18.358827
18.720627
18.297434
16.989708
17.223954
16.447902
17.082691
17.801523
15.536547
15.879869
15.275478
15.164614
14.887452
14.155507
14.115572
14.045835
14.293790
13.551712
14.325976
13.085604
14.999509
14.674664
14.630556
15.576482
15.744567
16.589761
18.117428
19.003749
19.755960
21.380782
21.131635
23.416877
25.007725
24.511814
25.654435
24.830699
25.355816
27.642846
25.866628
26.374459
27.295947
26.270747
28.253794
29.040575
29.083490
28.691888
29.021502
28.168559
29.057860
29.165745
29.293895
29.375553
28.470755
##ZVALUE=260
1.235604
1.199841
1.126528
1.357794
1.455545
1.508594
1.427531
1.616478
1.775622
2.062917
2.116561
3.057718
10.015965
43.563843
93.547702
206.608772
315.871835
489.196777
632.551908
820.388794
923.637748
960.381031
905.092955
767.354965
536.747575
378.379822
220.987797
136.307478
87.286830
91.351867
111.833811
136.264563
158.037543
170.356631
163.947940
148.307681
128.891468
98.842978
75.748563
52.102804
38.668513
28.835535
23.994446
22.475719
20.994544
20.637512
20.854473
20.264983
19.632578
17.636418
16.908646
17.221570
16.704798
16.668439
15.404820
16.027689
14.559627
14.415979
13.538599
13.569593
14.601946
14.600754
13.065934
14.286637
12.923479
14.380813
14.613867
15.114546
15.551448
16.936660
17.461777
18.860698
19.632578
20.822883
22.327900
22.198558
23.161769
24.351478
24.017692
23.738742
24.841428
25.454760
25.080442
26.031733
25.847554
26.112795
26.534796
27.292967
26.320815
26.560426
26.489496
27.102828
27.516484
28.326511
27.618408
27.618408
##ZVALUE=265
1.259446
1.235604
1.508594
1.328588
1.208782
1.206994
1.289845
1.279712
1.409650
1.568794
1.676679
1.467466
1.738667
2.080798
4.533529
20.237565
48.754811
115.159750
201.072693
377.267003
548.809767
756.424665
989.872813
1015.681624
1015.681624
930.672884
692.979693
488.817692
272.899866
161.296725
92.332959
82.084537
96.767545
128.311515
148.807764
171.608925
178.445578
169.535875
157.983899
127.186775
104.664564
73.897839
55.801868
38.405657
29.653907
23.980737
21.612644
20.635724
20.224452
18.998981
18.621683
17.895699
17.466545
16.359687
15.771985
15.627742
15.883446
14.879704
14.636517
13.668537
14.290810
13.406873
13.979673
14.397502
13.139844
14.049411
14.603734
15.114546
14.082789
15.464425
15.907884
16.882420
17.884970
19.307733
19.586682
20.598769
20.970702
21.499991
22.210479
21.646619
23.875833
22.842884
22.892952
23.989677
24.050474
23.227930
24.523735
24.962425
23.960471
25.125742
25.499463
25.448799
26.379824
25.698543
26.629567
26.908517
##ZVALUE=270
1.100898
1.127720
1.022816
1.141429
1.324415
1.181960
1.404881
1.361966
1.295805
1.307726
1.568794
1.683831
1.486540
1.681447
1.925826
2.007484
2.457500
9.575486
26.102662
83.264709
170.972943
309.844613
548.986793
735.172629
931.741595
990.836024
939.749479
826.284885
617.882013
459.044576
318.370461
175.613761
107.229948
71.626902
77.062845
103.764534
125.306845
155.972838
170.727968
179.684758
171.711445
153.954625
132.606626
102.096796
76.965690
51.390529
39.421916
28.962493
23.707747
20.402670
18.457770
17.907619
17.036796
16.083717
15.553832
15.596747
14.931560
14.864802
14.216900
13.970733
14.190674
14.467835
13.986826
13.103485
13.406873
14.097691
13.465881
15.135407
14.818907
14.987588
16.417503
16.394854
18.164515
18.076897
19.464493
20.049810
19.767880
20.737648
19.927621
20.878911
21.354556
22.158623
21.961927
23.189783
23.683906
22.764802
23.758411
23.551583
24.907589
24.067760
23.123622
23.514628
23.621917
25.268793
25.177598
25.982857
##ZVALUE=275
1.052618
1.209974
1.140833
0.967979
1.027584
1.121759
1.282692
1.115799
1.125932
0.996590
1.471639
1.590848
1.424551
1.651645
1.350641
1.687407
1.911521
1.993775
2.216697
5.473495
18.960834
53.171515
178.747773
371.837616
695.907474
932.644606
1015.681624
1015.681624
1015.681624
1015.681624
869.092941
590.767860
401.259661
210.927725
126.800537
70.661902
62.163472
74.229836
93.833804
127.914548
145.867467
168.614984
172.503591
165.581703
152.007937
123.036504
99.374652
71.933866
54.104924
35.289526
26.655793
19.923449
17.053485
15.629530
14.892817
14.996529
13.710856
14.307499
14.254451
13.404489
13.748407
13.675690
13.654828
13.497472
13.654828
14.032722
14.535785
14.676452
15.077591
15.763640
16.362667
17.086864
18.253922
17.966628
19.093752
20.334721
19.614697
20.103455
20.410419
20.759702
21.421909
21.847486
22.563934
21.914840
22.917986
22.775531
23.256540
22.560954
23.198724
23.892522
23.794770
23.740530
23.198724
23.616552
24.231672
23.278594
##ZVALUE=280
1.058578
1.025796
1.107454
1.008511
0.879765
1.071692
1.008511
1.107454
1.179576
1.250505
1.308918
1.336932
1.199841
1.534820
1.171827
1.324415
1.166463
1.268983
1.617670
1.957417
1.967549
2.664924
14.262795
45.777559
148.556828
275.280476
499.547720
701.797009
936.213732
1015.681624
1015.681624
1002.485752
861.510634
622.443557
445.207953
253.662467
153.392553
79.047680
51.602721
50.155520
65.692663
94.386935
115.770698
141.850710
157.938600
163.620710
157.674551
140.274763
120.611787
88.725686
68.139434
46.101809
32.619834
21.505952
17.133951
13.923645
13.069510
12.537837
12.970567
13.323426
12.872815
13.175607
12.891889
13.390779
13.789535
13.243556
14.327765
14.969707
15.281439
15.349984
16.301870
16.150475
17.099977
18.239617
17.772913
18.983483
19.632578
19.819736
21.023750
19.871593
20.794868
21.402836
21.227598
21.481514
22.125840
22.315979
22.197962
22.753477
23.097992
23.694634
22.845864
22.844672
22.653937
23.001432
21.970868
21.869540
##ZVALUE=285
0.851750
0.879765
0.874996
1.002550
0.931621
0.884533
1.050830
1.112819
0.922680
0.960827
1.072884
0.956655
0.985861
1.257658
1.152754
1.144409
1.311898
1.268983
1.118779
1.433492
1.389980
1.480579
1.505613
2.072453
6.059408
20.976663
72.003007
146.292448
301.145911
448.615551
609.171987
791.423917
870.655775
879.246593
812.366605
653.281808
510.475636
325.062871
208.590627
103.303790
59.017539
36.805868
39.632916
60.100555
80.325603
110.602975
131.981969
149.059892
154.251456
151.431561
138.215423
114.296675
92.260838
64.221621
47.208667
29.381514
20.429492
15.370846
12.950897
12.146831
12.070537
12.353659
12.794733
12.957454
13.221502
14.242530
14.763474
15.062690
15.168786
15.309453
17.007589
17.102957
17.607808
18.571615
18.689632
19.058585
19.733906
20.576715
20.353794
20.903945
21.277666
22.153854
21.733642
22.271872
22.184849
22.890568
21.973848
22.362471
23.159981
23.530722
22.126436
22.822618
22.492409
22.573471
23.034811
22.729635
##ZVALUE=290
0.896454
0.864863
0.875592
0.907779
1.008511
1.031756
0.837445
0.838637
0.969768
0.749826
0.819564
0.934601
1.052618
0.896454
1.079440
1.153946
1.170635
1.345873
1.340508
1.235604
0.947714
1.394749
1.163483
1.311898
1.654625
1.791716
2.437830
7.840991
36.784410
92.382431
192.817450
423.648953
644.353032
926.978588
1015.623808
1015.623808
1001.351476
803.648829
625.386834
408.448577
269.999504
138.402581
77.625513
35.394430
27.268529
36.908984
50.624609
74.724555
95.588565
125.029683
140.014887
146.928430
145.055652
132.598877
111.772418
83.845854
63.437819
42.320490
30.307770
19.717813
15.412569
12.865663
12.583733
13.138652
12.847781
13.637543
13.599992
14.824867
15.292764
16.011596
17.095804
17.013550
17.514825
18.277764
18.969774
19.638538
20.114779
20.416975
20.687580
21.867752
21.427870
21.818876
22.372603
22.051930
22.741556
22.924542
23.157597
23.118854
23.239851
23.192763
22.472739
22.214651
23.233891
22.724867
22.608638
22.250414
##ZVALUE=295
0.721812
0.642538
0.879765
0.999570
0.880957
0.919700
0.759959
0.901818
0.698566
0.924468
0.832677
0.821948
0.786781
1.061559
0.743866
0.920892
0.909567
1.016855
1.028776
1.046658
1.140833
1.161695
1.257658
1.464486
1.361966
1.490712
1.796484
1.921654
2.220869
3.716946
12.551546
58.151484
137.920976
337.715745
540.272593
824.906826
992.569923
1015.681624
1015.681624
889.485478
718.017817
484.503508
329.875946
175.537467
98.371506
41.115880
24.217963
22.359490
30.656457
49.538612
66.759586
95.059872
113.005638
133.437514
141.320825
135.701895
126.860738
104.409456
85.147619
60.672760
44.992566
29.016733
22.332668
16.620755
14.146566
13.625622
13.276935
14.310479
15.124679
15.624762
16.799569
17.179847
17.737746
18.929839
19.100904
19.695759
20.293593
20.362735
21.157861
21.434426
22.043586
22.201538
22.951961
22.942424
22.735596
22.972822
23.015738
24.045706
23.679733
22.751689
23.355484
22.746921
23.101568
22.797585
22.836924
22.565722
##ZVALUE=300
0.735521
0.725985
0.731945
0.649691
0.699759
0.807643
0.614524
0.705719
0.815988
0.778437
0.812411
0.951886
0.875592
0.652671
0.891685
0.979900
0.966787
0.762939
0.919700
0.954866
1.075864
0.882745
1.109838
0.996590
1.178980
1.317859
1.255870
1.553893
1.548529
1.662970
1.740456
1.856685
7.863641
30.976534
106.766820
199.843645
373.928547
517.168641
685.855746
770.911574
817.464590
787.848830
666.700602
543.270707
356.306434
234.271884
118.666887
64.348578
27.081966
17.029643
19.134879
27.369857
44.039488
61.203837
87.069869
105.587840
126.745701
134.855509
132.039785
124.009848
102.972984
85.253716
62.223673
46.713948
30.397773
22.996664
18.046498
15.982985
15.323758
16.143918
15.941858
17.076731
17.563701
17.664433
18.680692
19.388795
20.533800
20.405650
20.885468
21.694899
22.893548
22.651553
23.322701
23.325682
23.964643
23.933649
23.658872
23.425817
23.356676
24.369955
23.475885
22.526979
23.077726
23.082495
23.428798
22.563934
##ZVALUE=305
0.763535
0.746846
0.707507
0.765920
0.915527
0.783801
0.663996
0.556707
0.817776
0.726581
0.687838
0.875592
0.666976
0.782609
0.804663
0.794530
0.861883
0.838637
0.820756
0.670552
0.799894
0.969768
0.902414
1.036525
1.129508
1.158714
1.282692
1.109838
1.083612
1.240969
1.424551
1.504421
1.553893
1.863837
3.089905
23.281574
68.308711
178.535581
294.986963
483.921766
619.494915
758.851767
814.443827
802.968740
728.078485
565.036535
440.051556
280.532837
176.590681
81.575513
42.268634
17.329454
13.314486
17.850995
25.263429
42.833686
58.781505
83.509684
101.836920
119.102597
127.773881
127.044916
119.193792
100.304484
82.757473
59.692860
45.557618
32.339692
24.695992
19.493699
17.303824
17.129779
17.504692
18.387437
18.596649
19.816756
20.530820
20.777583
21.126866
22.322536
22.587776
23.735762
24.096966
23.984909
24.868846
24.498701
24.155974
23.878813
24.403930
24.317503
23.966432
24.353862
23.611784
23.505688
23.597479
23.312569
##ZVALUE=310
0.666976
0.544786
0.633597
0.773668
0.793934
0.852942
0.876784
0.757575
0.642538
0.792742
0.719428
0.855923
0.719428
0.747442
0.771880
0.698566
0.796914
0.787973
0.775456
0.880957
0.946522
1.043677
0.788569
1.127720
1.028776
0.842810
1.059771
1.063943
0.972748
1.099706
1.005530
1.110435
1.255870
1.501441
1.429915
1.702905
2.016425
9.390712
32.942891
110.790730
206.650496
381.493568
529.564023
696.766973
778.432488
808.140635
772.491693
656.815767
535.752773
357.030630
237.788558
121.401548
66.078901
25.951862
13.895631
12.017488
15.866756
24.678707
34.922957
55.194497
72.752833
95.572472
110.861659
122.018456
122.060776
114.162564
100.924969
81.158876
65.353513
45.831800
36.125779
26.357770
22.346973
20.210743
19.853711
20.289421
20.180941
20.935535
22.172928
22.657514
23.625493
23.504496
24.292469
24.032593
24.642944
24.760962
25.408864
24.260879
24.240613
24.509430
24.358630
24.568439
24.345517
23.909807
24.088621
23.682714
##ZVALUE=315
0.671744
0.809431
0.734925
0.750422
0.754595
0.663996
0.594854
0.804663
0.683665
0.807643
0.898838
0.754595
0.887513
0.776649
0.816584
0.838637
0.831485
0.819564
0.905991
0.864863
0.868440
0.906587
1.046658
0.926852
1.018643
0.906587
1.105666
1.041889
1.123548
1.098514
1.218915
1.331568
1.210570
1.185536
1.309514
1.406670
1.539588
1.561642
1.734495
3.046989
17.495751
51.206946
145.090818
252.458453
437.596440
582.828522
725.864768
784.333944
786.140561
721.052885
569.841862
441.395640
273.763537
172.064900
81.325769
41.566491
15.529990
10.840893
11.656880
14.279485
23.226738
32.832623
50.016642
66.429973
90.518594
103.504658
116.499662
117.565989
108.536482
97.343922
78.364611
63.769817
47.916770
36.378503
27.970672
24.252534
22.417903
21.741986
21.901727
21.968484
22.548437
23.619533
23.862720
24.590492
25.045872
24.848580
25.081635
25.077462
25.012493
25.232434
25.127530
24.714470
24.348497
24.136901
24.524927
24.247766
##ZVALUE=320
0.734925
0.752807
0.543594
0.658631
0.702739
0.755787
0.762939
0.617504
0.750422
0.591874
0.821948
0.641942
0.592470
0.693798
0.623465
0.739694
0.734925
0.708699
0.796914
0.819564
0.725985
0.874996
0.793934
0.850558
0.943542
0.721812
0.829697
0.887513
0.956655
0.925660
0.937581
0.926852
0.932813
0.803471
0.910759
1.014471
1.016855
1.189709
1.145601
1.193881
1.436472
1.980662
4.769564
23.482442
60.014725
155.194998
252.557993
414.780974
549.921989
697.839856
757.498741
743.643641
667.258501
504.842997
366.531610
204.088688
118.359923
54.144859
26.719570
12.153983
9.905696
11.822581
14.907718
22.194982
30.744672
47.918558
63.595772
85.784793
101.055503
110.807419
113.555789
107.246637
96.103549
77.798963
63.817501
46.813488
37.822723
29.189587
25.832653
23.821592
23.570657
23.798943
23.683906
24.236441
24.245977
24.674535
25.149584
24.967790
25.394559
24.527907
24.790764
24.460554
24.085641
24.128556
24.379492
24.057627
##ZVALUE=325
0.763535
0.561476
0.537634
0.545979
0.590682
0.667572
0.496507
0.471473
0.663996
0.717640
0.673532
0.767708
0.526905
0.646710
0.645518
0.636578
0.626445
0.564456
0.596642
0.644922
0.710487
0.638962
0.777841
0.671744
0.769496
0.832677
0.830889
0.770688
0.695586
0.810623
0.742674
0.691414
0.910759
0.928640
0.890493
1.022816
0.963807
1.072884
1.001954
1.174808
1.085997
1.203418
1.490712
1.585484
2.789497
14.906526
38.794875
103.530884
184.576511
346.218944
488.210917
657.345653
750.563741
783.183575
723.167658
566.200614
424.737930
257.890821
158.135891
71.870685
37.595630
15.424490
10.433793
10.177493
11.416674
15.712976
21.828413
32.836795
45.325756
66.121817
81.371665
96.894503
105.397701
108.465552
102.572441
88.851452
75.405836
59.622526
48.482418
36.310554
30.968785
26.036501
25.361776
24.348497
24.309754
24.388433
24.164915
24.441481
24.457574
24.124980
24.497509
24.579763
23.726821
23.984909
24.366975
23.341775
##ZVALUE=330
0.531673
0.537634
0.571609
0.530481
0.699759
0.642538
0.553727
0.526905
0.564456
0.505447
0.637770
0.596642
0.584722
0.619888
0.594854
0.830889
0.694990
0.711679
0.666976
0.709891
0.732541
0.684857
0.718832
0.726581
0.677705
0.551939
0.712872
0.805855
0.653863
0.737906
0.777841
0.862479
0.863671
0.944734
0.660419
0.730753
0.806451
0.882745
1.008511
0.927448
1.177788
1.099706
1.046658
1.138449
1.303554
1.513958
1.803637
5.017519
23.616552
58.263540
145.649910
242.210627
412.658453
540.735722
681.903958
742.076635
707.537532
619.843006
465.240479
334.843993
184.053779
106.460452
46.425462
23.424625
11.379719
10.013580
10.965466
12.248755
16.611814
22.456646
34.082532
45.074821
63.083768
77.769756
92.704892
101.360679
103.003979
99.205971
86.930990
73.968768
58.059692
47.058463
37.840605
32.139421
27.105808
25.637746
24.446845
23.647547
23.652911
23.516417
23.481846
23.640990
23.315549
23.753643
23.111701
23.057461
##ZVALUE=335
0.548959
0.647902
0.566840
0.533462
0.382662
0.578761
0.563860
0.599623
0.645518
0.582933
0.482798
0.613928
0.693798
0.646710
0.497699
0.644922
0.534654
0.515580
0.563860
0.622869
0.696778
0.677705
0.749826
0.544786
0.682473
0.661612
0.565648
0.695586
0.681877
0.487566
0.708699
0.694990
0.740886
0.810623
0.848770
0.827909
0.797510
0.897646
0.646710
0.911951
0.913739
0.786781
0.981688
1.135468
1.067519
1.060963
1.163483
1.519918
1.356602
3.175735
10.507703
41.367412
87.597966
201.064944
321.779847
499.566793
615.218878
705.211759
711.714029
634.998679
532.171726
365.129709
248.883963
133.016706
71.971416
28.941631
15.509725
10.924935
10.745525
11.580586
13.187528
16.686916
21.489859
33.413768
44.825673
61.874986
74.655414
90.522766
96.274614
98.472834
93.210936
82.004666
71.074963
57.488680
48.090816
37.604570
31.800866
26.850700
25.116801
23.638606
23.370981
22.503734
23.295879
22.651553
22.392869
22.696853
##ZVALUE=340
0.759959
0.597835
0.707507
0.806451
0.696778
0.736713
0.766516
0.666976
0.867844
0.861883
0.743866
0.824928
0.697970
0.923872
0.753999
0.797510
0.814795
0.755787
0.880957
0.697970
0.833869
0.871420
0.847578
0.831485
0.789762
0.995994
0.851750
0.908971
0.911951
0.950694
0.863671
0.929832
0.971556
0.913739
0.971556
0.939965
0.875592
0.980496
1.036525
1.048446
1.020432
1.012683
1.083612
0.960827
1.113415
1.053810
1.283884
1.247525
1.325607
1.406670
1.481771
2.097487
5.602837
25.440454
61.780810
167.408586
297.912955
498.454571
643.313527
775.657892
794.554949
703.196526
453.477502
437.415838
281.456709
179.385543
85.122585
44.324994
17.659664
12.114644
11.080503
11.853576
12.611747
13.728738
17.780662
22.700429
32.950640
44.277906
60.322881
72.930455
85.126758
91.917515
93.897581
89.776516
79.603791
70.226789
56.584477
46.984553
36.628842
31.193495
26.062727
24.297833
22.768974
22.124648
21.993518
22.061467
##ZVALUE=345
0.657439
0.540614
0.677705
0.441670
0.654459
0.548959
0.469685
0.546575
0.660419
0.583529
0.529885
0.479817
0.500679
0.567436
0.526905
0.515580
0.530481
0.557899
0.566840
0.664592
0.546575
0.593662
0.743866
0.691414
0.682473
0.480413
0.597835
0.529885
0.678897
0.631809
0.509620
0.620484
0.641942
0.778437
0.904799
0.814795
0.594854
0.955462
0.987649
0.816584
0.872612
0.813603
0.746846
0.973940
0.903606
0.997782
1.023412
0.887513
0.980496
1.023412
1.010895
1.173615
1.216531
1.516938
2.603531
13.758540
38.305521
104.267001
199.978948
385.403633
537.284613
703.287721
770.650506
750.387907
657.312870
478.213429
344.878435
202.423930
116.872787
49.100518
25.234818
13.054609
11.081696
11.116862
11.563897
12.844801
13.922453
16.947985
21.786690
30.794740
40.497780
55.750608
66.290498
78.236461
84.117651
87.087750
84.219575
75.725913
67.656636
55.467486
45.793653
35.726428
29.905438
25.301576
22.991896
21.674633
##ZVALUE=350
0.622869
0.628829
0.646710
0.551939
0.601411
0.635982
0.582933
0.581741
0.591874
0.454783
0.644922
0.584722
0.474453
0.567436
0.496507
0.466704
0.552535
0.534654
0.598431
0.668764
0.653863
0.618696
0.521541
0.608563
0.718832
0.459552
0.635982
0.666976
0.636578
0.541806
0.679493
0.642538
0.710487
0.664592
0.666976
0.621676
0.646710
0.852942
0.789762
0.741482
0.806451
0.832677
0.846982
0.823736
0.972748
0.795722
0.924468
0.899434
0.971556
0.733733
0.873804
0.867844
0.952482
1.016855
1.162887
1.384616
1.593828
7.172823
21.515489
66.556931
126.116872
253.028870
363.229513
504.831672
592.197776
636.210442
603.254437
498.538017
381.245613
226.063728
138.477683
66.419840
34.486651
14.413595
11.012554
10.687709
11.347532
11.554956
12.631416
13.800859
16.689897
22.138953
28.081536
37.583709
46.656728
60.364604
69.475770
77.397823
80.044866
77.986717
72.523952
61.788559
52.416921
41.343570
34.391880
28.153658
##ZVALUE=355
0.416636
0.504851
0.513792
0.559688
0.466704
0.524521
0.611544
0.708699
0.558496
0.508428
0.573993
0.445843
0.445843
0.439882
0.469685
0.510812
0.595450
0.563860
0.644922
0.743866
0.588894
0.510812
0.631809
0.550747
0.653863
0.598431
0.440478
0.615716
0.618696
0.738502
0.570416
0.619888
0.679493
0.771880
0.613928
0.498891
0.751615
0.616908
0.682473
0.702739
0.719428
0.763535
0.759959
0.819564
0.905991
0.617504
0.858903
0.852942
0.847578
0.655651
0.849962
0.819564
0.941753
0.835657
1.025796
1.010895
1.167655
1.129508
1.385808
3.455877
11.837482
44.506788
90.535879
186.378956
289.103985
444.149971
535.348654
604.443550
601.004958
515.424013
413.805842
276.366472
176.226497
81.289411
41.328669
16.876459
11.170506
10.502934
10.359883
11.073947
11.429787
12.207627
13.294816
15.306473
18.462539
24.980903
32.208562
42.912960
52.318573
62.104464
68.552494
72.309971
71.454644
65.326691
58.704615
49.655437
##ZVALUE=360
0.475645
0.538826
0.476837
0.590682
0.607967
0.548959
0.511408
0.553727
0.621676
0.396967
0.488758
0.472665
0.582933
0.401735
0.609756
0.486970
0.515580
0.540614
0.711679
0.760555
0.549555
0.698566
0.566840
0.660419
0.641942
0.588894
0.652671
0.720620
0.651479
0.747442
0.677705
0.678897
0.730753
0.788569
0.538826
0.543594
0.612736
0.614524
0.652671
0.485778
0.741482
0.762939
0.586510
0.588894
0.686646
0.792742
0.744462
0.884533
0.809431
0.785589
0.735521
0.889897
0.777841
0.821948
1.059771
0.933409
1.046658
1.089573
1.140833
1.244545
1.344681
1.948476
5.208850
22.947788
54.914951
135.108829
221.537948
357.994437
467.394590
569.837689
590.873957
542.534590
461.387634
314.406753
211.403966
105.791688
57.780743
24.512410
12.873411
9.438992
9.400845
10.072589
10.388494
10.938644
11.170506
12.456775
13.583899
16.865730
20.325780
27.856827
35.421848
46.356916
52.945614
61.203837
65.571666
65.717697
##ZVALUE=365
0.464916
0.604987
0.496507
0.556707
0.588894
0.409484
0.479817
0.481606
0.622869
0.564456
0.468493
0.666976
0.610948
0.643730
0.618696
0.568628
0.711679
0.353456
0.424981
0.535846
0.512600
0.703931
0.638962
0.532866
0.700951
0.641942
0.700951
0.654459
0.535846
0.633597
0.601411
0.632405
0.683665
0.654459
0.489950
0.693798
0.719428
0.543594
0.648499
0.668764
0.674725
0.713468
0.598431
0.742674
0.677705
0.715852
0.764728
0.857711
0.850558
0.845790
0.700951
0.905991
0.841618
0.803471
0.882745
0.880957
0.760555
1.001954
1.063943
0.989437
1.060963
1.187921
1.022816
1.374483
2.447963
13.046861
34.050941
89.148879
163.330436
296.935439
402.361751
520.200729
569.496751
555.711985
489.698648
367.291570
262.877941
138.334632
78.745484
31.901598
15.854836
9.519458
8.853674
8.705854
9.357929
9.580851
9.831786
10.096431
10.673404
12.148619
14.250875
18.382668
23.250580
31.785965
38.971901
47.754645
##ZVALUE=370
0.535846
0.592470
0.514984
0.492930
0.491738
0.535846
0.520945
0.408888
0.476837
0.610948
0.597835
0.647902
0.579953
0.533462
0.531673
0.484586
0.506639
0.505447
0.672936
0.615716
0.487566
0.757575
0.570416
0.564456
0.519753
0.645518
0.508428
0.560880
0.626445
0.524521
0.645518
0.733733
0.546575
0.710487
0.653863
0.735521
0.598431
0.740886
0.689626
0.753999
0.559688
0.692606
0.745654
0.633597
0.615716
0.768900
0.703931
0.762939
0.791550
0.783801
0.789762
0.753999
0.689626
0.623465
0.747442
0.821948
0.862479
0.939965
0.820756
0.945926
0.809431
1.066923
0.967979
1.157522
0.873804
1.231432
1.714826
6.995797
21.439791
66.427588
125.124454
239.626765
348.918438
488.702655
563.739538
589.452982
550.231934
438.705683
330.646634
188.570619
108.066797
44.674873
21.752715
10.267496
8.310676
8.378625
8.623600
8.802414
9.071827
9.198785
9.345412
9.916425
10.820627
12.770891
15.885830
20.845532
##ZVALUE=375
0.461936
0.395775
0.553727
0.394583
0.426769
0.496507
0.491738
0.503659
0.607967
0.562668
0.511408
0.594854
0.660419
0.526905
0.416636
0.487566
0.588894
0.604987
0.478625
0.583529
0.579953
0.599623
0.459552
0.522733
0.467896
0.730753
0.574589
0.594854
0.560880
0.569820
0.702739
0.618696
0.696778
0.579953
0.513792
0.612736
0.704527
0.551939
0.577569
0.415444
0.529885
0.529885
0.499487
0.736713
0.607967
0.702739
0.574589
0.678897
0.703931
0.715852
0.655651
0.736713
0.812411
0.785589
0.808835
0.680685
0.662804
0.737906
0.650883
0.847578
0.692606
0.746846
0.863671
0.830889
0.834465
0.970960
1.193881
1.083612
1.318455
2.992749
14.985800
37.433505
96.148849
170.326829
301.815867
405.724645
531.289577
589.911938
581.574440
513.019562
375.977755
269.668698
153.746605
89.749694
37.434697
17.202497
8.761883
7.793903
7.713437
7.855892
8.199811
8.344650
8.513927
8.829832
9.355545
9.998679
##ZVALUE=380
0.553727
0.604987
0.607967
0.461936
0.473857
0.458956
0.584722
0.388622
0.479817
0.435710
0.489950
0.583529
0.469685
0.400543
0.570416
0.599623
0.569820
0.578761
0.580549
0.584722
0.498891
0.483990
0.556707
0.559688
0.534654
0.508428
0.516772
0.679493
0.579953
0.692606
0.515580
0.531673
0.658631
0.651479
0.510812
0.503659
0.747442
0.578761
0.610948
0.493526
0.500679
0.529885
0.557899
0.593662
0.581741
0.731945
0.595450
0.540614
0.424981
0.673532
0.589490
0.623465
0.675917
0.751615
0.692606
0.699759
0.637770
0.645518
0.815988
0.592470
0.678897
0.586510
0.813603
0.926852
0.688434
0.934601
0.810623
0.845790
1.121759
1.353621
1.375675
1.831651
7.339716
22.309422
69.701672
127.514005
244.070888
352.308750
478.290915
537.566543
538.320541
486.777425
382.560492
289.162993
170.196891
102.603436
44.875741
22.934675
9.617805
7.198453
7.184744
7.250905
7.248521
7.686615
7.802844
7.828474
##ZVALUE=385
0.555515
0.396967
0.529885
0.571609
0.509620
0.502467
0.571609
0.449419
0.503659
0.476837
0.528693
0.513792
0.610948
0.323653
0.491738
0.661612
0.518560
0.410676
0.531673
0.574589
0.542998
0.580549
0.469685
0.467896
0.740886
0.498891
0.502467
0.577569
0.669956
0.645518
0.726581
0.523925
0.620484
0.575781
0.502467
0.561476
0.726581
0.532866
0.581741
0.703931
0.662804
0.369549
0.593662
0.551939
0.490546
0.542998
0.715852
0.636578
0.541806
0.618696
0.569820
0.699759
0.617504
0.716448
0.628829
0.608563
0.477433
0.672936
0.666976
0.651479
0.686646
0.710487
0.776649
0.696778
0.650883
0.615716
0.901818
0.798702
0.890493
1.048446
1.032948
1.109838
1.136661
1.343489
3.099442
15.021563
38.270950
98.570585
172.465444
304.658413
403.710604
502.257943
531.605482
503.899455
447.167754
333.080888
237.326622
134.583712
77.976584
34.740567
16.311407
7.292628
6.265640
6.340742
6.595850
6.730556
##ZVALUE=390
0.444651
0.488758
0.481606
0.600815
0.529885
0.530481
0.405908
0.319481
0.509620
0.484586
0.407696
0.392795
0.565648
0.467896
0.480413
0.507832
0.490546
0.528693
0.502467
0.508428
0.430942
0.480413
0.520945
0.324845
0.631809
0.555515
0.580549
0.497699
0.485778
0.503659
0.619888
0.678897
0.474453
0.569820
0.519753
0.518560
0.534654
0.651479
0.566840
0.519753
0.575781
0.560880
0.571609
0.752807
0.617504
0.479817
0.656843
0.583529
0.693798
0.544786
0.627637
0.739694
0.592470
0.708699
0.565648
0.505447
0.480413
0.553727
0.562668
0.764728
0.695586
0.601411
0.686646
0.659823
0.559688
0.734925
0.923872
0.777841
0.837445
0.942945
1.028776
0.935793
1.065731
1.058578
1.060963
1.189709
1.842976
8.126497
24.739504
75.565577
141.689777
263.979435
355.674624
457.082987
510.314703
526.510477
490.005612
394.306779
309.752822
196.324587
117.836595
52.033663
25.480986
9.444952
6.363988
5.867481
##ZVALUE=395
0.568628
0.605583
0.474453
0.612736
0.415444
0.643730
0.500679
0.465512
0.490546
0.618696
0.626445
0.702739
0.363588
0.459552
0.455976
0.645518
0.627637
0.528693
0.394583
0.674725
0.693798
0.514984
0.542998
0.647902
0.593662
0.603795
0.592470
0.589490
0.679493
0.664592
0.734925
0.678897
0.504851
0.728965
0.870824
0.714660
0.682473
0.562668
0.602603
0.593662
0.680685
0.673532
0.526905
0.652671
0.703931
0.677705
0.691414
0.762939
0.754595
0.700951
0.641942
0.603795
0.649691
0.751615
0.708699
0.620484
0.800490
0.657439
0.740886
0.477433
0.736713
0.721812
0.749826
0.743866
0.726581
0.806451
0.879765
0.874996
0.934601
0.840425
0.832677
0.942945
0.899434
1.041889
0.959635
1.028776
1.116991
1.195669
1.416802
5.267859
17.193556
56.811571
107.678771
204.127431
301.945806
435.836911
511.120558
548.514724
528.275967
446.477532
345.999599
210.512877
133.726597
60.739517
31.037927
12.707710
##ZVALUE=400
0.536442
0.329614
0.453591
0.435710
0.496507
0.493526
0.457764
0.509620
0.566840
0.484586
0.445843
0.478625
0.477433
0.458956
0.450611
0.524521
0.526905
0.485778
0.511408
0.500679
0.688434
0.447631
0.704527
0.579953
0.607967
0.441670
0.646710
0.480413
0.567436
0.531673
0.652671
0.734925
0.620484
0.595450
0.680685
0.639558
0.532866
0.647902
0.567436
0.749826
0.764728
0.634789
0.745654
0.636578
0.582933
0.749826
0.656843
0.482798
0.616908
0.750422
0.555515
0.704527
0.614524
0.564456
0.591874
0.613928
0.634789
0.569820
0.610948
0.613928
0.574589
0.523925
0.615716
0.701547
0.666976
0.888705
0.728965
0.782609
1.002550
0.950694
0.952482
0.910759
0.882745
0.963807
0.885725
0.837445
0.911951
1.183748
0.908971
1.183748
1.291633
2.932549
9.874701
32.838583
69.923997
157.525539
256.783962
399.914980
492.434502
563.736558
560.444593
476.318002
380.933881
244.026780
159.443617
80.722570
##END
