##TITLE=FQP00651
##FORMAT=SPECTACLE-ASCII V-1.2
##DATA TYPE=ULTRAVIOLET SPECTRUM
##SECOND TYPE=ULTRAVIOLET SPECTRUM
##DATE=01/11/18
##TIME=19:32:44
##SPECTROMETER/DATA SYSTEM=SPECTACLE
##XUNITS=NM EM
##YUNITS=ENERGY
##YFACTOR=1
##FIRSTX=220
##LASTX=410
##NPOINTS=96
##3DDATA=Equidistant
##ZUNITS=NM EX
##FIRSTZ=210
##LASTZ=400
##ZPOINTS=39
##XYDATA=(Y..Y)
##ZVALUE=210
2.608895
2.666712
3.418922
3.107786
3.017783
2.985597
3.828406
2.957582
3.830791
3.604889
3.656745
3.471971
3.710985
3.300905
3.620982
3.961921
4.485846
4.834533
5.253553
5.095601
4.431605
5.355477
5.667806
6.138682
5.488992
6.029606
7.425547
7.232428
7.734895
7.923841
8.705854
8.398890
8.715987
8.755922
8.587837
8.704662
8.516908
9.875894
8.630753
9.561777
9.420514
10.303855
9.850860
10.116696
10.142922
9.682775
10.714531
10.102987
10.779500
10.892749
11.237860
9.685755
9.601712
11.107922
11.022687
10.601878
11.308789
11.100769
10.380745
11.229515
10.677576
11.143684
10.888577
12.167692
11.260509
13.144612
13.295412
13.972521
16.388893
18.596649
24.673939
28.226972
33.215880
34.997463
43.374896
45.431852
49.130917
48.866868
52.232742
53.741932
49.097538
44.797659
38.870573
34.341812
28.981566
23.915768
17.023683
14.895797
12.729764
11.452436
11.166930
10.881424
10.433793
12.405515
12.759566
11.350513
##ZVALUE=215
10.140538
10.002851
7.493496
7.052422
6.002784
5.418658
5.351901
5.449653
6.378889
4.239678
6.565452
5.674958
5.553961
4.264712
4.440546
4.641414
4.105568
5.184412
4.820824
4.883409
5.986691
5.972981
6.241798
5.837679
7.332563
7.875562
8.371472
8.502603
9.376407
8.182526
10.262728
9.618998
9.746552
11.218786
11.140704
11.144876
11.674762
11.910796
11.790991
11.653900
12.944937
11.299849
12.504458
12.324452
12.158751
12.236834
12.559891
11.316538
13.446808
10.626912
12.054443
13.163686
12.193918
14.865994
15.028715
12.864470
12.321472
13.165474
12.606978
12.489557
12.482405
13.261437
12.791753
12.909770
13.706684
15.431643
15.127659
15.982985
16.154647
21.641850
24.192929
29.873848
33.043623
36.816597
43.398738
44.827461
50.345659
54.729581
52.524805
54.354668
52.685738
44.539571
40.878654
34.317970
27.816892
20.636916
17.659664
15.659928
13.655424
11.570454
12.122989
11.766553
13.049841
12.517571
11.041760
12.308955
##ZVALUE=220
36.164522
31.725764
38.185716
40.456653
37.332773
28.833747
24.784803
15.961528
13.925433
13.121963
13.768673
14.357567
14.572740
13.063550
11.526942
9.257793
7.657409
6.808639
6.208420
5.991459
6.365776
7.534623
7.289648
8.724928
8.444786
8.661747
10.898709
10.483861
11.111498
12.193918
14.539957
13.424754
13.615489
13.730526
13.619661
14.366508
13.959408
14.125705
15.206933
14.948845
14.585853
14.480948
15.048981
13.833642
15.187860
13.943911
15.720725
14.087558
14.562607
14.477968
13.434887
14.897585
14.208555
14.707446
14.758706
14.865994
13.867617
14.312863
14.065504
15.331507
14.720559
15.301704
14.065504
14.147758
13.539791
15.004873
15.871525
18.394589
18.400550
22.282600
25.705695
29.745698
35.223961
38.824677
47.328472
49.115419
54.477453
55.329800
56.960583
58.444738
57.469606
54.058433
47.208667
38.963556
32.339692
24.737716
18.430948
16.661882
14.733672
14.214516
14.840961
13.208985
12.935996
12.001991
11.795759
12.923479
##ZVALUE=225
63.308477
67.229867
88.081956
111.995935
119.150877
117.131472
111.652613
88.667870
63.901544
46.777725
31.982660
26.826859
27.076602
27.943850
29.141903
28.247833
22.721887
18.761754
15.804768
11.797547
10.386705
7.999539
8.154511
9.106994
9.504557
9.435415
8.856654
10.764599
12.350678
12.640953
14.138818
15.642643
15.158653
15.954971
17.133951
16.031861
17.095804
16.245842
16.598701
16.407967
17.491579
16.059875
16.017556
15.549660
15.995502
15.528798
15.518665
15.286803
16.367435
16.327500
15.290976
15.798807
15.415549
15.115738
15.439987
15.775561
14.844537
14.864802
13.956428
14.076829
14.274716
16.337633
14.927983
15.982985
14.912486
15.193820
16.915798
19.129515
19.978881
22.814870
24.968982
26.210546
33.366680
36.188960
41.587949
43.751001
45.048594
46.651959
47.076941
45.695901
44.389963
42.392612
36.268830
33.556819
28.397441
21.931529
20.810962
18.500686
17.558932
16.189814
14.174581
14.193654
13.586879
14.304519
14.460683
14.248490
##ZVALUE=230
77.170730
89.778900
145.219564
246.206522
325.385928
411.957502
438.048840
423.963666
379.127860
274.874568
184.450746
121.132731
66.667795
54.552555
51.050782
51.579475
53.088665
54.048896
48.554540
42.236447
29.837489
22.383928
16.353726
11.756420
10.852814
9.609461
10.989904
11.961460
11.985898
13.653636
13.343692
14.982820
16.181469
14.912486
16.258955
14.907718
16.666651
16.900897
16.621947
17.091632
16.803741
15.504956
14.879704
15.209913
16.175508
15.663505
15.289783
14.081597
15.133619
15.617609
15.010834
15.225410
14.813542
14.015436
15.202761
14.510751
13.902783
16.570687
13.001561
15.629530
14.554858
14.419556
14.850497
14.647841
15.149713
15.553832
16.342998
17.537475
17.253757
20.282865
24.665594
27.523637
30.162930
31.992793
34.293532
36.802888
37.043691
37.445426
37.482977
36.565661
35.577416
32.597780
29.443502
27.001500
25.489926
21.048784
20.290613
18.173456
17.447472
16.551614
15.292764
15.923977
14.523864
17.319918
15.515685
14.563799
##ZVALUE=235
21.475554
25.904775
55.208802
123.649836
199.867487
317.984819
421.343446
524.834991
555.701852
541.316867
455.851555
352.976918
234.025717
165.584683
105.854869
83.837509
74.815750
82.113743
85.983872
88.421702
80.159903
69.112778
56.001544
37.752986
28.177500
18.494725
14.383793
11.114478
10.171533
10.873675
10.623932
13.018847
13.248920
13.301969
13.991594
14.051795
14.158487
13.604760
14.513731
15.026927
16.163588
14.992952
15.070438
14.395714
15.857816
15.345812
14.799833
14.891624
15.199780
15.318990
14.988780
16.013980
15.786886
16.024709
15.782714
15.996695
16.281605
15.540719
17.331839
15.354753
16.758442
17.221570
16.854405
16.564727
16.159415
17.338991
16.988516
19.797683
20.580888
22.476912
25.347471
27.335882
29.556751
31.205416
33.707619
34.662485
33.250451
34.087896
32.908916
33.636689
31.969547
28.674603
26.369691
26.305914
25.299788
21.583438
21.761656
21.529794
20.142794
18.721819
20.726919
19.412637
19.298792
19.213557
18.839836
18.015504
##ZVALUE=240
2.874732
4.057884
21.286607
65.256953
183.131695
320.534706
589.401722
821.189880
1015.701890
1015.701890
1015.701890
1015.701890
873.244405
595.876575
418.974757
235.721469
154.716969
107.529759
98.060966
107.871890
119.646788
123.683810
120.636821
108.746886
86.585879
73.638558
48.515797
37.960410
24.612546
17.478466
13.846755
12.141466
11.450648
12.614727
13.218522
12.815595
14.495850
12.956858
14.756918
14.872551
14.149547
15.057921
15.628934
15.690923
15.179515
14.821887
16.916990
15.717745
15.598536
15.811920
15.880466
16.927719
15.040636
16.999841
17.532706
15.033484
16.358495
16.910434
16.104579
16.900897
17.064810
17.660856
17.923713
19.382834
20.717978
18.839836
20.257831
24.215579
23.657680
28.064847
32.028556
33.549666
35.790801
39.968491
41.639805
43.868423
44.651628
45.879483
42.858720
40.636659
39.523840
36.982894
35.884976
30.437708
30.641556
28.375983
25.039911
24.637580
23.793578
24.435520
23.717880
24.215579
23.897886
22.526979
24.467707
21.991730
##ZVALUE=245
2.306700
2.282858
2.641678
2.486706
8.286834
28.817654
96.185803
190.575719
414.494872
621.746778
939.188004
1015.681624
1015.681624
1015.681624
1015.681624
967.245698
795.832872
523.762703
369.144678
206.745863
145.465732
112.634897
121.368766
131.221414
138.152838
132.142901
118.753910
103.569627
77.692866
57.040453
43.251514
26.690960
19.510984
14.082789
12.875795
12.952685
14.171600
12.053847
13.870597
14.171600
13.565421
14.845729
14.610887
14.686584
14.224648
15.030503
14.726520
15.518665
15.439987
14.970899
15.104413
14.683604
15.594959
14.927983
15.406609
14.573932
14.636517
15.686750
15.333891
14.484525
16.318560
15.782714
16.036630
17.431974
16.500950
18.565655
17.162561
19.204617
20.614862
21.627545
25.181770
26.371479
29.024482
32.099485
34.791827
33.722520
36.234856
39.108992
39.622784
37.702918
35.840869
37.408471
31.543970
30.988455
29.572845
28.779507
26.300550
24.459958
23.778677
23.554564
25.099516
24.783611
23.828745
23.501515
25.304556
22.881627
##ZVALUE=250
1.753569
2.152920
2.178550
2.004504
2.360940
2.674460
4.026890
9.512901
37.042499
86.086988
239.337683
461.169481
761.209726
1015.671492
1015.671492
1015.671492
1015.671492
1015.671492
1015.671492
1005.280614
701.178908
426.262617
200.264454
119.924545
110.249519
127.402544
143.479705
149.903893
145.648718
135.492682
112.814903
88.685751
66.435933
43.676496
31.773448
20.132661
17.611980
15.441775
15.101433
15.663505
15.668869
15.359521
16.830564
17.154813
16.322732
15.383959
15.863776
15.400648
16.569495
15.052557
15.471578
14.793873
15.548468
15.803576
15.218854
14.073849
14.893413
15.593767
15.161633
14.679432
15.324950
15.363693
15.560985
16.158819
16.455650
15.487671
16.718507
16.734600
18.340945
18.678904
21.607876
22.240877
24.867654
26.947856
27.658939
28.519630
29.218793
28.841496
29.243827
30.437708
26.939511
26.189685
24.430752
23.959875
23.109913
22.648573
21.916628
22.374988
22.626519
22.213459
22.043586
21.063685
21.854639
21.399856
20.654798
21.456480
##ZVALUE=255
1.764894
1.780987
1.741648
1.609921
1.647472
1.914501
2.044439
2.171993
2.793670
5.321503
24.553537
60.788393
125.690699
273.092389
431.041718
666.031837
843.541622
1012.260914
1015.681624
1015.681624
935.276747
761.377811
498.164892
329.205990
179.977417
125.424862
99.958777
107.619762
132.864714
146.596432
153.569579
150.850415
136.936903
111.976862
90.617537
61.371922
44.620633
27.141571
20.446777
14.143586
13.683438
13.376474
13.232827
12.868643
13.485551
12.649894
11.298656
12.067556
12.072921
11.640787
11.415482
11.422634
12.001991
10.963678
10.850430
10.522604
11.172891
9.775758
10.538697
9.776950
9.894967
10.912418
9.762645
9.282827
9.385943
10.213852
11.620522
10.367632
10.675788
12.019873
13.013482
13.295412
13.966560
15.087724
15.530586
16.146898
16.582608
17.363429
16.727448
16.871691
17.203689
17.452836
17.200708
16.797781
16.888976
17.174482
17.403960
16.386509
17.465949
17.760992
17.197728
17.496943
18.123984
18.278956
17.794967
19.543767
##ZVALUE=260
1.221895
1.145601
1.354814
1.371503
1.521707
1.416802
1.460910
1.499653
1.606941
1.572967
1.898408
2.818704
8.826852
32.531619
73.396564
172.826648
275.871754
445.044637
595.201850
784.278512
882.810950
897.582769
811.335444
678.502917
462.900996
318.865776
197.156668
127.999783
89.025497
89.441538
107.197762
133.347511
153.808594
163.247585
157.305002
139.416456
119.497776
90.022683
68.610907
42.511821
30.563474
20.917654
15.534759
13.946891
12.873411
11.931658
12.084842
11.625886
11.339784
10.775924
11.238456
10.965466
10.427833
10.266900
9.619594
9.662509
9.247661
9.076595
9.108782
8.329749
8.498430
8.976460
8.909702
8.618832
8.512735
9.375811
9.362698
9.266734
9.932518
10.186434
10.825992
12.023449
11.901855
13.063550
13.612509
13.725758
14.217496
14.661551
14.539957
15.343428
15.264750
15.543699
15.555620
15.501976
16.141534
15.589595
15.966892
16.204715
15.680790
16.128421
16.329885
16.851425
16.604662
16.197562
16.622543
16.974807
##ZVALUE=265
1.199841
1.248717
1.199841
1.096725
1.081824
1.540780
1.369715
1.570582
1.357794
1.712441
1.675487
1.604557
1.776814
2.186894
5.100965
23.491979
55.405498
132.979751
239.435434
464.340448
641.077757
800.407529
958.436728
964.894891
834.480524
695.173740
490.475893
334.843993
183.734894
115.702748
76.180696
73.700547
87.695718
118.848681
140.415430
163.327456
168.182850
160.011649
145.551562
118.406415
94.637871
65.083504
46.678782
28.037429
20.505786
15.122890
12.833476
12.294650
10.818839
11.802912
11.191964
10.096431
10.499954
10.148883
9.422898
9.306669
9.420514
9.264946
9.148717
9.149909
8.397698
9.025931
8.952618
8.987784
8.633733
8.886456
8.479953
9.555817
9.241700
9.917617
9.936690
11.448860
11.535883
11.769533
13.130903
13.224483
12.983680
13.664961
13.770461
12.960434
13.408661
13.940930
13.659596
13.893843
14.418960
13.872981
15.310645
14.962554
15.358925
16.122460
15.985966
14.787912
16.171932
15.904903
15.861988
16.051531
##ZVALUE=270
1.115799
1.193881
1.038909
0.970960
1.260638
1.159906
1.074672
1.178980
1.003742
1.166463
1.478791
1.242757
1.558661
1.473427
1.552701
1.809597
2.276897
10.923743
30.471683
89.878440
172.203779
292.899609
505.586863
664.857626
831.393003
888.699889
844.416022
749.220848
560.165644
417.560935
316.494703
157.700777
95.338821
63.045621
67.416430
93.527436
117.182732
142.892003
157.736540
165.660977
162.172914
142.291784
121.432543
88.860989
67.321658
42.810440
29.775500
18.805861
14.480948
10.579824
10.497570
10.138750
9.512901
9.051561
9.141564
8.793473
9.128451
8.675456
8.461475
8.820891
8.632541
8.478761
8.133650
8.273721
8.378625
8.129478
9.159446
9.507537
9.524822
9.605885
10.588765
10.370612
10.695457
11.489987
11.519790
11.825562
12.313724
12.460947
12.534857
12.575984
12.745857
13.168454
13.067722
13.448596
13.195872
13.335943
13.917685
13.392568
13.718605
13.894439
14.658570
14.428496
14.277697
14.212728
13.919473
14.319420
##ZVALUE=275
0.987649
1.011491
1.062751
1.001954
1.010895
1.052618
1.128912
1.246929
0.987649
1.009703
1.293421
1.171827
1.308918
1.500845
1.274943
1.239777
1.342893
1.758933
1.763701
4.345775
20.722747
53.271651
146.430731
246.973634
358.827710
559.390783
683.390498
792.438984
811.820626
744.684935
647.968650
467.467904
333.330631
184.364915
111.490488
60.915947
50.666928
65.169930
86.174607
115.887523
137.964487
156.229734
161.066651
158.312917
143.693686
113.179684
89.058876
63.166618
44.927597
26.996732
18.953681
12.292862
10.507703
9.380579
8.711815
8.809566
8.111000
8.097887
8.621812
8.339882
8.335710
8.355975
7.731915
8.255839
7.919669
8.274913
8.792877
9.075999
8.889437
9.341836
9.543896
9.942651
10.374784
10.936856
11.352897
11.692643
11.600852
11.165738
11.611581
11.793971
12.458563
12.729764
12.832880
12.487769
12.509823
12.938976
12.963414
12.587905
12.962818
13.071895
12.828708
12.891889
13.287663
13.576746
13.378859
13.506413
##ZVALUE=280
0.927448
0.916719
0.939965
0.932813
0.886917
0.968575
1.053810
0.944734
0.969768
1.056790
1.132488
1.185536
1.171827
1.254678
1.234412
1.182556
1.392961
1.395941
1.265407
1.547933
1.694560
1.917481
11.989474
37.387609
110.459924
196.903944
343.838930
488.182902
670.586824
780.534744
836.492777
812.466741
722.995996
543.771982
400.668979
226.436853
136.900544
66.570640
43.463707
43.098927
57.776570
86.046457
107.586980
134.554505
150.641799
157.764554
150.151849
132.855773
114.379525
82.774758
63.163638
40.078759
27.091503
15.952587
11.334419
8.789897
8.226633
7.770658
7.645488
7.900596
7.641912
8.253455
8.370876
8.630753
8.496642
8.436441
9.100437
9.546876
9.297729
9.609461
10.270476
10.187626
10.741949
10.741949
11.483431
11.723638
11.618733
11.784434
12.222528
12.288690
12.551546
12.673736
12.531877
12.359619
12.555718
12.609959
12.111664
11.979938
12.652874
12.675524
12.634993
12.662411
12.541413
12.440681
13.036728
12.688637
##ZVALUE=285
0.740886
0.909567
0.776649
0.951886
0.946522
0.915527
0.934601
0.946522
0.922680
1.069903
1.053810
0.981688
1.083612
0.981688
1.032948
1.080632
1.085997
1.177788
1.104474
1.170635
1.583695
1.442432
1.632571
2.171993
6.255507
18.757582
58.828592
120.273829
249.750614
387.805700
536.625981
717.910528
818.059444
847.601891
783.950686
624.315739
479.313731
299.136639
186.375976
91.645718
50.061941
31.983852
34.877658
55.393577
75.531602
107.263923
125.496984
142.979622
150.955915
146.565437
133.204460
108.596683
88.800788
59.876442
43.213964
25.165677
16.612411
11.770725
9.081960
7.831454
8.004904
8.507967
8.220673
8.898973
8.971691
9.052753
9.490848
9.507537
9.160638
10.450482
10.751486
10.734797
10.630488
11.843443
11.410713
11.913776
11.387467
11.987686
11.966825
12.117624
12.093782
12.127757
12.608767
12.326837
12.206435
12.787580
12.690425
12.538433
12.282729
12.610555
12.126565
12.292862
12.428761
12.622476
12.332797
12.276769
##ZVALUE=290
0.821948
0.657439
0.674725
0.742674
0.939965
0.719428
0.811815
0.909567
0.822544
0.978708
1.066923
0.901818
0.968575
0.851750
0.962615
0.949502
0.975728
0.973940
1.081824
1.127720
1.073480
1.331568
1.381636
1.473427
1.629591
1.924634
2.660751
8.749962
34.388900
74.398518
170.662999
290.350914
445.603728
672.976971
800.234675
887.086987
866.934657
723.990798
582.460761
378.343463
246.328712
124.063492
65.948963
29.691458
24.410486
35.372972
49.327612
73.609948
95.527768
123.794675
137.268901
146.727562
144.693851
130.594969
110.484958
83.641410
61.287880
38.646460
27.347803
16.355515
11.985898
9.733438
8.874536
8.957982
8.768439
8.614659
9.242892
9.609461
9.761453
9.953976
10.841489
11.163950
11.586547
11.055470
11.795759
11.711717
11.903644
12.160540
12.064576
12.272000
12.428761
12.758970
12.349486
12.629628
12.812614
12.631416
12.638569
13.339520
12.532473
12.903810
12.236834
12.296438
12.187958
12.282729
12.705922
12.142658
##ZVALUE=295
0.884533
0.929832
0.906587
0.778437
0.884533
0.930429
0.868440
1.038909
0.904799
0.845790
0.935793
0.918508
0.996590
1.152754
1.106858
0.986457
0.966787
1.209974
1.005530
1.110435
1.051426
1.262426
1.107454
1.234412
1.338720
1.555681
1.494884
1.449585
1.847744
3.611445
17.142892
45.314431
97.754002
221.282840
347.818732
534.353852
664.323568
775.715709
797.819495
726.936460
615.818501
439.398885
303.890705
163.028836
90.424418
36.150813
22.112727
21.028519
29.203892
48.492551
66.622496
92.619658
112.192631
131.893754
139.792562
136.822462
123.676658
102.335811
83.484650
57.353973
42.931437
25.509596
18.641949
12.431741
10.883808
9.287000
9.459853
9.744763
9.945631
10.276437
10.716915
11.211634
11.661649
11.875629
12.217760
12.058616
12.334585
12.591481
12.812614
12.470484
12.392998
13.143420
12.563467
12.573600
12.615919
12.320876
12.832880
12.560487
12.927651
12.566447
12.538433
12.625456
12.523532
12.033582
11.908412
12.251735
##ZVALUE=300
0.687838
0.880957
0.766516
0.821948
0.638962
0.821948
0.730753
0.900626
0.881553
0.886917
0.873804
0.763535
0.862479
0.815988
0.924468
0.796914
0.863671
0.790954
0.900626
1.096725
0.795722
0.945926
0.886917
0.978708
1.219511
1.054406
1.168847
1.053810
1.284480
1.464486
1.568794
1.930594
5.455613
27.331710
62.865615
151.712894
256.377459
423.832536
556.350946
701.159835
757.098794
739.637017
657.371879
498.863459
368.803740
209.751725
124.966502
56.629777
28.803945
16.034842
17.656684
27.604699
40.354729
62.817931
82.931519
106.984973
123.840570
133.614540
131.662488
119.677782
103.834867
77.946782
61.426759
41.095614
29.448867
18.490553
13.697743
11.268854
10.717511
9.938478
9.889603
10.728836
10.834932
11.180639
11.637807
11.699796
11.840463
12.107491
12.379885
12.491941
12.943745
12.716651
13.248920
12.674928
12.820959
12.871623
12.858510
12.912750
12.289882
12.856722
12.570620
12.824535
11.936426
12.465715
12.482405
12.705922
##ZVALUE=305
0.560880
0.661612
0.724792
0.671744
0.765920
0.691414
0.767708
0.783801
0.729561
0.721812
0.795722
0.795722
0.598431
0.796914
0.714660
0.764728
0.738502
0.945926
0.864863
0.910759
0.883937
0.953674
0.919700
0.976920
1.116991
1.005530
1.071692
1.123548
1.227856
1.164675
1.363754
1.361966
1.606941
1.634955
3.128648
15.616417
41.922927
109.210610
194.375515
348.296762
479.898453
640.285015
727.430582
752.010942
699.157715
556.199551
429.511666
267.312527
165.981650
79.204440
40.460825
17.600656
13.260841
16.914606
25.913715
41.403770
58.116913
82.619786
99.816918
117.837787
125.293732
124.917626
116.401911
97.750425
80.546737
55.410862
40.879846
27.293563
20.022988
13.862848
11.826754
11.028647
10.876656
11.481643
11.256933
11.956692
12.149811
12.127757
12.035966
12.392998
12.691617
12.523532
13.331771
13.030767
12.659431
13.272762
13.048649
13.171434
12.719631
12.482405
12.480617
12.425780
12.261868
12.909770
12.415648
12.456775
##ZVALUE=310
0.798702
0.768900
0.626445
0.642538
0.776649
0.706911
0.744462
0.633597
0.759959
0.634789
0.721812
0.812411
0.686646
0.873804
0.831485
0.805855
0.704527
0.880957
0.717640
0.849962
0.822544
0.921488
0.750422
0.943542
0.904799
0.849962
0.895858
1.138449
1.131892
1.001954
1.044869
1.151562
1.059771
1.259446
1.361966
1.462698
1.792908
6.859899
21.292567
67.647696
130.990744
261.078477
389.185548
560.868979
670.671463
742.855668
727.839470
632.464886
518.756509
345.155597
229.162574
116.843581
63.995719
24.764538
12.748837
11.541843
15.272498
23.796558
34.378767
54.306984
70.503950
93.944669
108.103752
118.086934
118.815899
108.525753
96.548796
77.548623
59.371591
39.508939
29.861927
20.257831
15.521646
12.572408
12.072921
11.517406
12.010932
12.061596
12.078881
12.176633
12.790561
12.860894
13.208985
13.104677
13.408661
13.177991
13.661981
13.173819
13.327599
13.458729
13.330579
12.667775
12.596846
12.518764
12.328625
12.317896
##ZVALUE=315
0.674725
0.756979
0.734925
0.708699
0.655651
0.653863
0.672936
0.581741
0.718832
0.662804
0.663996
0.732541
0.815988
0.651479
0.749826
0.791550
0.685453
0.873804
0.785589
0.772476
0.757575
0.811815
0.724792
0.862479
0.791550
0.910759
0.901818
0.868440
0.955462
0.811815
1.057982
1.080632
1.083612
1.177788
1.031756
1.197457
1.306534
1.440644
1.473427
3.400445
11.007786
42.844415
93.376637
205.563903
321.965814
496.013761
607.643723
712.576509
733.109713
671.955943
573.903918
410.025716
290.827751
154.088736
85.701942
33.022761
15.701652
9.659529
10.575652
14.788508
19.990802
34.404993
47.971606
68.950653
84.357858
103.531480
112.673640
113.159418
107.668638
90.692639
74.837804
56.165457
42.756796
27.244687
20.574927
15.538931
13.394952
12.240410
11.763573
12.387633
12.552738
12.672544
13.001561
12.400746
12.440681
13.464689
13.232827
13.281703
13.342500
13.055801
13.207793
13.264418
13.019443
12.737513
12.644529
12.518764
##ZVALUE=320
0.799894
0.636578
0.668764
0.602603
0.648499
0.613928
0.744462
0.647902
0.748634
0.641942
0.712872
0.759959
0.822544
0.871420
0.773668
0.754595
0.930429
0.916719
0.615716
0.708699
0.768900
0.752807
0.866652
0.738502
0.839829
0.841618
0.921488
0.811815
0.845790
0.955462
0.874996
0.841618
0.965595
0.983477
0.955462
1.150966
1.199841
1.265407
1.197457
1.456738
1.454949
1.698732
5.125999
24.338961
59.106946
148.866773
241.204500
391.366482
515.569448
658.447742
712.136626
698.252916
630.205870
480.018854
350.420475
196.707845
114.334822
50.453544
24.971962
10.488629
8.880496
10.178685
13.001561
19.634962
28.597713
46.582818
60.818791
80.584884
95.354915
106.463432
107.983947
102.319717
90.610981
71.090460
56.904554
38.892627
29.197931
20.563602
16.546845
13.481975
13.158917
12.902617
12.798905
13.124943
13.243556
13.021827
12.585521
12.922883
13.417602
13.349652
12.923479
13.233423
12.650490
12.765527
13.105869
12.936592
##ZVALUE=325
0.576973
0.643730
0.505447
0.513792
0.548959
0.445843
0.456572
0.493526
0.592470
0.595450
0.524521
0.549555
0.550747
0.619888
0.565648
0.569820
0.679493
0.663996
0.573993
0.607967
0.695586
0.562668
0.633597
0.563860
0.693798
0.793934
0.606775
0.717640
0.915527
0.650883
0.642538
0.795722
0.786781
0.944734
0.695586
0.840425
0.888705
0.963807
0.846982
0.886917
1.070499
1.218915
1.162887
1.407862
2.882481
16.665459
40.745735
102.144480
179.852843
330.122709
453.375578
601.156950
677.110553
701.220036
645.601749
511.319637
388.496518
236.880779
145.063996
65.311790
32.983422
13.104677
9.105802
8.615851
9.479523
13.267994
18.850565
29.942989
42.125583
62.320828
75.927973
93.315840
100.460649
101.898909
95.876455
80.348849
68.486929
51.063895
38.722754
26.286840
20.137429
15.368462
14.231801
13.400912
13.188720
12.903810
12.716651
13.198853
12.978911
12.960434
12.854934
12.662411
12.619495
12.491941
12.432933
12.356639
##ZVALUE=330
0.442863
0.457764
0.384450
0.332594
0.506639
0.424981
0.421405
0.507832
0.464916
0.500679
0.348687
0.469685
0.468493
0.447631
0.507832
0.576973
0.487566
0.345707
0.586510
0.409484
0.708699
0.619888
0.569820
0.619888
0.456572
0.595450
0.685453
0.575781
0.776649
0.625849
0.766516
0.628829
0.668764
0.653863
0.720620
0.643730
0.756979
0.752807
0.769496
0.735521
0.795722
0.927448
1.134872
0.867844
1.031756
1.131892
1.713634
7.688999
21.927953
68.234801
130.120516
253.207684
368.899703
525.658727
621.265769
676.431656
655.145645
554.794669
443.919897
286.220908
184.482932
87.234974
45.092702
18.439889
10.203719
7.532835
8.391738
9.556413
12.082458
19.476414
27.065873
41.368604
54.879785
74.500442
85.659623
94.835758
95.691681
89.187622
78.373551
62.397718
49.404502
34.183860
26.540756
20.823479
17.052889
14.182925
13.500452
12.616515
12.495518
12.687445
12.516975
12.339950
11.984706
11.872649
12.487769
12.028813
##ZVALUE=335
0.585914
0.472665
0.569820
0.670552
0.638962
0.643730
0.711679
0.581741
0.647902
0.518560
0.634789
0.629425
0.503659
0.719428
0.595450
0.597835
0.692606
0.639558
0.770688
0.695586
0.698566
0.574589
0.537634
0.715852
0.754595
0.749826
0.692606
0.671744
0.896454
0.828505
0.779629
0.824928
0.791550
0.768900
0.760555
0.800490
0.794530
0.859499
0.985861
0.824928
0.963807
0.970960
0.987649
1.120567
1.070499
1.241565
1.168847
1.354814
1.487732
3.607869
11.690855
42.483807
87.639689
190.193653
298.016667
461.282730
563.755631
645.017028
653.770566
582.369566
485.569835
333.703756
226.066709
120.365620
66.277981
25.652647
12.627840
8.731484
8.334517
8.722544
9.304881
12.678504
17.813444
28.362870
38.987994
56.007504
69.368482
83.066821
89.514852
90.276599
85.845590
73.563457
62.293410
47.511458
38.334727
26.758909
20.969510
16.559958
14.496446
12.710690
12.704730
12.213588
12.294650
12.057424
12.295842
12.264848
##ZVALUE=340
0.695586
0.727773
0.600815
0.534654
0.588894
0.554919
0.549555
0.482798
0.699759
0.598431
0.690818
0.708699
0.573993
0.664592
0.669956
0.634789
0.541806
0.603795
0.544786
0.534654
0.560880
0.636578
0.790954
0.778437
0.697970
0.668764
0.600815
0.760555
0.598431
0.682473
0.657439
0.577569
0.654459
0.792742
0.809431
0.787973
0.855923
0.656843
0.931621
0.800490
0.761747
0.965595
0.930429
0.915527
1.002550
1.080632
0.872612
1.038909
1.071692
1.270771
1.328588
1.957417
6.100535
30.043721
72.831511
170.319676
275.600553
430.852771
528.977513
620.642900
648.320913
602.963567
524.647832
386.515856
272.706747
144.932866
81.176758
35.452843
16.389489
9.189844
8.487701
8.247495
8.499622
9.899735
12.246966
18.932819
26.462674
38.661957
49.956441
67.489743
76.832771
84.864497
85.598826
80.051422
73.442459
59.641600
48.191547
35.808682
28.192997
20.671487
16.736984
13.510585
12.705922
12.135506
11.590719
11.649728
##ZVALUE=345
0.530481
0.641942
0.592470
0.588894
0.512600
0.600815
0.566840
0.424981
0.652671
0.618696
0.714660
0.668764
0.625849
0.615716
0.519753
0.583529
0.542998
0.606775
0.627637
0.617504
0.655651
0.528693
0.723600
0.669956
0.649691
0.549555
0.711679
0.678897
0.699759
0.664592
0.605583
0.767708
0.720620
0.884533
0.826716
0.717640
0.903606
0.689626
0.760555
0.799894
0.538826
0.924468
0.688434
0.679493
0.984669
0.890493
1.150966
0.879765
1.036525
1.070499
1.229644
1.145601
1.315475
1.404881
3.228784
21.067858
68.116784
190.903544
323.764682
531.728864
662.806630
765.411854
768.543482
697.028637
594.422817
432.392955
316.622853
187.447667
106.859803
44.587851
23.188591
11.346936
8.821487
8.649826
8.620620
8.708835
9.588599
12.170672
16.436577
25.060773
34.219623
48.871636
59.114695
71.387887
77.011585
79.120994
76.076984
67.814589
58.330894
46.511889
36.463737
26.174784
20.683408
15.848875
13.640523
12.078881
##ZVALUE=350
0.444651
0.699759
0.623465
0.535846
0.595450
0.619888
0.614524
0.670552
0.597835
0.646710
0.606775
0.587702
0.520945
0.607967
0.667572
0.726581
0.661612
0.616908
0.591874
0.639558
0.595450
0.560880
0.603795
0.589490
0.658631
0.678897
0.753999
0.795722
0.620484
0.596642
0.867844
0.628829
0.626445
0.703931
0.702739
0.731945
0.781417
0.841618
0.773668
0.786781
0.836849
0.755787
0.719428
0.870824
0.863671
0.822544
0.825524
1.049638
0.962615
0.936985
0.957847
1.015663
1.195669
1.150966
1.285672
1.390576
2.031922
9.391904
28.140545
86.474419
159.151554
300.440788
417.209864
549.687743
621.201992
636.881590
591.802597
475.781560
361.327529
215.745568
133.753419
63.299537
31.414628
12.209415
8.294582
7.824898
7.585883
7.972717
8.286834
9.732842
11.680722
16.626716
22.661686
31.241775
40.134788
53.326488
61.628819
70.175529
72.428584
69.652796
64.608455
53.766966
45.084953
33.293962
25.874972
19.261837
##ZVALUE=355
0.553727
0.550747
0.479817
0.606775
0.671744
0.693798
0.570416
0.497699
0.498891
0.574589
0.565648
0.649691
0.482798
0.646710
0.632405
0.612736
0.495911
0.490546
0.561476
0.587702
0.479817
0.652671
0.725985
0.648499
0.659823
0.674725
0.710487
0.558496
0.678897
0.674725
0.635982
0.603795
0.649691
0.607967
0.598431
0.702739
0.816584
0.731945
0.784993
0.787973
0.741482
0.667572
0.719428
0.794530
0.827909
0.830889
0.788569
0.860691
0.846982
0.827909
0.793934
0.762939
0.971556
0.934601
1.048446
1.247525
1.019835
1.290441
1.559854
2.813935
14.917850
39.513707
102.037787
177.333951
308.958888
416.072607
530.463457
577.288866
562.418699
493.577719
365.046859
268.030763
152.278543
85.759759
34.994483
17.391443
8.488894
7.403493
7.519722
7.746816
7.676482
7.971525
8.881688
10.200739
14.004707
18.708706
27.341843
35.873652
47.387481
55.351853
62.747002
64.620972
64.211488
59.368610
50.451756
42.960644
##ZVALUE=360
0.419617
0.475645
0.482798
0.417829
0.461936
0.452995
0.507832
0.623465
0.446439
0.488758
0.608563
0.544786
0.481606
0.351667
0.649691
0.576973
0.464916
0.553727
0.663996
0.624657
0.622869
0.400543
0.499487
0.411868
0.577569
0.373721
0.583529
0.528693
0.677705
0.620484
0.573993
0.646710
0.746846
0.547767
0.647902
0.603795
0.567436
0.574589
0.495911
0.573993
0.657439
0.676513
0.723600
0.625849
0.835657
0.697970
0.885725
0.753999
0.643730
0.740886
0.843406
0.808835
0.783801
0.862479
0.823736
0.858903
0.992417
1.110435
1.130700
1.038909
1.362562
1.990795
5.931854
26.891828
63.540936
152.657628
243.060589
376.001596
474.839807
565.525889
575.702786
524.609685
441.431999
300.006866
199.940801
99.857450
52.777529
21.606684
10.775924
7.124543
6.791949
6.963611
6.878972
7.365942
7.307529
8.072853
9.258986
11.942983
15.460849
22.339821
29.337406
40.432811
48.020482
55.787563
59.013963
59.822798
##ZVALUE=365
0.499487
0.479817
0.408888
0.471473
0.477433
0.643730
0.495911
0.462532
0.556707
0.638962
0.479817
0.579953
0.650883
0.654459
0.554919
0.647902
0.523925
0.676513
0.576973
0.656843
0.590682
0.719428
0.635982
0.551939
0.510812
0.667572
0.616908
0.652671
0.734925
0.610948
0.602603
0.646710
0.585914
0.602603
0.609756
0.672936
0.733733
0.569820
0.590682
0.754595
0.792742
0.632405
0.721812
0.727773
0.673532
0.627637
0.686646
0.801682
0.734925
0.827909
0.764728
0.771880
0.781417
0.767708
0.828505
0.929832
0.926852
1.005530
0.998974
0.993609
1.051426
1.164675
1.134872
1.412630
2.794862
13.619661
35.135746
89.052916
161.545873
291.535854
387.468934
492.311716
536.503792
521.161556
458.003879
334.915519
237.802863
133.189559
73.840618
29.308796
13.679862
7.249713
6.698966
6.639957
6.381869
6.482601
6.724596
6.805658
7.063746
8.105636
9.836555
14.132857
18.402934
26.656985
34.054518
42.953491
##ZVALUE=370
0.397563
0.572801
0.619888
0.394583
0.595450
0.531673
0.590682
0.541806
0.595450
0.689626
0.507832
0.538826
0.605583
0.466704
0.457764
0.429749
0.524521
0.535846
0.545979
0.540614
0.779629
0.662804
0.520945
0.738502
0.586510
0.505447
0.525713
0.715852
0.692606
0.593662
0.719428
0.645518
0.646710
0.750422
0.622869
0.678897
0.664592
0.640750
0.694990
0.651479
0.666976
0.670552
0.602603
0.741482
0.614524
0.656843
0.739694
0.636578
0.693798
0.627637
0.890493
0.854731
0.818968
0.745654
0.900626
0.867844
0.896454
0.811815
0.867844
0.946522
0.797510
0.999570
0.981688
1.003742
1.052618
1.244545
1.720786
7.201433
21.736622
67.531466
123.623610
230.399966
329.682827
454.149842
513.949990
524.483919
478.699803
374.447703
277.555585
155.533552
88.405609
36.506653
18.450618
8.858442
6.541610
6.190538
5.799532
6.300807
5.807877
6.239414
6.314516
6.461740
7.283688
9.257793
11.984706
16.945601
##ZVALUE=375
0.559688
0.460744
0.590682
0.548959
0.604987
0.594854
0.404716
0.544786
0.441670
0.581741
0.615716
0.466704
0.657439
0.482798
0.572801
0.582933
0.621676
0.561476
0.543594
0.644922
0.572801
0.637770
0.595450
0.545979
0.541806
0.622869
0.399947
0.586510
0.571609
0.523925
0.621676
0.543594
0.611544
0.524521
0.619888
0.583529
0.540614
0.653863
0.641942
0.599623
0.693798
0.642538
0.657439
0.557899
0.796914
0.727773
0.465512
0.641942
0.674725
0.583529
0.718832
0.816584
0.771880
0.676513
0.867844
0.737906
0.730753
0.775456
0.708699
0.683665
0.688434
0.900626
0.808835
0.725985
0.877976
0.946522
1.059771
1.287460
1.474619
3.561974
16.260743
38.343668
95.014572
167.725682
291.609764
383.862853
481.965542
520.662665
492.810607
425.350666
303.034782
213.476419
121.733546
69.766641
29.046535
13.772845
6.729960
5.730987
5.638599
5.541444
5.571842
5.381703
5.781651
5.737543
5.861521
6.510615
##ZVALUE=380
0.471473
0.623465
0.556707
0.566840
0.547767
0.477433
0.444651
0.555515
0.408888
0.527501
0.579953
0.604987
0.557899
0.445843
0.689626
0.545979
0.487566
0.545979
0.591874
0.472665
0.581741
0.628829
0.510812
0.509620
0.602603
0.578761
0.514984
0.544786
0.478625
0.615716
0.613928
0.578761
0.703931
0.597835
0.784993
0.471473
0.601411
0.772476
0.649691
0.619888
0.658631
0.645518
0.528693
0.573993
0.666976
0.561476
0.722408
0.666976
0.533462
0.615716
0.779629
0.632405
0.635982
0.572801
0.667572
0.615716
0.631809
0.589490
0.589490
0.651479
0.839829
0.687838
0.795722
0.705719
0.930429
0.870824
0.862479
0.934601
1.250505
1.143813
1.233816
2.158880
8.595586
24.333000
71.071982
129.435658
239.692926
337.189436
453.853607
503.363013
499.378443
452.727675
353.429914
264.353752
155.025721
91.779828
39.902925
19.864440
7.952452
5.529523
5.240440
5.270839
5.146861
5.169511
5.113482
5.474687
##ZVALUE=385
0.483990
0.488758
0.485778
0.499487
0.668764
0.478625
0.518560
0.531673
0.509620
0.561476
0.618696
0.557899
0.513792
0.552535
0.507832
0.444651
0.447631
0.514984
0.360608
0.492930
0.379682
0.480413
0.382662
0.405908
0.489950
0.480413
0.576973
0.665784
0.639558
0.561476
0.279546
0.524521
0.493526
0.595450
0.605583
0.627637
0.502467
0.628829
0.705719
0.658631
0.517964
0.482798
0.565648
0.557899
0.628829
0.517964
0.679493
0.578761
0.654459
0.579953
0.625849
0.569820
0.595450
0.616908
0.576973
0.731945
0.765920
0.763535
0.717640
0.691414
0.730753
0.661612
0.789762
0.861883
0.766516
0.772476
0.787973
0.864863
0.792742
1.052618
1.021624
1.016855
1.085997
1.486540
3.372431
17.012954
41.528940
101.995468
176.706910
300.153494
394.497514
480.261445
501.712561
472.851992
411.503911
302.311778
214.006901
117.284656
68.193674
29.122829
13.419986
6.246567
4.938841
4.803538
4.745722
4.619956
##ZVALUE=390
0.423789
0.480413
0.459552
0.503659
0.484586
0.395775
0.569820
0.583529
0.586510
0.521541
0.308752
0.513792
0.608563
0.386834
0.624657
0.418425
0.495911
0.485778
0.434518
0.444651
0.624657
0.411868
0.474453
0.517964
0.582933
0.583529
0.569820
0.532866
0.646710
0.424981
0.565648
0.593662
0.370741
0.587702
0.644922
0.577569
0.600815
0.758767
0.620484
0.597835
0.625849
0.609756
0.615716
0.573993
0.655651
0.549555
0.578761
0.602603
0.542998
0.592470
0.656843
0.547767
0.561476
0.615716
0.667572
0.659823
0.619888
0.672936
0.689626
0.697970
0.659823
0.732541
0.619888
0.614524
0.709891
0.835657
0.789762
0.850558
0.906587
0.832677
1.077652
0.888705
0.964999
1.031756
1.025796
1.296997
2.088547
9.001493
27.160645
77.311993
142.832994
259.495974
347.239971
442.377925
488.950610
495.908856
453.763008
358.714461
272.676945
167.285800
98.282695
40.964484
19.588470
7.443428
5.102754
4.455447
##ZVALUE=395
0.468493
0.519753
0.458956
0.609756
0.499487
0.550747
0.500679
0.569820
0.563860
0.614524
0.532866
0.624657
0.590682
0.584722
0.601411
0.588894
0.426769
0.624657
0.620484
0.582933
0.607967
0.514984
0.574589
0.680685
0.552535
0.540614
0.517964
0.506639
0.644922
0.665784
0.707507
0.611544
0.605583
0.666976
0.697970
0.585914
0.644922
0.413656
0.594854
0.525713
0.623465
0.691414
0.741482
0.689626
0.657439
0.649691
0.759959
0.623465
0.670552
0.708699
0.668764
0.606775
0.486970
0.670552
0.649691
0.602603
0.681877
0.653863
0.784993
0.760555
0.771880
0.689626
0.714660
0.722408
1.000762
0.699759
0.876784
0.869632
0.988841
0.900626
0.999570
0.845790
0.965595
0.995994
0.986457
1.020432
1.068711
1.334548
1.560450
4.427433
21.122694
48.806667
110.569000
183.498859
303.039551
394.295454
486.874580
517.373681
492.844582
427.384973
316.195488
221.375823
118.157864
63.965917
24.958849
11.912584
##ZVALUE=400
0.437498
0.521541
0.485778
0.447631
0.597835
0.517964
0.558496
0.538826
0.365973
0.589490
0.500679
0.595450
0.447631
0.540614
0.561476
0.567436
0.483990
0.484586
0.427961
0.665784
0.491738
0.502467
0.382662
0.550747
0.672936
0.562668
0.705719
0.383854
0.634789
0.636578
0.552535
0.630617
0.568628
0.643730
0.489950
0.528693
0.492930
0.632405
0.605583
0.551939
0.709891
0.604987
0.571609
0.697970
0.571609
0.648499
0.707507
0.545979
0.636578
0.629425
0.573993
0.611544
0.787973
0.531673
0.794530
0.495911
0.638962
0.648499
0.637770
0.616908
0.826716
0.766516
0.748634
0.514984
0.809431
0.844598
0.677705
0.853539
0.689626
0.863671
0.861883
0.935793
0.861883
0.914931
0.860691
0.969768
0.887513
1.048446
1.009703
0.961423
1.183748
3.124475
9.711981
32.575727
69.094896
150.294900
236.015916
360.072851
437.000990
502.133965
505.516529
441.079736
360.726714
239.994526
157.948732
80.075860
##END
