##TITLE=FSH751
##FORMAT=SPECTACLE-ASCII V-1.2
##DATA TYPE=ULTRAVIOLET SPECTRUM
##SECOND TYPE=ULTRAVIOLET SPECTRUM
##DATE=01/11/18
##TIME=18:32:29
##SPECTROMETER/DATA SYSTEM=SPECTACLE
##XUNITS=NM EM
##YUNITS=ENERGY
##YFACTOR=1
##FIRSTX=220
##LASTX=410
##NPOINTS=96
##3DDATA=Equidistant
##ZUNITS=NM EX
##FIRSTZ=210
##LASTZ=400
##ZPOINTS=39
##XYDATA=(Y..Y)
##ZVALUE=210
15.760660
15.972853
12.830496
9.858608
10.623932
9.409785
7.891655
7.202625
6.927848
5.018711
4.970431
4.172921
4.821420
4.065633
4.884601
5.129576
4.094839
4.999638
5.097985
5.612969
5.095601
6.107688
6.355643
6.339550
7.622838
7.103682
8.635521
8.919835
11.225939
11.783838
11.339784
13.163686
13.980865
12.857914
14.677644
14.926791
14.709830
15.333891
13.943911
14.170408
15.624762
15.373826
14.902949
14.091730
13.894439
14.059544
12.808442
13.206601
15.525818
14.135838
13.300776
14.806986
13.087988
13.427734
15.717745
14.932752
13.819933
13.223886
13.063550
14.115572
13.809800
14.155507
13.499856
14.167428
14.362931
15.345812
14.463663
16.977787
19.091964
22.253990
27.355552
30.384660
33.358932
40.479898
43.943524
45.436621
48.183799
49.267411
45.882463
45.285821
42.347908
38.656592
31.851530
30.070543
24.022460
21.098852
17.818809
15.548468
14.833808
13.174415
17.335415
19.441843
25.273561
30.943751
35.900474
40.905476
##ZVALUE=215
87.591410
85.212588
72.970986
46.641827
34.328699
24.101734
17.394423
15.382767
13.578534
13.936758
12.933612
9.037852
8.246899
6.221533
6.632805
5.381703
5.052686
5.249977
5.069971
5.644560
6.565452
6.194711
6.947517
6.895661
7.688999
8.543730
8.951426
10.644794
11.539459
13.056993
12.754798
13.950467
16.101599
16.524792
16.357899
15.906692
17.937422
16.708970
17.337799
15.296936
16.353726
16.051531
14.662743
15.240908
15.793443
13.850927
13.983846
12.571812
14.038682
12.837648
13.757944
13.118982
10.872483
12.301803
12.230873
12.690425
13.705492
12.151599
11.453629
11.842847
11.528730
11.036992
11.384487
11.676550
10.960698
11.696815
12.833476
14.228821
15.070438
18.080473
20.053983
23.777485
27.565956
29.302835
29.614568
30.788779
29.139519
26.913881
24.656653
22.487640
18.661618
16.731620
15.660524
13.305545
12.143850
10.851622
11.015534
9.765625
9.346604
8.923411
8.970499
8.180737
8.146763
10.825992
12.162924
15.150905
##ZVALUE=220
140.988827
137.627721
130.831599
106.654763
82.981586
58.120489
41.761994
28.958917
24.593472
22.154450
25.002956
23.731589
20.410419
17.124414
14.895797
11.355877
7.381439
6.058812
6.101727
5.046725
4.946589
5.877614
5.946755
5.229712
5.743504
6.362796
7.459521
8.775592
8.579493
11.773705
11.972785
12.891889
15.463829
15.207529
15.064478
17.054677
15.187860
15.074611
15.230775
15.846491
14.141798
13.471842
14.515519
13.228655
11.720657
10.840893
11.717677
11.418462
10.181665
8.924603
9.490848
10.129809
9.191632
8.694530
8.718967
8.622408
8.682609
8.952618
8.074641
8.181930
8.846521
7.340908
8.240938
7.241964
7.176995
7.772446
7.829666
8.034706
8.523464
8.953810
10.007620
9.936690
12.104511
13.278723
14.332533
13.800859
14.294982
16.592741
15.033484
14.033914
15.680790
14.271736
11.632442
10.042787
9.272695
6.949902
7.055998
6.582737
6.221533
5.899668
6.267428
5.966425
6.113648
6.106496
5.389452
4.983544
##ZVALUE=225
146.428943
152.537823
177.880526
193.510652
184.689760
164.048672
133.634806
88.791847
65.493584
50.108433
39.619803
37.172437
39.916635
39.615631
36.924481
31.764507
27.019978
20.805597
17.637610
10.926723
7.531643
6.497502
5.138516
5.743504
5.795956
6.172657
6.865859
8.594990
10.519624
10.213852
11.708736
14.922619
13.789535
16.121864
14.341474
16.388893
15.222430
15.949607
14.878511
15.429854
16.546845
15.300512
14.111996
13.677478
12.520552
11.740923
12.356639
12.462735
11.080503
11.039972
11.525750
10.709763
10.253787
10.218620
9.216666
10.505915
10.244846
9.311438
10.182858
9.818673
8.857846
8.480549
9.429455
8.213520
8.008480
8.398890
9.216666
9.247661
9.411573
11.053681
11.748672
12.183785
12.651682
15.015602
14.435649
15.108585
16.780496
15.806556
14.230609
14.033914
13.539791
11.591911
11.951923
9.552836
8.934736
7.088780
7.304549
6.643534
6.889701
6.901622
6.859899
6.593466
6.548762
6.103516
5.608797
6.754994
##ZVALUE=230
109.836459
118.343830
167.921782
244.867802
280.553699
320.921540
326.122642
284.650922
236.946940
184.924603
118.929744
85.608959
64.349771
61.346889
59.836507
60.364604
61.607957
56.640506
51.932931
43.552518
30.421615
21.240711
14.344454
8.378625
6.937981
6.180406
5.961657
8.443594
8.094907
9.370446
10.329485
9.953976
12.474656
11.810660
13.353825
12.367964
13.739467
12.582541
12.546778
12.387633
12.109876
12.422800
11.455417
12.773871
12.283921
11.446476
10.224581
11.472702
11.067986
10.630488
9.743571
9.822845
11.187792
10.434985
9.761453
10.863543
10.747910
10.275841
9.550452
10.287762
9.199977
9.163618
9.830594
10.349751
9.798408
10.363460
9.027719
9.495616
10.674596
10.160804
11.939406
12.857914
12.691617
12.669563
14.138818
12.848973
13.702512
13.449788
13.103485
13.922453
12.076497
11.880994
10.348558
9.908676
9.091496
7.686615
7.131696
7.253885
7.486939
7.731915
7.809997
6.124973
6.955862
6.148815
6.885529
6.869435
##ZVALUE=235
31.764507
39.177537
68.365932
149.813890
231.077671
341.420770
425.216556
503.762960
520.579815
500.178933
414.452553
326.577425
215.553641
160.240531
105.888844
88.446736
81.841946
87.483525
91.896653
87.528825
85.231662
67.823529
56.937933
38.117766
25.672913
14.783740
11.600852
8.497834
8.231997
8.956790
8.965731
9.138584
10.691881
9.869933
9.816885
10.615587
10.377765
10.359883
10.335445
11.201501
10.927916
11.716485
11.474490
10.927916
10.644794
10.601878
12.052655
10.118484
10.277629
11.134744
10.466576
10.240674
10.604858
10.544658
10.996461
11.613965
12.241602
10.693669
10.966659
10.584593
12.804866
11.079907
11.650920
11.787415
11.333823
11.530519
11.285543
11.890531
13.028979
13.420582
13.161898
16.048551
17.368793
16.980767
18.325448
18.333793
18.181801
20.157695
18.183589
17.347932
17.357469
16.120672
15.016794
14.010668
12.202859
10.690689
10.506511
10.290742
10.187626
9.237528
10.406971
9.549856
10.323524
8.934736
9.304881
9.897947
##ZVALUE=240
2.290606
2.650619
10.711551
28.680563
91.136694
167.887807
324.319601
487.139821
696.048737
807.680488
850.421786
808.514953
709.898472
520.969629
379.848480
227.755904
154.264569
109.992623
99.377632
112.454891
123.203993
130.232573
125.247836
111.011863
87.406635
67.376494
50.119758
32.143593
20.049810
13.997555
10.086894
8.694530
8.146763
8.049607
9.144545
9.357929
10.075569
9.981990
8.474588
9.854436
10.859966
9.162426
9.015799
11.199713
10.231733
10.004640
10.811687
10.370612
11.549592
11.272430
11.130571
10.526776
10.509491
10.941625
10.473728
9.959936
11.658669
10.750890
10.688901
11.183619
11.331439
10.995865
12.494922
10.994673
11.960864
10.494590
12.180805
12.623668
14.291406
16.057491
16.589761
19.221902
19.335747
20.466447
21.247864
21.828413
22.835732
21.445751
22.593737
22.445917
19.277930
17.883778
16.327500
14.253855
12.574792
12.598634
11.648536
10.732412
10.683537
10.129809
8.328557
9.778738
9.495616
9.947419
10.016561
10.253787
##ZVALUE=245
1.957417
2.204776
2.514720
2.905726
8.947849
25.428534
79.196692
157.491565
341.516733
499.325991
731.424689
865.836740
951.193571
925.143957
833.870769
631.902814
489.871502
306.765437
204.542875
125.111938
106.137991
104.521513
119.666457
130.283833
136.232972
130.365491
118.050575
98.937750
73.753595
54.641962
39.748549
23.350716
15.255809
9.887815
9.762645
8.699894
9.666681
9.372830
8.733869
9.695888
9.195805
9.820461
10.902882
9.956956
8.961558
11.059642
10.178685
11.032820
11.143684
10.904670
10.045767
10.441542
11.053681
10.561943
10.288954
10.978580
10.041595
10.132790
10.492802
9.829998
10.475516
10.472536
10.637641
9.948611
10.717511
9.484887
10.121465
10.189414
11.127591
11.739731
13.729930
14.001727
13.845563
15.249848
15.217662
15.317798
15.027523
15.451908
14.710426
13.357997
14.154911
12.781620
12.248755
10.653734
11.289716
9.670854
8.846521
9.655952
9.632707
9.950995
9.444952
8.017421
9.282827
8.818507
8.703470
7.854700
##ZVALUE=250
2.008677
1.654625
2.424717
2.288818
2.003908
2.512932
2.722740
11.619925
35.242438
106.748939
221.042633
398.404598
686.672926
879.337788
1015.681624
1015.681624
1015.681624
920.423865
681.578517
480.430722
271.609426
175.287724
105.785728
98.324418
111.739635
126.303434
140.256882
144.587755
139.588714
125.417709
108.573437
79.791546
58.697462
37.788749
26.174784
15.636683
12.327433
10.722876
10.278821
10.009408
10.460615
11.316538
10.046959
10.498762
10.628700
11.067986
10.513663
10.359883
10.856986
10.666847
10.259748
10.315776
11.366606
11.078715
9.529591
10.458827
10.146499
10.453463
10.433793
10.157824
9.215474
10.530949
9.935498
9.883642
10.125637
9.802580
10.902882
10.708570
10.281801
11.209846
11.067986
12.290478
12.814999
13.420582
13.740659
12.137890
12.679696
12.383461
12.031794
10.915995
11.576414
9.911656
9.926558
9.747744
9.022951
8.625984
8.581877
7.600784
7.981658
8.109808
7.223487
7.918477
7.658601
7.690787
7.956624
8.064508
##ZVALUE=255
1.530647
1.431704
1.848936
1.780987
2.158880
2.103448
2.026558
2.276897
2.542734
5.378723
27.502775
68.319440
150.757432
340.300798
535.537601
811.180472
982.315540
1015.681624
1015.681624
956.099033
776.028037
582.665801
341.259837
219.259858
123.237967
95.902681
94.880462
108.028650
131.636858
147.186518
155.874491
150.859952
139.030814
112.681985
89.444518
60.622692
43.207407
27.423501
18.788576
13.453960
12.016892
11.926889
11.587739
11.316538
12.485981
12.483597
12.057424
11.762977
11.240840
10.907650
11.567473
11.743903
11.093616
11.290908
10.192990
10.087490
10.203719
10.468960
10.246634
9.745955
9.402633
9.417534
9.916425
9.287596
9.260774
8.670688
9.171963
9.046793
8.520484
9.969473
10.335445
10.631680
10.766983
10.857582
10.861754
11.034608
10.568500
10.774732
9.534955
8.237958
9.223819
8.169413
8.280873
8.204579
6.990433
7.436872
7.473826
7.418990
7.411838
7.415414
7.257462
7.412434
6.566644
6.890893
7.077456
6.869435
##ZVALUE=260
1.453757
1.377463
1.502633
1.684427
1.599789
1.484752
1.590848
1.597404
1.546741
1.656413
2.130866
2.914667
10.134578
38.979650
86.526871
209.418535
350.113511
562.521815
740.533471
930.936933
996.155739
965.632796
821.007490
653.398633
423.785448
292.285681
167.618990
110.639930
81.966519
85.104704
108.935833
135.166645
154.892802
166.429877
157.840848
143.058896
119.972825
91.892481
68.692565
44.389963
31.324625
20.977855
15.750527
13.697743
12.516975
12.632608
12.243986
11.723638
11.316538
11.187792
11.662841
10.953546
11.698604
10.431409
10.573864
10.145903
10.523796
9.568930
9.985566
9.369850
8.461475
8.424520
8.269548
8.891821
8.811951
8.514524
8.201599
8.245707
8.421540
8.250475
8.850694
8.894801
8.681417
9.239912
8.747578
9.207726
9.029508
8.983612
8.380413
9.024739
8.005500
7.241964
7.458925
6.984472
7.289648
6.901622
6.741881
6.540418
6.606579
6.720424
6.564856
7.408857
6.301999
6.267428
6.427765
6.284714
##ZVALUE=265
1.343489
1.273751
1.150966
1.455545
1.246929
1.206994
1.455545
1.630783
1.473427
1.671910
1.934767
1.747608
2.118945
2.155900
5.274415
27.194619
62.859654
155.388713
279.465914
518.067479
713.871717
899.427533
1015.682817
1015.682817
908.899903
763.762593
557.560921
390.207767
219.210982
135.046840
89.881420
75.890422
88.437796
123.288631
144.969821
164.158940
169.376731
161.656737
145.667791
117.030740
93.014836
64.655542
45.688748
29.894710
22.476912
16.065836
13.655424
12.789965
13.053417
12.873411
12.675524
11.077523
11.308789
10.864735
10.851622
10.257959
10.219812
10.467768
9.854436
9.183884
8.949637
8.339882
8.564591
8.752942
8.737445
8.446574
8.602738
7.978678
8.144975
8.219481
9.109974
8.467436
8.682609
9.311438
8.829832
8.158684
8.738637
7.894635
8.193851
8.159876
7.087588
7.389784
6.835461
6.914735
7.186532
6.466508
6.143451
6.561875
6.326437
6.679893
5.902648
6.090999
6.265640
6.009936
5.611777
6.400943
##ZVALUE=270
1.143813
1.224875
1.087785
1.017451
1.211762
1.233816
1.399517
1.329780
1.408458
1.584888
1.443624
1.457930
1.748800
1.775622
1.947880
2.411604
2.744794
12.594461
36.392808
111.582875
220.346451
384.152532
646.136999
848.837495
1015.653014
1015.653014
1015.653014
905.321836
679.671764
505.209565
369.445682
183.450580
108.263493
68.881512
69.975853
95.452666
119.405985
146.610737
161.436796
171.558857
164.415836
144.654512
127.237439
93.542933
68.762898
42.987466
33.035874
21.266937
16.370416
12.604594
11.971593
11.431575
11.491776
10.384917
10.198951
10.646582
10.112524
9.354949
9.451509
9.281635
9.388924
8.402467
8.276701
8.055568
8.392930
7.997751
7.476807
8.144975
7.713437
8.026958
7.796884
7.900000
8.256435
8.692741
8.104444
8.091927
8.534789
7.855892
7.129908
7.526875
7.109642
7.010698
6.754994
6.652474
6.388426
6.204844
6.179810
6.430745
5.999804
6.207824
6.102920
5.682707
5.374551
5.452633
5.831718
5.920529
##ZVALUE=275
1.076460
1.141429
1.186728
1.158714
1.165867
1.245737
1.246929
1.312494
1.523495
1.125932
1.450777
1.415610
1.441836
1.590848
1.436472
1.800656
2.058744
1.900792
1.807809
5.289912
20.704865
73.912740
159.343481
339.369774
539.325476
800.465941
966.423750
1015.681624
1015.681624
993.571877
850.066543
597.407818
416.230559
226.498842
132.255554
67.766905
55.671930
68.464875
89.712739
118.905902
140.785575
162.693858
167.836547
160.424709
145.191550
115.810633
92.096925
63.561797
47.190785
29.783845
20.948648
13.991594
12.023449
10.162592
9.986758
9.298921
9.460449
9.418726
9.077787
9.278655
8.869767
8.618832
8.106828
8.501410
7.881522
7.698536
7.521510
7.713437
7.682443
7.831454
8.158684
8.026958
8.395910
8.273721
8.371472
7.931590
7.974505
7.610917
7.290840
7.170439
6.481409
6.851554
6.325841
6.465912
6.020665
6.251931
6.258488
5.519986
5.598664
5.772710
5.560517
5.497932
5.076528
5.423427
5.863905
5.264878
##ZVALUE=280
1.124740
1.268983
1.186728
1.287460
1.023412
1.222491
1.227856
1.418591
1.115799
1.150966
1.358986
1.339912
1.329780
1.590848
1.538992
1.480579
1.481771
1.822710
1.649857
2.032518
2.273917
2.829432
14.952421
46.019554
136.549473
245.877504
442.276001
636.456013
881.702900
1014.340520
1015.809774
1015.809774
953.864455
706.130862
514.774919
286.929607
166.071653
77.471733
48.112869
47.803521
60.746670
90.421438
111.934543
139.948726
156.160593
160.722733
155.239701
136.002898
115.022659
84.881783
64.243674
40.679574
28.829575
16.727448
12.627840
10.286570
9.355545
8.183718
8.587837
8.470416
8.327961
8.191466
8.149743
7.822514
7.745624
7.486939
7.582903
7.579923
7.869601
7.410645
7.435679
7.840991
7.782578
7.684827
7.690787
7.684827
7.211566
7.518530
7.064939
6.956458
6.565452
6.502867
6.143451
6.336570
6.028414
6.040931
5.803704
5.597472
5.711913
5.283952
5.314946
5.521774
4.923940
5.428791
5.032420
5.407929
##ZVALUE=285
0.978708
0.990629
0.907779
1.086593
1.063943
1.055598
1.113415
0.964999
1.086593
1.182556
1.228452
1.014471
1.125932
1.243949
1.302958
1.037717
1.295805
1.399517
1.491904
1.677871
1.499653
1.591444
2.120733
2.186894
7.895827
26.112795
66.556931
168.734789
292.409658
516.896844
710.148811
947.673917
1015.674472
1015.674472
1015.674472
827.296376
633.965731
379.285812
232.426524
107.120872
57.517886
34.462810
38.299561
57.427883
78.433752
110.579729
127.590895
147.259831
155.569911
149.256587
135.652423
111.208558
89.843869
60.903430
42.949915
25.164485
16.995668
10.696650
8.649826
7.562637
6.859899
7.214546
6.813407
6.933808
6.707907
7.116795
7.015467
6.977916
6.899834
7.388592
6.885529
7.088780
7.042885
6.656647
7.320642
7.016659
6.640553
6.924868
6.499887
6.299615
6.439686
5.552769
5.977750
5.757809
5.611777
5.465746
5.559921
5.294681
5.347729
5.193949
5.288720
4.902482
4.815459
4.742742
4.765987
4.889965
##ZVALUE=290
0.960827
0.813603
0.913739
0.817776
0.865459
0.788569
0.922680
1.020432
1.029968
1.091957
0.998974
0.898838
0.847578
0.864863
1.077652
1.115799
1.219511
1.205802
1.315475
1.352429
1.339912
1.542568
1.689792
1.710653
2.106428
2.112985
2.927780
10.009408
43.096542
97.282529
218.802691
373.001695
569.570661
852.922797
1002.757549
1015.681624
1015.681624
921.244621
734.307766
480.987430
311.632752
153.095722
78.406930
33.423901
26.007891
35.782456
50.733685
76.038837
98.688602
123.970509
138.655901
149.537921
146.565437
129.216909
110.432506
81.250668
60.741901
39.340854
26.789904
15.800595
10.656714
7.668734
6.855726
6.392598
6.325841
6.013513
6.235838
6.100535
6.009936
6.511807
6.502867
6.317496
6.942749
6.768703
6.556511
6.414652
6.058812
5.930662
5.832911
5.658865
5.472898
5.820990
5.841851
5.301833
5.579591
4.838705
5.268455
5.227923
5.107522
5.244613
4.575849
4.876852
4.728436
4.571676
4.833937
4.777908
##ZVALUE=295
0.837445
0.827909
0.950694
0.802875
0.797510
0.881553
0.728965
0.782609
0.977516
0.867844
0.918508
0.907779
0.970960
0.997782
1.023412
0.969768
1.056790
0.992417
1.191497
1.328588
1.300573
1.209974
1.330972
1.348853
1.585484
1.497865
1.774430
2.133846
2.111793
4.415512
15.086532
60.257912
132.466555
298.974514
475.617647
746.334791
929.365754
1015.682817
1015.682817
999.921560
848.602653
591.926575
404.619575
206.229687
110.170841
41.809678
23.819804
21.866560
30.197501
48.767924
67.469478
95.532537
114.357471
134.170651
142.683983
136.311650
123.899579
102.939606
82.615614
56.750774
39.909482
23.647547
15.414953
10.122657
7.178783
5.889535
5.367994
5.735755
5.860925
5.816817
5.594492
5.862713
5.684495
6.273985
6.064773
5.826950
5.645752
5.767941
5.569458
5.405545
5.377531
5.307794
5.216599
5.136728
4.741549
5.013943
4.927516
4.759431
4.526973
4.667640
4.831553
4.777908
4.714727
4.136562
4.408956
4.251599
##ZVALUE=300
0.758767
0.750422
0.825524
0.969768
0.750422
0.872612
0.849962
0.950694
0.946522
1.007915
0.915527
0.881553
0.809431
1.170635
0.823736
1.053810
0.805855
0.947714
0.925660
1.051426
1.114607
1.045465
1.284480
1.221895
1.242757
1.299977
1.294613
1.568794
1.799464
1.739860
1.945496
2.396703
7.064939
35.376549
86.121559
211.587548
354.653001
599.207878
794.708729
999.328494
1015.681624
1015.681624
929.569006
689.264536
496.532917
272.358656
157.986879
66.992640
32.586455
16.893744
18.184781
28.860569
40.944815
62.567592
83.321929
107.012987
121.769905
132.139921
129.387975
118.211508
101.814866
75.906515
58.735609
38.333535
26.340485
15.136600
10.109544
6.873608
5.894899
5.443692
5.281568
5.157590
5.265474
5.549788
5.333424
5.570650
5.428791
5.287528
5.722642
5.009770
5.021691
4.926920
5.189776
4.816651
4.878640
4.459620
5.027652
4.948974
4.786849
4.791617
4.207492
4.347563
4.412532
4.498959
4.358888
4.375577
##ZVALUE=305
0.770688
0.813603
0.767708
0.752807
0.647902
0.648499
0.820756
0.570416
0.789762
0.764728
0.794530
0.832677
0.875592
0.911951
0.934601
0.634789
0.943542
0.996590
1.002550
0.938773
1.039505
1.103878
1.024604
0.957847
1.222491
1.112819
0.991821
1.225471
1.343489
1.595616
1.664758
1.573563
1.681447
2.046824
3.874898
20.471811
56.061745
155.934691
276.733637
505.240560
701.197982
930.672884
1015.646458
1015.646458
982.576609
758.603811
578.066707
358.226895
219.222903
96.615553
46.969652
18.125772
13.651848
17.487407
25.445819
41.166544
56.637526
80.632567
98.299980
117.127895
123.778582
122.303963
113.271475
93.537569
76.627731
51.964521
37.141442
23.083687
14.634728
8.845925
6.914735
5.488992
5.427599
5.146861
5.100965
5.228519
5.051494
5.084872
4.524589
4.837513
4.816651
4.722476
5.019903
4.651546
4.407763
4.462600
4.517436
4.449487
4.429817
4.442930
4.535913
4.253983
4.147887
3.968477
4.234910
4.311800
##ZVALUE=310
0.678897
0.836849
0.816584
0.898838
0.826716
0.675917
0.857711
0.726581
0.793934
0.725985
0.867844
0.763535
0.821948
0.864863
0.845790
0.850558
0.839829
0.799894
0.889897
0.824928
0.939965
0.955462
0.778437
0.873804
1.120567
1.249909
1.060963
1.120567
1.277924
1.308918
1.147985
1.427531
1.418591
1.548529
1.700521
2.094507
2.195835
9.375811
29.233694
95.815659
186.076760
380.335450
565.606952
821.042657
976.500511
1015.681624
1015.681624
891.812444
720.731616
466.097593
303.131938
147.615671
76.801777
27.485490
13.760924
11.125803
14.436841
23.395419
33.717752
52.932501
70.233941
91.475844
105.957985
116.919875
116.073489
106.792450
94.363689
73.844790
55.290461
35.903454
24.676919
14.419556
9.793639
6.784797
5.627871
5.146861
4.587770
4.468560
4.557967
4.446507
4.588962
4.605651
4.737973
4.765987
4.561543
4.759431
4.568696
4.524589
4.495978
4.134774
4.455447
4.249811
4.408956
4.196763
4.016757
4.261732
##ZVALUE=315
0.704527
0.688434
0.720620
0.716448
0.836849
0.881553
0.797510
0.644922
0.762939
0.879765
0.803471
0.899434
0.935793
0.769496
0.815988
0.880957
0.840425
0.794530
0.785589
0.906587
0.844598
1.004934
0.980496
0.809431
0.989437
1.071692
1.067519
1.005530
1.113415
1.077652
1.101494
1.259446
1.458526
1.267791
1.480579
1.462698
1.492500
1.904964
1.921654
4.247427
15.341640
61.921477
136.336684
305.537581
479.601026
739.476681
904.522538
1015.681624
1015.681624
954.031944
805.561543
564.831495
391.965508
200.967789
106.110573
38.101673
17.018914
9.175539
10.021925
13.956428
19.356608
32.879710
45.940876
66.695809
83.421469
102.276802
109.153986
110.439658
103.166699
85.733533
71.096420
51.485896
37.390590
22.305846
14.884472
9.029508
6.476641
5.324483
4.797578
4.583597
4.630685
4.358888
4.580617
4.533529
4.516840
4.513860
4.375577
4.468560
4.448891
4.431605
4.699826
4.100800
4.287958
4.443526
4.280806
4.269481
##ZVALUE=320
0.742674
0.574589
0.756979
0.710487
0.715852
0.728965
0.606775
0.579953
0.882745
0.769496
0.789762
0.816584
0.645518
0.901818
0.795722
0.794530
1.021624
0.778437
0.851750
0.829697
0.901818
0.781417
1.052618
0.968575
0.854731
1.071692
0.763535
1.018643
1.125932
0.951886
1.319647
1.256466
1.008511
1.343489
1.392961
1.476407
1.490712
1.729727
1.678467
1.893640
2.088547
2.675653
9.246469
60.867667
171.861649
439.992547
677.309632
986.084938
1015.681624
1015.681624
1015.681624
1015.681624
947.317481
680.992603
480.410457
260.070562
145.869851
60.162544
27.783513
10.775924
8.526444
9.394884
11.681914
18.032789
26.715994
44.369698
58.753490
77.994466
91.408491
103.103518
105.290413
97.561479
86.285472
66.144466
51.039457
32.601953
22.859573
13.693571
9.441972
6.153584
5.246997
4.743934
4.767776
4.228950
4.491806
4.362464
4.461408
4.478693
4.490614
4.312992
4.123449
4.388690
4.241467
4.165769
4.181862
4.257560
##ZVALUE=325
0.647902
0.726581
0.671744
0.689626
0.654459
0.734925
0.885725
0.649691
0.732541
0.860691
0.873804
0.765920
0.873804
0.829697
0.816584
0.764728
0.760555
0.621676
0.868440
0.877976
0.760555
0.747442
0.916719
0.932813
1.151562
0.954866
1.078844
0.994802
0.899434
0.993609
0.977516
1.090765
1.116991
1.094937
1.222491
1.410842
1.240969
1.388788
1.537800
1.498461
1.681447
1.821518
1.917481
2.347827
4.580617
30.577779
90.707541
255.109668
456.703901
791.695714
1004.976630
1015.681624
1015.681624
1015.681624
1000.150442
744.776726
542.868972
321.415663
190.700889
81.110001
38.659573
13.526678
8.276701
7.540584
8.555651
11.452436
16.661882
28.175712
39.862990
58.655739
73.251724
88.884830
96.306801
96.558928
91.357827
75.874925
61.971545
44.233799
32.050610
20.038486
13.589859
8.290410
6.405711
5.099773
4.642606
4.159808
4.285574
4.227757
4.394650
4.405975
4.002452
4.185438
4.123449
4.217625
4.310608
4.059672
##ZVALUE=330
0.707507
0.833869
0.792742
0.714660
0.803471
0.786781
0.950694
0.775456
0.727773
0.751615
0.795722
0.797510
0.877976
0.909567
0.816584
0.775456
0.901818
0.733733
0.930429
0.787973
0.819564
0.855923
0.948906
0.767708
0.938773
0.951886
0.903606
1.005530
1.090765
1.108646
1.177788
1.174808
1.027584
0.943542
1.037717
1.213551
1.118779
1.125932
1.249909
1.207590
1.379848
1.506805
1.650453
1.565814
1.730919
1.929402
2.518892
7.570982
37.185550
92.647672
226.650834
371.083617
609.877706
787.194967
956.979990
1006.788611
939.570665
806.819797
593.774915
425.778627
229.497552
129.770637
51.419735
23.483634
9.442568
7.069707
6.956458
7.864833
10.788441
15.995502
27.061701
37.366748
54.014921
67.193508
82.594752
89.118481
90.041757
84.663630
71.169734
58.989525
40.986538
30.044913
19.560456
13.409853
8.587837
6.412864
5.061626
4.725456
4.450679
4.380941
4.205704
4.165769
4.130602
3.868937
4.035830
4.185438
##ZVALUE=335
0.666976
0.522733
0.442863
0.787973
0.607967
0.589490
0.639558
0.661612
0.662804
0.840425
0.681877
0.625849
0.718832
0.567436
0.785589
0.715852
0.770688
0.705719
1.000762
0.679493
0.582933
0.655651
0.680685
0.836849
0.772476
0.884533
0.717640
0.722408
0.898838
0.919700
0.907779
0.701547
0.816584
0.811815
0.877976
0.911951
0.998974
1.023412
0.972748
1.045465
0.864863
0.926852
1.103878
1.207590
1.307726
1.537800
1.449585
1.655817
1.946688
4.850626
17.263889
64.320564
135.371685
302.831531
478.298664
729.652643
884.432793
989.334583
975.887775
850.576758
688.778758
454.625487
301.225781
155.262947
80.920458
29.034615
12.413859
6.819963
6.380677
6.288886
7.381439
10.161996
14.514923
24.464726
34.786463
51.005483
63.910484
76.952577
83.699822
84.704757
79.271793
66.007972
54.642558
40.082932
29.992461
19.255877
13.423562
8.841753
6.677508
4.686713
4.238486
4.005432
3.821850
3.929734
3.980994
4.219413
##ZVALUE=340
0.618696
0.715852
0.684857
0.759959
0.612736
0.637770
0.684857
0.594854
0.680685
0.706911
0.633597
0.537634
0.630617
0.656843
0.643730
0.680685
0.682473
0.753999
0.745654
0.671744
0.735521
0.641942
0.620484
0.732541
0.670552
0.658631
0.806451
0.702739
0.870824
0.775456
0.818968
0.829697
0.934601
0.847578
0.905991
0.915527
0.829697
0.841618
1.032948
0.933409
1.056790
1.117587
1.110435
1.002550
1.150966
1.121759
0.894666
1.355410
1.371503
1.531839
1.729727
2.510548
8.336902
40.445924
97.688437
239.556432
400.704741
641.565919
802.619457
946.672559
978.780985
889.004469
751.499534
536.525846
366.754532
185.971856
101.135969
40.728450
17.308593
7.820725
6.529689
6.118417
6.215572
7.391572
9.584427
14.972687
21.945834
34.290552
45.798421
62.759519
71.916580
78.758597
78.381896
73.246956
66.020489
52.840710
41.620731
28.173923
20.437837
13.011694
8.894801
6.016493
4.741549
4.184842
3.958941
3.934503
##ZVALUE=345
0.640750
0.633597
0.592470
0.493526
0.602603
0.680685
0.560880
0.458956
0.478625
0.769496
0.686646
0.561476
0.727773
0.576973
0.682473
0.643730
0.570416
0.597835
0.677705
0.661612
0.629425
0.495911
0.705719
0.702739
0.621676
0.908971
0.674725
0.738502
0.835657
0.831485
0.749826
0.876784
0.805855
0.692606
0.824928
0.665784
0.834465
0.780821
0.968575
0.823736
0.900626
0.758767
0.914931
0.708699
0.982881
1.030564
1.092553
1.150966
1.256466
1.222491
1.271963
1.392961
1.606941
1.820922
3.718734
23.325682
64.516664
166.955590
294.256806
520.998836
695.813894
884.263515
954.312682
930.674672
823.356509
605.330467
440.175533
252.513885
140.659809
54.087639
24.775863
9.650588
6.803870
6.188750
5.604625
5.672574
6.210804
8.629560
12.352467
20.730495
29.795766
43.884516
54.355860
64.959526
71.234703
72.223544
69.703460
60.936809
52.232742
39.911866
29.602647
18.730760
13.688803
8.869767
6.454587
5.201697
##ZVALUE=350
0.675917
0.698566
0.558496
0.551939
0.657439
0.510812
0.474453
0.465512
0.554919
0.701547
0.504851
0.804663
0.691414
0.701547
0.576973
0.706911
0.727773
0.575781
0.624657
0.718832
0.705719
0.706911
0.589490
0.649691
0.691414
0.692606
0.836849
0.873804
0.715852
0.763535
0.701547
0.679493
0.735521
0.751615
0.806451
0.768900
0.732541
0.803471
0.780821
1.011491
0.971556
0.936985
0.855923
0.942945
0.904799
0.709891
0.868440
1.132488
1.112819
1.013875
1.116991
1.375675
1.327991
1.297593
1.595616
1.608729
2.267957
11.945963
36.202669
109.713674
208.765864
409.058928
582.780838
788.048506
902.374983
936.550498
865.408778
686.138868
512.032509
295.654535
175.978541
79.548955
36.158562
11.786819
7.026792
5.677938
5.441904
5.065799
5.266666
5.999804
7.626414
12.430549
17.599463
27.098656
35.377741
48.027635
56.448579
64.227581
66.605806
63.623786
58.432817
47.064424
38.137436
26.715994
19.657612
12.989640
##ZVALUE=355
0.607967
0.736713
0.751615
0.712872
0.825524
0.663996
0.676513
0.480413
0.637770
0.480413
0.589490
0.610948
0.602603
0.588894
0.541806
0.704527
0.774860
0.592470
0.784993
0.586510
0.758767
0.741482
0.693798
0.623465
0.616908
0.650883
0.643730
0.714660
0.696778
0.689626
0.727773
0.702739
0.588894
0.812411
0.725985
0.742674
0.842810
0.725985
0.881553
0.939965
0.966787
0.799894
0.833869
1.002550
0.944734
0.939965
0.972748
1.094937
1.041889
1.098514
1.062751
1.311898
1.235604
1.210570
1.295805
1.314878
1.364946
1.644492
1.864433
5.461574
19.574761
75.771809
154.055953
315.918922
483.319759
717.811584
850.093961
923.020840
888.800025
731.952786
576.520562
369.794965
228.140950
97.479820
45.667887
14.987588
7.859468
5.733967
5.400777
4.879832
4.936457
4.946589
5.324483
7.198453
9.813905
15.628934
22.302866
32.799840
41.264892
51.097870
57.285428
60.433745
58.864951
53.673983
47.273636
36.715865
##ZVALUE=360
0.642538
0.604987
0.626445
0.834465
0.585914
0.723600
0.490546
0.646710
0.643730
0.579953
0.485778
0.528693
0.748634
0.666976
0.609756
0.689626
0.702739
0.794530
0.596642
0.681877
0.806451
0.853539
0.672936
0.704527
0.595450
0.733733
0.624657
0.889897
0.681877
0.702739
0.510812
0.720620
0.737906
0.824928
0.746846
0.824928
0.860691
0.791550
0.811815
0.954866
0.783801
0.811815
0.765920
0.801682
0.792742
0.824928
0.823736
1.022816
0.996590
0.989437
0.941753
0.985861
1.083612
1.237988
1.313686
1.228452
1.270771
1.306534
1.434684
1.525879
1.822710
2.814531
8.783937
39.662719
94.784498
233.461857
379.462838
596.686602
760.872960
895.324945
906.645656
808.006525
666.089654
438.560843
282.095671
133.635998
68.061948
24.952888
10.845661
5.815625
5.347729
4.945993
4.774928
4.254580
4.431605
4.713535
5.798936
8.365512
12.160540
18.547773
25.425553
36.350489
44.081807
51.527619
54.528713
54.337978
##ZVALUE=365
0.677705
0.569820
0.609756
0.542998
0.705719
0.711679
0.622869
0.719428
0.672936
0.599623
0.727773
0.761747
0.729561
0.787973
0.710487
0.844598
0.660419
0.732541
0.780821
0.663996
0.710487
0.712872
0.583529
0.603795
0.820756
0.664592
0.810623
0.799894
0.863671
0.784993
0.816584
0.687838
0.801682
0.872612
0.904799
0.797510
0.816584
0.857711
0.963807
0.841618
0.866652
0.760555
0.931621
0.927448
0.926852
0.916719
0.845790
1.049638
0.992417
1.047850
1.128912
1.192689
1.225471
1.144409
1.203418
1.276731
1.179576
1.272559
1.331568
1.471639
1.808405
1.788735
2.228618
2.405643
4.553795
22.889972
60.279965
158.109665
295.666456
579.266548
832.052827
1015.677452
1015.677452
1015.677452
1015.678048
838.156939
543.856621
258.346796
119.211674
37.608743
15.238523
6.640553
5.623698
5.276799
4.841685
4.691482
4.122853
4.188418
4.548430
5.260706
7.129908
10.695457
15.198588
22.449493
29.446483
38.328767
##ZVALUE=370
0.569820
0.562668
0.582933
0.654459
0.623465
0.690818
0.509620
0.586510
0.524521
0.563860
0.432730
0.618696
0.449419
0.718832
0.451803
0.625849
0.560880
0.599623
0.580549
0.544786
0.572801
0.591874
0.640750
0.679493
0.656843
0.627637
0.643730
0.575781
0.588894
0.734925
0.547767
0.706911
0.730753
0.692606
0.697970
0.727773
0.678897
0.797510
0.682473
0.705719
0.848770
0.849962
0.723600
0.672936
0.829697
0.889897
0.896454
0.804663
0.806451
0.874996
0.964999
0.906587
0.882745
0.926852
0.941753
1.110435
0.986457
1.109838
1.064539
1.110435
1.323819
1.452565
1.479983
1.563430
1.700521
1.948476
2.684593
11.860728
38.166642
121.312737
224.344730
430.452824
642.746687
974.372625
1015.589833
1015.589833
1015.589833
1010.041833
768.150687
402.377844
206.939578
68.070889
27.983785
9.511709
5.938411
4.851818
4.557967
4.149675
4.137754
3.830791
3.712773
3.879666
4.323721
6.330609
8.837581
13.354421
##ZVALUE=375
0.532866
0.567436
0.615716
0.438690
0.551939
0.600815
0.731945
0.684857
0.469685
0.590682
0.692606
0.669956
0.576973
0.438690
0.659823
0.502467
0.584722
0.695586
0.613928
0.622869
0.657439
0.521541
0.555515
0.733733
0.613928
0.593662
0.685453
0.644922
0.754595
0.658631
0.755787
0.846982
0.752807
0.764728
0.730753
0.721812
0.720620
0.748634
0.664592
0.615716
0.681877
0.631809
0.578761
0.488758
0.723600
0.790954
0.683665
0.722408
0.773668
0.664592
0.679493
0.933409
0.901818
0.735521
0.858903
0.788569
0.836849
0.914931
0.920892
0.964999
1.027584
0.900626
1.084805
1.025796
1.120567
1.331568
1.373887
1.595616
1.974702
5.031824
26.942492
67.826509
170.125961
298.338532
512.787700
668.878555
829.689503
870.469809
803.560019
674.688816
460.861921
314.626694
171.067715
92.998743
34.699440
15.177727
5.898476
4.456639
3.952980
3.883839
3.767610
3.530979
3.279448
3.177524
3.538728
3.667474
##ZVALUE=380
0.525713
0.511408
0.525713
0.570416
0.661612
0.547767
0.552535
0.612736
0.441670
0.570416
0.527501
0.543594
0.475645
0.497699
0.506639
0.682473
0.477433
0.587702
0.692606
0.506639
0.598431
0.585914
0.516772
0.523925
0.556707
0.647902
0.630617
0.560880
0.797510
0.752807
0.548959
0.655651
0.682473
0.635982
0.712872
0.610948
0.669956
0.537634
0.744462
0.762939
0.597835
0.802875
0.816584
0.709891
0.606775
0.733733
0.703931
0.709891
0.731945
0.736713
0.709891
0.759959
0.713468
0.833869
0.738502
0.798702
0.838637
0.878572
0.838637
0.862479
0.783801
0.873804
1.015663
0.966787
1.080632
1.039505
1.221895
1.276731
1.368523
1.682639
1.798868
3.021955
11.493564
53.348541
121.366978
272.327662
427.052975
637.573600
776.822567
871.158838
851.794481
712.235570
569.076538
367.437601
236.705542
111.860633
55.244565
19.172430
8.421540
4.666448
3.985763
3.701448
3.675818
3.448725
3.325939
3.335476
##ZVALUE=385
0.554919
0.417829
0.463724
0.460744
0.516772
0.582933
0.553727
0.445843
0.438690
0.489950
0.500679
0.510812
0.451803
0.519753
0.492930
0.511408
0.613928
0.551939
0.578761
0.570416
0.558496
0.558496
0.639558
0.572801
0.422597
0.620484
0.576973
0.675917
0.692606
0.662804
0.693798
0.642538
0.691414
0.771880
0.634789
0.856519
0.799894
0.748634
0.607967
0.841618
0.652671
0.687838
0.772476
0.762939
0.771880
0.669956
0.709891
0.762939
0.597835
0.650883
0.756979
0.677705
0.713468
0.662804
0.826716
0.822544
0.634789
0.840425
0.718832
0.832677
0.852942
0.764728
0.841618
0.755787
1.033545
0.846982
0.954866
1.138449
1.109838
1.318455
1.315475
1.519918
1.623631
1.988411
5.587935
30.900836
77.771544
190.843940
327.433944
550.414920
705.403686
838.266611
855.484605
780.481696
665.471554
468.162894
320.076942
166.219473
90.229511
35.795569
14.603734
5.324483
3.856421
3.461838
3.291965
3.111959
##ZVALUE=390
0.488758
0.546575
0.509620
0.537634
0.648499
0.536442
0.549555
0.550747
0.540614
0.542998
0.477433
0.568628
0.652671
0.542998
0.627637
0.607967
0.570416
0.610948
0.560880
0.503659
0.581741
0.612736
0.818968
0.587702
0.733733
0.762939
0.637770
0.729561
0.800490
0.678897
0.768900
0.771880
0.836849
0.829697
0.870824
0.963807
0.809431
0.871420
0.909567
0.863671
0.959635
0.758767
0.871420
0.915527
0.820756
0.844598
0.729561
0.748634
0.769496
0.720620
0.909567
0.761747
0.807643
0.952482
0.855923
0.749826
0.748634
0.889897
0.809431
0.874996
0.852942
0.749826
0.775456
0.880957
0.843406
1.010895
0.884533
1.105666
1.185536
1.079440
1.280904
1.410842
1.465678
1.387596
1.604557
1.728535
2.985597
16.297698
49.595833
149.846673
278.448462
491.812825
645.184517
794.802904
858.273506
841.053724
748.776793
570.122600
420.439839
246.661901
136.086941
52.494407
24.084449
7.990599
4.552603
3.654957
##ZVALUE=395
0.595450
0.584722
0.704527
0.572801
0.566840
0.576973
0.819564
0.450611
0.516772
0.722408
0.603795
0.563860
0.614524
0.752807
0.585914
0.454783
0.594854
0.788569
0.580549
0.707507
0.664592
0.576973
0.580549
0.698566
0.663996
0.727773
0.746846
0.822544
0.898838
0.868440
0.572801
1.090765
0.996590
0.949502
1.016855
1.023412
1.174808
0.970960
1.091957
1.053810
0.859499
0.885725
0.920892
0.931621
0.922680
0.863671
0.822544
0.956655
0.717640
0.894666
0.779629
0.908971
0.947714
0.662804
0.752807
0.919700
0.860691
0.881553
0.831485
0.914931
0.870824
0.879765
0.943542
0.970960
1.011491
0.952482
1.054406
1.023412
1.155734
1.300573
1.348853
1.430511
1.209974
1.358986
1.254678
1.324415
1.596808
1.398921
2.122521
9.403825
33.077598
114.398003
216.381550
404.236913
578.674674
792.095661
895.994902
919.430852
850.651860
683.937669
513.928533
305.075645
183.203816
76.797605
35.628676
11.849999
##ZVALUE=400
0.659823
0.638962
0.550747
0.587702
0.586510
0.560880
0.534654
0.542998
0.598431
0.502467
0.633597
0.505447
0.491738
0.625849
0.569820
0.576973
0.463724
0.562668
0.439882
0.522733
0.585914
0.511408
0.652671
0.589490
0.558496
0.584722
0.614524
0.787973
0.813603
0.807643
1.036525
1.021624
0.913739
0.992417
0.892878
0.945926
1.043677
1.139641
1.042485
0.864863
1.033545
0.886917
0.866652
1.005530
0.933409
0.892878
0.842810
0.881553
0.721812
0.705719
0.744462
0.685453
0.757575
0.833869
0.800490
0.703931
0.690818
0.821948
0.722408
0.661612
0.859499
0.774860
0.756979
0.792742
0.907779
0.883937
0.971556
0.937581
1.262426
1.123548
1.281500
1.210570
1.224875
1.067519
1.284480
1.271963
1.168847
1.340508
1.378655
1.560450
1.699924
5.093813
17.802715
63.837767
139.236450
314.757824
493.022799
729.987621
865.767598
941.392779
909.210443
753.425956
594.817996
374.527574
236.148834
112.596750
##END
