##TITLE=QP00302
##FORMAT=SPECTACLE-ASCII V-1.2
##DATA TYPE=ULTRAVIOLET SPECTRUM
##SECOND TYPE=ULTRAVIOLET SPECTRUM
##DATE=01/11/18
##TIME=18:44:16
##SPECTROMETER/DATA SYSTEM=SPECTACLE
##XUNITS=NM EM
##YUNITS=ENERGY
##YFACTOR=1
##FIRSTX=220
##LASTX=410
##NPOINTS=96
##3DDATA=Equidistant
##ZUNITS=NM EX
##FIRSTZ=210
##LASTZ=400
##ZPOINTS=39
##XYDATA=(Y..Y)
##ZVALUE=210
2.593994
2.521873
2.343655
3.042817
3.448725
2.655983
2.740622
3.449917
3.579855
3.273487
2.763867
3.322959
2.641678
2.744794
2.739429
2.383590
3.676414
3.760457
3.813505
3.315806
3.980994
3.995895
4.976988
4.408956
4.664660
5.015731
5.471706
4.447699
5.514622
5.402565
5.295873
6.144643
6.879568
5.385876
5.976558
5.796552
5.800724
6.695986
6.918907
7.191896
7.876754
6.750822
6.407499
7.294416
7.965565
7.004738
7.186532
8.482933
8.391738
8.586645
8.261800
8.166432
8.570552
7.941723
8.174777
9.614825
8.901954
9.163618
9.697676
9.153485
10.342598
9.345412
9.054542
10.092854
9.844899
11.355877
10.507703
12.899637
14.619827
16.137958
17.911792
22.471547
25.583506
30.897856
31.564832
32.567978
32.212734
28.369427
26.706457
24.488568
22.219419
19.500852
18.457770
15.716553
14.221668
12.897849
11.453629
10.858774
9.718537
9.703636
9.452701
9.821653
10.188818
10.326505
10.398626
9.870529
##ZVALUE=215
7.949471
7.685423
6.537437
7.060766
5.341768
5.539656
4.779696
5.188584
5.862713
6.600618
5.130768
5.328655
4.806519
4.989505
3.583431
4.022717
3.698468
3.976822
3.645420
4.276633
4.635453
5.390644
5.114675
5.734563
5.960464
5.306602
5.299449
5.997419
6.215572
5.492568
5.785823
6.707907
6.543994
7.292628
6.403923
7.890463
7.247925
7.527471
7.807612
8.331537
8.011460
7.482767
8.373857
6.948709
8.281469
8.879900
7.445812
8.371472
7.271767
9.162426
8.264780
8.641481
8.334517
9.302497
8.973479
7.490516
8.850694
8.668900
9.314418
9.124875
8.557439
9.080768
8.687973
9.340644
9.438992
10.766983
10.927916
11.337996
12.482405
13.964772
15.052557
18.572807
21.296740
22.989511
26.923418
24.778843
25.846958
24.077892
22.626519
21.785498
18.649697
15.642643
14.548898
13.894439
11.573434
10.977983
10.414720
9.535551
9.865761
8.484721
9.181499
9.355545
8.549690
8.756518
9.979606
9.064674
##ZVALUE=220
26.873946
26.514530
29.628873
28.653741
26.719570
22.022724
17.370582
14.273524
11.694431
12.300611
11.106730
12.204647
12.418628
11.655688
9.316802
7.397532
6.967783
5.563498
4.760623
4.110932
4.415512
3.933907
4.736781
5.026460
4.864931
4.891753
5.136728
5.522966
6.383657
5.604625
5.635619
5.488992
6.430745
5.556941
6.844997
6.368756
7.034540
7.668734
7.496476
7.121563
7.566810
7.407665
7.488728
7.655621
8.182526
7.368922
7.932782
7.686615
7.349849
7.525682
6.725788
7.310510
6.799698
7.943511
7.258654
9.205937
8.315444
8.293986
8.496642
8.710623
8.997917
8.741617
8.743405
8.665919
7.925630
9.221435
10.194778
11.783838
11.659861
13.543963
14.621615
17.438531
19.935966
21.405816
21.939874
23.764968
24.380684
22.396445
21.740794
20.550489
22.171736
18.768907
18.034577
15.127659
13.510585
11.714697
11.943579
10.794997
10.944605
10.509491
9.995699
11.007786
9.423494
9.325743
8.984804
10.768771
##ZVALUE=225
41.887760
44.923425
58.466792
75.933933
82.924962
89.303851
84.651709
63.197613
52.825809
38.978457
28.462410
24.322867
26.084781
27.103424
26.018620
25.797486
20.483732
16.372800
14.738441
9.222627
7.472634
5.546808
4.949570
4.779696
5.805492
5.460978
6.205440
5.281568
6.507635
6.016493
6.740689
7.348657
7.441640
7.794499
7.613897
8.030534
7.375479
8.412600
8.335710
8.232594
8.312464
9.239912
8.296967
8.970499
9.534955
9.891987
8.920431
9.828806
9.572506
8.525848
9.262562
10.523796
8.906722
9.055734
9.623766
10.722876
9.889603
10.167956
10.946989
11.405945
9.730458
11.111498
10.038614
10.964870
11.202693
12.114644
12.949705
13.061762
14.321804
15.687943
18.884540
19.488931
21.512508
25.328994
26.003718
25.446415
27.395487
26.147962
23.892522
24.309754
22.882819
19.840598
19.797683
20.244718
17.547607
15.492439
15.216470
14.942884
14.309883
14.306903
14.015436
13.553500
13.979673
14.153719
12.739897
13.386607
##ZVALUE=230
39.501786
42.847991
69.806576
117.960572
161.709785
219.104886
253.725648
272.653699
258.048773
208.925009
164.848566
103.446841
72.182417
53.070784
48.958659
50.713420
52.503943
52.331686
46.781898
39.965510
28.111935
23.461580
12.793541
11.256933
7.817745
6.940961
7.730722
7.676482
7.727742
8.163452
7.983446
9.522438
9.440780
10.373592
10.217428
10.993481
10.517836
11.949539
10.086894
11.866689
12.797713
11.869669
12.567639
12.803674
12.534857
13.788939
13.074875
12.639761
13.618469
12.197495
13.178587
13.594627
12.336969
14.985800
13.614893
15.161633
15.592575
15.956759
15.894771
14.591813
15.753508
15.303493
16.262531
17.746687
17.351508
17.883778
18.105507
20.490885
22.531748
23.417473
27.005672
31.138659
34.181476
39.404631
41.422844
44.570565
44.383407
42.048693
40.450692
37.047863
37.155747
35.260916
33.361912
28.584599
28.332472
25.641918
24.699569
23.151636
24.359822
24.047494
22.473931
24.237633
23.926497
21.451712
21.497607
23.192763
##ZVALUE=235
15.458465
16.987920
38.692951
92.743635
152.281523
248.867869
332.328677
423.854589
460.228920
470.695496
432.728529
367.098451
260.865688
191.006660
128.917694
93.888640
78.390837
78.755617
83.833933
88.064671
81.768632
67.261457
55.060983
38.969517
28.162599
17.682910
13.167858
8.688569
8.579493
8.512735
8.577704
8.868575
10.952950
9.075999
8.670688
11.063814
9.546876
10.016561
11.705756
10.583997
11.324883
10.714531
12.108684
12.311935
11.905432
12.093782
11.767745
13.299584
13.089776
12.556911
12.710690
13.962984
12.872815
12.841821
13.837814
15.018582
15.065670
15.746951
15.176535
17.327666
16.960502
15.782714
17.179847
18.916726
19.207597
20.497441
21.162629
22.725463
24.602413
27.593970
28.455853
32.531619
35.431981
38.049817
39.912462
43.927431
42.789578
44.824481
41.848421
39.060712
39.719939
38.746595
36.469698
34.165978
33.651590
31.829476
31.720996
29.320717
29.380918
29.120445
29.337406
29.027462
28.510690
28.665662
28.792620
29.603839
##ZVALUE=240
2.348423
2.554655
7.150769
18.355846
52.805543
98.206401
200.913548
305.034518
456.658006
555.663705
619.023442
627.837777
587.751865
460.364819
365.098715
232.165456
166.906714
116.435885
100.394487
106.086731
114.943981
121.224523
114.135742
107.440948
84.573627
69.420934
49.593449
35.168529
21.081567
15.526414
11.998415
8.411407
7.583499
8.884668
9.368658
9.135604
10.009408
9.379983
9.347796
9.818673
9.997487
9.113550
9.642839
10.001659
11.026859
10.727644
10.866523
11.756420
11.062622
11.946559
13.563633
11.683702
12.187958
12.383461
12.881756
13.646483
14.255643
14.904737
14.513731
15.775561
16.905665
16.945601
18.068552
18.378496
20.092726
19.391775
21.632910
24.451613
24.909973
28.035641
30.583739
35.574436
35.236478
39.672852
41.942596
42.681694
43.818951
43.563843
43.925643
44.476986
41.466951
41.717887
37.522912
39.672852
37.497878
37.653446
35.728812
34.381747
37.063956
33.305883
34.707785
35.772920
33.959746
31.962991
33.508539
35.133958
##ZVALUE=245
1.895428
1.991987
2.358556
2.149940
4.297495
17.640591
44.210553
120.235682
220.159888
342.826843
554.641485
689.703822
816.918015
837.377906
767.855644
678.114891
484.972000
352.372527
246.820450
149.455667
110.947490
104.305744
116.009712
133.026838
130.134821
128.696561
117.376447
95.353723
75.889826
51.898956
37.348866
22.615790
14.314651
9.530783
8.312464
7.893443
7.570982
8.137822
8.391738
8.160472
9.171963
8.990765
8.991957
9.014606
8.412600
10.169744
9.367466
9.236932
9.472966
10.277629
9.881854
10.325909
11.583567
10.761619
11.155605
11.119843
11.571646
11.976957
12.804866
14.454722
13.148785
13.813972
14.527440
15.420914
15.184879
16.496778
17.944574
19.957423
20.871758
23.134947
24.759769
28.176904
31.132698
35.268664
35.361648
36.386847
41.367412
38.890839
39.149523
39.597750
39.466619
37.433505
36.506653
32.671690
33.455491
32.112598
34.248829
34.095645
33.762455
34.821630
34.387708
34.786463
32.638907
33.824444
33.816695
34.510493
##ZVALUE=250
1.595616
1.516938
1.529455
1.633763
1.796484
1.999736
2.375841
8.359551
35.786629
76.025724
182.721615
306.324959
447.815657
642.150640
756.039619
849.231482
827.306509
727.283955
598.727465
404.798985
277.360678
179.186463
113.339424
95.924735
109.126568
123.317838
138.495564
144.677758
133.926868
126.819611
106.321573
78.659654
60.255527
36.432743
23.555756
13.424754
9.118915
7.627606
7.249713
6.556511
7.055998
7.944703
7.433891
7.811785
7.748604
8.679628
8.082986
7.858872
8.693933
8.814931
9.193420
8.578897
8.684993
9.618998
9.165406
10.375977
10.794997
10.269880
10.356903
11.787415
11.809468
11.427999
12.309551
13.942719
13.544559
14.418960
16.445518
17.070770
18.691421
20.432472
22.828579
23.578405
24.732947
27.828813
28.523803
29.671788
30.875802
30.740499
30.169487
32.522678
30.008554
31.692982
30.991435
31.855702
31.484962
32.132864
31.591654
32.573938
30.962825
32.154918
29.948950
31.776428
30.989647
31.848550
32.707453
33.280849
##ZVALUE=255
1.599789
1.480579
1.642704
1.417994
1.708865
1.798868
1.613498
1.985431
2.359748
4.872680
23.160577
58.735609
120.704770
258.671641
400.098562
619.952679
769.434571
920.437574
958.639979
899.752975
784.550905
615.381598
386.194587
245.124698
127.727985
97.154975
91.767907
107.531548
129.889846
147.495866
150.837898
144.599676
135.663748
105.903745
85.211992
55.627823
38.040876
22.971630
13.614893
8.946657
9.053946
7.463694
7.460713
6.790757
7.789731
8.093715
7.533431
8.240938
8.121729
8.084774
8.013844
7.552505
8.345842
8.412600
9.293556
9.319782
9.163618
10.343790
10.961890
10.163784
11.153817
12.210608
11.912584
12.959838
13.796687
13.558865
13.957620
15.312433
17.355680
18.616915
19.156933
21.350980
21.510720
24.140477
24.749637
26.309490
27.347803
28.752685
26.768446
27.726889
27.709603
27.347803
27.914643
26.911497
27.020574
28.231740
27.549863
27.644634
28.006434
27.763844
29.282570
28.372407
29.038787
29.681921
29.762983
30.143857
##ZVALUE=260
1.481771
1.522899
1.614690
1.276731
1.695752
1.617670
1.640916
1.525879
1.619458
1.819730
1.870990
2.560616
8.274913
35.986900
81.467628
198.889971
328.423977
543.947816
723.545551
954.287648
1015.681624
1015.681624
917.595029
744.483471
482.592583
317.741632
178.054571
111.824870
80.179572
84.841847
104.063749
131.085515
149.146914
157.665610
154.972672
137.569904
114.554763
86.259842
62.364936
38.011670
25.228858
15.700459
11.418462
8.636713
8.353591
7.508993
8.525848
8.532405
8.141994
8.961558
8.876920
9.130836
9.468794
9.804964
9.448528
10.126829
10.207891
10.872483
10.904670
10.920763
10.619760
11.636615
11.610985
11.987686
12.460947
13.307929
13.370514
14.205575
15.307665
17.351508
18.276572
20.072460
21.422505
22.567511
23.865700
23.493767
25.006533
24.361610
24.935603
26.526451
24.857521
26.403666
25.685430
26.736856
25.946498
26.443601
26.745796
26.704669
26.928782
26.913881
28.082728
27.780533
27.582645
27.582645
26.991963
27.589798
##ZVALUE=265
1.297593
1.333952
1.294613
1.131892
1.247525
1.229644
1.149774
1.346469
1.269579
1.780987
1.578927
1.654625
1.691580
1.929998
4.417896
22.703409
57.299733
149.958730
271.253586
516.603589
735.749006
949.020982
1015.553474
1015.553474
1015.553474
933.981538
695.264935
480.231643
263.903737
160.345435
91.938972
74.650645
84.170699
114.375949
137.151480
156.394839
162.642002
152.905583
140.620470
110.902786
89.821815
60.490966
42.186975
24.374723
16.659498
11.810660
9.638667
8.868575
9.835958
9.042621
9.386539
9.847879
9.928942
10.146499
9.957552
10.464787
10.371804
10.827780
10.952950
10.977983
11.927485
11.798739
11.911988
12.808442
13.195872
13.109446
13.874769
15.499592
15.622973
16.347766
17.379522
18.642545
20.259619
20.966530
22.534728
22.522807
22.936463
22.212863
23.613572
24.051666
24.115443
24.156570
24.618506
24.329424
23.771524
26.401877
25.050640
24.422407
24.638772
25.468469
26.333928
26.799440
26.124716
27.211905
27.562976
27.708411
##ZVALUE=270
1.126528
1.018643
1.101494
1.225471
1.226664
1.266599
1.249909
1.302958
1.356602
1.541972
1.552701
1.756549
1.576543
1.692772
1.779795
1.938939
3.050566
8.759499
40.193796
99.388957
204.976797
429.517627
650.882721
931.174755
1015.681624
1015.681624
1015.681624
1015.681624
937.458873
668.308735
474.526882
251.238942
147.732496
77.533722
68.830848
89.858770
113.549829
142.251849
158.062577
164.102912
159.466863
138.381720
118.024945
85.654855
65.375566
41.196942
28.266907
18.036962
13.876557
11.146665
10.766983
10.789633
10.710955
10.529757
11.015534
10.341406
11.118650
11.615753
11.425614
11.636615
12.113452
11.942983
12.505651
12.640953
12.986660
13.709664
14.419556
14.815927
15.645623
16.867518
17.610788
18.773675
19.827485
20.540953
21.692514
22.412539
22.062659
22.523999
22.303462
22.264719
22.376776
23.499727
22.935867
23.187995
23.736954
24.084449
24.351478
23.699999
24.464726
25.729537
24.483800
26.135445
26.236773
26.082993
25.882721
26.008487
##ZVALUE=275
1.061559
1.136661
1.112819
1.230836
1.042485
1.122952
1.163483
1.405478
1.207590
1.165867
1.354814
1.362562
1.449585
1.570582
1.458526
1.733899
1.893640
2.030730
2.253652
5.181432
19.816756
57.038665
184.463859
351.067781
658.896565
899.745822
1015.681624
1015.681624
1015.681624
1015.681624
1015.681624
853.996873
603.311658
328.840613
191.132426
87.735653
58.709979
64.637661
83.547831
116.758943
137.509704
153.950453
161.278844
155.083537
140.961409
111.997724
90.636611
63.655972
45.101643
27.478933
19.318461
13.798475
11.900663
10.889769
11.041760
11.028647
11.470914
11.578798
11.987686
12.110472
11.814833
12.825727
12.777448
12.889504
12.895465
14.188886
14.301538
15.557408
15.344620
17.211437
17.943978
18.980503
19.487739
21.297932
20.749569
22.089481
22.475719
22.972822
22.148490
22.422671
21.831989
22.216439
22.638440
23.985505
23.212433
22.717714
22.959709
23.796558
23.582578
23.885965
23.579597
24.860501
25.133491
24.840832
25.917888
25.003552
##ZVALUE=280
1.032948
0.932813
1.156926
1.301765
1.041889
1.194477
1.140833
1.074672
1.043677
1.257658
1.264811
1.139641
1.455545
1.439452
1.385808
1.513958
1.517534
1.691580
1.726747
1.933575
2.128482
2.517700
12.918711
44.010878
149.352551
286.017656
534.323454
776.571035
1015.681624
1015.681624
1015.681624
1015.681624
1015.681624
984.563828
745.412111
436.753035
265.870690
120.704770
64.431429
48.016906
59.905648
87.298751
109.757781
137.263536
153.969526
160.109997
153.623819
134.170651
116.834641
85.221529
64.380765
41.592717
29.627681
18.688440
14.142990
11.392832
10.968447
10.742545
11.306405
11.463761
11.839867
12.627840
13.163686
12.898445
12.877584
13.774633
13.860464
15.380979
15.453696
17.208457
17.822981
18.525720
18.975735
19.938946
21.205544
21.326542
21.923780
21.786690
21.555424
21.917820
21.815896
22.295713
21.687746
21.975636
22.429824
22.230744
22.999644
22.820830
22.446513
22.404790
22.461414
22.575855
21.989942
23.424625
22.946596
23.310781
##ZVALUE=285
0.962615
0.937581
0.935793
0.949502
1.119971
1.028776
1.110435
0.959635
1.134872
1.124740
1.163483
1.113415
1.305938
1.267791
1.368523
1.525879
1.354814
1.321435
1.546741
1.621842
1.745820
1.757741
2.326965
2.072453
6.159544
22.757649
74.513555
155.258775
345.344543
561.015010
804.765821
1015.681624
1015.681624
1015.681624
1015.681624
1015.681624
956.291556
611.782670
383.616686
179.512501
90.648532
40.419698
38.949847
55.496693
77.621937
107.976794
126.681924
147.288442
155.368447
149.721503
137.049556
111.756921
92.045665
62.553883
44.297576
27.679801
19.902587
13.946891
11.846423
10.770559
11.428595
11.305809
12.075901
12.323856
13.224483
13.469458
13.984442
14.730692
15.488863
16.329885
16.246438
17.943978
18.629432
19.576550
19.528866
20.251870
21.378994
21.514893
20.745993
21.149516
20.553470
21.849871
21.952987
21.332502
21.777749
22.193789
21.060705
21.589994
21.670461
21.809936
22.184849
21.753907
21.516681
21.848679
21.826625
21.999478
##ZVALUE=290
0.889897
0.946522
0.992417
1.051426
0.935793
0.893474
1.064539
1.016855
1.031756
0.934601
1.138449
1.038909
0.999570
1.084805
1.174808
1.196861
1.355410
1.350641
1.529455
1.341701
1.516938
1.552701
1.662970
1.594424
2.103448
2.018809
3.106594
9.373426
44.386983
104.935765
202.630758
419.771671
642.521977
954.489708
1015.681624
1015.681624
1015.681624
1015.681624
994.082689
708.479881
481.833816
252.947807
133.813620
50.591826
28.895736
36.744475
49.942732
74.488521
95.338821
122.295618
139.444470
148.504972
146.573782
131.164789
113.199949
82.811713
63.512921
42.487979
30.174851
19.276738
15.122890
12.001991
12.103915
12.057424
12.291670
12.622476
13.370514
14.187694
14.245510
16.496778
16.343594
17.467737
17.331839
19.144416
19.332767
18.838644
19.102693
19.552708
19.869804
20.824671
20.274520
21.015406
20.869970
21.500587
20.935535
21.869540
21.709800
21.960735
21.971464
21.765828
21.750927
21.301508
22.102594
21.613836
21.468997
21.134615
##ZVALUE=295
0.964999
1.084805
0.894666
0.999570
1.067519
0.879765
1.072884
0.993609
0.887513
1.004934
1.094937
1.126528
1.023412
1.219511
1.146793
0.987649
1.024604
1.223683
1.123548
1.372695
1.415610
1.292825
1.631975
1.450777
1.589656
1.894832
1.711845
2.082586
2.448559
4.777908
20.297766
85.873604
188.537836
419.070721
648.229718
974.373817
1015.681624
1015.681624
1015.681624
1015.681624
1015.681624
841.638446
608.289838
338.354707
192.278624
71.199536
33.839941
23.951530
30.961633
49.551725
67.510605
94.801784
113.946795
133.862495
140.451789
139.208436
125.966668
104.034543
84.849000
60.813427
44.194460
29.053688
21.031499
16.523600
14.093518
13.232827
13.565421
14.165640
14.601946
15.499592
15.874505
17.497540
17.887950
18.725991
19.296408
19.668937
20.068884
19.777417
19.841790
20.708442
21.126866
20.489693
21.503568
21.382570
22.021532
21.460652
21.935701
21.568537
22.327900
21.376610
21.075606
21.029711
21.088719
21.799803
20.633936
21.136999
##ZVALUE=300
0.860691
0.861883
0.947714
0.862479
0.939965
0.983477
1.060963
0.875592
0.985861
0.834465
0.974536
0.745654
0.890493
1.001954
0.999570
0.905991
1.060963
1.051426
1.083612
1.292825
1.188517
1.234412
1.214743
1.313686
1.474619
1.574755
1.648664
1.462698
2.002716
1.963973
2.287626
2.725720
7.874966
52.111745
133.512020
329.605937
547.229648
910.297632
1015.681624
1015.681624
1015.681624
1015.681624
1015.681624
952.938795
680.759549
372.390747
218.675733
95.865726
45.016408
19.687414
19.290447
29.493570
41.763783
63.364506
82.951784
109.083652
125.729442
135.401487
133.607984
120.970607
106.740594
82.631707
63.716769
44.976473
32.802820
21.831989
18.074512
15.461445
15.159845
16.025901
16.374588
17.214417
17.435551
18.569827
18.917918
19.924641
19.681454
19.699931
20.455718
20.990968
21.188855
21.274686
21.729469
21.519661
21.854639
21.320581
22.061467
22.318959
22.035837
21.842718
21.412969
21.187663
21.540523
20.603538
21.448731
20.954609
##ZVALUE=305
0.748634
0.847578
0.863671
0.751615
0.980496
0.897646
0.951886
1.004934
0.864863
0.883937
0.942945
0.882745
0.793934
0.956655
0.817776
0.943542
1.072884
1.036525
0.972748
0.926852
1.203418
1.044869
0.882745
1.188517
1.182556
1.323819
1.202822
1.350641
1.565814
1.472831
1.732707
1.792908
1.963973
2.191663
3.995895
23.475885
70.734620
208.071470
377.012491
685.918927
940.755010
1015.681624
1015.681624
1015.681624
1015.681624
1002.576947
801.941752
511.036515
321.135521
146.339536
71.159005
24.469495
15.356541
18.613935
26.765466
43.746829
59.771538
84.413886
101.493597
120.346546
127.688646
126.763582
117.873549
101.461411
82.629919
60.914755
46.177506
32.015443
24.525523
19.600987
17.465949
17.122626
17.668605
18.469691
19.114614
19.110441
19.833446
19.835830
20.398498
20.753741
21.290779
21.879673
21.940470
22.259951
23.002625
22.850633
21.839738
22.152662
22.272468
22.268891
22.467971
22.058487
22.044778
21.528602
21.534562
21.556616
##ZVALUE=310
0.797510
0.805855
0.975728
0.838637
0.687838
0.842810
0.769496
0.800490
0.779629
0.760555
0.940561
0.902414
0.803471
0.834465
0.883937
0.935793
1.076460
0.853539
0.901818
0.889897
1.084805
1.082420
1.015663
0.887513
1.185536
1.341701
1.298785
1.183748
1.537800
1.405478
1.374483
1.494884
1.550913
1.662970
1.895428
2.121925
2.618432
9.205937
32.026768
108.897686
219.812393
455.727577
700.571537
998.623967
1015.681624
1015.681624
1015.681624
1015.681624
940.619707
637.568831
425.338745
214.151740
112.848878
41.249990
18.590689
13.094544
16.756654
26.091933
36.697984
55.357814
73.657632
96.807480
110.935569
121.885538
123.802423
114.274621
101.683736
81.467628
63.406825
44.805408
34.464598
25.772452
21.978617
19.456744
19.986629
19.336939
19.921660
20.490885
20.555854
20.943880
21.612644
22.534728
22.665858
22.904873
22.972822
22.999644
22.889972
23.305416
23.094416
22.718906
22.483468
22.638440
22.186637
22.071600
22.162795
22.279620
##ZVALUE=315
0.729561
0.843406
0.718832
0.826716
0.602603
0.731945
0.656843
0.793934
0.928640
0.904799
0.721812
0.794530
0.843406
0.893474
0.734925
0.882745
0.792742
0.860691
0.825524
0.857711
0.979900
0.865459
1.160502
1.005530
1.086593
1.160502
1.127720
1.168847
1.148582
1.236796
1.250505
1.163483
1.467466
1.390576
1.671910
1.719594
1.924634
2.008677
2.281666
4.591942
18.997788
79.240799
173.786879
388.626456
625.510812
971.482992
1015.681624
1015.681624
1015.681624
1015.681624
1015.681624
742.187500
518.937707
279.286504
153.713822
58.771968
25.318861
12.555718
12.664795
16.683936
23.177862
36.003590
50.469637
70.100427
88.426471
106.875896
115.704536
116.951466
112.844706
95.919967
81.163645
63.785911
50.089955
35.841465
28.824806
23.144484
21.780729
20.926595
21.369457
21.731853
22.321939
22.056699
23.090839
22.432804
22.636652
22.776723
23.081899
23.216605
23.499727
23.152828
23.056865
23.670793
23.070574
23.284554
23.092628
23.333430
##ZVALUE=320
0.814795
0.696778
0.676513
0.632405
0.807643
0.787973
0.892878
0.909567
0.797510
0.822544
0.704527
0.807643
0.892878
0.802875
0.783801
0.877976
0.874996
0.771880
0.933409
0.859499
0.952482
1.006722
0.925660
1.138449
1.118779
1.077652
1.107454
1.072884
1.125932
1.313686
1.191497
1.074672
1.449585
1.292825
1.459718
1.591444
1.730919
1.713634
1.850724
1.942515
2.104640
2.963543
9.720922
55.708885
139.950514
349.110961
562.783480
897.593498
1015.681624
1015.681624
1015.681624
1015.681624
1015.681624
962.795615
692.445636
383.578539
220.460892
93.796849
42.094588
15.370846
11.794567
13.305545
15.787482
22.445917
31.743646
48.088431
64.360499
85.340738
100.364685
111.561418
113.591552
106.933713
97.202659
78.148842
63.282847
46.581626
37.272573
28.570890
25.056601
23.068786
21.861792
22.735000
22.592545
23.028851
23.355484
23.402572
23.466945
23.235679
23.003817
23.314953
23.955703
23.632646
23.117661
23.459792
23.302436
23.674965
##ZVALUE=325
0.791550
0.827909
0.712872
0.919700
0.564456
0.594854
0.831485
0.781417
0.743866
0.882745
0.755787
0.729561
0.917912
0.792742
0.612736
0.734925
0.873804
0.842810
0.763535
0.948906
0.997782
0.955462
0.986457
0.944734
0.927448
0.985861
0.889897
1.130700
0.919700
1.001954
1.127720
1.198649
1.177788
1.225471
1.223683
1.342893
1.417994
1.515746
1.498461
1.721978
1.925826
2.055764
2.183914
2.655983
5.361438
36.051869
96.310973
247.976780
440.590978
804.641843
1015.681624
1015.681624
1015.681624
1015.681624
1015.681624
1015.681624
857.071877
509.804487
301.542878
127.979517
62.045455
21.126866
12.483597
11.759996
12.907982
16.985536
22.259951
33.526421
47.484636
67.938566
82.069635
98.325610
106.680989
109.002590
103.701949
88.912845
76.437593
59.266686
47.969818
35.346746
29.264688
25.579929
23.996830
23.270845
22.936463
23.279786
23.199916
23.199916
23.685694
23.084879
23.316741
23.124814
23.096800
23.157597
22.964478
23.251772
##ZVALUE=330
0.752807
0.663996
0.762939
0.725985
0.798702
0.651479
0.815988
0.727773
0.649691
0.719428
0.816584
0.698566
0.888705
0.772476
0.873804
0.833869
0.842810
0.807643
0.819564
0.911951
0.964999
1.011491
0.915527
1.087785
1.052618
1.102686
1.064539
1.145601
0.921488
0.889897
1.018643
1.199841
1.117587
1.179576
1.105666
1.252890
1.366735
1.285672
1.379848
1.478791
1.410842
1.659989
1.759529
1.966953
2.268553
2.354980
3.260970
17.138720
55.533648
177.358389
332.078934
643.901825
947.612524
1015.684605
1015.684605
1015.684605
1015.684605
1015.684605
1015.684605
929.632783
565.036535
235.185027
107.614994
35.302639
16.784668
12.242794
12.363791
14.294982
17.293692
24.128556
32.404661
47.873855
61.139464
80.356002
93.766451
101.725459
103.539824
98.193884
88.087916
71.806908
59.516430
44.181943
37.761927
30.428767
26.981831
24.389625
22.948980
22.886992
23.060441
23.260713
23.050904
22.492409
22.641420
22.413731
22.227764
22.889972
##ZVALUE=335
0.688434
0.683665
0.657439
0.657439
0.721812
0.778437
0.720620
0.755787
0.929832
0.611544
0.619888
0.667572
0.689626
0.763535
0.753999
0.733733
0.890493
0.769496
0.858903
0.831485
0.823736
0.780821
0.900626
0.937581
0.741482
0.985861
1.137853
0.902414
1.011491
0.874996
1.006722
1.003742
1.066923
1.074672
1.071692
1.112819
1.107454
1.271963
1.099706
1.308918
1.275539
1.456738
1.498461
1.498461
1.760721
1.779795
2.015829
2.373457
2.470613
7.210970
28.226972
109.130740
229.448676
500.773787
792.662501
1015.679836
1015.679836
1015.679836
1015.679836
1015.679836
1015.679836
961.221457
643.702745
320.449471
157.884955
49.414635
21.303892
12.840629
12.279749
13.176799
14.573932
18.078685
22.963881
33.952594
44.629574
61.560869
75.066686
89.957714
96.901655
98.047853
93.088746
81.266761
70.291758
57.129860
47.047734
36.795735
30.881763
26.063919
24.370551
23.472905
22.114515
22.016764
22.066832
22.133589
21.771789
21.776557
##ZVALUE=340
0.685453
0.745654
0.530481
0.792742
0.746846
0.531673
0.653863
0.809431
0.801682
0.622869
0.698566
0.628829
0.757575
0.825524
0.695586
0.736713
0.822544
0.682473
0.774860
0.725985
0.815988
0.777841
0.907779
0.697970
0.851750
0.731945
0.765920
0.802875
0.954866
0.838637
1.000762
0.953674
0.952482
1.041889
0.948906
1.079440
1.016855
0.890493
1.133680
1.238585
1.203418
1.279712
1.278520
1.321435
1.441836
1.536608
1.643896
1.652837
1.766682
2.158880
2.286434
3.796816
13.698936
75.977445
187.467933
445.107818
725.697875
1015.665531
1015.665531
1015.665531
1015.665531
1015.665531
1015.665531
997.988582
716.621876
362.435579
197.539926
80.526471
33.007860
14.475584
12.624860
13.031960
13.723969
15.315413
18.096566
24.548769
31.793714
44.982433
57.122707
74.001551
84.387660
92.457533
93.337893
88.669658
81.380606
68.739653
57.422519
44.704676
36.965609
29.514432
26.427507
22.732615
21.503568
21.284819
21.090508
21.187663
##ZVALUE=345
0.668764
0.732541
0.794530
0.739694
0.633597
0.644922
0.740886
0.787973
0.729561
0.693798
0.799894
0.713468
0.598431
0.745654
0.570416
0.725985
0.738502
0.702739
0.708699
0.650883
0.816584
0.932813
0.921488
0.751615
0.763535
0.756979
0.697970
0.858903
0.939965
0.900626
0.853539
0.858903
0.903606
1.016855
0.900626
1.021624
0.941753
0.875592
1.083612
1.071692
1.107454
0.998974
1.208782
1.107454
1.204610
1.268983
1.358986
1.411438
1.416802
1.588464
1.898408
2.092719
2.189875
2.525449
5.792975
42.899847
125.835538
336.536765
587.518811
987.700820
1015.681624
1015.681624
1015.681624
1015.681624
1015.681624
1009.550691
774.047971
451.948047
257.740617
102.342963
47.558546
18.050671
13.685822
12.917519
12.989640
13.465881
14.664531
17.624497
21.662712
31.148791
40.479898
55.476427
65.205693
78.197718
84.256530
86.913705
84.284544
75.737834
67.409873
55.575967
45.358539
34.801960
29.191971
24.156570
22.557974
20.776987
##ZVALUE=350
0.530481
0.571609
0.574589
0.657439
0.649691
0.552535
0.510812
0.583529
0.500679
0.453591
0.617504
0.696778
0.652671
0.630617
0.591874
0.572801
0.626445
0.576973
0.651479
0.632405
0.668764
0.667572
0.763535
0.569820
0.639558
0.745654
0.730753
0.792742
0.721812
0.665784
0.929832
0.641942
0.647902
0.862479
0.700951
0.766516
0.769496
0.705719
0.791550
0.856519
0.876784
0.885725
0.918508
1.099706
0.967979
1.095533
1.067519
1.084805
1.256466
1.215935
1.303554
1.662970
1.479983
1.637936
1.797676
2.161860
3.125668
17.471910
57.311654
184.636712
354.759693
707.578659
997.920036
1015.558839
1015.558839
1015.558839
1015.558839
1015.558839
931.090713
534.686446
317.900777
146.391988
68.735480
22.050738
13.118982
12.054443
12.156963
12.392998
12.886524
14.425516
16.518831
22.190809
28.037429
37.800670
47.239661
59.225559
69.455504
77.451468
79.849958
77.791810
71.820617
61.404705
52.278638
40.907860
34.142733
27.688742
##ZVALUE=355
0.565648
0.668764
0.528693
0.643730
0.520945
0.548959
0.576973
0.689626
0.488758
0.570416
0.661612
0.680685
0.810623
0.623465
0.662804
0.576973
0.580549
0.505447
0.714660
0.474453
0.739694
0.487566
0.759959
0.827909
0.606775
0.851750
0.759959
0.789762
0.737906
0.715852
0.594854
0.831485
0.801682
0.822544
0.784993
0.838637
0.939965
0.833869
0.891685
0.765920
0.947714
0.954866
0.958443
1.168847
0.980496
1.121759
1.158714
1.188517
1.116991
1.364946
1.234412
1.333952
1.410842
1.471639
1.686811
1.698732
2.149940
2.215505
2.695918
8.941889
35.340786
142.180920
288.540721
580.276847
878.271461
1015.585661
1015.585661
1015.585661
1015.585661
1015.585661
1008.243561
671.139956
413.361788
178.480744
84.303617
27.955770
14.518499
11.769533
11.592507
11.874437
12.246966
12.822747
13.555884
15.535951
18.892884
25.452971
31.941533
43.104887
51.672459
62.169433
68.702698
72.465539
71.204901
65.155625
58.384538
48.343539
##ZVALUE=360
0.742674
0.644922
0.776649
0.714660
0.842810
0.755787
0.745654
0.609756
0.816584
0.739694
0.813603
0.716448
0.730753
0.847578
0.846982
0.751615
0.947714
0.784993
0.798702
0.815988
0.817776
0.891685
0.945926
0.898838
0.750422
0.815988
0.881553
0.983477
0.906587
0.937581
0.910759
0.852942
0.944734
0.988841
0.974536
0.999570
1.030564
0.930429
1.073480
0.919700
0.865459
1.263618
1.137853
1.128912
1.346469
1.356602
1.304746
1.228452
1.354814
1.343489
1.441836
1.446605
1.483560
1.515746
1.695752
1.812577
1.886487
2.075434
2.179742
2.458692
2.742410
4.672408
18.464923
100.340843
246.703029
577.045679
895.686746
1015.679836
1015.679836
1015.679836
1015.679836
1015.679836
1015.679836
824.398398
531.701446
247.535706
124.073625
45.966506
20.594001
11.660457
11.146665
11.301637
11.490583
11.515617
11.840463
12.823939
14.250875
17.374754
21.162629
27.881861
35.230517
46.291947
53.956509
61.633587
65.550804
65.790415
##ZVALUE=365
0.635982
0.618696
0.691414
0.647902
0.591874
0.833869
0.666976
0.763535
0.654459
0.666976
0.683665
0.613928
0.672936
0.612736
0.775456
0.580549
0.754595
0.805855
0.695586
0.617504
0.909567
0.599623
0.837445
0.963807
0.808835
0.810623
0.760555
0.753999
0.775456
0.802875
0.807643
0.910759
0.841618
0.776649
0.662804
0.826716
0.876784
0.993609
0.884533
1.028776
0.897646
0.994802
0.961423
0.880957
0.962615
0.983477
0.991821
1.138449
1.133680
1.093745
1.274943
1.288652
1.253486
1.453757
1.480579
1.732707
1.599789
1.697540
1.749992
1.991987
2.005696
2.439618
2.711415
2.991557
6.720424
43.465495
127.271414
339.311957
618.456006
1015.592813
1015.592813
1015.592813
1015.592813
1015.592813
1015.592813
1015.592813
771.028996
406.754017
214.576721
73.392987
29.674768
12.103915
10.201931
10.229945
10.328889
10.593534
11.016726
11.094809
11.614561
12.625456
14.784932
19.098520
23.550987
31.526685
38.268566
47.736764
##ZVALUE=370
0.706911
0.771880
0.672936
0.802875
0.601411
0.666976
0.607967
0.672936
0.686646
0.794530
0.796914
0.825524
0.787973
0.690818
0.740886
0.836849
0.741482
0.815988
0.764728
0.736713
0.758767
0.907779
0.833869
0.899434
0.813603
0.844598
0.686646
0.747442
0.796914
0.938773
0.937581
0.894666
0.722408
0.806451
0.954866
0.853539
0.902414
0.876784
0.882745
0.998974
0.926852
0.869632
1.130700
1.149774
1.099706
1.076460
0.988841
1.131892
0.980496
1.183748
1.057982
1.195669
1.182556
1.271963
1.301765
1.238585
1.356602
1.503825
1.519918
1.655817
1.726747
1.859665
2.116561
2.172589
2.347827
2.667904
4.263520
27.015805
89.195967
272.919536
488.032699
868.140459
1015.681624
1015.681624
1015.681624
1015.681624
1015.681624
1015.681624
862.782001
467.126966
259.019732
98.012686
43.943524
16.201735
10.396838
9.338856
9.565949
9.457469
9.513497
10.068417
10.090470
10.738969
11.163950
13.485551
16.371608
21.707416
##ZVALUE=375
0.700951
0.623465
0.638962
0.618696
0.433922
0.600815
0.655651
0.512600
0.742674
0.882745
0.732541
0.643730
0.730753
0.756979
0.600815
0.608563
0.707507
0.750422
0.689626
0.648499
0.620484
0.818968
0.824928
0.789762
0.808835
0.800490
0.763535
0.700951
0.699759
0.883937
0.659823
0.654459
0.733733
0.743866
0.861883
0.839829
0.943542
0.807643
0.714660
0.962615
0.906587
0.838637
0.859499
0.897646
0.925660
0.849962
0.970960
1.024604
1.163483
0.966787
1.043677
0.976920
1.002550
1.300573
1.105666
1.255870
1.181960
1.248717
1.416802
1.396537
1.437664
1.610518
1.529455
1.795888
1.887679
2.066493
2.265573
2.761483
3.280640
13.603568
54.687858
204.060078
420.826674
868.162513
1015.681624
1015.681624
1015.681624
1015.681624
1015.681624
1015.681624
985.930562
612.812638
388.464928
191.140771
94.215870
29.258728
12.581944
9.208918
8.841753
8.961558
8.882880
8.856654
9.256601
9.165406
9.846687
10.462999
##ZVALUE=380
0.760555
0.621676
0.688434
0.733733
0.826716
0.620484
0.681877
0.599623
0.576973
0.826716
0.685453
0.819564
0.636578
0.812411
0.865459
0.724792
0.711679
0.679493
0.595450
0.675917
0.555515
0.687838
0.797510
0.729561
0.693798
0.755787
0.826716
0.776649
0.702739
0.752807
0.795722
0.786781
0.719428
0.858903
0.762939
0.856519
0.810623
0.783801
0.824928
0.754595
0.767708
0.782609
0.825524
0.896454
0.841618
0.815988
0.852942
0.841618
0.976920
1.015663
1.141429
0.967979
0.930429
1.085997
0.951886
1.001954
1.181960
0.990629
1.359582
1.366735
1.323819
1.504421
1.556873
1.485944
1.754761
1.717806
2.028942
2.444983
2.621412
3.124475
3.553629
6.171465
25.161505
139.968991
340.615511
787.397623
1015.681624
1015.681624
1015.681624
1015.681624
1015.681624
1015.681624
1015.681624
774.616599
503.695607
239.393711
122.499466
41.838884
17.746687
9.246469
8.539557
8.103848
8.315444
8.395910
8.571744
8.422732
##ZVALUE=385
0.586510
0.561476
0.708699
0.612736
0.635982
0.647902
0.605583
0.658631
0.655651
0.579953
0.600815
0.724792
0.689626
0.716448
0.597835
0.551939
0.646710
0.563860
0.648499
0.715852
0.589490
0.679493
0.571609
0.841618
0.590682
0.561476
0.794530
0.724792
0.712872
0.646710
0.739694
0.687838
0.787973
0.782609
0.725985
0.828505
0.866652
0.782609
0.870824
0.779629
0.711679
0.879765
0.822544
0.834465
0.877976
0.911951
0.856519
0.955462
0.894666
0.946522
0.978708
1.105666
0.907779
0.948906
1.045465
1.119971
0.870824
1.157522
1.130700
1.206994
1.219511
1.284480
1.336932
1.290441
1.319647
1.498461
1.728535
1.809597
1.936555
2.297759
2.733469
2.917647
3.128648
3.918409
10.038614
65.775514
190.341473
521.115661
934.454799
1015.681624
1015.681624
1015.681624
1015.681624
1015.681624
1015.681624
1015.681624
738.328695
384.579897
214.851499
84.936619
32.956600
10.489821
8.048415
7.774830
7.538795
7.930994
##ZVALUE=390
0.701547
0.580549
0.528693
0.611544
0.682473
0.703931
0.669956
0.591874
0.792742
0.595450
0.743866
0.794530
0.571609
0.718832
0.627637
0.797510
0.736713
0.580549
0.735521
0.655651
0.599623
0.680685
0.757575
0.731945
0.766516
0.685453
0.730753
0.769496
0.742674
0.634789
0.665784
0.797510
0.708699
0.747442
1.071692
0.814795
0.885725
0.897646
0.820756
0.724792
0.764728
0.887513
0.788569
0.713468
0.912547
0.753999
0.929832
0.984669
1.149774
0.892878
1.019835
0.926852
0.871420
1.012683
0.971556
1.147985
1.017451
1.077652
0.994802
1.107454
1.214743
1.174808
1.214743
1.440644
1.288652
1.464486
1.621842
1.865625
1.795888
2.127886
2.314448
2.516508
2.530813
2.598763
2.769828
3.148913
5.011559
28.520823
96.080899
343.783498
694.666505
1015.681624
1015.681624
1015.681624
1015.681624
1015.681624
1015.681624
1015.681624
978.376865
563.816428
311.351418
120.907426
55.585504
17.752647
9.148717
7.340908
##ZVALUE=395
0.737906
0.535846
0.554919
0.766516
0.674725
0.637770
0.580549
0.753999
0.578761
0.677705
0.677705
0.741482
0.614524
0.612736
0.643730
0.742674
0.655651
0.624657
0.612736
0.718832
0.730753
0.754595
0.779629
0.548959
0.718832
0.706911
0.749826
0.757575
0.732541
0.782609
0.576973
0.758767
0.674725
0.758767
0.637770
0.734925
0.692606
0.734925
0.877976
0.819564
0.878572
0.968575
0.956655
0.805855
0.885725
0.925660
0.883937
0.935793
0.810623
0.775456
0.854731
0.961423
0.903606
0.929832
1.056790
0.916719
0.923872
1.020432
1.058578
1.137853
1.187921
1.010895
1.194477
1.279712
1.269579
1.485944
1.585484
1.481771
1.739860
1.854897
1.937747
2.178550
2.372861
2.112985
2.163649
2.292991
2.392530
2.756715
3.260970
13.416409
51.691532
206.165910
429.257751
912.045836
1015.681028
1015.681028
1015.681028
1015.681028
1015.681028
1015.681028
1015.681028
753.318667
430.719852
166.445971
73.225498
23.674965
##ZVALUE=400
0.648499
0.648499
0.582933
0.510812
0.550747
0.602603
0.732541
0.730753
0.637770
0.730753
0.557899
0.612736
0.725985
0.636578
0.567436
0.650883
0.646710
0.668764
0.837445
0.775456
0.685453
0.718832
0.733733
0.683665
0.654459
0.748634
0.584722
0.672936
0.665784
0.801682
0.710487
0.684857
0.736713
0.723600
0.677705
0.668764
0.719428
0.742674
0.894666
0.843406
0.842810
0.782609
0.707507
0.873804
0.905991
0.768900
0.912547
0.770688
0.832677
0.833869
0.888705
0.895858
0.821948
0.953674
0.920892
1.137853
0.992417
1.140833
0.923872
0.997782
1.051426
0.947714
0.980496
1.039505
1.171827
1.231432
1.271963
1.517534
1.464486
1.801848
1.856685
1.936555
1.997948
1.928806
1.921654
1.985431
1.904964
2.216697
2.096891
2.330542
2.818704
5.396605
27.530789
79.796910
240.702629
472.084880
948.907733
1015.681624
1015.681624
1015.681624
1015.681624
1015.681624
1015.681624
1015.681624
603.469610
341.476798
##END
