##TITLE=QP00602
##FORMAT=SPECTACLE-ASCII V-1.2
##DATA TYPE=ULTRAVIOLET SPECTRUM
##SECOND TYPE=ULTRAVIOLET SPECTRUM
##DATE=01/11/18
##TIME=19:15:45
##SPECTROMETER/DATA SYSTEM=SPECTACLE
##XUNITS=NM EM
##YUNITS=ENERGY
##YFACTOR=1
##FIRSTX=220
##LASTX=410
##NPOINTS=96
##3DDATA=Equidistant
##ZUNITS=NM EX
##FIRSTZ=210
##LASTZ=400
##ZPOINTS=39
##XYDATA=(Y..Y)
##ZVALUE=210
3.338456
2.694726
3.500581
2.741814
2.990961
2.510548
3.653765
2.683997
3.887415
2.787709
3.719926
3.752708
3.846884
3.468990
4.278421
4.320741
4.824996
5.543828
5.044937
5.019903
5.676746
5.470514
5.856752
7.386804
7.692575
7.335544
7.735491
8.142591
8.805990
8.872747
8.777976
10.009408
10.033846
10.922551
10.099411
11.030436
11.818409
11.468530
11.812449
12.154579
11.522770
13.351440
14.679432
13.972521
14.229417
14.734864
15.007854
15.160441
15.287995
17.207861
15.853643
16.566515
16.090870
16.340613
18.608570
16.969442
19.036531
19.429922
19.006729
20.622611
19.636750
20.617843
19.578934
21.167994
21.776557
23.011565
24.674535
25.959611
29.412508
36.091805
41.693449
48.926473
61.297417
71.097612
78.749657
85.123777
90.213418
92.829466
91.697574
88.522434
82.694888
74.905753
66.308975
55.554509
44.279695
36.507845
28.682947
25.100708
22.178888
21.228790
17.682910
20.094514
20.964742
18.441677
20.522475
21.559000
##ZVALUE=215
9.544492
9.991527
8.837581
8.581877
7.089972
6.418824
6.195903
5.116463
6.747842
6.478429
6.223917
6.492734
5.390644
4.465580
5.003810
5.891919
5.478859
5.462766
5.989671
5.769730
7.398725
6.284714
6.209612
6.782413
7.756948
7.227659
8.622408
9.355545
10.085702
9.918809
9.516478
11.257529
9.318590
11.286736
10.488629
10.365844
11.718869
12.284517
12.578964
12.270808
12.629628
14.375448
15.489459
15.051961
14.707446
15.432835
15.450716
17.342567
16.378760
18.067956
18.225908
17.464757
17.280579
17.082691
17.827749
17.954707
19.338727
20.254850
18.737912
18.969774
20.210743
19.831657
20.555854
20.202994
20.878911
22.524595
25.649667
27.394891
31.668544
35.239458
40.058494
50.827861
55.840611
67.086816
73.149800
76.547861
78.264475
82.750916
76.302886
76.567531
73.593855
65.090656
56.126714
47.253966
40.283799
32.983422
29.488802
25.672913
22.854805
20.568967
20.563602
20.465851
20.882487
20.104647
19.852519
21.837950
##ZVALUE=220
37.180781
34.879446
39.843917
41.427612
37.503839
31.827688
23.752451
18.864870
13.851523
12.359619
12.580752
14.832616
13.639927
13.541579
11.265874
9.710789
7.728934
6.093979
6.314516
5.664825
6.279945
7.366538
7.016659
8.179545
7.698536
9.128451
9.558797
9.688735
8.681417
9.577870
10.366440
11.221766
11.444688
11.208653
11.936426
10.979772
12.641549
12.962818
12.859702
14.746785
15.004873
14.417768
14.372468
15.221834
14.493465
17.086864
17.438531
16.199946
17.953515
17.090440
18.069744
18.134713
17.820597
19.568801
19.446611
18.122792
19.075871
19.151568
20.394921
20.835996
18.743873
19.940734
22.233725
22.213459
22.531748
22.535920
24.217963
29.330850
28.975606
35.022497
40.628910
48.050880
55.710673
66.094995
70.953965
74.227452
73.952675
78.172684
76.134801
70.475936
71.241856
63.975453
60.797930
50.933957
43.093562
34.655929
31.482577
27.727485
25.598407
23.348927
22.849441
22.386909
22.263527
21.144748
20.911694
22.404790
##ZVALUE=225
62.809587
66.381693
91.468692
116.845965
130.500793
132.041574
121.810436
99.160671
70.632696
54.086447
34.679770
27.329922
27.079582
28.792620
28.137565
26.348829
22.770762
20.272732
13.926625
12.420416
10.026693
7.614493
8.576512
8.278489
8.621812
9.352565
10.017753
9.184480
11.046529
10.573864
11.439919
11.622906
11.206865
11.688471
12.427568
12.632608
13.842583
14.795661
13.765693
14.329553
13.902783
15.674829
15.620589
16.110539
15.270710
15.824437
16.477704
17.049909
18.185973
16.434789
17.781854
16.893744
17.425418
19.628406
18.540621
19.619465
20.097494
19.861460
20.387769
20.622611
23.249984
19.123554
21.707416
22.436976
21.586418
24.184585
25.608540
27.288795
30.179620
35.707951
40.559769
46.165586
50.552487
56.562424
58.164001
62.249899
61.618686
60.540438
58.569908
53.832531
50.177574
47.392845
43.735504
38.419962
34.859776
32.068491
28.842688
27.563572
26.439428
25.823712
24.922490
23.777485
23.165941
22.636652
22.207499
22.435784
##ZVALUE=230
52.164793
59.545636
93.425512
156.543851
210.476518
270.320773
298.949480
299.910903
275.025964
212.277770
156.554580
103.060603
68.734884
53.827763
51.381588
51.080585
54.373741
53.122640
48.603415
40.391684
30.303597
22.193789
15.545487
11.260509
10.373592
9.684563
10.316968
10.211468
10.923743
12.435913
10.977983
12.849569
12.661815
13.374686
12.792945
15.463829
14.039874
13.289452
15.002489
14.063716
15.019774
15.598536
16.483665
17.561913
16.579628
16.164780
17.715693
18.846989
17.788410
17.993450
19.293427
18.544793
18.632412
19.274950
19.365549
19.862652
19.389987
19.685626
20.667911
22.318959
20.520687
22.383928
23.354888
23.421645
21.620989
24.162531
26.892424
27.520657
30.744672
34.898520
39.917827
43.635964
52.371621
56.410432
60.036778
62.262416
64.418912
63.372850
60.193539
57.694912
56.590438
48.441887
43.265820
42.535663
36.875606
34.567714
33.253431
30.572414
29.586554
28.575659
29.812455
28.847456
27.769804
29.989481
28.516650
29.735565
##ZVALUE=235
27.524829
31.760931
70.620775
178.874731
300.967693
488.567948
655.920506
893.892646
1000.003815
1015.681624
960.039496
812.245607
573.758483
407.956839
249.292850
153.106451
93.087554
84.767938
88.776946
91.214776
85.923672
71.274638
57.453513
42.753816
32.731891
23.086667
17.534494
15.378594
14.163852
14.878511
16.020536
14.621615
14.591813
16.696453
16.946793
17.344952
17.960668
17.812848
17.453432
18.102527
17.283559
17.614961
20.420551
21.030903
20.622611
21.617413
21.806955
22.738576
23.335814
22.661686
22.468567
22.168756
21.753907
23.610592
26.175976
24.802685
28.041601
26.624799
27.824640
28.392673
28.622746
31.384826
28.976798
31.688809
33.840537
34.288764
35.485625
38.705468
42.859912
51.758885
55.698752
62.059760
70.860982
82.272887
86.404681
92.068911
86.208582
89.723468
84.619522
78.277588
75.110793
67.221522
64.060688
56.903958
50.990582
49.751997
45.714974
44.029951
40.617585
39.173961
42.634606
41.079521
42.180419
39.992929
39.481521
38.061738
##ZVALUE=240
3.381968
3.498793
8.800626
40.892959
109.732747
269.730687
478.012562
866.743922
1015.681624
1015.681624
1015.681624
1015.681624
1015.681624
1015.681624
946.092010
624.466538
320.996642
209.959745
133.490562
116.984844
121.678710
129.547715
123.237967
116.726756
89.129806
75.444579
57.680607
39.673448
29.465556
22.430420
20.207763
17.499924
18.262863
18.649697
18.974543
19.429922
19.240975
19.473433
19.217730
20.871758
21.924973
21.959543
20.226836
20.933747
24.065971
22.881627
23.670793
23.570657
23.172498
24.145842
25.672913
24.763942
26.192665
26.843548
27.204752
25.575757
29.640794
30.137897
28.668642
29.729605
30.863881
32.675862
32.376647
31.913519
34.833550
35.080910
36.562681
39.646626
44.500828
51.070452
56.647658
65.694451
73.168874
79.764724
86.035728
88.721514
90.508461
92.152953
90.402961
85.918903
81.909895
76.123476
70.555806
63.205957
59.231520
55.243969
50.584674
48.286915
46.300888
46.294928
47.080517
46.007633
46.290755
46.122670
45.588613
46.446919
##ZVALUE=245
2.996922
2.827644
2.719760
3.158450
6.763935
28.810501
79.274774
241.185427
467.526913
763.741732
1015.681624
1015.681624
1015.681624
1015.681624
1015.681624
1015.681624
1015.681624
837.782025
500.482917
305.241942
171.114802
128.377676
127.867460
136.537552
141.806602
137.771964
122.580528
105.524659
81.187487
59.644580
44.156909
31.770468
22.239685
17.803907
15.679598
15.151501
15.965700
15.081763
15.812516
16.761422
17.028451
17.666817
17.663836
19.758940
19.866824
18.579960
18.376708
20.530820
20.094514
21.676421
20.871758
21.493435
22.011995
23.737550
22.071600
23.845434
23.072958
23.303628
25.080442
24.962425
23.677945
25.211573
25.894642
28.540492
29.010773
29.427409
33.231974
35.512447
40.331483
44.505596
49.167871
53.629875
62.173605
69.370866
72.364807
75.563788
76.721907
76.904893
74.458718
73.717833
68.781972
70.428848
62.935948
56.321621
53.891540
47.994852
46.325922
48.138499
44.545531
43.971539
41.310787
42.812824
41.604638
42.394996
41.951537
41.469932
##ZVALUE=250
2.075434
2.091527
2.303720
2.284646
2.548695
2.746582
4.065633
12.012720
63.229799
147.313476
366.176963
599.305630
861.369967
1015.681624
1015.681624
1015.681624
1015.681624
1015.681624
1015.681624
742.429495
496.590734
305.573940
157.678723
111.242533
109.456778
126.691461
146.228671
148.659945
142.030716
130.169988
109.905005
83.950758
63.033700
40.076971
26.906729
17.699599
14.421940
12.716651
11.944771
11.944771
13.747811
14.385581
15.147924
13.791919
14.737844
15.024543
14.609694
16.298890
15.343428
16.159415
15.451908
15.832782
16.191602
17.254949
17.049909
16.787648
18.204451
18.177629
19.690990
19.458532
19.843578
19.892454
20.180941
20.554662
23.430586
24.239421
25.361776
27.744770
32.077432
35.745502
39.760470
45.352578
48.427582
54.057837
56.220889
55.761933
57.487488
54.850578
54.713488
51.667690
51.714778
48.129559
44.528842
42.378902
42.348504
39.538741
36.623478
37.594438
38.208961
36.651492
39.238930
38.482547
35.952926
37.860870
37.525892
38.599968
##ZVALUE=255
2.127886
1.981854
2.369881
2.311468
2.272725
2.343655
2.279878
2.532601
3.738999
6.616712
35.378933
103.155971
262.918472
620.327592
972.287655
1015.681624
1015.681624
1015.681624
1015.681624
1015.681624
1015.681624
1015.681624
626.648664
365.896821
173.605680
116.935968
101.294518
111.730695
136.786699
150.361657
157.598853
153.707862
139.697790
113.733411
89.492798
62.906742
45.363903
28.189421
20.054579
14.865994
13.737679
14.412999
12.825727
13.133883
13.331771
13.550520
15.209913
15.754700
15.518665
14.664531
15.608668
15.817881
15.933514
15.023947
16.459823
16.395450
16.124845
16.523600
17.635822
17.954707
18.533468
19.380450
18.350482
19.711852
19.752979
22.477508
23.530722
25.326610
27.548671
31.493902
36.016703
41.420460
43.563843
47.237873
48.624873
49.242973
49.853921
50.593615
48.957467
46.489835
45.536757
41.572452
41.447878
38.073659
35.802722
36.247969
35.780668
34.753680
34.263730
35.527945
33.602715
34.397840
35.892725
34.312606
33.732653
34.379959
##ZVALUE=260
1.883507
1.891851
2.439618
2.149940
1.894832
1.997948
2.260804
2.644658
2.940893
2.908707
3.181696
4.256964
12.569427
51.009059
128.996372
374.367833
698.539019
1015.681624
1015.681624
1015.681624
1015.681624
1015.681624
1015.681624
1015.681624
952.914953
615.803599
324.037671
183.020830
102.058649
95.068812
108.302832
137.697458
153.427720
162.645578
158.798695
140.258670
120.385885
87.175965
66.956878
42.262673
29.349923
19.278526
15.061498
12.987852
12.029409
12.010932
12.283921
11.667609
12.121797
12.844801
11.761785
11.755824
13.084412
13.064742
11.524558
12.754798
12.993813
13.198853
12.892485
13.525486
13.874769
14.012456
13.995767
14.683604
15.889406
16.943812
17.037988
17.738938
21.145940
21.835566
24.558902
27.209520
29.780865
32.031536
32.155514
34.843683
34.739971
34.222603
33.742785
32.412410
32.600760
31.924844
30.288696
29.726624
29.522777
28.748512
28.211474
29.331446
30.031800
29.561520
29.272437
30.388832
29.097795
29.093623
30.266643
30.147433
##ZVALUE=265
1.543760
1.587868
1.512766
1.645684
1.557469
2.014637
1.966953
1.900792
2.008677
2.085567
2.602935
2.117753
2.717972
3.417730
11.997819
64.581633
152.046680
348.124504
571.295619
955.811739
1015.681624
1015.681624
1015.681624
1015.681624
1015.681624
1015.681624
977.410674
694.679022
379.112959
218.551755
125.783682
80.611706
86.171627
116.077662
139.513612
158.542991
163.570642
157.596469
142.916441
115.050673
91.460943
61.576962
44.054985
26.846528
18.481612
12.918711
11.627674
10.439754
10.539889
10.385513
10.988712
11.588931
10.059476
10.856986
11.021495
11.497736
11.184812
11.486411
12.216568
11.929870
12.900829
12.838840
13.004541
13.417602
14.212728
15.032887
15.678406
16.563535
18.506646
20.279884
21.662712
23.800731
25.309920
26.457906
28.417706
28.634667
29.453635
29.997826
29.312968
28.904676
27.107596
26.751757
26.664734
27.338862
25.813580
26.371479
26.572943
26.323795
27.250648
28.190613
27.029514
27.281642
28.091669
27.559996
28.505921
27.625561
##ZVALUE=270
1.213551
1.348853
1.507998
1.477599
1.537800
1.628995
1.707673
1.572967
1.719594
1.669526
2.053976
1.528859
2.051592
2.324581
2.620816
2.913475
3.672838
24.908781
82.922578
247.297883
447.661877
708.161592
1015.681624
1015.681624
1015.681624
1015.681624
1015.681624
1015.681624
1015.681624
805.549026
554.661751
287.767649
161.289573
81.525445
69.438815
90.605617
114.652514
145.107508
157.936811
163.707733
159.416795
139.946938
119.025707
87.849498
64.102411
40.910840
27.362704
18.159747
14.039874
11.750460
10.733604
9.875894
11.027455
10.458827
10.253787
10.445714
11.078715
11.808872
11.642575
11.846423
11.698604
12.201667
11.845827
13.262630
12.847781
14.269948
14.159679
15.472770
15.823841
18.447638
20.104647
20.535588
22.352934
24.579763
24.544001
26.040673
26.068687
25.753975
26.400685
24.075508
25.267601
24.563670
24.243593
23.804903
24.001598
24.563670
24.688840
24.311543
25.813580
24.575591
24.774671
25.326610
24.465919
24.496913
25.112629
25.524497
##ZVALUE=275
1.186728
1.173615
1.202822
1.215935
1.414418
1.540780
1.271963
1.250505
1.320839
1.327991
1.608729
1.367927
1.652837
1.598597
1.847744
2.024770
1.773834
2.261996
2.501607
6.184578
24.180412
73.885918
226.690769
427.683592
803.125501
1015.672684
1015.672684
1015.672684
1015.672684
1015.672684
1015.672684
977.265835
699.990988
370.005965
212.899446
96.887946
63.121915
65.604448
85.241795
115.289688
136.206746
156.251788
161.411762
155.820847
142.845511
112.648606
90.694427
63.532591
46.491623
27.285814
19.254684
13.669729
11.674762
10.791421
9.964705
10.646582
10.516644
10.959506
10.951757
11.495948
11.937618
12.272000
12.052655
12.745857
13.248920
13.900995
14.064908
14.957786
15.858412
17.712712
18.599629
20.619631
22.650957
22.782683
23.935437
24.842620
25.374889
25.196671
24.719834
24.659634
23.695827
23.717880
22.975802
23.207664
22.775531
22.883415
22.346973
23.022890
23.333430
23.022890
23.853779
22.720695
23.219585
23.161769
23.926497
23.733974
##ZVALUE=280
1.003742
1.072884
1.080632
1.243949
1.234412
1.407862
1.262426
1.211762
1.355410
1.433492
1.313686
1.429915
1.278520
1.391768
1.534820
1.462698
1.700521
1.813769
1.878738
2.022982
2.356768
3.181696
14.913678
52.634478
174.770951
326.641798
625.270605
926.468968
1015.679836
1015.679836
1015.679836
1015.679836
1015.679836
1015.679836
914.456844
517.849922
308.831930
138.526559
72.271824
49.625635
60.527921
87.469816
111.253858
138.399601
152.685642
158.584714
153.378844
135.500431
116.353631
85.902810
65.219402
41.299462
29.390454
18.600821
14.083982
10.717511
10.693669
10.420680
10.925531
10.908842
11.363626
11.312962
11.932850
12.821555
13.230443
13.397932
13.997555
14.292598
15.570521
17.077923
18.117428
18.587708
20.113587
21.606684
22.187829
22.570491
22.537708
22.133589
22.344589
22.738576
22.650957
23.090839
22.325516
22.027493
22.229552
21.252632
21.983981
22.601485
22.118688
22.687912
22.306442
22.204518
22.175908
21.937490
23.392439
22.277832
##ZVALUE=285
1.210570
1.153946
1.234412
1.302958
0.922680
1.006722
1.213551
1.159906
1.201630
1.238585
1.277924
1.157522
1.317859
1.308918
1.378655
1.579523
1.594424
1.741648
1.646876
1.946688
1.976490
1.906753
2.245903
2.689958
7.993579
27.781725
97.658038
215.413570
489.761829
782.116652
1015.681624
1015.681624
1015.681624
1015.681624
1015.681624
1015.681624
1015.681624
803.953409
492.313504
221.203566
108.461976
47.443509
40.519834
59.691668
79.296827
109.945536
130.464435
149.182677
155.768991
149.851441
135.756731
112.592578
91.131926
65.356493
47.409534
28.942823
20.649433
14.941692
12.992620
12.227893
12.124777
12.272596
12.379885
12.659431
13.708472
14.370680
14.806986
15.412569
17.340779
18.290877
19.219518
19.898415
20.698905
22.359490
23.445487
22.716522
23.113489
22.844672
22.580624
21.946430
23.479462
22.674799
21.790862
21.941662
22.871494
22.252798
21.749735
21.965504
21.962523
22.248626
21.823645
21.901727
20.870566
21.611452
21.722913
21.408796
##ZVALUE=290
1.023412
0.956655
1.009703
0.973940
1.073480
1.138449
1.188517
1.217723
1.317859
1.224875
1.005530
1.273751
1.467466
1.241565
1.319647
1.390576
1.363754
1.432896
1.557469
1.454949
1.734495
1.877546
1.838803
2.004504
2.268553
2.711415
3.929734
12.030005
58.013797
142.195821
287.322402
614.901781
959.617496
1015.681624
1015.681624
1015.681624
1015.681624
1015.681624
1015.681624
975.759625
657.664537
323.325992
166.187882
61.962605
34.697652
38.515925
52.064657
77.756643
97.672939
125.618577
141.363740
150.955915
147.262812
134.959817
113.878846
85.220933
65.394640
42.637587
30.718446
19.624829
15.262961
13.535619
12.146831
12.561679
13.479590
13.301969
14.453530
14.755726
16.012788
16.388893
17.244816
18.382668
19.247532
20.973682
20.654798
21.309853
21.137595
20.798445
21.460652
21.693707
21.283627
21.703839
21.513700
22.194982
21.844506
21.742582
21.441579
22.010803
21.759868
21.467805
21.358728
20.979643
21.826625
21.827817
21.038651
21.561980
##ZVALUE=295
0.900626
0.869632
0.870824
0.981688
0.915527
1.036525
0.977516
1.119971
0.974536
0.867844
1.082420
1.206994
0.943542
1.136661
1.049638
1.124740
1.292825
1.179576
1.248717
1.304746
1.400709
1.354814
1.481771
1.654625
1.893640
2.032518
2.360940
2.645850
2.847910
5.419850
20.616651
93.823671
216.773748
512.616634
842.057467
1015.597582
1015.597582
1015.597582
1015.597582
1015.597582
1015.597582
1015.597582
860.656500
463.263988
253.272653
86.309910
37.038922
26.045442
32.620430
51.442981
68.766475
96.028447
115.295649
135.109425
142.521858
140.422583
127.876997
107.011795
86.886883
61.320662
44.918656
30.221939
21.747947
16.648769
14.212728
14.013648
13.633966
14.654994
15.228987
16.340613
17.588735
18.676519
19.347668
19.959807
20.809770
21.186471
21.420717
20.759702
21.300912
21.109581
21.664500
21.169782
20.945668
21.280646
21.919608
21.954775
21.832585
21.951795
21.934509
22.316575
21.084547
21.688938
21.106601
20.737648
21.255612
21.067858
##ZVALUE=300
0.915527
0.911951
0.868440
1.019835
1.093745
1.278520
0.948906
1.139641
0.953674
1.245737
0.980496
1.172423
1.199841
1.282692
1.301765
1.288652
1.306534
1.244545
1.317859
1.457930
1.457930
1.490712
1.546741
1.655817
1.790524
1.723766
2.205968
2.067685
2.306700
2.591610
2.540946
3.659725
10.182858
62.888861
162.035823
422.559977
725.120902
1015.681624
1015.681624
1015.681624
1015.681624
1015.681624
1015.681624
1015.681624
1015.681624
611.424446
350.596905
152.722001
67.653656
24.228692
21.924973
31.070709
43.406487
66.474676
86.679459
111.164451
127.053857
136.692524
135.494471
122.169852
109.068751
82.750916
64.967871
45.738816
33.467412
22.258759
18.781424
15.841722
16.006827
16.588569
17.351508
18.541813
19.128919
20.422935
21.165609
21.263957
22.030473
21.013618
21.659732
21.065474
21.387935
21.873713
21.314621
21.670461
21.737814
21.840930
22.621751
21.913648
22.874475
21.573901
21.698475
21.711588
21.228790
21.019578
20.896792
21.034479
##ZVALUE=305
0.741482
0.947714
0.771880
0.771880
0.851750
0.741482
0.728965
0.753999
0.852942
0.874996
0.957847
0.963807
1.058578
0.746846
0.891685
1.105666
1.010895
1.002550
1.099706
1.153946
1.038909
1.009703
1.225471
1.292825
1.300573
1.342893
1.710653
1.534820
1.835823
2.005696
1.963973
2.184510
2.686977
3.024936
5.952716
40.927529
118.097663
336.779952
607.403517
1015.478969
1015.478969
1015.478969
1015.478969
1015.478969
1015.478969
1015.478969
1015.478969
899.220705
548.354983
235.047936
110.915899
34.959912
18.332601
21.106601
28.726459
45.390725
62.114596
85.477829
102.744699
123.383999
129.590631
128.899813
120.043755
101.692677
84.838867
59.631467
46.393871
33.189654
26.081800
20.399690
19.479990
19.124746
19.573569
20.498633
20.521879
21.223426
21.034479
21.092892
21.464825
21.478534
22.171736
21.521449
22.402406
22.532940
22.524595
22.522807
22.627711
22.462606
22.435784
21.852851
22.435784
22.312999
21.681786
21.968484
21.701455
21.258593
##ZVALUE=310
0.986457
0.824928
0.913739
0.840425
0.800490
1.040697
0.985861
0.939965
1.157522
1.016855
0.916719
0.943542
1.059771
1.012683
1.116991
1.071692
0.919700
1.148582
0.954866
1.224875
1.453757
1.258850
1.292825
1.321435
1.412630
1.315475
1.583695
1.698732
1.659989
1.768470
2.013445
2.164841
2.172589
2.586842
2.765656
2.923608
3.488660
19.141436
71.171522
250.787735
493.080616
965.392590
1015.626788
1015.626788
1015.626788
1015.626788
1015.626788
1015.626788
1015.626788
1015.626788
952.984691
503.341556
277.218819
92.093945
33.367872
16.338825
19.237995
27.175546
38.899779
57.775974
76.149702
99.438429
113.082528
124.980807
125.842690
115.898848
102.292895
82.117915
66.115856
47.615767
37.643909
28.907657
24.766922
22.533536
21.971464
21.636486
21.995902
21.662712
21.849871
21.787882
21.998882
23.020506
22.948980
22.976995
23.505688
23.446679
23.411512
23.463964
23.324490
23.161769
23.341775
22.292733
22.239685
22.499561
21.791458
22.205710
##ZVALUE=315
1.014471
0.945926
1.064539
0.938773
0.998974
0.940561
0.948906
0.943542
1.122952
1.093745
0.884533
0.996590
0.962615
0.924468
1.182556
1.082420
1.076460
1.184940
1.388788
1.277924
1.268983
1.080632
1.139641
1.236796
1.413822
1.276731
1.481771
1.538992
1.595616
1.802444
1.857877
1.913905
1.942515
2.215505
2.410412
2.749562
2.418756
2.922416
3.517866
8.669496
35.550594
157.598853
349.093676
779.860020
1015.681624
1015.681624
1015.681624
1015.681624
1015.681624
1015.681624
1015.681624
1015.681624
1015.681624
680.812597
355.245471
117.063522
42.455792
16.686916
16.047955
19.849539
25.474429
38.735867
53.069592
74.100494
90.464950
108.369589
118.449926
119.595528
112.853646
98.347664
83.628893
64.294934
51.966906
38.495660
30.966997
26.117563
23.849607
22.522807
22.705793
22.661686
22.470951
22.873878
23.309588
23.036599
23.936629
23.824573
23.903847
23.946762
24.189949
23.647547
23.324490
22.938848
23.371577
23.557544
22.895932
22.966862
##ZVALUE=320
1.031756
0.898838
1.033545
1.026988
0.982881
0.987649
0.779629
1.047850
0.953674
1.112819
1.111627
0.968575
1.078844
1.018643
1.090765
1.011491
1.123548
1.102686
1.129508
1.170635
1.068711
1.139641
1.349449
1.131892
1.382828
1.460910
1.378655
1.365542
1.319647
1.547933
1.598597
1.695752
1.693964
1.966953
1.837611
2.043843
2.384782
2.491474
2.684593
2.893806
3.154874
4.631877
15.391707
88.507533
223.811865
594.952703
976.377726
1015.677452
1015.677452
1015.677452
1015.677452
1015.677452
1015.677452
1015.677452
1015.677452
855.714679
472.515821
186.881423
74.424744
21.243691
14.646649
15.289783
18.078685
24.894476
33.926964
51.873922
66.918731
87.117553
102.045536
113.867521
116.023421
110.854506
99.733472
80.846548
65.629482
49.694777
39.115548
30.620694
26.157498
23.692846
23.192763
22.851825
23.346543
23.059845
23.468733
23.485422
24.066567
23.609996
23.686886
23.728609
23.909807
23.299456
22.830963
22.994876
22.899508
22.580624
##ZVALUE=325
0.869632
0.912547
0.852942
0.842810
0.865459
0.803471
0.863671
0.972748
0.958443
0.952482
0.876784
0.949502
0.989437
1.080632
1.078844
1.182556
1.155734
1.160502
1.085997
1.086593
0.878572
1.099706
1.039505
1.153946
1.187921
1.148582
1.280904
1.352429
1.391768
1.428723
1.432896
1.468658
1.693964
1.487732
1.534820
2.003908
1.870990
2.090931
2.179742
2.369881
2.491474
2.956986
3.086925
3.755689
7.031560
45.256019
130.871534
378.619432
703.228712
1015.681624
1015.681624
1015.681624
1015.681624
1015.681624
1015.681624
1015.681624
1015.681624
1001.035571
649.825931
279.748440
118.448734
31.308532
16.164780
14.429688
15.335679
18.996000
24.412870
36.732554
48.744678
68.599582
85.054636
101.187825
109.141469
111.092925
106.155872
90.983510
77.234507
60.522556
48.411489
36.767721
30.779839
26.439428
24.433732
23.589730
23.236871
23.799539
23.705959
23.884773
23.608804
23.523569
23.207664
22.627711
22.817850
22.809505
23.235679
22.738576
##ZVALUE=330
0.872612
0.838637
0.826716
0.757575
0.904799
0.848770
0.897646
0.938773
0.872612
0.834465
1.021624
0.980496
0.926852
0.965595
0.878572
1.019835
0.993609
1.053810
0.886917
1.063943
1.090765
0.993609
0.952482
1.192689
0.961423
1.105666
1.064539
1.176000
1.254678
1.380444
1.488924
1.548529
1.276731
1.466870
1.536608
1.585484
1.644492
1.825690
1.983643
2.164841
1.954436
2.381802
2.587438
2.830625
3.056526
3.603697
4.791617
21.963716
71.593523
244.071484
490.024686
980.738997
1015.681624
1015.681624
1015.681624
1015.681624
1015.681624
1015.681624
1015.681624
1015.681624
770.902038
344.171524
167.862773
54.312944
21.498799
14.038682
14.190674
15.875697
18.592477
26.464462
34.880638
48.987865
63.534975
83.164573
94.120502
103.792548
103.535652
97.254515
89.224577
72.879791
60.107708
44.650435
37.126541
30.479431
27.262568
24.628639
23.714900
23.188591
23.124814
22.962689
22.523999
22.455454
22.392869
22.748709
21.851659
22.263527
##ZVALUE=335
0.790954
0.959635
0.906587
0.944734
0.826716
0.987649
1.019835
0.935793
0.834465
0.920892
0.898838
0.816584
0.935793
1.071692
0.827909
0.845790
1.044869
1.058578
0.931621
1.015663
1.055598
0.955462
0.981688
1.122952
0.973940
1.065731
1.038909
1.014471
1.164675
1.286864
1.084805
1.239777
1.366735
1.494884
1.511574
1.394749
1.534820
1.433492
1.707673
1.869798
1.738667
2.065897
2.087951
2.112985
2.386570
2.714992
2.669692
3.269911
3.838539
9.918809
37.048459
150.010586
332.858562
785.869956
1015.681624
1015.681624
1015.681624
1015.681624
1015.681624
1015.681624
1015.681624
1015.681624
984.199047
521.382689
270.608664
88.158846
34.444928
15.580654
14.252663
15.407801
16.466975
20.027757
24.854541
35.626888
46.753883
63.639879
76.801777
90.149641
97.204447
99.135637
93.766451
81.724524
70.948601
56.499839
47.020912
36.382675
30.987859
26.121736
24.194717
22.776723
22.620559
21.485686
21.573901
21.735430
21.393895
21.629930
##ZVALUE=340
0.706911
0.795722
0.819564
0.748634
0.889897
0.957847
0.839829
1.011491
0.883937
0.751615
0.838637
0.839829
0.846982
0.978708
0.940561
0.584722
1.080632
0.936985
1.071692
0.919700
1.002550
0.961423
1.115799
1.201630
1.040697
1.024604
1.045465
1.077652
1.179576
1.088977
1.230836
1.067519
0.997782
1.237988
1.256466
1.320839
1.124740
1.278520
1.301765
1.524687
1.689792
1.664758
1.770854
1.814961
1.942515
1.994967
2.325773
2.481937
2.563000
3.140569
3.518462
5.646944
18.850565
101.081729
245.009661
604.742765
990.869999
1015.681624
1015.681624
1015.681624
1015.681624
1015.681624
1015.681624
1015.681624
1015.681624
637.431741
347.988009
131.583810
48.292875
16.856790
14.672875
14.882684
15.543699
17.234683
19.727945
26.090741
32.528639
45.451522
57.715774
74.621439
85.271597
92.566609
93.163848
89.418888
81.862807
69.315434
57.816505
44.491887
36.888719
29.896498
25.806427
22.628903
21.448731
20.881891
20.603538
20.337701
##ZVALUE=345
0.878572
0.749826
0.871420
0.777841
0.878572
0.860691
0.741482
0.715852
0.778437
0.772476
0.782609
0.809431
0.845790
0.738502
0.879765
1.063943
0.928640
0.750422
0.854731
0.851750
0.895858
0.907779
1.139641
1.066923
1.066923
1.102686
1.056790
0.990629
0.982881
1.000762
1.064539
1.035929
1.206994
1.116991
1.144409
1.178980
1.349449
1.382828
1.368523
1.481771
1.405478
1.546741
1.514554
1.769662
1.757741
1.947880
2.216697
2.137423
2.467632
2.569556
2.784729
3.071427
3.334880
4.245639
10.200739
68.278909
198.736787
542.602539
951.068997
1015.681624
1015.681624
1015.681624
1015.681624
1015.681624
1015.681624
1015.681624
1015.681624
887.786746
503.362417
194.099545
87.165833
28.471947
17.316937
15.676618
15.966892
15.815496
16.741753
19.456744
23.345947
32.643676
41.727424
57.008862
67.948699
77.992678
84.438920
87.502599
84.123611
76.161623
67.622662
54.834485
44.496655
34.042597
29.716492
24.449825
21.921992
20.686984
##ZVALUE=350
0.802875
0.777841
0.690818
0.729561
0.767708
0.774860
0.763535
0.946522
0.976920
0.813603
0.891685
0.783801
0.932813
0.858903
0.806451
0.761747
0.883937
0.857711
0.937581
0.886917
0.875592
0.996590
0.959635
0.955462
1.041889
1.075864
1.150966
1.046658
1.185536
1.146793
1.038909
1.320839
0.989437
1.208782
1.166463
1.192689
1.221895
1.306534
1.375675
1.355410
1.557469
1.491904
1.477599
1.454949
1.575947
1.675487
1.648664
1.927614
1.889467
2.134442
2.145767
2.352595
2.617836
3.055930
3.117919
3.775954
5.293489
32.707453
106.695890
336.433053
639.081597
1015.681624
1015.681624
1015.681624
1015.681624
1015.681624
1015.681624
1015.681624
1015.681624
959.765911
591.781735
265.185833
117.965937
31.939745
16.692877
14.451742
13.619661
13.855696
13.951659
15.378594
17.586946
22.875667
28.568506
37.962794
47.302842
61.056614
69.370866
77.449679
79.515576
77.355504
72.414875
61.156750
52.759647
41.048527
34.083724
27.677417
##ZVALUE=355
1.118779
1.135468
1.272559
1.132488
1.212955
1.079440
1.047850
1.318455
1.130700
1.028776
1.036525
1.052618
1.144409
1.176000
1.189709
1.193881
1.178980
1.366735
1.112819
1.221895
1.300573
1.262426
1.202822
1.322627
1.254678
1.313686
1.306534
1.357794
1.373887
1.397729
1.221895
1.249909
1.494884
1.464486
1.516938
1.430511
1.509786
1.760721
1.562834
1.639724
1.583695
1.787543
1.634955
1.788735
1.767874
1.927614
1.932979
2.095699
2.045631
2.246499
2.162457
2.471805
2.457500
2.841949
2.930760
3.145933
3.605485
3.888607
4.669428
15.317798
60.812831
233.334899
470.958948
953.979492
1015.895009
1015.895009
1015.895009
1015.895009
1015.895009
1015.895009
1015.895009
1015.895009
855.805874
394.045711
195.309520
62.635541
24.755001
13.812780
13.522506
13.371706
13.546944
14.062524
14.855862
16.709566
19.965768
26.210546
32.724738
43.816566
53.027868
62.255859
69.044828
73.179603
72.043538
66.483617
59.790611
50.314665
##ZVALUE=360
0.816584
0.867844
0.784993
0.921488
0.711679
0.780821
0.983477
0.905991
0.930429
1.008511
0.994802
0.901818
0.894666
0.925660
0.949502
1.007915
0.992417
0.894666
0.968575
0.915527
1.068711
1.063943
0.930429
0.935793
1.136661
1.133680
1.051426
1.066923
0.985861
1.207590
1.293421
1.249909
1.222491
1.311898
1.356602
1.103878
1.329780
1.134872
1.154542
1.262426
1.430511
1.413822
1.361966
1.617670
1.441836
1.603961
1.626611
1.615882
1.745820
1.701713
1.971722
2.029538
2.121925
2.021790
2.473593
2.550483
2.617836
2.908707
2.964735
3.651977
3.954768
6.353855
21.891594
114.693642
281.236768
691.663623
1015.681624
1015.681624
1015.681624
1015.681624
1015.681624
1015.681624
1015.681624
1015.681624
891.832709
426.417589
218.316913
76.122880
28.714538
13.251901
12.537837
12.112856
12.354851
12.305975
12.602806
13.063550
14.434457
17.445683
21.423697
28.327703
35.275817
45.994520
53.023696
60.552955
64.240694
65.774918
##ZVALUE=365
0.890493
0.812411
0.910759
0.952482
0.829697
0.694990
0.871420
0.985861
1.000762
0.764728
1.027584
0.901818
1.060963
0.979900
0.907779
0.925660
0.911951
1.160502
0.919700
0.830889
0.889897
1.065731
0.970960
1.025796
1.066923
1.001954
1.142621
1.092553
1.087785
1.237988
1.135468
1.143813
1.225471
1.232624
1.300573
1.183748
1.103878
1.295805
1.417994
1.437664
1.461506
1.349449
1.421571
1.453757
1.532435
1.511574
1.663566
1.650453
1.738667
1.772642
1.804829
1.783967
2.022982
2.239943
2.196431
2.199411
2.518892
2.607703
2.775788
3.160834
3.484488
4.027486
4.565716
5.499721
11.814833
72.063804
201.225877
554.379821
991.312861
1015.681624
1015.681624
1015.681624
1015.681624
1015.681624
1015.681624
1015.681624
1015.681624
709.152818
350.165963
112.796426
42.926669
15.317798
12.643933
11.952519
11.874437
11.728406
12.217760
12.123585
12.272000
13.302565
15.086532
19.298792
24.095774
32.512546
39.496422
48.262477
##ZVALUE=370
0.934601
0.845790
0.914931
0.949502
0.869632
0.800490
0.935793
0.964999
0.890493
0.955462
0.960827
1.022816
0.756979
0.762939
0.981688
0.827909
0.903606
0.977516
1.013875
0.907779
0.886917
0.921488
1.000762
1.002550
1.041889
1.086593
1.005530
1.028776
1.103878
1.063943
1.110435
1.209974
1.143813
1.196861
1.218915
1.139641
1.116991
1.256466
1.311898
1.267791
1.148582
1.498461
1.159906
1.332760
1.541972
1.418591
1.434684
1.551509
1.476407
1.544952
1.777411
1.709461
1.542568
1.833439
1.922846
2.024770
2.038479
2.250671
2.247691
2.387762
2.767444
2.912879
3.288984
3.600717
3.868937
4.583597
6.770492
38.820505
131.214857
422.328711
787.414908
1015.681624
1015.681624
1015.681624
1015.681624
1015.681624
1015.681624
1015.681624
1015.681624
869.092941
475.678444
178.350806
75.787902
23.240447
12.516975
10.960698
10.403991
10.633469
10.191798
10.635853
10.307431
10.849833
11.409521
13.463497
15.713573
20.830631
##ZVALUE=375
0.840425
0.819564
0.980496
0.911951
0.930429
0.928640
0.950694
0.992417
0.926852
0.779629
0.855923
0.900626
0.885725
0.924468
0.810623
1.044869
0.868440
0.968575
0.937581
0.831485
0.780821
0.968575
0.791550
0.964999
1.065731
1.034737
1.009703
1.124740
1.029968
0.882745
0.990629
0.964999
0.972748
0.878572
1.000762
1.021624
0.982881
0.982881
1.261830
1.131892
1.048446
1.128912
1.215935
1.253486
1.247525
1.423955
1.105666
1.313686
1.362562
1.422763
1.338720
1.396537
1.573563
1.483560
1.546741
1.705885
1.719594
1.858473
2.000928
1.839995
2.066493
2.220869
2.477765
2.607703
2.816916
3.083944
3.408790
4.093647
4.665852
17.395616
66.539645
252.388716
530.380011
1015.681624
1015.681624
1015.681624
1015.681624
1015.681624
1015.681624
1015.681624
1015.681624
1000.060439
642.860532
287.156701
139.359832
41.680932
16.336441
10.220408
10.007620
9.638667
9.381771
9.593964
9.881854
9.683967
9.638667
10.410547
##ZVALUE=380
0.954866
0.634789
0.918508
0.816584
0.954866
0.911951
0.905991
0.940561
0.854731
0.816584
0.749826
0.809431
0.925660
0.827909
0.849962
0.829697
0.955462
0.849962
0.927448
0.892878
0.895858
0.947714
0.822544
0.952482
0.911951
0.849962
0.862479
0.721812
0.926852
1.077652
0.985861
0.969768
0.960827
0.946522
0.952482
1.038909
1.088977
1.021624
1.048446
0.883937
0.959635
1.069903
1.237988
1.160502
1.124740
1.238585
1.124740
1.141429
1.345873
1.303554
1.235604
1.321435
1.329780
1.432896
1.321435
1.554489
1.649857
1.485944
1.575947
1.769662
1.714826
1.889467
2.077818
2.076626
2.182722
2.404451
2.578497
3.058910
3.292561
4.287958
4.653931
8.401871
31.464696
164.159536
395.340919
943.228006
1015.681624
1015.681624
1015.681624
1015.681624
1015.681624
1015.681624
1015.681624
1015.681624
892.198086
415.042639
204.761624
65.950751
25.204420
10.461807
9.463429
8.878708
8.793473
8.769631
9.115934
8.871555
##ZVALUE=385
0.838637
0.611544
0.779629
0.636578
0.680685
0.693798
0.782609
0.675917
0.616908
0.808835
0.773668
0.740886
0.726581
0.818968
0.693798
0.770688
0.816584
0.695586
0.843406
0.647902
0.653863
0.664592
0.756979
0.902414
0.855923
0.692606
0.849962
0.907779
0.709891
0.742674
0.821948
0.975728
0.971556
0.838637
0.963807
0.855923
1.002550
0.927448
0.925660
0.841618
1.001954
1.010895
1.109838
0.974536
0.895858
0.983477
1.041889
1.102686
1.074672
1.095533
1.098514
1.190901
1.125932
1.248717
1.137853
1.232624
1.439452
1.483560
1.395941
1.566410
1.640916
1.655817
1.750588
1.794696
1.941919
2.187490
2.340674
2.587438
2.948642
3.314614
3.567934
4.059672
4.333854
5.356669
18.951893
119.671822
309.804678
779.279470
1015.675664
1015.675664
1015.675664
1015.675664
1015.675664
1015.675664
1015.675664
1015.675664
1015.675664
611.254573
337.975025
130.359530
49.117804
13.133883
9.176731
8.546710
8.266568
8.205771
##ZVALUE=390
0.717640
0.842810
0.629425
0.711679
0.562668
0.712872
0.694990
0.661612
0.741482
0.774860
0.865459
0.871420
0.682473
0.754595
0.705719
0.685453
0.773668
0.798702
0.767708
0.818968
0.665784
0.748634
0.605583
0.960827
0.802875
0.719428
0.881553
0.804663
0.834465
0.946522
0.759959
0.776649
0.798702
0.917912
0.909567
0.974536
0.864863
0.942945
0.975728
0.852942
0.954866
0.884533
0.987649
0.888705
0.993609
0.986457
0.921488
1.150966
1.033545
1.178980
1.228452
1.224875
1.256466
1.228452
1.288652
1.377463
1.401901
1.507998
1.419783
1.480579
1.519918
1.497865
1.501441
1.761913
1.765490
1.961589
2.096891
2.514720
2.610683
3.055930
3.084540
3.183484
3.244877
3.737807
3.970861
4.327893
8.915663
65.610409
208.708644
620.768666
1013.099551
1015.679836
1015.679836
1015.679836
1015.679836
1015.679836
1015.679836
1015.679836
1015.679836
785.654783
437.380672
171.709657
76.168776
19.928813
9.584427
8.092523
##ZVALUE=395
0.759959
0.801682
0.866652
0.726581
0.856519
0.663996
0.682473
0.781417
0.854731
0.703931
0.527501
0.843406
0.873804
0.611544
0.724792
0.599623
0.716448
0.703931
0.708699
0.837445
0.755787
0.750422
0.730753
0.659823
0.789762
0.840425
0.731945
0.771880
0.938773
0.768900
0.799894
0.886917
0.888705
0.864863
0.980496
0.876784
0.961423
0.861883
0.913739
0.996590
0.922680
1.011491
0.938773
0.967979
1.067519
0.914931
1.110435
1.256466
1.353621
0.944734
1.029968
1.106858
1.233816
1.179576
1.261830
1.303554
1.402497
1.540780
1.433492
1.551509
1.472831
1.603961
1.597404
1.779795
1.740456
1.971722
2.186894
2.311468
2.561808
2.914667
2.863407
3.034472
3.237724
3.222823
3.342628
3.553629
3.629923
4.236698
5.389452
33.395886
133.217573
482.583642
903.118849
1015.735865
1015.735865
1015.735865
1015.735865
1015.735865
1015.735865
1015.735865
1015.735865
973.668694
597.397685
249.757767
117.542744
36.785603
##ZVALUE=400
0.548959
0.674725
0.698566
0.643730
0.704527
0.711679
0.787973
0.913739
0.735521
0.717640
0.749826
0.767708
0.673532
0.861883
0.750422
0.674725
0.729561
0.754595
0.628829
0.674725
0.867844
0.647902
0.710487
0.601411
0.809431
0.750422
0.741482
0.860691
0.898838
0.842810
0.881553
0.771880
0.787973
0.808835
0.835657
0.867844
1.020432
0.663996
0.791550
0.989437
0.906587
1.023412
0.917912
1.093745
1.008511
0.937581
1.235604
1.045465
1.094937
1.096725
1.047850
1.015663
1.212955
1.141429
1.200438
1.122952
1.138449
1.235604
1.252890
1.237988
1.325607
1.497865
1.496673
1.517534
1.657605
1.805425
1.911521
2.181530
2.283454
2.371669
2.617836
2.583861
2.684593
2.736449
2.752542
2.833605
2.872944
3.222823
3.364682
3.840923
4.495978
14.216900
61.171651
259.239674
574.652553
1015.681624
1015.681624
1015.681624
1015.681624
1015.681624
1015.681624
1015.681624
1015.681624
1015.681624
804.024935
389.293432
##END
