##TITLE=QP00301
##FORMAT=SPECTACLE-ASCII V-1.2
##DATA TYPE=ULTRAVIOLET SPECTRUM
##SECOND TYPE=ULTRAVIOLET SPECTRUM
##DATE=01/11/18
##TIME=18:40:53
##SPECTROMETER/DATA SYSTEM=SPECTACLE
##XUNITS=NM EM
##YUNITS=ENERGY
##YFACTOR=1
##FIRSTX=220
##LASTX=410
##NPOINTS=96
##3DDATA=Equidistant
##ZUNITS=NM EX
##FIRSTZ=210
##LASTZ=400
##ZPOINTS=39
##XYDATA=(Y..Y)
##ZVALUE=210
2.732873
2.532601
2.563000
2.817512
3.104806
3.085732
2.616644
2.569556
2.893806
2.918839
2.460480
2.339482
2.427697
2.801418
2.535582
3.111959
3.440976
2.917647
3.042817
3.037453
3.267527
3.386736
3.234744
3.853440
4.371405
4.137754
4.234910
4.768968
3.759861
4.120469
4.200935
4.290938
4.305840
4.381537
4.810691
3.998876
4.605651
4.596710
4.549623
4.462600
5.126595
4.777908
4.935861
5.181432
5.293489
4.650950
4.775524
5.255938
5.327463
5.732775
5.100965
4.819632
4.645586
5.282760
4.749894
5.801916
6.309748
5.674958
5.709529
4.946589
6.007552
5.843639
5.779862
5.719662
5.611777
6.242990
6.740689
6.654859
6.600618
9.033680
11.052489
11.908412
14.629960
16.177893
15.614629
16.878843
18.216968
17.493963
17.678738
17.182827
14.016628
13.691783
12.277961
10.485649
8.597970
9.278655
7.185936
6.245971
6.587505
5.725622
5.560517
5.485415
6.418824
6.268620
6.111860
6.842613
##ZVALUE=215
6.440878
6.267428
5.260706
5.418658
4.629493
4.819632
4.779696
5.355477
6.217957
5.940795
5.096793
4.876852
4.518628
3.372431
3.043413
3.378987
3.554821
3.240705
3.916621
2.975464
3.400445
3.979802
3.525615
3.648996
3.588796
4.223585
4.002452
3.943443
5.197525
4.055500
4.791617
4.616976
4.170537
4.429817
5.046725
5.172491
4.431605
5.164742
4.397631
5.467534
4.907846
5.760789
5.555749
5.154610
5.585551
5.767941
6.376505
5.750656
5.516410
5.845428
5.852580
6.558895
7.087588
6.531477
6.095767
6.270409
6.043911
5.642772
6.326437
6.020665
7.770658
6.126761
6.171465
6.874800
7.271767
6.481409
6.804466
6.696582
8.783937
10.099411
9.955764
11.602640
12.753606
14.922619
15.833974
16.794801
17.571449
17.417669
17.358661
16.651750
15.118718
14.277697
14.106631
10.476708
9.635687
9.009838
7.969737
7.056594
6.653666
6.091595
6.409883
5.821586
7.545948
6.799698
7.211566
6.683469
##ZVALUE=220
21.402836
21.216869
21.970868
19.880533
19.637942
16.180873
13.967752
11.616945
11.636615
10.863543
12.374520
12.198687
12.235641
11.126995
10.289550
7.814765
5.867481
4.503727
3.658533
3.694892
4.649758
3.638864
4.100800
4.236698
4.526973
4.437566
4.210472
4.718900
4.375577
5.479455
5.573630
5.569458
4.873872
5.686879
6.033778
5.261898
6.043911
5.999804
6.942749
5.824566
6.351471
6.218553
5.728602
5.382895
6.095767
5.741715
6.715655
5.958676
6.856918
5.608797
6.346703
6.166697
6.604791
6.239414
6.181598
6.630421
6.292462
6.596446
6.915927
6.418824
7.248521
7.444620
7.279515
7.215738
7.532835
6.934404
7.980466
8.888841
9.764433
11.025667
12.807846
13.163686
14.759898
17.476678
19.466877
18.716455
18.891692
17.276406
18.686652
15.993714
16.160607
16.966462
13.555884
12.601614
11.741519
9.840727
8.860826
9.036660
8.482933
9.152889
7.567406
7.988811
8.465648
7.288456
8.065701
7.642508
##ZVALUE=225
36.737919
42.500496
50.637722
62.994957
65.545440
67.379475
58.878660
51.046610
38.447976
29.375553
23.278594
23.779869
24.485588
27.553439
27.339458
24.937987
23.405552
17.516613
12.600422
9.198785
6.279945
5.465746
4.613996
4.571676
4.498959
5.259514
5.326867
4.460812
5.200505
5.013943
5.844831
5.923510
6.301999
7.154942
6.271601
6.676912
5.921721
6.647706
7.413626
6.454587
7.331967
6.701946
6.728768
6.525517
7.405877
7.544756
7.999539
6.933808
7.215738
7.788539
7.220507
7.343888
7.331967
8.675456
7.483959
7.904768
8.738637
7.003546
7.581711
8.311868
8.561611
8.745790
8.692741
8.525848
8.735657
9.332895
9.676814
10.677576
10.646582
12.304783
14.106631
15.237927
16.601682
18.569827
19.165874
20.003915
21.055937
20.387769
19.046664
17.672777
17.874837
16.355515
15.904903
15.376806
13.568997
13.376474
12.653470
13.010502
11.957884
12.768507
11.639595
11.943579
12.186766
10.804534
11.470914
10.840893
##ZVALUE=230
36.853552
41.773915
62.159896
99.208951
128.181577
156.142712
163.289905
165.766478
153.416991
128.880739
89.845657
68.207979
50.154924
44.405460
45.749545
49.205422
51.495433
51.965714
44.883490
37.857890
28.914809
20.940900
13.635755
7.250905
6.798506
5.901456
5.387664
5.084872
5.380511
6.030798
6.354451
6.711483
6.924868
6.619692
6.719828
7.413626
7.697940
6.912947
7.354617
7.376671
7.912517
8.188486
7.450581
7.237792
7.333755
7.898808
7.706881
8.319616
8.006692
7.288456
8.173585
7.974505
8.603930
9.283423
8.992553
7.891655
8.921623
10.236502
10.026693
10.885000
10.039806
11.514425
10.091662
11.073947
11.078715
11.295676
11.950731
13.175607
13.848543
16.138554
17.216802
19.464493
20.812750
21.546483
21.914840
24.823546
23.040771
22.596717
23.415685
21.979809
22.860765
20.616651
19.047856
20.672679
17.493963
18.024445
17.594695
16.320944
15.709996
17.689466
16.558766
16.931891
16.319752
16.020536
16.414523
16.730428
##ZVALUE=235
15.980601
17.581582
32.894611
74.054599
122.128725
185.509920
243.217945
307.251811
328.249931
329.898000
292.124748
231.486559
174.828768
118.243694
91.262460
74.330568
73.658824
79.180598
83.810687
83.201528
80.924630
69.618821
47.524571
35.888553
22.177696
17.213821
10.478497
9.124875
6.187558
6.511807
6.932616
6.185770
6.839633
7.101893
6.775856
6.885529
7.524490
7.333755
6.588697
7.154942
7.972717
7.378459
7.956624
7.575750
8.447766
6.584525
8.577704
8.072853
8.117557
7.255673
8.033514
8.980632
9.164810
8.993745
8.933544
8.973479
8.897781
10.141730
11.066794
12.658834
11.258721
11.361837
13.063550
12.515783
13.252497
14.275908
14.679432
15.974641
18.443465
17.887950
19.316673
21.843910
25.236607
27.119517
26.276708
27.684569
26.464462
25.472641
29.789805
26.102662
27.965903
26.303530
27.044415
25.488734
23.447871
25.902987
24.902821
24.491549
24.089813
25.396943
24.797916
22.398829
23.253560
25.913715
23.823977
24.161935
##ZVALUE=240
2.599955
2.755523
7.454753
24.616718
49.984455
104.550719
170.628428
282.913446
374.962687
447.539687
507.652760
508.301854
460.554957
388.997793
283.386707
210.983753
138.149858
108.962655
97.711682
104.117990
117.350817
120.855570
117.375851
101.909637
85.674524
64.160824
49.816966
29.758811
21.059513
11.864901
9.789467
6.398559
7.141829
7.586479
7.478595
7.466674
7.329583
7.238984
6.523728
7.426739
6.998777
7.442832
7.342696
7.757545
7.156730
8.709431
7.523894
7.266998
8.358955
7.742643
7.484555
9.192824
8.721948
8.983612
10.520816
10.772943
10.287762
10.644794
10.987520
10.822415
12.445450
13.204813
13.686419
14.004707
14.410615
15.916824
16.093850
16.986728
18.701553
20.024776
24.894476
25.290847
27.222633
29.276609
28.633475
30.784607
31.488538
32.584667
32.388568
31.202435
33.011436
32.172799
31.969547
30.681491
29.354692
31.248927
31.311512
32.247901
31.132698
28.737783
29.792786
30.155778
29.636621
30.812621
29.200912
29.447675
##ZVALUE=245
1.773834
1.980662
1.979470
2.101660
4.645586
15.294552
48.563480
94.648600
195.836425
298.156738
445.813537
543.499589
607.969761
632.821918
597.082973
492.510796
407.207012
277.209878
196.204782
126.972795
102.661848
103.285909
112.370849
131.305456
134.669542
129.262805
114.550591
95.888972
72.907805
52.127838
35.629869
20.177960
13.934970
7.854700
7.444620
6.545782
6.420612
6.734729
5.669594
6.498694
6.523728
6.609559
6.341934
6.846786
6.990433
6.671548
6.991625
7.434487
6.994605
6.949902
8.032918
7.103682
8.155704
7.985830
8.074641
8.663535
8.048415
8.486509
8.425713
10.050535
10.100603
10.044575
11.643767
11.344552
12.881756
13.539791
13.929605
15.170574
16.614795
18.469691
20.183921
21.358728
23.633838
24.745464
27.957559
28.523803
29.737949
29.270649
29.226542
30.003786
28.566718
28.735995
31.135678
30.828714
29.750466
29.707551
30.779839
30.062795
31.191707
32.125711
30.124784
31.339526
28.932691
30.337572
29.792786
30.437708
##ZVALUE=250
1.727939
1.612902
1.805425
1.762509
1.672506
1.959801
2.934933
9.916425
39.412975
78.229904
177.208781
285.201669
405.432582
564.187765
657.252669
719.714761
706.265569
616.030693
513.284802
354.978442
250.303745
162.715912
104.123950
94.876885
107.274652
123.050809
138.990879
142.915845
137.764812
124.556422
107.615590
78.612566
56.758523
34.738779
22.718906
13.400912
8.908510
7.194877
6.173849
6.068945
6.468892
6.294847
6.339550
5.935431
6.495714
6.976724
6.711483
7.478595
5.875826
6.335974
6.884933
6.433725
7.449985
7.262826
7.399917
6.326437
7.280707
8.001924
7.970929
8.777976
8.666515
9.628534
9.278655
10.647774
11.561513
12.811422
13.131499
13.677478
14.841557
16.277432
17.240644
21.355748
21.344423
22.403598
24.965405
24.969578
24.902821
25.588870
25.686622
25.720596
26.656985
28.356910
27.283430
28.426647
28.304458
27.609468
28.104782
28.480887
28.917789
29.072762
28.958917
29.700994
29.162765
27.147532
28.777719
28.241873
##ZVALUE=255
1.270771
1.482964
1.350641
1.364946
1.561642
1.597404
1.847744
2.111793
2.193451
5.448461
25.351644
59.334636
122.359991
247.961879
378.545523
571.728945
687.906742
811.557770
830.068588
765.736699
653.623939
516.628623
324.125886
207.699537
119.193792
92.158914
90.978742
103.997588
128.801465
142.930746
147.807598
146.771669
132.631660
106.157660
83.869696
56.226850
37.579536
21.293759
13.332963
8.037686
6.706715
6.605983
5.612969
5.942583
6.156564
6.020665
6.135702
6.469488
6.443858
6.093979
6.157756
6.245971
6.790757
7.124543
7.008910
6.693602
6.648898
6.878972
7.526875
7.441640
8.358955
8.653998
8.294582
9.718537
10.026693
10.488629
10.949969
13.086796
14.119744
14.905930
15.544891
17.130971
19.455552
20.533800
20.542741
22.475719
22.529960
22.574663
22.380948
24.349689
24.215579
23.665428
23.301840
24.718642
25.765896
24.612546
25.978684
27.495623
27.355552
26.536584
26.443601
27.022958
27.995706
26.523471
27.531981
27.404428
##ZVALUE=260
1.327991
1.552701
1.397729
1.559854
1.330972
1.493692
1.639724
1.570582
1.831651
1.617670
2.199411
3.066659
10.437965
41.871667
88.928938
202.423930
331.136584
535.834432
695.813894
870.974660
934.583545
927.847028
806.255937
653.280616
431.525707
291.862488
166.468620
109.833479
80.865622
84.559917
108.064413
128.735900
146.748424
159.446597
154.211521
135.294795
115.027428
82.980990
62.290430
37.714839
22.952557
13.916492
9.565949
6.904602
6.418824
6.417632
6.157756
6.115437
6.339550
6.864667
6.427765
6.685853
5.861521
6.492734
6.386638
6.628633
6.778836
6.945729
7.404685
7.103682
7.632971
8.120537
8.546710
8.752942
9.785891
10.380745
10.962486
10.985732
12.001991
13.863444
14.587641
15.873909
16.702414
17.896891
18.675923
19.589663
20.425916
21.281838
21.713972
21.243691
23.295879
21.809936
23.930669
22.518635
24.442673
23.966432
24.580956
24.530888
24.175644
25.078654
24.855733
25.202632
24.679899
25.452971
25.891662
25.889874
##ZVALUE=265
1.300573
1.155734
1.187921
1.244545
1.508594
1.364946
1.387596
1.520514
1.447797
1.746416
1.836419
1.842976
2.023578
2.162457
4.786849
25.320649
63.880682
155.026913
277.251601
500.441790
681.625605
847.596526
996.396542
1001.111865
885.069966
755.114555
553.636551
388.716459
216.157436
135.944486
82.498789
71.342587
81.782937
112.077594
135.326982
153.643489
161.466599
152.717829
138.104558
108.971596
88.013411
56.255460
40.191412
22.699833
14.569759
8.944869
7.072687
7.230639
6.778836
6.229877
6.918907
6.446838
6.273985
6.500483
6.945729
7.244945
6.800890
7.652640
7.737875
7.536411
8.082986
8.283854
8.306503
8.591413
9.071827
9.403825
9.862781
10.887980
11.968613
13.011694
14.033914
14.560819
16.397834
16.633868
17.647743
18.904805
18.836856
19.952655
19.954443
20.595789
19.999743
21.110773
20.502806
21.848679
21.593571
22.299886
23.206472
23.994446
24.321675
23.830533
23.679733
24.419427
24.360418
25.065541
25.584698
26.162863
##ZVALUE=270
1.205802
1.120567
1.151562
1.235604
1.219511
1.271963
1.468658
1.262426
1.374483
1.407862
1.432896
1.543760
1.754761
1.708865
1.933575
2.118945
2.633929
11.869669
36.113858
113.908648
215.659738
357.994437
616.482496
818.284750
1000.878811
1015.740037
1008.065939
903.721452
690.528750
519.347787
317.694545
192.562938
112.516880
63.627958
63.613653
88.659525
111.071467
139.186978
153.453946
160.247684
155.700445
136.620998
115.546584
83.174706
60.928464
36.930442
24.703741
14.585853
10.113716
8.129478
6.778836
6.661415
6.821752
7.269979
7.404685
6.774664
7.634759
7.555485
7.937551
8.567572
8.587837
8.666515
9.224415
9.220839
9.760857
10.300875
10.507703
10.832548
12.345910
11.962652
14.050603
15.388727
16.029477
17.001629
17.363429
17.530918
18.097758
18.581748
18.984675
19.546747
21.147728
20.052791
20.961761
20.658970
20.555854
21.349788
21.901727
22.538900
22.422671
22.914410
23.463964
23.500919
22.662878
23.700595
23.640990
24.231672
##ZVALUE=275
1.214743
0.992417
0.857711
0.981688
1.274943
0.963807
1.262426
1.200438
1.125932
1.198649
1.443624
1.388788
1.439452
1.453757
1.488924
1.605749
1.603961
1.731515
1.948476
5.069971
20.400882
58.285594
166.036487
310.162902
563.493967
753.803849
964.400768
1015.675664
1015.675664
1010.736823
879.720449
634.994507
445.396900
236.485600
141.329765
68.566799
50.863624
62.209964
80.901980
113.619566
135.946870
151.537657
161.153674
153.855681
137.332678
110.139847
87.545514
59.047937
42.745471
24.515986
17.002821
10.514855
8.641481
7.430911
7.291436
7.562637
7.432699
7.722974
7.772446
8.086562
8.271933
8.899570
9.388924
9.990931
9.945631
9.600520
10.937452
11.663437
11.787415
13.154745
13.814569
14.790893
15.809536
16.158819
17.148852
17.170906
17.507672
18.464923
19.584894
18.999577
19.860864
19.355416
20.405650
20.107627
20.233989
21.532774
21.214485
21.546483
21.293759
21.662712
22.372603
22.213459
22.003651
21.385550
21.299720
21.772981
##ZVALUE=280
1.151562
1.121759
0.869632
1.012683
1.116991
1.145601
1.072884
1.187921
0.910759
1.054406
1.346469
1.171827
1.083612
1.173615
1.377463
1.490712
1.370907
1.395941
1.830459
1.929998
2.122521
2.569556
12.890697
44.903755
141.384006
258.109570
467.379689
664.373636
906.840563
1015.681624
1015.681624
1015.681624
968.242884
718.328953
519.919991
286.142826
170.292854
78.105927
47.205687
42.596459
57.352781
84.693432
107.099414
134.879947
150.112510
155.934691
150.651932
132.918954
113.700628
83.425641
61.446428
39.183497
26.249886
15.672445
11.477470
8.923411
8.339882
8.232594
8.502603
8.760691
8.774996
9.066463
9.680986
9.791851
10.387897
10.752678
11.564493
11.773705
12.291670
13.482571
13.926625
14.694929
16.409755
17.230511
17.111897
17.592907
18.089414
18.296838
18.588901
19.053817
19.148588
19.105673
20.117760
20.110607
19.970536
20.550489
20.079613
20.719767
21.328926
21.433830
20.648837
21.114945
21.072626
21.335483
21.524429
21.285415
##ZVALUE=285
1.008511
0.997782
0.924468
0.776649
0.804663
1.025796
1.065731
1.010895
1.029968
1.277924
1.124740
1.166463
1.113415
1.160502
1.188517
1.367927
1.359582
1.536608
1.400709
1.574755
1.680851
1.876950
1.951456
2.266765
6.312728
21.831989
78.627467
167.215466
363.685489
555.379987
822.167993
1002.151966
1015.681624
1015.681624
1015.681624
861.916542
663.411617
400.316715
243.116021
111.702681
59.839487
33.244491
36.781430
56.065917
76.207519
105.356574
126.070976
143.662691
151.339769
148.373842
136.041641
111.195445
88.755488
61.643720
44.206977
26.139617
17.335415
11.880994
9.853840
8.914471
8.815527
9.571910
9.609461
10.187626
9.930730
11.547804
11.647940
12.463927
12.317896
13.763905
14.868975
15.152693
15.505552
16.202927
17.423630
18.581748
17.325878
18.973947
18.958449
18.882751
19.085407
19.685626
19.708872
20.566583
20.387769
20.256639
20.296574
20.787716
20.872951
20.760894
21.107793
21.556616
20.232797
20.543933
20.797849
20.822883
##ZVALUE=290
0.840425
0.898838
0.891685
0.798702
0.979900
1.023412
0.904799
1.102686
1.114607
1.147985
1.068711
1.202822
1.242757
1.020432
1.057982
1.281500
1.199841
1.260638
1.249909
1.526475
1.398921
1.503825
1.633763
1.592636
1.812577
1.910925
2.842546
8.385777
41.084886
102.808475
208.732486
433.455706
662.917495
983.021855
1015.693545
1015.693545
1015.693545
989.517570
803.387761
519.926548
338.953733
163.610578
86.191893
36.315918
26.156902
35.710931
49.859881
74.767470
95.719695
121.311545
138.346553
147.553682
145.190954
129.992962
112.515688
82.122684
62.536597
41.248798
28.413534
18.044710
13.689995
10.723472
10.993481
10.443926
10.883808
11.606812
11.554956
12.749434
13.408661
14.474988
14.743805
15.896559
16.803741
17.191768
17.695427
18.502474
18.464923
18.297434
18.852949
19.744635
19.762516
19.787550
20.221472
20.778775
20.937920
20.578504
21.743774
20.708442
21.022558
20.936728
20.891428
20.808578
21.327734
21.314621
20.700693
20.232797
##ZVALUE=295
0.986457
0.940561
1.067519
1.014471
1.038909
0.989437
0.856519
0.976920
0.930429
1.006722
0.970960
1.034737
0.971556
1.019835
0.925660
1.124740
1.173615
1.093745
1.234412
1.286864
1.242757
1.371503
1.474619
1.232624
1.694560
1.654625
1.965761
1.982450
2.355576
4.025698
14.534593
65.411925
153.326988
365.487933
584.256649
924.309492
1015.684009
1015.684009
1015.684009
1015.684009
985.459089
680.972934
461.308956
237.389803
127.507448
46.921968
24.947524
22.253990
30.409694
48.457980
66.258907
93.583465
113.322735
133.398771
142.027736
136.812925
127.249956
104.015470
85.079670
58.899522
43.722987
27.517676
20.579696
15.133619
13.311505
12.067556
11.768937
12.625456
13.826489
14.374852
15.029907
15.960932
17.073750
17.811656
18.255711
18.824935
18.825531
19.236803
19.546747
19.684434
19.825697
19.982457
21.048784
21.041632
20.448565
20.984411
21.106601
20.688772
20.401478
21.301508
21.203756
20.871758
20.568967
20.603538
20.462871
20.381808
##ZVALUE=300
0.778437
0.965595
0.852942
1.019835
0.888705
0.903606
0.898838
0.916719
0.891685
0.969768
0.910759
1.014471
0.981688
1.040697
1.003742
1.008511
1.015663
1.078844
1.025796
0.945926
1.130700
1.223683
1.290441
1.298785
1.447797
1.418591
1.690984
1.698732
1.901984
1.996756
2.347827
2.714992
9.920001
35.155416
123.593807
244.043469
496.409535
741.238594
1015.681624
1015.681624
1015.681624
1015.681624
1015.681624
942.670703
616.702437
397.025943
196.954608
102.408528
37.763715
19.277930
19.823909
27.325749
42.940974
59.756637
86.109638
105.154514
126.983523
133.599639
133.371949
123.087764
103.415847
84.905624
61.967969
46.413541
29.792786
22.943616
16.810894
15.136600
14.234781
15.261769
14.970899
16.597509
17.359853
17.461777
17.957687
18.913746
19.043684
19.293427
19.661784
20.623803
20.512938
20.871758
20.979643
21.329522
21.519661
21.652579
21.754503
21.931529
21.682978
21.048784
21.735430
21.503568
20.617843
21.252632
21.219850
20.803809
##ZVALUE=305
0.825524
0.914931
0.866652
0.868440
0.941753
0.862479
0.721812
0.808835
0.756979
0.805855
1.032948
1.058578
0.870824
1.154542
0.954866
0.912547
1.067519
0.994802
1.085997
0.787973
1.329780
0.914931
1.110435
1.156926
1.071692
1.484752
1.270771
1.515746
1.467466
1.410842
1.625419
1.660585
1.963973
2.299547
3.933907
22.550821
64.226985
186.206698
345.705748
641.526580
890.120864
1015.677452
1015.677452
1015.677452
1015.677452
1002.781987
801.947713
507.930517
315.466523
140.378475
66.657662
23.960471
15.415549
18.277764
26.064515
42.873621
59.877634
83.108544
101.434588
121.808648
127.944946
126.143694
118.602514
100.954771
83.559752
59.344769
45.561790
31.506419
24.016500
19.026995
17.533898
17.586946
17.341971
18.419623
18.815994
19.395947
19.208789
19.968748
20.330548
20.798445
20.987988
21.296740
21.711588
21.896958
22.632480
22.351742
21.989942
21.697879
21.983981
22.213459
21.209717
21.612644
20.897985
20.993948
21.147728
21.795630
##ZVALUE=310
0.816584
0.754595
0.814795
0.830889
0.845790
0.866652
0.822544
0.732541
0.877976
0.874996
0.795722
0.950694
0.810623
0.803471
0.908971
0.943542
0.906587
0.939965
1.046658
0.970960
1.034737
0.985861
1.094937
0.985861
1.256466
1.076460
1.114607
1.360774
1.232624
1.305938
1.400709
1.656413
1.633763
1.829863
1.916885
2.156496
2.422929
10.072589
32.876730
112.913847
226.044059
473.913550
716.515779
1015.681624
1015.681624
1015.681624
1015.681624
1015.681624
978.338718
633.078814
415.222645
195.984840
101.804733
37.299991
17.086864
13.107657
16.369820
24.888515
35.703778
54.475665
71.910620
96.415877
109.878778
120.685697
122.566819
113.780499
100.803971
82.039833
64.668655
44.860840
35.655499
26.539564
22.587776
20.177960
19.415617
19.199848
19.717813
20.138621
20.656586
20.721555
20.793676
21.529794
22.441745
23.117661
22.812486
22.797585
22.739768
22.885799
22.750497
22.841692
22.518635
22.028685
21.861792
21.532774
21.840930
21.725893
##ZVALUE=315
0.782609
0.750422
0.644922
0.740886
0.680685
0.694990
0.624657
0.561476
0.778437
0.829697
0.792742
0.742674
0.966787
0.770688
0.687838
0.831485
0.924468
0.780821
0.818968
0.825524
0.855923
0.903606
1.212955
1.128912
0.945926
1.067519
1.009703
1.152754
1.234412
1.372695
1.221895
1.282692
1.343489
1.547933
1.811981
1.866817
2.005696
2.145767
2.299547
5.373955
20.516515
83.004832
176.081657
395.001769
639.848709
997.145772
1015.573740
1015.573740
1015.573740
1015.573740
1015.573740
1015.573740
864.662528
426.811576
204.346776
61.071515
24.115443
12.443662
12.753606
17.153621
22.718906
36.717653
50.000548
71.577430
88.098645
108.722448
115.792751
117.437840
111.323595
95.832944
80.774426
61.753988
49.047470
35.094619
28.562546
23.199916
21.619797
21.040440
21.348000
21.502972
21.373630
21.993518
22.303462
22.877455
22.311807
22.737980
22.792816
22.862554
22.942424
23.543835
22.324920
22.459626
22.388697
22.380948
21.772981
22.194982
##ZVALUE=320
0.731945
0.857711
0.829697
0.797510
0.903606
0.901818
0.897646
0.889897
0.933409
0.768900
0.734925
0.918508
0.890493
0.802875
0.891685
1.015663
0.806451
0.903606
0.990629
1.065731
1.115799
0.947714
1.057982
0.999570
1.116991
1.061559
1.198649
1.169443
1.164675
1.109838
1.297593
1.235604
1.417994
1.317859
1.379848
1.613498
1.682639
1.958609
2.019405
2.030730
2.381802
3.121495
8.470416
43.357611
106.019974
274.891853
470.703840
815.751553
1015.681624
1015.681624
1015.681624
1015.681624
1015.681624
1015.681624
1015.681624
614.388585
349.390507
138.420463
56.905746
16.335845
11.878610
13.285875
15.476942
22.425652
31.695962
49.008727
65.795779
85.484982
99.603534
111.407638
111.890435
106.989741
97.447634
77.755451
62.753558
46.231747
37.502646
28.945804
25.342703
22.803545
22.644997
22.238493
22.695661
23.050904
22.721887
22.826791
23.255944
22.995472
23.874640
23.788810
23.553967
22.605658
22.954941
22.770762
23.136735
22.476912
##ZVALUE=325
0.700951
0.601411
0.773668
0.786781
0.659823
0.542998
0.757575
0.674725
0.801682
0.687838
0.662804
0.763535
0.759959
0.780821
0.753999
0.861883
0.820756
0.843406
0.760555
0.894666
0.815988
0.803471
0.944734
0.767708
0.984669
0.924468
0.879765
1.025796
1.116991
1.102686
1.130700
1.025796
1.198649
1.146793
1.389980
1.239777
1.303554
1.345873
1.427531
1.590848
1.467466
1.874566
1.862645
2.364516
5.234480
31.581521
81.059933
208.365917
370.987654
671.332479
920.189619
1015.616655
1015.616655
1015.616655
1015.616655
1015.616655
868.279934
536.484718
325.718522
139.633417
64.521432
20.233989
11.838675
11.010766
12.323856
16.309619
22.164583
32.927990
45.553446
67.206621
81.842542
98.116994
108.042955
108.819604
104.251504
88.701844
76.483488
59.464574
47.480464
35.619736
29.096603
25.044680
23.572445
22.693872
22.142529
22.745728
22.562742
22.571683
22.660494
22.850633
22.813678
22.640824
22.785664
23.012757
22.595525
22.660494
##ZVALUE=330
0.623465
0.654459
0.800490
0.876784
0.772476
0.748634
0.756979
0.764728
0.703931
0.729561
0.671744
0.673532
0.817776
0.733733
0.697970
0.880957
0.798702
0.774860
0.672936
0.748634
0.809431
0.811815
0.845790
0.868440
0.778437
0.821948
0.732541
0.966787
0.954866
0.872612
1.127720
0.963807
1.133680
1.132488
1.165867
1.096725
1.200438
1.183748
1.273751
1.418591
1.331568
1.549721
1.522899
1.847744
2.051592
1.911521
2.692938
12.848973
43.360591
144.215822
278.417468
545.773506
795.688629
1015.681624
1015.681624
1015.681624
1015.681624
1015.681624
888.343453
575.473905
374.673009
174.630880
87.169409
30.958652
15.132427
11.207461
11.639595
12.883544
16.385913
23.406744
31.721592
47.205687
61.613917
79.985857
92.429519
101.887584
104.072690
97.289681
87.830424
71.001649
58.984756
45.135617
36.458969
29.378533
26.447773
24.117827
23.418665
22.270679
22.330880
22.882819
22.360682
22.435784
22.149682
22.019744
21.522641
22.221804
##ZVALUE=335
0.602603
0.719428
0.747442
0.662804
0.666976
0.711679
0.820756
0.752807
0.766516
0.788569
0.704527
0.648499
0.933409
0.745654
0.764728
0.703931
0.846982
0.775456
0.847578
0.786781
0.955462
0.848770
0.856519
0.852942
0.741482
0.794530
0.866652
0.900626
1.047850
0.938773
0.927448
0.973940
1.182556
1.049638
1.052618
1.043677
1.054406
1.051426
1.062751
1.196861
1.381636
1.251698
1.350641
1.442432
1.470447
1.723766
1.687407
1.934767
2.169609
5.334616
19.664764
81.033707
173.319578
388.683677
620.363355
962.494612
1015.681624
1015.681624
1015.681624
1015.681624
991.885662
690.836906
477.032661
256.776810
136.225820
46.620965
21.087527
11.760592
11.567473
12.262464
13.458729
17.135739
22.163987
33.400655
44.332743
61.023831
74.584484
87.631941
95.775723
97.479820
92.839003
81.672668
70.582628
56.945682
47.581792
37.095547
31.438470
26.077628
24.158955
22.946000
22.219419
21.110773
21.429658
21.399856
21.388531
21.468997
##ZVALUE=340
0.715852
0.581741
0.655651
0.602603
0.585914
0.619888
0.731945
0.753999
0.721812
0.823736
0.810623
0.760555
0.504851
0.661612
0.643730
0.791550
0.575781
0.960827
0.719428
0.839829
0.565648
0.865459
0.703931
0.731945
0.913739
0.913739
0.805855
0.869632
0.862479
0.822544
0.935793
0.905991
0.795722
0.898838
0.951886
0.933409
0.886917
1.112819
1.042485
1.020432
1.173615
1.024604
1.150966
1.180768
1.318455
1.408458
1.414418
1.475811
1.651645
1.989603
1.766682
3.093481
10.083914
51.661730
122.705698
297.030807
482.911468
765.640736
977.162719
1015.681624
1015.681624
1015.681624
1015.681624
770.916939
543.020964
281.391740
152.516961
62.374473
26.668906
12.633801
11.885762
12.552738
12.787580
14.625788
17.238855
24.017692
31.197667
44.298768
55.316687
72.910786
83.690882
91.517568
92.294812
88.344812
80.066919
66.938996
56.375861
44.119954
36.315918
29.320717
25.554895
22.368431
21.670461
21.260977
20.636916
20.091534
##ZVALUE=345
0.686646
0.494719
0.656843
0.639558
0.678897
0.734925
0.754595
0.662804
0.653863
0.575781
0.624657
0.590682
0.745654
0.672936
0.705719
0.791550
0.737906
0.871420
0.854731
0.767708
0.733733
0.777841
0.692606
0.896454
0.659823
0.690818
0.849962
0.834465
0.802875
0.681877
0.937581
0.864863
0.786781
0.872612
0.754595
0.816584
0.851750
1.020432
0.943542
0.899434
1.017451
0.926852
1.174808
1.170635
1.121759
1.146793
1.247525
1.391768
1.332760
1.535416
1.391768
1.587868
1.957417
2.191663
4.084706
25.716424
78.467727
218.082666
382.575989
675.732493
925.288796
1015.681624
1015.681624
1015.681624
1015.681624
871.111751
637.997985
370.105505
210.105777
84.080696
39.889812
16.127825
12.449622
12.293458
12.449622
13.167858
14.521480
17.003417
21.461844
31.452775
40.620565
55.660605
66.061616
76.998472
83.536506
86.507797
84.392428
75.826645
66.932440
54.483414
44.488907
33.970475
28.619766
23.507476
21.349788
20.321608
##ZVALUE=350
0.637770
0.588894
0.691414
0.702739
0.670552
0.672936
0.731945
0.779629
0.714660
0.750422
0.785589
0.758767
0.640750
0.608563
0.651479
0.788569
0.730753
0.724792
0.774860
0.826716
0.819564
0.716448
0.741482
0.819564
0.877976
0.760555
0.692606
0.842810
0.889897
0.740886
0.772476
0.939965
0.800490
0.804663
0.912547
0.829697
0.785589
0.986457
0.954866
0.806451
0.887513
0.965595
1.069903
1.043677
1.001954
1.071692
1.072884
1.097918
1.238585
1.271963
1.345873
1.463890
1.503825
1.703501
1.785755
1.880527
2.712607
12.675524
42.242408
143.136978
280.232430
560.106635
806.822777
1015.681624
1015.681624
1015.681624
1015.681624
959.281921
706.813931
408.118963
247.415900
117.724538
57.945848
19.871593
12.359619
11.350513
11.480451
11.736751
12.536645
14.303923
16.067624
22.093654
27.716756
37.064552
46.535730
59.634447
68.642497
77.099800
79.674721
77.723861
70.913434
61.542988
52.318573
40.593743
33.919811
27.293563
##ZVALUE=355
0.619888
0.628829
0.727773
0.715852
0.676513
0.751615
0.847578
0.672936
0.625849
0.749826
0.729561
0.680685
0.778437
0.726581
0.609756
0.640750
0.595450
0.604987
0.782609
0.755787
0.736713
0.875592
0.923872
0.798702
0.795722
0.765920
0.829697
0.751615
0.862479
0.877976
0.783801
0.775456
0.860691
0.892878
1.019835
0.919700
0.994802
0.811815
0.965595
0.899434
0.868440
0.926852
0.927448
0.963807
0.999570
0.981688
1.208782
1.035929
1.319647
1.214743
1.299977
1.427531
1.317859
1.418591
1.515746
1.505613
1.616478
1.880527
2.130866
7.088780
25.371909
95.392466
195.623636
404.694676
622.708797
938.757658
1015.681624
1015.681624
1015.681624
999.771953
807.963610
505.634546
309.152007
131.672621
64.013600
22.544861
12.802482
10.954738
10.913610
11.117458
11.625886
12.251735
13.074875
15.491843
18.620491
25.168657
31.748414
43.345690
51.715970
61.459541
68.429708
71.620941
71.500540
66.041946
59.548616
48.502684
##ZVALUE=360
0.597835
0.742674
0.853539
0.730753
0.567436
0.747442
0.673532
0.625849
0.575781
0.553727
0.673532
0.598431
0.733733
0.808835
0.681877
0.776649
0.699759
0.731945
0.684857
0.711679
0.794530
0.671744
0.729561
0.897646
0.850558
0.757575
0.815988
0.885725
0.884533
0.836849
0.898838
0.871420
0.871420
0.856519
0.908971
0.806451
0.817776
0.898838
0.896454
0.857711
0.914931
0.994802
0.956655
0.998974
1.176000
0.915527
1.022816
1.015663
1.163483
1.111627
1.261830
1.166463
1.216531
1.357794
1.349449
1.468658
1.333952
1.549721
1.597404
1.894832
2.235770
2.813935
14.281869
46.774745
148.918629
283.647776
552.122593
798.006654
1015.681624
1015.681624
1015.681624
1015.681624
883.729458
655.094981
374.845862
224.984884
97.917914
42.242408
14.730692
10.713935
10.171533
10.656714
10.727644
10.952950
11.360645
12.175441
13.763905
16.067624
21.304488
26.452541
35.354495
43.901801
54.314733
60.332417
64.994693
65.133572
##ZVALUE=365
0.693798
0.793934
0.640750
0.607967
0.744462
0.755787
0.685453
0.737906
0.601411
0.777841
0.643730
0.703931
0.652671
0.629425
0.657439
0.723600
0.673532
0.724792
0.719428
0.742674
0.691414
0.690818
0.624657
0.808835
0.775456
0.758767
0.814795
0.831485
0.816584
0.881553
1.027584
0.806451
0.906587
0.907779
0.807643
0.868440
0.933409
0.964999
0.866652
0.826716
1.030564
1.000762
0.916719
0.876784
0.835657
1.009703
0.860691
0.947714
1.083612
1.042485
1.103878
0.957847
1.142621
1.271963
1.354814
1.192689
1.236796
1.503825
1.669526
1.656413
1.713634
1.897812
2.083778
2.348423
4.335642
26.003718
76.853633
221.165419
405.671597
723.966956
980.753899
1015.681624
1015.681624
1015.681624
1015.681624
748.729706
511.881709
276.852846
150.414705
57.163835
24.457574
10.770559
9.606481
9.553432
9.451509
9.799600
10.269880
10.274649
10.813475
12.147427
13.949871
18.331409
22.711754
30.624866
37.513971
47.464967
##ZVALUE=370
0.610948
0.693798
0.678897
0.699759
0.640750
0.651479
0.616908
0.576973
0.595450
0.694990
0.676513
0.571609
0.679493
0.721812
0.836849
0.688434
0.719428
0.791550
0.659823
0.725985
0.755787
0.580549
0.671744
0.821948
0.765920
0.808835
0.852942
0.891685
0.833869
0.788569
0.801682
0.735521
0.734925
0.889897
0.585914
0.803471
0.808835
0.901818
0.789762
0.714660
0.782609
0.801682
0.768900
0.753999
0.852942
0.998974
0.841618
0.795722
0.956655
0.916719
0.791550
0.891685
1.002550
1.198649
1.018643
1.078844
0.926852
1.155734
1.425743
1.185536
1.324415
1.431704
1.625419
1.633763
1.788735
1.917481
3.148913
10.060668
53.316951
129.814744
307.568908
494.822860
784.342885
995.295644
1015.681624
1015.681624
1015.681624
881.810784
566.892624
356.935859
164.789557
84.570646
32.697916
15.105605
8.981824
8.680820
8.680820
8.777976
9.011626
9.028912
9.547472
9.836555
10.908842
12.489557
16.127825
19.895434
##ZVALUE=375
0.677705
0.566840
0.614524
0.645518
0.562668
0.551939
0.685453
0.768900
0.551939
0.545979
0.668764
0.688434
0.532866
0.714660
0.634789
0.692606
0.648499
0.770688
0.707507
0.609756
0.672936
0.614524
0.676513
0.847578
0.707507
0.683665
0.642538
0.722408
0.796914
0.830889
0.871420
0.820756
0.738502
0.737906
0.755787
0.716448
0.832677
0.628829
0.849962
0.628829
0.761747
0.886917
0.807643
0.863671
0.675917
0.983477
0.858903
0.823736
0.889897
0.743866
0.721812
0.913739
0.763535
1.053810
0.943542
1.001954
0.972748
1.087785
1.132488
1.101494
1.122952
1.059771
1.307726
1.312494
1.501441
1.684427
1.781583
1.904964
2.296567
6.625652
23.003817
90.535879
193.513632
433.017612
676.642656
991.321802
1015.688777
1015.688777
1015.688777
985.895991
759.537816
453.766584
281.839967
136.521459
67.599416
22.316575
11.311769
8.276701
8.223653
8.142591
8.143783
8.585453
8.512735
9.013414
9.234548
10.203719
##ZVALUE=380
0.644922
0.536442
0.607967
0.631809
0.779629
0.839829
0.696778
0.613928
0.632405
0.671744
0.505447
0.565648
0.524521
0.635982
0.578761
0.613928
0.668764
0.644922
0.630617
0.634789
0.771880
0.652671
0.644922
0.632405
0.518560
0.500679
0.704527
0.833869
0.671744
0.619888
0.714660
0.811815
0.764728
0.692606
0.586510
0.723600
0.667572
0.838637
0.748634
0.749826
0.758767
0.852942
0.745654
0.816584
0.949502
0.835657
0.755787
0.888705
1.020432
0.931621
0.665784
1.117587
0.944734
0.864863
0.935793
0.938773
0.845790
0.992417
0.992417
1.052618
1.110435
1.092553
0.977516
1.196861
1.158714
1.355410
1.352429
1.629591
1.635551
2.034903
2.242923
3.706813
13.504624
65.558553
159.173012
378.645658
607.647896
944.539905
1015.681624
1015.681624
1015.681624
1015.681624
875.176787
597.407818
398.104787
196.338892
101.839900
34.631491
14.943480
8.386970
7.673502
7.446408
7.691979
8.045435
7.908940
8.164644
##ZVALUE=385
0.622869
0.602603
0.414848
0.571609
0.535846
0.518560
0.704527
0.555515
0.527501
0.495911
0.468493
0.617504
0.547767
0.689626
0.552535
0.655651
0.577569
0.513792
0.584722
0.601411
0.552535
0.800490
0.629425
0.613928
0.543594
0.620484
0.523925
0.542998
0.565648
0.703931
0.611544
0.611544
0.738502
0.633597
0.609756
0.725985
0.683665
0.677705
0.712872
0.609756
0.628829
0.705719
0.719428
0.675917
0.650883
0.736713
0.734925
0.723600
0.804663
0.882745
0.642538
0.665784
0.792742
0.746846
0.933409
0.721812
0.672936
0.774860
1.005530
0.912547
1.102686
1.040697
0.869632
1.148582
1.190901
1.158714
1.196861
1.466870
1.285672
1.755953
1.647472
1.978874
2.000928
2.529621
6.781816
41.060448
104.372501
263.198614
468.739867
811.767578
1015.614867
1015.684009
1015.684009
1015.684009
983.198881
683.403611
466.883779
246.831775
136.626959
55.734515
22.443533
8.552670
7.091761
6.782413
7.012486
6.923676
##ZVALUE=390
0.537634
0.611544
0.769496
0.584722
0.496507
0.620484
0.604987
0.639558
0.764728
0.708699
0.430942
0.687838
0.729561
0.739694
0.676513
0.696778
0.521541
0.600815
0.525713
0.611544
0.605583
0.579953
0.493526
0.706911
0.662804
0.742674
0.741482
0.829697
0.692606
0.731945
0.645518
0.656843
0.769496
0.593662
0.664592
0.706911
0.741482
0.733733
0.690818
0.718832
0.638962
0.746846
0.795722
0.669956
0.653863
0.674725
0.889897
0.843406
0.702739
0.874996
0.761747
0.700951
0.710487
1.009703
0.947714
0.889897
0.935793
1.019835
0.815988
0.749826
0.833869
0.842810
0.958443
0.994802
1.130700
1.152754
1.179576
1.393557
1.331568
1.482964
1.542568
1.553893
1.671910
1.560450
1.959801
1.923442
3.908873
16.189814
77.331662
177.792907
409.402847
636.780858
914.989710
1015.732884
1015.732884
1015.732884
1012.867689
852.787495
570.036769
379.679799
196.239948
101.211667
35.160780
14.729500
6.744862
6.516576
##ZVALUE=395
0.516772
0.611544
0.564456
0.508428
0.571609
0.753999
0.733733
0.604987
0.467896
0.709891
0.590682
0.635982
0.528693
0.679493
0.569820
0.674725
0.571609
0.616908
0.727773
0.600815
0.477433
0.605583
0.621676
0.668764
0.561476
0.510812
0.631809
0.606775
0.610948
0.642538
0.740886
0.701547
0.669956
0.663996
0.655651
0.764728
0.685453
0.687838
0.594854
0.718832
0.723600
0.741482
0.734925
0.791550
0.734925
0.865459
0.661612
0.576973
0.781417
0.826716
0.871420
0.796914
0.718832
0.696778
0.816584
0.826716
0.861883
0.803471
0.854731
0.826716
0.818968
0.761747
0.939965
0.972748
0.925660
1.138449
1.119971
1.117587
1.255870
1.414418
1.378655
1.353621
1.509786
1.592636
1.429915
1.718998
1.654625
1.777411
2.245903
10.240674
38.888454
136.158466
256.880522
481.952429
701.098442
991.812944
1015.681624
1015.681624
1015.681624
991.338491
771.709681
466.068983
281.834602
120.996833
57.670474
19.508600
##ZVALUE=400
0.467896
0.476837
0.552535
0.559688
0.374913
0.630617
0.570416
0.691414
0.433922
0.690818
0.620484
0.648499
0.734925
0.596642
0.632405
0.580549
0.642538
0.610948
0.573993
0.522733
0.626445
0.607967
0.542998
0.685453
0.648499
0.639558
0.706911
0.709891
0.591874
0.723600
0.625849
0.810623
0.633597
0.585914
0.684857
0.609756
0.556707
0.712872
0.582933
0.500679
0.684857
0.632405
0.545979
0.682473
0.832677
0.700951
0.621676
0.609756
0.675917
0.694990
0.555515
0.676513
0.733733
0.659823
0.657439
0.861883
0.842810
0.734925
0.900626
0.703931
0.901818
1.007915
0.825524
0.797510
0.937581
1.059771
1.136661
1.151562
1.062751
1.192689
1.222491
1.276731
1.238585
1.159906
1.198649
1.238585
1.290441
1.546741
1.516938
1.759529
2.021790
4.973412
18.833876
75.879693
163.861513
361.447930
553.042889
829.143524
1002.781987
1015.678644
1015.678644
936.433673
757.038593
506.171584
329.127908
162.217617
##END
