##TITLE=QP00601
##FORMAT=SPECTACLE-ASCII V-1.2
##DATA TYPE=ULTRAVIOLET SPECTRUM
##SECOND TYPE=ULTRAVIOLET SPECTRUM
##DATE=01/11/18
##TIME=19:12:36
##SPECTROMETER/DATA SYSTEM=SPECTACLE
##XUNITS=NM EM
##YUNITS=ENERGY
##YFACTOR=1
##FIRSTX=220
##LASTX=410
##NPOINTS=96
##3DDATA=Equidistant
##ZUNITS=NM EX
##FIRSTZ=210
##LASTZ=400
##ZPOINTS=39
##XYDATA=(Y..Y)
##ZVALUE=210
2.545714
2.237558
2.507567
2.493858
3.039837
2.866983
2.410412
3.471971
3.076792
3.323555
2.671480
3.080964
2.401471
2.271533
2.619624
2.827644
3.090501
3.294945
3.009439
3.608465
3.811717
3.838539
3.597736
3.540516
4.543662
4.565716
4.558563
4.552603
4.511476
5.053878
4.982948
4.483461
4.677773
5.010962
5.546808
5.650520
6.208420
6.475449
5.524755
6.419420
5.528927
5.775690
6.665587
7.483959
7.274747
8.230805
7.265806
6.904602
7.025599
7.465482
7.644892
8.021593
7.821918
8.223653
8.215904
8.941889
9.101629
8.240938
8.485913
6.807446
8.489490
9.231567
8.432865
10.765791
8.465648
9.746552
10.192990
11.438727
11.099577
14.866590
17.580986
19.520521
22.448897
24.813414
26.594996
24.852753
27.280450
26.738644
25.793910
23.847818
23.561716
20.216703
18.573999
16.060472
14.498830
12.100935
11.255741
9.925961
8.322597
8.579493
8.792877
9.469986
9.311438
9.198785
9.225607
8.422732
##ZVALUE=215
7.091761
6.758571
6.426573
5.585551
4.366636
4.970431
4.957914
4.872680
5.281568
5.398989
5.491972
4.797578
5.149841
4.406571
3.299713
3.085732
3.028512
2.862811
2.942681
3.120899
3.840923
3.646612
4.170537
4.087687
4.066825
4.421473
5.389452
5.102754
5.334616
5.208850
5.149841
5.218983
5.579591
6.247759
5.328655
5.899668
5.214810
6.524920
6.684661
6.292462
6.701946
6.366968
7.048845
7.476807
7.089972
7.853508
7.217526
7.266998
7.814765
8.935928
7.477999
8.613467
7.420778
8.044839
8.517504
9.363890
9.513497
8.708835
7.752776
9.691715
8.711815
10.144711
9.691715
8.627772
10.358691
10.908842
10.931492
11.828542
13.411641
14.922619
18.522739
20.489693
22.721887
26.577711
28.862953
29.179454
29.536486
26.851892
27.148724
24.486780
23.317933
19.800663
18.172860
15.540719
14.747977
11.551976
10.674000
9.993911
10.865927
9.292960
9.577870
9.048581
10.066628
8.312464
9.113550
9.753704
##ZVALUE=220
20.740628
22.463799
23.691654
21.800995
21.422505
18.343925
15.927553
13.114810
10.722876
10.557771
12.065768
11.967421
11.204481
9.072423
9.406805
8.101463
6.359816
4.999638
4.572868
3.974438
3.997684
4.057884
4.348755
4.239678
4.734993
4.830956
4.524589
5.415678
5.057454
5.089641
5.708933
6.249547
5.933642
6.166697
6.083846
6.359816
5.746484
6.898642
6.867647
6.438494
7.247925
7.147789
7.401705
7.063746
8.115768
7.547736
7.274747
7.402897
9.218454
7.956624
9.850860
7.949471
8.747578
8.925796
9.296536
8.634925
8.821487
9.363890
9.521842
9.001493
9.046793
10.029674
9.886622
10.221601
10.766983
10.397434
10.498762
11.779666
13.306737
15.356541
16.399622
18.780828
22.090673
23.901463
24.260879
27.159452
26.148558
29.751658
26.972890
26.689768
22.519827
22.439957
18.892884
17.834902
15.980601
14.117956
11.787415
10.959506
9.939671
11.171699
11.132956
10.473728
10.834932
10.568500
9.450912
10.063648
##ZVALUE=225
35.194755
38.020611
48.585534
59.762597
70.141554
70.237517
65.246820
53.940415
36.377907
30.815601
24.870634
23.430586
23.762584
26.382804
27.583838
25.927424
22.325516
19.585490
13.315678
8.800626
7.728934
5.283952
4.847646
4.585981
4.936457
4.441738
5.573630
4.772544
5.633831
5.555749
5.800724
5.955696
6.458759
7.477999
6.516576
6.458759
6.930828
8.104444
6.673932
7.192492
7.663965
8.325577
7.732511
8.087754
8.214712
8.297563
8.938909
9.150505
8.511543
8.944869
9.028912
9.686947
8.705854
9.674430
10.406971
9.059906
9.527802
10.582805
10.198951
10.408759
9.529591
11.583567
11.026859
11.258721
10.822415
11.869669
13.108850
12.513995
14.389753
16.802549
17.440915
20.611882
22.572875
25.160909
25.994778
25.337934
26.592612
27.294755
26.179552
26.562810
22.680759
20.867586
19.923449
19.132495
17.108917
14.328957
15.887618
14.912486
14.599562
12.863874
12.844801
12.694597
13.381839
14.176965
12.961626
12.771487
##ZVALUE=230
30.120611
34.977794
54.899454
90.088844
125.371814
153.447986
170.714855
176.463723
164.082646
129.929781
99.495649
71.355700
52.670836
46.488643
48.169494
50.998926
51.752925
49.358606
41.929483
38.468838
27.013421
18.783808
12.687445
8.953810
7.107854
5.277991
4.750490
5.752444
6.038547
5.640984
6.694794
7.373691
7.038713
5.354881
6.599426
7.736683
7.241964
8.172989
7.975698
7.708669
8.360744
8.046627
8.292794
8.614659
8.262992
9.443760
9.294748
9.202957
10.344982
9.268522
9.138584
9.318590
10.418892
9.845495
10.049939
9.898543
11.851788
11.279583
11.452436
11.006594
12.244582
12.919903
12.332797
12.253523
12.954473
14.465451
14.556646
15.844703
15.953779
18.245578
18.823743
24.207830
26.561618
27.321577
29.838681
29.664636
30.200481
31.311512
27.801991
25.866628
26.485920
24.981499
22.417903
22.566915
21.121502
20.406842
19.982457
18.625855
18.464923
18.793941
17.757416
17.673969
19.169450
18.821955
17.305613
19.989610
##ZVALUE=235
12.950897
13.559461
32.692552
60.123801
113.339424
166.071653
240.688920
297.120810
347.217917
353.959799
313.082933
262.786746
198.133588
135.715604
103.479624
76.326728
76.644421
81.049800
87.177753
87.127686
78.167915
69.164634
54.795742
39.880872
23.903847
19.050837
10.918975
8.991957
7.227659
6.773472
7.726550
6.715655
7.090569
7.621646
7.610917
8.437634
8.245707
9.064674
8.200407
8.928776
8.222461
8.489490
8.496642
8.574724
9.641647
9.416938
9.392500
9.592772
9.411573
10.688901
10.613799
10.046959
10.732412
10.816455
10.763407
11.951923
11.851788
13.193488
12.819767
13.878942
13.297796
13.038516
14.179945
16.311407
15.329719
16.309619
16.722679
19.509792
21.150708
24.189949
25.358796
28.260946
29.438734
30.900836
34.448504
34.891963
36.775470
35.241842
33.202767
32.623410
31.185746
32.036901
30.890703
27.888417
28.843880
30.110478
27.977824
26.257634
25.301576
25.985837
25.776625
25.606751
23.335814
25.546551
25.534630
26.092529
##ZVALUE=240
2.334714
2.776980
6.547570
20.656586
46.027899
91.202855
158.450603
271.074772
365.858674
484.324694
545.935631
569.043756
523.872972
413.808823
325.340629
237.947702
150.806904
113.585591
99.937916
103.414655
112.827420
120.680928
116.999745
103.020668
82.832575
68.515539
50.104856
31.588674
21.920800
14.255643
10.001659
9.297729
8.965731
9.751916
8.515716
9.575486
9.900928
9.049773
9.987950
9.920597
9.391904
8.982420
9.457469
8.486509
9.852648
11.088848
11.309981
11.566877
10.835528
11.540651
11.927485
10.961890
10.850430
11.985898
11.874437
13.871789
13.803840
13.105869
14.898777
14.505982
15.722513
14.574528
16.828775
16.766787
19.676685
19.976497
19.767880
22.197962
22.327900
28.155446
29.884577
33.374429
35.494566
37.424564
39.698482
40.594935
40.156841
42.677522
40.780902
40.596724
40.754676
38.638711
38.461685
33.810735
34.808517
34.653544
33.400655
34.276843
32.492876
34.584999
32.235980
32.967925
31.891465
31.878948
34.171939
31.367540
##ZVALUE=245
1.614690
1.806617
1.829863
1.715422
5.866885
15.022755
43.786764
90.764761
187.141895
290.043950
449.665785
575.171709
667.436719
706.162453
681.656599
572.328568
463.980436
312.563777
216.060877
135.333538
106.896758
103.244781
119.153857
132.181644
132.548809
130.284429
114.364624
96.936822
74.587464
53.245425
37.010908
22.771955
14.085770
9.165406
8.621812
7.476807
7.902980
7.671714
8.176565
8.502603
8.638501
8.958578
8.773804
7.760525
8.580685
8.733869
10.097623
9.050965
9.270906
8.809566
8.737445
9.521842
9.667873
10.334849
10.554790
10.374784
10.844469
11.982918
12.724996
12.763739
12.161732
14.385581
14.171600
15.197992
16.721487
17.267466
18.329620
18.713474
21.901727
22.845864
25.115609
30.043721
30.978918
34.663677
34.728646
37.158728
36.634803
35.833716
35.926700
35.429597
35.957694
34.688711
34.488440
34.157634
33.859611
33.017993
33.462644
32.499433
32.570958
33.815503
32.944679
33.003688
32.479763
34.674406
30.889511
31.517744
##ZVALUE=250
1.606941
1.905560
1.776814
1.825690
2.119541
2.254844
2.920628
9.369850
35.899878
72.140694
170.130730
274.013877
405.654907
586.627722
717.735887
827.950835
825.563669
743.310452
627.583861
423.617959
283.721685
188.023448
116.211772
96.412897
109.455585
124.285817
137.321949
146.034956
137.924552
125.335455
105.114579
79.242587
59.788823
35.709739
22.114515
12.826920
10.084510
8.375645
7.439852
7.736683
6.903410
7.603765
7.629991
8.410811
9.202957
7.746816
7.734895
8.773804
9.040833
9.077787
9.022951
8.240938
8.915663
9.555817
9.361506
10.197759
10.792613
10.212660
10.068417
10.745525
10.942817
11.358857
12.183785
13.789535
14.614463
14.702678
14.769435
17.502904
18.121600
20.662546
22.612810
25.251508
26.445985
29.439926
30.848980
32.675862
31.388998
33.450723
31.645894
31.988621
30.942559
30.922890
31.773448
30.190945
30.332804
30.829906
30.218959
30.379891
28.522611
30.152798
31.229854
29.762983
30.767918
31.185746
31.407475
31.142831
##ZVALUE=255
1.585484
1.310706
1.632571
1.666546
1.546741
1.724958
1.885891
2.120733
2.004504
5.700588
25.086403
58.216453
116.985440
250.453949
379.485488
608.022809
761.719942
919.341445
977.372527
931.457877
808.259845
643.264651
394.171476
249.365568
133.374929
98.688602
92.667937
106.013417
131.790638
144.949555
152.135491
145.168900
135.330558
109.073520
83.196759
54.891706
39.116740
22.981763
15.321970
9.976625
7.450581
6.640553
7.651448
7.505417
7.455945
7.596612
8.469820
7.995963
8.561611
8.111596
8.086562
8.238554
8.870959
8.722544
8.703470
9.473562
9.160638
9.361506
9.839535
9.972453
10.186434
10.999441
12.084842
12.601614
12.644529
12.957454
14.149547
16.048551
17.657876
17.888546
21.210909
23.160577
24.272799
26.846528
27.214885
27.734637
29.286742
28.869510
28.892756
29.226542
29.568672
27.381778
29.660463
29.158592
27.408600
27.725697
28.041601
27.213693
28.883815
28.848648
27.456880
28.235912
28.370619
28.415918
28.566718
29.972792
##ZVALUE=260
1.353621
1.290441
1.313686
1.399517
1.515746
1.652837
1.719594
1.740456
1.813769
2.188683
2.123713
3.137589
9.814501
39.030910
88.968873
205.622911
334.720016
570.157766
774.549842
1015.601754
1015.601754
1015.601754
1015.601754
914.828777
605.116487
404.939651
228.864551
137.133002
89.741945
87.794662
105.976462
134.144425
149.892569
159.087777
155.260563
136.342645
115.882754
86.164474
63.037872
40.717721
26.038885
15.011430
11.172891
8.684993
8.530617
8.043647
7.654428
8.529425
7.709861
8.538961
8.735657
8.622408
8.101463
9.396672
8.249879
9.378791
9.597540
9.870529
9.757876
10.135770
10.592937
10.521412
10.740757
12.171865
12.287498
12.658834
13.147593
14.346838
15.244484
17.702579
18.958449
21.695495
22.590756
23.060441
24.655461
25.963783
26.359558
26.378632
26.335716
26.476979
26.136637
26.518703
26.578903
26.070476
25.648475
26.465654
25.338531
27.104616
27.129650
25.630593
26.698709
25.640726
26.523471
28.458834
26.834607
27.705431
##ZVALUE=265
1.462698
1.281500
1.367927
1.344681
1.293421
1.730919
1.740456
1.453757
1.665950
1.587868
1.727939
1.738667
1.963973
2.383590
6.306767
22.212863
75.822473
149.085522
262.905955
507.751703
741.521716
1015.681624
1015.681624
1015.681624
1015.681624
1015.681624
873.183012
557.040572
362.849832
181.238651
106.469989
76.898932
86.826682
115.631819
137.567520
156.069994
162.172914
156.067610
137.663484
111.081600
87.010860
57.403445
40.020943
23.528934
16.767979
10.639429
9.190440
8.313656
8.524656
8.286834
8.400679
9.157658
9.128451
8.799434
9.239912
9.520650
9.900928
9.250641
9.423494
9.862781
10.652542
10.578632
10.441542
11.313558
11.436939
12.245774
12.625456
13.919473
15.289783
15.948415
17.894506
19.478798
20.163655
21.815896
22.251606
24.408698
23.427606
25.009513
24.504662
23.373961
23.660660
23.869872
23.408532
25.130510
23.740530
25.460720
24.370551
24.681687
25.213957
25.642514
25.549531
24.389625
25.919676
25.819540
25.067925
27.284622
##ZVALUE=270
1.278520
1.281500
1.070499
1.180768
1.108646
1.271963
1.514554
1.351833
1.455545
1.592636
1.797676
1.733899
1.755953
1.976490
2.041459
2.186894
2.775788
11.681914
34.809709
115.779638
225.404501
400.042534
714.588761
973.250866
1015.666723
1015.666723
1015.666723
1015.666723
1015.666723
838.931799
579.813719
303.891897
165.882707
76.768994
66.115856
90.824962
112.044811
142.683983
156.380534
164.970756
159.932971
136.958957
117.809772
87.375641
62.891841
38.215518
26.072860
16.770959
12.641549
8.784533
8.388758
8.763671
8.898973
8.585453
8.787513
9.472966
9.556413
9.543896
9.288788
9.190440
10.373592
10.592937
10.649562
10.975599
11.841655
11.694431
13.306737
13.548732
14.624596
16.294718
17.049909
18.472672
19.431710
20.411611
21.886826
22.129416
22.933483
22.833943
22.539496
21.887422
23.254752
23.468733
23.728609
22.679567
22.906661
23.077726
23.792982
22.476912
24.097562
23.063421
22.795796
23.066998
23.717880
23.822784
24.360418
24.286509
##ZVALUE=275
1.140833
1.005530
1.254678
0.990629
1.167655
1.410842
1.016855
1.304746
1.125932
1.399517
1.297593
1.689792
1.714826
1.527667
1.672506
1.727939
1.810789
1.804829
2.420545
5.903840
22.465587
66.452622
189.462900
353.912711
654.774904
898.694992
1015.602946
1015.602946
1015.602946
1015.602946
1015.602946
943.090916
667.268634
353.170037
202.029943
85.930824
56.405663
63.396692
81.955791
116.009712
134.580731
153.310895
161.100626
153.855681
141.143799
112.366676
88.560581
62.533617
45.020580
27.256608
18.077493
11.619925
9.975433
8.773804
8.981824
8.822680
9.018779
9.592772
9.798408
9.927750
10.129809
10.627508
10.543466
10.928512
11.147857
12.224913
12.798905
12.477636
14.114976
15.015602
16.668439
17.250776
17.977953
19.879937
20.646453
20.995736
21.342635
21.560788
21.602511
21.683574
22.261739
21.565557
21.250844
21.524429
20.813942
21.846890
21.649599
21.760464
21.787882
22.225976
22.338629
21.886826
22.244453
21.967888
21.300912
22.251606
##ZVALUE=280
1.057982
1.112819
0.929832
1.242757
1.060963
1.055598
1.064539
1.149774
1.035929
1.247525
1.379848
1.317859
1.348853
1.357794
1.629591
1.652837
1.576543
1.793504
1.784563
2.205968
2.381802
2.798438
15.082955
49.506426
153.352618
283.802748
530.270934
783.202648
1015.681624
1015.681624
1015.681624
1015.681624
1015.681624
1015.681624
849.663615
491.900444
296.139717
133.091807
65.818429
47.969818
57.440996
86.148977
109.687448
135.422945
150.228739
157.370567
151.761770
133.843422
112.751722
84.143877
63.306689
40.861964
28.504729
16.806722
12.446642
10.129809
9.800792
9.693503
9.765625
10.232925
10.430813
10.644794
11.049509
11.851788
12.354851
12.141466
13.238788
13.243556
14.271736
15.398860
16.214848
17.228723
17.754436
18.723607
20.321608
20.928979
20.656586
20.426512
21.397471
20.241737
20.753741
20.321608
20.776987
21.222830
20.945668
21.460652
21.189451
21.336675
21.353960
21.888614
21.794438
21.400452
21.834970
21.428466
21.419525
22.325516
##ZVALUE=285
0.978708
0.962615
0.990629
1.126528
1.038909
1.007915
0.980496
1.124740
1.070499
1.053810
1.114607
1.030564
1.275539
1.227856
1.298785
1.289845
1.439452
1.414418
1.615882
1.975894
1.796484
2.178550
2.148747
2.685785
7.593632
27.603507
93.751550
193.734765
417.400002
661.104918
945.478678
1015.591621
1015.591621
1015.591621
1015.591621
1015.591621
1006.129980
645.280480
401.370525
185.115933
92.892647
41.014552
38.563609
57.299733
78.530908
108.602643
127.252936
145.426989
153.276920
148.518682
135.142803
109.828711
91.023445
63.018799
43.260455
27.529001
18.916726
13.372898
10.936856
10.713935
10.365844
10.742545
11.219978
11.236668
11.587739
12.396574
13.163686
13.877749
14.573932
15.439987
16.015768
16.839504
18.716455
19.478798
19.035935
19.548535
19.937754
20.518899
20.483732
20.302534
20.504594
20.295978
20.386577
20.889640
20.313859
21.259785
21.356940
20.383596
21.106601
21.366477
21.035671
21.029711
21.209717
20.442605
21.188855
20.934939
##ZVALUE=290
1.051426
1.205802
1.041889
1.157522
1.052618
0.954866
1.192689
1.285672
1.211762
1.132488
1.067519
1.163483
1.296997
1.201630
1.341701
1.284480
1.355410
1.482964
1.483560
1.381636
1.599789
1.703501
1.768470
2.226830
2.060533
2.511740
3.280640
14.531612
45.942664
145.999789
283.477902
595.966578
902.643800
1015.681624
1015.681624
1015.681624
1015.681624
1015.681624
1015.681624
835.598707
553.736687
275.610685
137.587786
51.428676
30.853748
37.102699
51.496625
77.696443
99.180937
123.896599
138.098598
146.997571
146.263838
132.254958
111.075640
84.166527
63.834786
41.821599
29.986501
19.533634
15.125871
12.474656
11.554956
11.966825
12.417436
12.769699
13.059974
13.570786
14.932752
15.925765
16.451478
17.655492
18.945932
18.860698
19.261837
19.464493
19.725561
20.090938
19.915700
20.222664
20.415783
20.142794
20.544529
21.165609
21.194816
20.516515
20.754933
20.956993
21.671653
21.122694
20.688772
20.102859
20.053983
20.253658
20.889640
20.579696
##ZVALUE=295
0.973940
1.032948
0.960827
1.033545
0.928640
1.112819
0.908971
0.884533
1.042485
1.094937
1.086593
1.111627
1.181960
1.298785
1.179576
1.193881
1.250505
1.272559
1.272559
1.350641
1.402497
1.321435
1.565814
1.733899
1.716614
1.844764
2.057552
2.278686
2.910495
4.986525
18.080473
82.907677
198.035836
465.775728
757.580996
1015.623808
1015.623808
1015.623808
1015.623808
1015.623808
1015.623808
1011.325717
743.851662
396.644473
216.759443
77.311993
36.349893
24.828911
32.240748
49.960613
67.869425
95.356703
113.215446
133.747458
141.495466
138.847828
127.200484
105.064511
84.905624
59.866905
43.637753
28.936863
20.922422
16.071796
13.767481
13.068914
13.099909
13.816953
14.630556
15.790462
16.280413
17.121434
17.957687
18.878579
18.573999
19.325614
19.530654
19.363761
20.420551
20.110607
20.280480
21.467805
21.177530
20.547509
20.872951
21.228790
20.710826
21.320581
21.573901
21.629930
20.516515
20.540953
20.673871
19.990802
20.295978
20.562410
##ZVALUE=300
0.975728
0.865459
0.961423
1.094937
1.014471
0.890493
0.930429
1.021624
1.029968
1.011491
1.041889
1.099706
0.953674
1.230836
1.132488
1.208782
1.098514
1.159906
1.176596
1.266599
1.338720
1.470447
1.526475
1.452565
1.760721
1.794696
1.688600
1.993775
2.042651
2.187490
2.441406
3.006458
8.575916
51.073432
130.215883
341.871977
589.587688
989.221931
1015.681624
1015.681624
1015.681624
1015.681624
1015.681624
1015.681624
942.226648
518.382788
297.835469
128.170848
57.310462
23.097992
20.512938
29.895902
43.143630
64.984560
85.640550
111.107826
126.535892
135.501623
134.743452
122.768879
107.071996
81.998706
64.067841
44.381618
31.872988
22.052526
17.775893
15.685558
14.977455
15.703440
16.690493
17.548800
18.209815
19.495487
19.482970
20.244718
19.899607
20.611882
20.633936
20.004511
20.853877
21.275878
21.030903
21.438599
21.883845
21.767616
21.529794
21.483898
21.444559
21.461844
21.557808
21.022558
20.790696
20.435452
20.377636
20.445585
##ZVALUE=305
0.878572
0.833869
0.978708
0.971556
0.863671
0.867844
0.799894
0.852942
0.887513
0.840425
1.062751
1.021624
1.038909
0.945926
1.152754
1.197457
1.251698
0.945926
1.127720
1.171827
1.191497
1.229644
1.294613
1.320839
1.450777
1.424551
1.561642
1.815557
1.793504
2.066493
2.060533
2.343655
2.510548
2.785921
4.856586
28.797984
88.662505
266.039968
496.115685
931.561589
1015.681624
1015.681624
1015.681624
1015.681624
1015.681624
1015.681624
1015.681624
698.304772
426.884890
186.540484
89.239478
29.126406
17.253757
20.336509
27.596951
43.611526
60.663819
84.278584
102.553964
121.786594
127.731562
126.688480
119.361877
100.356936
83.522797
60.713887
45.483708
30.766726
24.250746
19.602776
18.266439
18.051863
18.391609
19.151568
18.979907
19.588470
19.667745
20.005703
20.630956
21.249652
21.576881
21.495819
21.756887
22.237897
22.159815
22.553802
21.931529
22.321939
21.952987
22.548437
22.191405
21.578670
21.634698
21.450520
20.168424
21.116734
##ZVALUE=310
0.983477
0.955462
0.987649
0.983477
1.053810
0.951886
0.987649
0.863671
0.803471
0.894666
0.926852
0.794530
1.043677
1.027584
0.997782
0.974536
1.327991
1.190901
1.269579
1.481771
1.420975
1.186728
1.335740
1.337528
1.255870
1.354814
1.528859
1.443624
1.528859
1.617670
1.613498
1.813769
2.047420
2.244711
2.324581
2.449751
3.072619
13.749003
48.168898
173.024535
350.732803
742.368698
1015.681624
1015.681624
1015.681624
1015.681624
1015.681624
1015.681624
1015.681624
956.376791
629.495978
305.231810
155.566931
52.506924
21.621585
14.442801
17.603636
26.662946
36.405921
56.349635
74.209571
96.708536
111.057758
121.843815
123.196840
115.006566
100.814700
80.813766
63.015819
46.548843
35.508871
26.992559
22.582412
20.890832
20.178556
20.510554
20.903945
20.594001
20.847917
21.021962
21.095872
21.075606
21.591783
22.399426
22.708774
22.365451
22.521615
22.307634
22.360682
22.407770
22.109747
22.172928
22.229552
21.824837
21.412969
21.820664
##ZVALUE=315
0.880957
0.830889
0.775456
0.811815
0.926852
0.876784
0.991821
0.934601
0.899434
1.104474
0.737906
0.898838
0.928640
0.786781
0.924468
0.877976
1.028776
1.095533
1.097918
1.044869
1.184940
1.093745
1.201630
1.218915
1.165867
1.138449
1.218915
1.487732
1.590848
1.579523
1.464486
1.657605
1.544952
1.720786
1.914501
2.055764
2.156496
2.622604
2.870560
7.010698
28.485656
121.331811
266.746879
598.289967
955.192447
1015.681624
1015.681624
1015.681624
1015.681624
1015.681624
1015.681624
1015.681624
840.358734
441.554785
235.459805
83.784461
33.323765
13.757944
13.593435
18.031597
24.646521
37.563443
51.348805
71.443915
88.678598
107.075572
117.283463
119.102001
111.975670
96.418858
81.101656
62.566996
48.928857
34.851432
28.879642
23.299456
22.030473
21.359921
21.050572
21.362901
21.691918
22.104979
22.711754
23.221970
22.735596
22.446513
23.069978
22.822618
22.612810
22.362471
22.665858
22.655725
22.587776
22.056699
21.784902
21.745563
##ZVALUE=320
0.860691
1.040697
0.869632
0.985861
0.774860
0.873804
0.949502
0.893474
0.796914
0.928640
0.709891
0.855923
0.934601
0.991821
0.774860
0.952482
0.835657
1.044869
0.962615
1.050830
1.199841
1.129508
1.049638
1.157522
1.223683
1.220703
1.090765
1.222491
1.215935
1.368523
1.281500
1.374483
1.493692
1.473427
1.683831
1.723766
1.845956
2.163649
2.178550
2.748966
2.497435
3.653765
12.390614
74.134469
182.246566
457.915664
754.152536
1015.662551
1015.662551
1015.662551
1015.662551
1015.662551
1015.662551
1015.662551
973.633528
552.412868
313.864946
129.265785
58.855414
18.942952
12.908578
13.485551
16.144514
23.263693
32.242537
49.962997
64.939857
86.152554
99.413991
112.524629
113.287568
108.701587
98.163486
79.120994
64.674616
46.454668
37.367940
28.921962
25.086999
22.632480
22.264719
22.073984
21.938682
22.411942
22.908449
22.615790
22.798777
23.115873
22.887588
22.656918
22.668839
22.755861
22.656918
22.560954
22.013783
21.671653
##ZVALUE=325
0.725985
0.695586
0.875592
0.806451
0.787973
0.799894
0.797510
0.976920
1.046658
0.796914
1.034737
0.841618
0.660419
0.863671
0.753999
0.814795
0.971556
0.763535
1.056790
1.095533
0.975728
1.038909
0.913739
1.014471
1.170635
1.125932
1.144409
1.148582
1.205802
1.379848
1.343489
1.385808
1.390576
1.564622
1.569986
1.543760
1.446605
1.861453
1.760721
2.286434
2.074838
2.345443
2.654791
2.830625
5.890727
40.582418
111.463666
294.604897
538.758636
976.696610
1015.681028
1015.681028
1015.681028
1015.681028
1015.681028
1015.681028
1015.681028
744.714737
437.855721
182.203650
83.001852
25.079846
13.610721
12.362599
13.059974
16.818643
23.027658
35.083890
47.835708
67.287683
82.531571
99.873543
107.051730
108.782649
102.697611
88.715553
76.818466
59.037805
47.636628
36.479831
30.227900
25.251508
23.304820
23.069978
22.723675
22.710562
22.971630
22.974610
22.911429
22.868514
22.709966
22.775531
22.476912
22.270679
22.141933
22.071600
##ZVALUE=330
0.798702
0.729561
0.935793
0.687838
0.803471
0.884533
0.788569
0.791550
0.794530
0.817776
0.877976
0.950694
1.084805
0.852942
0.949502
0.950694
0.991821
0.830889
1.007915
0.981688
0.922680
0.952482
1.080632
0.930429
1.125932
1.136661
1.092553
1.072884
1.153946
1.201630
1.274943
1.308918
1.267791
1.305938
1.517534
1.412630
1.390576
1.652837
1.697540
1.764894
1.959801
2.001524
2.047420
2.297759
2.380610
2.842546
3.837943
17.562509
57.853460
198.684931
390.540957
790.465474
1015.681624
1015.681624
1015.681624
1015.681624
1015.681624
1015.681624
1015.681624
1001.722813
677.171946
305.875540
145.096779
44.650435
18.392801
12.235641
12.548566
14.165640
17.126799
24.965405
33.341646
47.933459
62.641501
82.700849
93.497634
103.487968
103.298426
98.048449
87.847710
71.828961
59.093833
44.427514
37.287474
30.174851
26.505589
23.952723
22.879839
22.514462
22.556782
22.916794
21.807551
22.459626
22.612810
21.884441
21.690726
21.824837
##ZVALUE=335
0.718832
0.703931
0.769496
0.714660
0.783801
0.638962
0.937581
0.727773
0.757575
0.983477
0.949502
0.701547
0.659823
0.863671
0.826716
0.673532
0.746846
0.860691
0.869632
0.944734
1.003742
0.992417
1.017451
1.018643
1.145601
0.977516
1.014471
0.941753
1.017451
0.947714
1.112819
1.113415
1.161695
1.164675
1.199841
1.133680
1.320839
1.296997
1.206994
1.378655
1.554489
1.514554
1.676679
1.861453
1.968741
2.109408
2.147555
2.559423
2.925992
7.788539
30.689836
130.484700
282.060504
649.401546
989.580750
1015.681624
1015.681624
1015.681624
1015.681624
1015.681624
1015.681624
977.866054
673.658848
349.767804
182.311535
59.646964
24.315715
13.554692
12.839437
13.329983
14.909506
18.584728
23.180842
33.977628
44.994950
62.325001
75.718760
89.617968
96.250772
97.597837
94.374418
80.474615
70.795417
57.071447
46.261549
36.797523
30.681491
26.129484
23.778677
22.406578
21.727681
21.139979
21.103621
21.252632
21.144748
21.042824
##ZVALUE=340
0.674725
0.610948
0.769496
0.918508
0.746846
0.679493
0.672936
0.840425
0.745654
0.782609
0.864863
0.801682
0.736713
0.646710
0.858903
0.877976
0.861883
0.882745
0.753999
0.866652
0.852942
0.843406
1.037717
0.881553
1.000762
0.883937
1.080632
0.886917
1.101494
1.144409
1.086593
1.095533
1.043677
0.965595
1.141429
1.213551
1.127720
1.213551
1.273751
1.254678
1.362562
1.346469
1.485944
1.684427
1.764894
1.854897
1.973510
2.252460
2.503991
2.597570
2.608895
4.228950
14.710426
81.501007
206.897855
518.519878
872.880816
1015.687585
1015.687585
1015.687585
1015.687585
1015.687585
1015.687585
1015.687585
829.874873
437.606573
233.495831
84.101558
34.182668
14.718771
13.060570
13.604760
14.420748
16.062856
18.766522
25.092959
31.920671
45.379996
57.661533
73.970556
83.696842
91.788769
92.999935
87.148547
80.105662
67.393780
56.572556
44.716001
36.390424
29.512644
25.666952
22.768974
21.544695
20.870566
20.180941
20.816922
##ZVALUE=345
0.868440
0.826716
0.678897
0.808835
0.742674
0.685453
0.825524
0.750422
0.885725
0.873804
0.792742
0.921488
0.885725
0.903606
0.875592
0.942945
0.924468
0.746846
0.824928
0.790954
0.820756
0.825524
0.981688
0.808835
1.104474
0.982881
0.907779
1.016855
0.890493
0.998974
1.115799
0.994802
1.070499
1.220703
1.115799
1.094937
1.210570
1.404881
1.227856
1.265407
1.366735
1.385808
1.547933
1.667738
1.539588
1.798868
1.828671
2.018809
2.214909
2.230406
2.431870
2.961755
3.309846
3.517866
7.654428
54.493546
173.558593
492.734909
898.064971
1015.681624
1015.681624
1015.681624
1015.681624
1015.681624
1015.681624
1015.681624
1015.681624
625.198483
339.346528
125.208497
55.703521
20.674467
15.685558
15.012622
14.529824
15.282631
15.849471
18.912554
22.914410
32.366514
41.299462
56.660771
66.125989
78.085661
84.379911
87.453723
85.239410
76.354742
67.406893
54.677725
44.954419
34.714937
29.100776
24.938583
22.086501
20.492673
##ZVALUE=350
0.838637
0.823736
0.915527
0.848770
0.886917
0.923872
0.567436
0.820756
0.755787
0.829697
0.831485
0.768900
0.973940
0.755787
0.960827
0.872612
0.919700
1.021624
0.929832
0.847578
1.008511
0.923872
0.909567
0.916719
0.915527
0.882745
1.012683
1.004934
0.995994
1.061559
1.004934
1.127720
1.233816
1.095533
1.068711
1.082420
1.180768
1.152754
1.212955
1.369715
1.279712
1.339912
1.331568
1.245737
1.255870
1.539588
1.523495
1.531839
1.528859
1.792908
1.974702
2.171993
2.256632
2.550483
2.696514
3.096461
4.176497
20.155907
70.333481
250.891447
509.103537
996.573567
1015.681624
1015.681624
1015.681624
1015.681624
1015.681624
1015.681624
1015.681624
761.884451
439.132452
188.945532
85.553527
25.772452
14.724731
13.512969
13.270974
13.248920
13.627410
14.720559
16.988516
22.351742
28.359890
38.614869
47.608614
60.204864
69.355965
77.310801
79.892874
77.705979
72.275996
61.151981
53.231716
42.109489
34.397840
26.965737
##ZVALUE=355
0.865459
0.663996
0.916719
0.978708
0.984669
0.843406
0.859499
0.912547
0.823736
0.781417
1.031756
0.940561
0.863671
0.891685
0.886917
0.841618
0.998974
0.926852
0.953674
0.997782
0.825524
1.028776
1.032948
0.967979
1.026988
0.950694
0.935793
1.026988
1.069903
1.081824
1.067519
1.113415
1.140833
1.261830
1.087785
1.052618
1.246929
1.134872
1.068711
1.307726
1.270771
1.202822
1.492500
1.326799
1.559854
1.557469
1.437664
1.795888
1.720786
1.602769
1.840591
1.725554
2.007484
2.041459
2.204776
2.284646
2.597570
3.099442
3.434420
9.694695
34.337640
140.834451
306.186676
686.762929
1015.681624
1015.681624
1015.681624
1015.681624
1015.681624
1015.681624
1015.681624
969.660878
595.637560
247.579813
114.106536
37.889481
17.500520
12.855530
12.604594
12.629628
12.786984
13.518929
14.444590
16.500950
19.470453
25.820732
32.551885
43.243766
53.061843
62.725544
68.313479
72.972775
71.640611
65.172911
58.693886
48.744678
##ZVALUE=360
0.817776
0.878572
0.979900
1.015663
0.872612
0.964999
0.910759
0.820756
0.738502
1.040697
0.876784
0.870824
0.931621
0.970960
0.898838
1.265407
0.984669
0.831485
0.765920
1.006722
1.117587
0.819564
1.000762
1.083612
1.112819
0.976920
1.058578
1.110435
1.094937
1.176000
0.993609
1.212955
1.268983
1.216531
1.180768
1.253486
1.138449
1.302958
1.237988
1.362562
1.278520
1.254678
1.486540
1.281500
1.502633
1.634955
1.437664
1.688600
1.693964
1.766682
1.760721
1.655817
2.011657
1.988411
1.933575
2.289414
2.491474
2.420545
2.720952
3.071427
3.514886
5.372763
16.540885
78.382492
196.575522
510.254502
850.054026
1015.704870
1015.704870
1015.704870
1015.704870
1015.704870
1015.704870
1015.704870
890.665650
406.736732
197.002888
64.779520
25.283694
12.843609
12.245774
11.890531
12.237430
12.288690
12.301803
13.169646
14.453530
17.415881
21.258593
28.014779
35.482645
46.365857
53.863525
62.015653
65.094829
65.651536
##ZVALUE=365
0.692606
0.835657
0.916719
0.858903
0.880957
0.961423
0.829697
0.797510
0.800490
0.801682
0.914931
0.730753
0.745654
0.898838
0.876784
0.818968
0.789762
0.805855
0.846982
0.850558
0.708699
0.973940
1.014471
0.967979
1.076460
0.897646
0.848770
0.847578
1.002550
0.977516
0.959635
0.948906
0.971556
1.057982
0.994802
1.163483
1.056790
1.086593
1.080632
1.138449
1.246929
1.069903
1.121759
0.991821
1.146793
1.274943
1.333952
1.360774
1.285672
1.490712
1.476407
1.329780
1.458526
1.509786
1.664758
1.777411
1.888871
2.025962
2.170801
2.256632
2.548695
2.785921
2.969503
3.654957
6.892681
39.846897
115.973949
324.696898
591.398478
1001.732945
1015.681624
1015.681624
1015.681624
1015.681624
1015.681624
1015.681624
989.250541
563.464761
302.033424
105.599761
40.229559
13.511777
11.032820
10.682940
10.893941
10.810494
11.252761
11.161566
11.481643
12.924671
14.172792
18.927455
23.382902
31.264424
38.523674
48.004985
##ZVALUE=370
0.776649
0.825524
0.683665
0.749826
0.905991
0.758767
0.743866
0.750422
0.904799
0.768900
0.834465
0.655651
0.799894
0.786781
0.842810
0.834465
0.813603
0.968575
0.796914
0.795722
0.782609
0.909567
0.802875
0.900626
0.945926
1.076460
0.859499
0.907779
0.896454
0.923872
0.944734
0.921488
0.876784
1.026988
0.947714
1.095533
0.984669
0.966787
0.957847
1.149774
0.985861
1.029968
1.186728
1.052618
1.325607
1.272559
1.304746
1.416802
1.217723
1.220703
1.197457
1.248717
1.375675
1.365542
1.354814
1.535416
1.621842
1.647472
1.735687
1.758933
1.926422
2.268553
2.432466
2.692938
2.745986
3.298521
4.409552
22.189617
76.982975
259.893537
495.525599
949.859023
1015.671492
1015.671492
1015.671492
1015.671492
1015.671492
1015.671492
1015.672088
739.357471
409.539938
149.374008
58.963895
18.997788
11.277795
10.336637
10.127425
9.862781
9.904504
9.990931
9.983778
10.629892
11.320710
13.418794
15.396476
20.351410
##ZVALUE=375
0.762939
0.693798
0.643730
0.842810
0.718832
0.736713
0.838637
0.964999
0.650883
0.733733
0.679493
0.671744
0.715852
0.862479
0.791550
0.844598
0.718832
0.849962
0.745654
0.756979
0.795722
0.863671
0.709891
0.918508
0.857711
0.946522
0.737906
0.795722
0.793934
0.895858
0.824928
0.855923
0.803471
0.966787
1.007915
0.940561
0.863671
1.002550
1.007915
0.919700
0.949502
1.108646
1.035929
0.965595
0.977516
1.047850
1.065731
0.928640
0.945926
1.198649
1.207590
1.163483
1.355410
1.391768
1.337528
1.451969
1.513958
1.444817
1.341701
1.449585
1.598597
1.579523
1.661777
1.961589
1.963973
2.282858
2.425909
3.036857
3.734827
10.818839
38.622618
145.971775
320.785642
741.037726
1015.682817
1015.682817
1015.682817
1015.682817
1015.682817
1015.682817
1015.682817
985.762477
652.325749
297.890902
137.817860
36.194921
13.825893
9.629726
9.480715
9.197593
9.175539
9.128451
9.123683
9.396672
9.649992
10.257959
##ZVALUE=380
0.825524
0.797510
0.951886
0.814795
0.713468
0.703931
0.718832
0.699759
0.641942
0.588894
0.677705
0.676513
0.668764
0.760555
0.739694
0.727773
0.815988
0.674725
0.862479
0.818968
0.674725
0.792742
0.774860
0.521541
0.784993
0.691414
0.706911
0.856519
0.899434
0.788569
0.926852
0.989437
0.938773
0.841618
0.853539
0.822544
0.907779
0.943542
0.968575
0.915527
0.932813
1.023412
0.821948
0.985861
0.941753
1.150966
1.090765
1.251698
1.035929
1.022816
1.102686
1.030564
1.255870
1.194477
1.058578
1.288652
1.306534
1.284480
1.312494
1.271963
1.419783
1.343489
1.689792
1.572967
1.761913
1.921654
1.989603
2.282858
2.596974
3.259778
3.678799
6.408691
25.556684
131.684542
300.337672
686.878562
1015.676856
1015.676856
1015.676856
1015.676856
1015.676856
1015.676856
1015.676856
1015.676856
927.623510
489.966869
258.897543
81.230998
26.473999
10.058880
8.667707
8.390546
8.295774
8.322597
8.495450
8.487701
##ZVALUE=385
0.889897
0.962615
0.957847
0.871420
0.783801
0.912547
0.798702
0.915527
0.915527
0.990629
0.819564
0.757575
1.067519
1.012683
0.886917
0.756979
0.913739
0.808835
0.873804
0.869632
0.891685
0.911951
0.883937
0.933409
1.062751
0.921488
1.016855
0.950694
0.947714
0.942945
0.881553
0.853539
0.996590
0.884533
1.090765
1.091957
1.043677
1.148582
1.117587
1.057982
1.132488
1.066923
1.214743
0.991821
1.067519
1.025796
1.176000
1.086593
1.186728
1.212955
1.292825
1.106858
1.470447
1.493692
1.374483
1.342893
1.321435
1.407862
1.412630
1.411438
1.579523
1.599789
1.510978
1.681447
1.847744
1.873970
2.023578
2.302527
2.591610
2.765656
3.126860
3.554821
3.622770
4.472733
11.415482
64.588785
171.977878
453.271866
816.219449
1015.893817
1015.893817
1015.893817
1015.893817
1015.893817
1015.893817
1015.893817
1015.893817
681.244731
424.662828
190.837979
74.676871
15.170574
8.580685
7.921457
8.011460
7.836819
##ZVALUE=390
0.702739
0.581741
0.679493
0.691414
0.737906
0.676513
0.578761
0.703931
0.702739
0.613928
0.816584
0.664592
0.731945
0.841618
0.669956
0.722408
0.668764
0.666976
0.818968
0.656843
0.780821
0.817776
0.830889
0.610948
0.687838
0.764728
0.740886
0.793934
0.852942
0.737906
0.752807
0.723600
0.704527
0.927448
0.829697
0.801682
0.766516
0.684857
0.764728
0.849962
1.037717
0.867844
0.894666
0.829697
0.870824
0.924468
1.093745
0.675917
1.003742
0.950694
1.065731
1.093745
0.982881
1.047850
1.018643
1.134872
1.024604
1.086593
1.188517
1.140833
1.208782
1.248717
1.475811
1.520514
1.520514
1.526475
1.727939
1.711845
2.098680
2.264977
2.462864
2.560616
2.688766
2.727509
2.791882
3.227592
5.776882
36.711693
113.038421
350.410938
660.764575
1015.681624
1015.681624
1015.681624
1015.681624
1015.681624
1015.681624
1015.681624
1015.681624
731.686950
409.225821
163.420439
75.120926
22.708774
9.735823
7.405877
##ZVALUE=395
0.648499
0.669956
0.575781
0.568628
0.460744
0.600815
0.700951
0.479817
0.645518
0.544786
0.416636
0.718832
0.468493
0.659823
0.658631
0.670552
0.587702
0.737906
0.629425
0.506639
0.551939
0.488758
0.749826
0.585914
0.635982
0.534654
0.673532
0.574589
0.554919
0.589490
0.603795
0.763535
0.641942
0.601411
0.787973
0.733733
0.721812
0.748634
0.680685
0.917912
0.848770
0.876784
0.856519
0.848770
0.806451
0.772476
0.770688
0.892878
0.729561
0.885725
0.785589
0.864863
0.828505
1.020432
0.815988
0.990629
1.007915
1.064539
1.048446
0.953674
1.033545
0.923872
1.070499
1.204610
1.365542
1.261830
1.516938
1.586676
1.637936
1.964569
2.173781
2.328753
2.127886
2.310872
2.448559
2.453923
2.532601
2.971888
3.543496
19.880533
80.705881
282.604694
522.516966
960.099697
1015.607715
1015.607715
1015.607715
1015.607715
1015.607715
1015.607715
1015.607715
850.986838
520.544648
220.250487
102.028847
31.615496
##ZVALUE=400
0.676513
0.645518
0.635982
0.582933
0.579953
0.641942
0.703931
0.733733
0.667572
0.763535
0.808835
0.713468
0.643730
0.700951
0.554919
0.670552
0.841618
0.574589
0.623465
0.536442
0.667572
0.680685
0.706911
0.720620
0.810623
0.729561
0.675917
0.728965
0.741482
0.613928
0.796914
0.719428
0.704527
0.718832
0.684857
0.665784
0.762939
0.845790
0.837445
0.858903
0.837445
0.777841
0.831485
0.777841
0.785589
0.926852
0.930429
0.843406
0.951886
0.959635
0.809431
1.011491
1.217723
0.900626
0.917912
0.961423
1.031756
1.087785
1.130700
1.041889
1.118779
1.203418
1.274943
1.260638
1.342893
1.346469
1.459718
1.599789
1.786947
2.119541
2.139807
2.257824
2.260804
2.095699
2.209544
2.203584
2.159476
2.454519
2.520680
2.723932
3.330708
9.467602
37.374496
146.078467
316.320658
699.677467
1015.681624
1015.681624
1015.681624
1015.681624
1015.681624
1015.681624
1015.681624
977.257490
638.451576
305.098891
##END
