##TITLE=QP00652
##FORMAT=SPECTACLE-ASCII V-1.2
##DATA TYPE=ULTRAVIOLET SPECTRUM
##SECOND TYPE=ULTRAVIOLET SPECTRUM
##DATE=01/11/18
##TIME=19:29:41
##SPECTROMETER/DATA SYSTEM=SPECTACLE
##XUNITS=NM EM
##YUNITS=ENERGY
##YFACTOR=1
##FIRSTX=220
##LASTX=410
##NPOINTS=96
##3DDATA=Equidistant
##ZUNITS=NM EX
##FIRSTZ=210
##LASTZ=400
##ZPOINTS=39
##XYDATA=(Y..Y)
##ZVALUE=210
2.550483
2.325773
2.344847
2.808571
3.003478
3.306866
3.125668
3.283620
3.364682
3.414750
3.136992
3.218651
2.807975
3.198981
3.732443
3.552437
3.221631
3.741980
3.519654
4.215837
4.130602
4.514456
4.229546
4.906654
5.726814
5.826950
5.293489
4.999638
5.213618
5.926490
6.051660
5.692840
6.925464
6.905794
6.881952
6.526709
6.235838
6.288886
6.347895
6.416440
6.722808
7.331967
7.036924
6.656647
6.703734
7.752776
7.447600
7.602572
7.871985
7.823706
7.136464
8.309484
7.653832
8.331537
8.319616
8.715987
8.120537
8.249879
8.305907
7.535815
7.508993
8.663535
7.958412
7.943511
8.903742
9.585619
9.426475
11.286736
12.818575
14.455914
17.321706
18.627644
22.254586
24.134517
28.830767
30.762553
29.408932
30.723810
33.367872
32.818913
31.527877
30.906796
26.641488
22.816658
17.403960
14.540553
12.019873
10.091662
7.894635
7.823706
8.707643
8.441806
8.991957
8.683801
8.356571
8.124709
##ZVALUE=215
9.871721
8.854866
8.004904
7.177591
5.824566
5.832911
4.541874
6.334782
5.802512
5.824566
6.302595
5.489588
4.622936
4.952550
4.079938
4.141927
4.112720
4.064441
4.067421
4.034638
4.983544
5.150437
5.008578
5.269647
4.941821
4.883409
5.817413
5.960464
4.790425
5.996823
6.006956
6.361604
5.671978
6.253719
6.303787
7.599592
7.046461
6.489754
7.375479
6.654859
7.073879
6.971955
6.777644
7.080436
7.202625
7.119775
8.327961
7.263422
7.452965
8.049607
7.027984
7.692575
7.195473
8.181930
7.736683
7.425547
7.705688
7.076859
7.426739
8.510947
8.265972
8.442998
9.352565
7.998943
8.406639
8.168817
9.734631
10.772943
11.126995
13.139844
14.660954
17.585754
18.401742
21.433830
24.995804
25.055408
24.960637
25.331974
25.875568
25.525689
23.698807
20.205975
18.387437
15.980601
14.379621
11.359453
9.482503
9.692907
7.986426
7.198453
7.714629
7.186532
6.867647
7.226467
8.789897
7.754564
##ZVALUE=220
27.231574
26.552677
28.747916
29.085875
24.858713
20.204782
17.952919
12.995601
12.205839
10.738969
11.650920
12.866855
12.499690
11.255741
9.930730
8.816719
6.362796
5.219579
4.936457
4.494786
4.067421
4.726648
4.076958
4.570484
5.023479
5.161762
5.686879
5.480647
5.149841
4.571676
6.336570
5.660653
6.710887
5.771518
5.642772
5.542636
5.594492
6.096959
6.407499
6.110668
6.236434
6.422997
6.544590
7.585883
7.075667
6.222725
5.928874
6.674528
6.800890
7.053614
6.722808
6.552935
6.784797
7.415414
6.472468
7.197857
7.405877
7.639527
7.042885
7.169843
7.928610
7.004738
7.549524
7.148981
8.368492
7.504821
8.026958
8.356571
10.001659
10.429621
12.189746
14.816523
14.536977
17.210841
19.822717
21.438599
19.323826
19.162893
17.273426
16.761422
16.079545
14.018416
12.642741
10.435581
9.243488
9.519458
8.474588
8.807778
8.240938
7.763505
7.464886
7.226467
7.019639
6.206632
7.342696
7.945895
##ZVALUE=225
47.008991
47.695637
65.750480
81.704855
92.209578
92.746615
83.801746
66.364408
48.375726
34.294724
27.267933
23.744702
26.500821
25.669932
27.757883
24.986863
23.532510
19.079447
12.319684
10.630488
7.419586
5.092621
4.984736
5.153418
5.677938
4.888773
4.900694
6.244779
5.818605
5.024672
5.302429
5.608797
6.611943
6.296635
5.782843
6.353855
6.001592
6.071925
6.175637
5.903840
6.127954
5.358458
6.002784
6.064773
5.251765
6.729960
5.822778
6.477833
6.064773
6.732941
6.957650
6.777644
6.791949
6.545782
7.833838
7.242560
7.071495
7.031560
6.821752
6.561875
7.338524
7.449985
6.959438
7.246733
8.117557
7.109642
8.420944
9.114742
10.762811
11.107922
12.325644
12.796521
15.286803
14.988780
16.617775
17.455816
16.531944
16.031861
13.748407
13.819933
12.798905
13.467669
12.107491
11.172891
9.964705
9.897947
8.616447
8.849502
8.823872
9.345412
8.572936
7.679462
8.168817
8.813739
6.701946
8.003712
##ZVALUE=230
37.555695
41.068792
64.913630
107.817650
142.604709
175.754428
189.302564
185.321569
165.265799
141.367912
93.923807
66.956878
50.663948
45.176744
45.846701
50.160885
52.670836
52.185655
45.962930
37.442446
28.837919
19.142628
13.732910
8.686781
6.462932
5.955696
5.956888
5.919933
6.873608
6.468892
6.318688
6.778836
6.916523
6.428957
6.969571
8.077621
7.428527
6.678700
6.696582
6.273985
8.068681
6.872416
7.364750
8.337498
6.003976
6.834865
8.130670
8.597970
8.001924
7.876754
8.297563
7.516742
8.443594
7.677674
9.169579
8.542538
9.304881
9.504557
8.804798
9.520650
9.882450
9.964705
10.126829
9.745955
10.550618
10.104775
10.182858
12.782812
13.033748
13.230443
16.092658
17.332435
18.519759
20.454526
21.740794
19.734502
18.942952
19.315481
18.779635
16.967654
15.818477
16.099811
14.642477
14.608502
13.323426
14.024973
12.747645
12.397766
11.813641
13.539791
12.134910
11.913776
12.696981
11.383891
11.431575
11.971593
##ZVALUE=235
13.769865
14.370680
46.206713
91.117620
183.178782
262.423754
380.301476
442.200899
461.246967
429.489017
339.903831
271.210670
195.703506
128.215551
93.852878
74.421763
75.460672
79.614520
87.436438
84.027648
79.460740
68.792701
52.477717
38.066506
24.649501
17.565489
10.445714
7.833838
6.303787
6.542802
6.196499
7.015467
6.744862
7.509589
7.545948
7.141829
6.734729
7.409453
5.871654
7.251501
6.521940
7.454753
6.492734
6.899834
7.315874
6.907582
6.475449
7.466674
7.022619
7.086992
6.969571
7.465482
7.452965
8.346438
7.521510
7.339716
7.036924
8.637905
9.225607
8.871555
9.483695
9.136796
9.800792
10.770559
10.064840
11.309981
12.173653
11.683702
12.309551
13.192892
16.393661
14.449954
16.798973
18.618703
20.639896
20.138621
18.774867
17.158985
17.609000
18.434525
17.854571
17.458797
16.423464
17.065406
15.272498
15.883446
15.060902
13.729930
14.648438
13.315678
15.349984
13.930798
13.026595
14.485717
13.217926
13.889670
##ZVALUE=240
2.292991
2.151728
5.829930
16.318560
39.309859
73.380470
142.284632
214.118958
330.276489
413.696766
500.811934
505.368710
482.800007
381.070971
287.446976
178.580880
134.911537
101.244450
94.734430
103.478432
113.969445
120.733976
115.051866
106.583834
82.906485
65.805912
45.340657
32.019615
19.114614
12.013912
8.501410
6.202459
5.671978
6.077886
6.099939
5.242825
5.982518
5.591512
5.814433
5.780458
6.213784
6.969571
5.857944
6.529689
5.643964
7.216930
6.335974
5.554557
6.959438
6.831884
6.361604
6.931424
7.805824
7.908940
7.680655
7.731915
8.814931
8.456707
9.428859
9.809732
9.075999
9.710789
10.100603
10.541677
9.888411
11.690855
12.410879
13.118982
12.918711
15.294552
17.396808
18.863678
21.064878
20.808578
21.673441
23.340583
24.014711
23.034811
22.091866
21.868944
20.778775
20.707846
21.449924
19.552708
18.089414
19.053817
18.708706
18.228889
18.395782
17.623901
19.477606
19.084811
19.162893
19.140840
18.600821
17.277598
##ZVALUE=245
1.915693
1.611710
1.918674
2.222657
5.104542
12.626648
38.163662
77.041984
173.800588
284.202695
407.695770
596.644878
683.419704
745.232701
707.083941
618.960857
453.382730
324.651003
192.458630
126.794577
100.736618
99.700689
117.369890
126.832724
133.478642
128.630996
114.331841
93.480945
76.877475
50.879717
36.192536
21.008849
13.143420
7.674694
7.252693
5.974770
5.810857
5.785823
6.532669
6.365776
6.033778
6.527901
6.117821
6.755590
6.933808
8.035898
6.932616
6.904602
7.308722
7.204413
7.515550
7.514954
7.230639
7.249713
8.196831
8.391738
7.248521
8.703470
9.464622
7.976890
8.775592
9.292960
10.070801
9.792447
10.547638
11.379719
11.434555
13.239980
13.437867
14.099479
16.287565
16.864538
18.155575
21.811724
22.290945
22.705793
24.509430
22.242665
24.832487
24.816990
21.731853
22.692680
23.465753
21.529794
21.071434
20.132661
18.748641
19.365549
18.754601
18.502474
18.103719
19.078851
17.842650
18.479824
16.574860
17.564893
##ZVALUE=250
1.839995
1.977682
1.895428
1.957417
1.969934
1.804829
2.937913
7.739663
31.597614
63.981414
159.943700
278.385878
410.870910
601.434708
715.476871
786.097646
764.061809
666.448474
557.670593
370.742679
258.709788
171.731710
107.744932
94.894767
107.527971
126.227736
137.774944
141.707659
133.479834
124.999881
105.492473
79.491735
58.192611
35.542846
23.654699
12.389421
9.004474
7.608533
5.833507
6.898642
6.441474
6.937981
6.657839
6.467700
6.567836
6.766915
6.866455
6.888509
7.038713
6.335974
7.364750
7.065535
7.336736
7.554889
7.498860
7.620454
7.564425
7.242560
7.657409
8.053780
8.186698
8.544922
8.835793
9.761453
8.775592
9.533763
9.973645
10.984540
11.917949
13.842583
14.643669
15.629530
16.137958
17.177463
17.619729
16.937852
17.894506
18.713474
18.676519
18.492937
19.479990
18.250942
18.426776
18.233657
17.517805
16.912818
17.658472
18.007755
17.879605
18.235445
18.141866
17.103553
17.511845
17.626882
18.242598
17.542839
##ZVALUE=255
1.523495
1.538992
1.771450
1.645684
1.600981
1.671910
1.942515
1.779795
2.057552
2.931952
17.326474
42.644739
112.003684
206.252933
381.732583
542.023778
747.262836
854.409933
892.500877
833.336711
722.924471
532.001853
378.334522
214.808583
133.257508
91.079473
88.984966
109.736919
126.445889
145.521760
150.370002
143.709779
133.296847
105.343461
84.058642
54.114461
37.960410
19.197464
13.138652
8.240938
6.770492
5.962849
5.496740
5.187988
5.428791
6.315708
5.400777
5.542636
5.662441
5.854964
6.220937
5.998611
6.210804
6.280541
7.094741
6.707907
6.123781
7.175803
6.758571
7.510781
7.773638
7.303953
7.693768
8.066893
9.264946
9.067655
8.282661
9.703636
10.459423
11.864901
11.994839
13.203621
14.118552
14.978647
15.330911
16.274452
16.129613
16.405582
16.202927
15.983582
15.568733
16.611814
16.186833
16.269684
15.788674
15.748739
16.049743
15.887618
16.262531
16.981959
15.847683
16.610622
17.577410
17.451644
16.906857
16.896725
##ZVALUE=260
1.334548
1.493692
1.353621
1.413822
1.552701
1.395941
1.558661
1.495481
1.585484
1.618862
1.821518
2.630949
7.061958
30.241609
62.519908
147.991776
238.577724
392.019749
513.105989
669.142604
741.288662
746.354461
665.857792
542.625785
366.266966
256.941915
151.863694
99.038482
75.372458
82.836747
102.207661
130.232573
147.844553
157.631636
151.662827
135.249496
114.574432
81.808567
59.693456
36.650896
23.522973
12.930632
7.496476
5.618930
4.787445
5.194545
5.094409
5.290508
5.709529
5.297661
5.419850
4.945993
5.120635
5.214810
5.786419
5.474687
5.332828
6.098747
5.272627
5.600452
5.984902
6.635785
6.800890
6.316900
6.499887
7.229447
8.025765
7.900596
8.286834
9.267926
9.292960
10.814667
10.491610
11.655688
12.535453
13.064742
12.736917
13.701916
13.073683
13.369918
13.390779
13.700724
14.625788
12.786984
13.907552
14.555454
13.673902
14.728904
14.529824
14.815927
14.875531
15.141964
15.273690
14.639497
14.848709
15.598536
##ZVALUE=265
1.205802
1.229644
1.320839
0.965595
1.220703
1.219511
1.168847
1.481771
1.684427
1.399517
1.850724
1.754761
1.684427
2.211928
3.887415
19.273758
47.032833
116.476417
198.056698
365.458727
509.608984
652.157664
790.683031
820.151567
763.443708
665.996671
497.903824
355.712771
201.524496
125.656724
81.647635
68.915486
82.737803
112.038851
133.788586
156.097412
159.534812
153.832436
137.588978
108.364820
84.640980
53.747892
37.283897
19.954443
12.710690
6.867647
5.207658
4.991889
4.316568
5.120635
4.773736
4.954934
5.310774
5.279779
4.974604
4.861951
5.453825
5.280972
5.661845
5.397797
5.837679
6.164908
5.847812
6.315708
5.860925
6.823540
6.595850
7.467866
7.725954
8.288622
8.694530
9.096861
9.856820
10.537505
10.695457
11.669993
11.417866
11.587739
12.501478
12.303591
12.404919
12.248755
13.020635
13.137460
12.800694
13.273954
13.655424
13.511777
13.080835
13.749599
13.745427
14.368892
14.238954
14.174581
13.866425
14.865994
##ZVALUE=270
1.062751
0.938773
1.003742
0.980496
1.152754
1.174808
1.167655
1.389980
1.453757
1.385808
1.435876
1.235604
1.359582
1.647472
1.543760
1.949668
2.383590
8.921623
26.151538
83.328485
158.095956
238.655806
457.820892
615.381598
779.435635
842.331648
835.647583
761.674643
603.021979
459.326506
280.828476
178.387761
90.094805
60.356855
63.911676
81.813931
113.045573
135.720968
153.769851
160.439610
154.397488
140.987635
109.118819
87.377429
56.181550
38.450956
21.398664
13.726950
7.895827
5.743504
5.117655
4.845858
5.209446
5.011559
5.363822
5.424619
5.583763
5.938411
5.393624
5.475879
5.479455
6.125569
6.046891
6.115437
6.093979
6.523728
6.747842
6.636977
7.687807
7.891655
8.728504
9.428859
9.291768
9.685755
10.376573
10.296702
10.589957
11.135936
11.188984
11.539459
11.185408
11.270642
12.248755
11.870861
12.091994
12.047887
12.022853
13.169646
12.731552
12.665987
12.324452
12.920499
13.772845
12.667775
13.476610
13.084412
##ZVALUE=275
1.080632
1.019835
0.941753
0.955462
0.973940
0.940561
1.215935
1.019835
1.149774
1.262426
1.208782
1.234412
1.345873
1.291633
1.388788
1.167655
1.370907
1.453757
1.648664
3.520846
13.742447
54.008961
115.660429
244.775414
387.976766
589.248538
719.634891
846.670866
877.313614
822.212696
721.576810
533.438921
380.782485
209.491849
124.430656
61.115623
48.195720
60.127974
80.367923
112.325549
132.891536
151.915550
157.339573
150.969625
136.463642
107.381940
83.994865
55.798888
39.112568
22.690892
14.893413
8.578897
6.532669
5.149841
5.117655
5.417466
5.209446
5.319715
5.479455
5.278587
5.927682
5.718470
5.775690
6.475449
6.289482
6.493926
6.491542
7.023811
7.314682
8.069873
8.384585
8.773804
9.124875
9.578466
9.806752
10.601878
10.580420
10.784864
10.267496
10.985732
10.881424
10.403991
11.142492
10.992885
11.394620
11.286736
12.083650
11.545420
12.461543
11.984706
11.914968
12.092590
12.427568
12.312531
12.231469
12.736917
##ZVALUE=280
0.848770
0.848770
0.951886
0.993609
0.915527
0.973940
0.967979
1.000762
1.019835
1.026988
0.906587
1.151562
1.007915
1.313686
0.992417
1.202822
1.491904
1.377463
1.283884
1.406670
1.679659
1.892447
9.497404
32.243729
100.311637
180.789828
328.605771
476.358533
671.677589
788.993835
871.888995
862.655640
786.565542
599.874854
444.543958
252.658725
151.585937
71.022511
43.294430
40.630698
54.533482
82.763433
105.370879
132.835507
146.484971
152.743459
148.929954
131.374598
110.962987
81.876516
60.150623
36.863685
25.341511
14.039874
8.579493
6.438494
5.649924
5.470514
5.781651
5.658865
5.875826
6.208420
6.018877
6.052852
6.555915
6.709695
6.734729
7.273555
7.538795
8.134842
8.268952
8.306503
8.995533
9.595752
9.810925
9.642839
9.452701
10.461807
9.973645
10.252595
10.575652
10.634661
10.298491
11.245608
10.841489
11.123419
11.066794
11.333823
11.008978
11.549592
11.433959
11.119843
11.667609
11.650920
12.205839
11.973977
##ZVALUE=285
1.000762
0.790954
0.854731
0.957847
0.848770
0.978708
1.022816
0.798702
0.874996
1.125932
1.022816
1.004934
0.984669
1.164675
1.188517
0.997782
1.128912
1.482964
1.489520
1.359582
1.269579
1.611710
1.485944
1.783967
4.959702
18.019676
60.131550
123.704672
253.889561
392.546654
556.209683
764.097571
884.819031
943.652987
896.515846
734.894872
578.857660
356.256962
222.267509
104.705691
54.793954
30.789971
33.805966
53.859949
75.383782
105.804801
123.770833
142.736435
151.416659
146.232843
133.108497
108.988881
86.763501
59.523582
41.510463
23.351908
15.563965
9.546876
7.408857
6.552935
6.069541
6.025434
6.349683
6.368756
6.821752
7.020831
7.170439
7.568598
7.714629
8.130670
8.974671
8.811951
9.875894
9.398460
10.005832
9.657741
10.060668
10.339618
10.397434
10.145903
11.374950
11.050701
11.013746
11.093616
11.142492
10.790825
10.959506
11.124611
11.212826
11.181831
11.133552
11.336803
11.131763
10.990500
11.194944
11.273623
##ZVALUE=290
0.896454
0.917912
0.945926
0.902414
0.897646
0.802875
0.911951
0.899434
1.007915
1.004934
1.071692
0.917912
1.044869
0.995994
1.055598
0.941753
1.084805
1.115799
1.241565
1.261830
1.193881
1.104474
1.557469
1.324415
1.569986
1.956820
2.518892
7.845759
36.070943
86.512566
166.686773
334.768891
504.929423
729.478002
856.308937
950.583816
935.465693
809.006691
665.884614
446.661711
296.728611
147.110820
76.838732
32.204986
24.940968
34.642816
48.520565
73.456764
95.058680
121.429563
136.952996
144.793987
143.956542
127.459764
109.647512
81.042647
59.736967
38.449764
26.011467
14.640689
10.952950
7.867813
6.785989
6.857514
7.099509
7.211566
7.868409
7.925630
8.116961
8.630753
8.807778
9.524822
9.670854
10.061860
9.894967
10.549426
10.462999
10.476708
11.015534
11.010766
10.930896
10.705590
10.854602
10.962486
11.090636
11.391640
11.010766
10.991693
11.410713
11.174679
11.147857
11.135936
11.284947
10.924935
10.983944
11.113882
##ZVALUE=295
0.906587
0.833869
0.820756
0.728965
0.696778
0.808835
0.634789
1.005530
0.740886
0.962615
0.869632
1.076460
0.909567
0.834465
0.995994
0.998974
1.100898
0.979900
1.050830
1.129508
1.185536
1.209974
1.321435
1.417994
1.324415
1.450777
1.637936
1.548529
1.952648
3.449917
11.424422
52.216649
118.809938
274.178982
430.998802
662.248731
812.163949
937.323570
955.118537
860.064626
736.578703
528.778434
368.032455
194.407701
106.550455
40.705800
22.507906
21.089911
28.916001
48.017502
65.649748
91.785789
112.533569
130.525827
137.733817
135.809779
122.384429
102.085471
82.110763
56.919456
40.595531
24.865866
17.178655
11.404753
8.768439
7.794499
7.566810
7.662773
7.797480
8.374453
9.272695
9.045601
9.499788
10.182858
10.204911
10.527968
10.619760
10.902882
10.690689
11.002421
10.869503
10.832548
11.468530
11.294484
10.955930
11.239648
11.563897
11.368990
11.332631
11.028647
11.100769
11.331439
11.145473
10.796785
11.053681
11.051893
##ZVALUE=300
0.884533
0.757575
0.832677
0.876784
0.795722
0.765920
0.870824
0.758767
0.808835
0.883937
0.772476
0.858903
0.844598
1.000762
0.977516
0.962615
1.048446
1.033545
1.080632
1.066923
1.107454
1.144409
1.035929
1.208782
1.192689
1.384616
1.392961
1.580715
1.611710
1.541972
1.893640
1.808405
5.059838
30.002594
81.218481
216.588974
369.931459
621.715784
805.995464
975.861549
1015.681624
970.772505
842.044950
629.784465
458.225012
256.822705
155.878663
72.114468
35.518408
16.510487
17.569661
27.693510
39.522648
63.068867
82.439780
107.929707
122.558475
131.393671
130.057931
118.424892
103.025436
77.926517
60.057640
41.189790
27.800798
16.721487
12.478828
9.401441
9.076595
8.878708
9.009838
9.931922
9.759665
9.975433
10.126829
10.346770
10.878444
10.501742
10.976791
10.681748
11.175871
11.821985
11.544824
10.831952
11.783838
11.335611
11.270642
11.126995
11.530519
10.959506
11.325479
11.579990
11.115670
11.025667
11.323690
10.955930
##ZVALUE=305
0.721812
0.713468
0.722408
0.652671
0.775456
0.798702
0.758767
0.689626
0.730753
0.739694
0.737906
0.901818
1.046658
0.796914
0.953674
0.900626
0.887513
0.869632
0.824928
0.958443
0.915527
0.706911
1.012683
0.960827
1.127720
0.979900
1.212955
1.170635
1.231432
1.428723
1.415610
1.387596
1.662970
1.922846
3.297925
18.626451
51.669478
149.571896
267.396569
490.234494
674.362779
885.979533
979.229808
993.656516
905.423760
711.730719
563.169718
368.037820
235.134959
110.130906
55.667758
20.200610
13.653636
17.208457
25.114417
41.316748
57.840943
80.862641
98.575950
117.473602
123.770833
123.932958
115.210414
96.361637
79.035759
55.970550
41.157603
26.606917
18.199682
12.662411
10.801554
10.308623
9.638667
10.105968
10.354519
10.615587
10.857582
10.839701
10.961890
11.369586
11.216998
11.824965
11.736751
11.604428
11.955500
12.007952
11.627674
11.549592
11.730790
11.485815
11.290908
11.197925
11.292696
11.065602
11.107922
10.661483
##ZVALUE=310
0.702739
0.753999
0.761747
0.737906
0.712872
0.529885
0.643730
0.761747
0.770688
0.826716
0.906587
0.858903
0.969768
0.923872
0.810623
0.887513
0.889897
0.901818
0.857711
0.820756
1.003742
0.775456
1.059771
1.048446
0.921488
1.072884
0.906587
1.066923
1.126528
1.091957
1.213551
1.311898
1.179576
1.363754
1.430511
1.831651
2.178550
9.454489
34.933686
116.848946
219.713449
422.601700
609.783530
835.916996
959.293842
1015.681624
972.718000
813.970566
656.772852
435.461998
292.249918
148.909688
80.706477
30.487776
14.994740
12.080669
15.074611
23.342967
33.815503
53.886771
69.544911
92.932582
108.018517
117.448568
119.598508
109.915733
96.920729
76.804757
59.273839
39.544702
29.006600
19.363761
14.966726
11.906624
11.207461
10.726452
10.983944
11.107922
11.396408
11.185408
11.546612
11.584759
11.521578
11.749864
11.766553
11.877418
11.812449
12.250543
11.919737
11.930466
11.938810
11.698604
11.733770
11.531711
11.432767
10.802746
##ZVALUE=315
0.777841
0.803471
0.843406
0.632405
0.690818
0.677705
0.808835
0.853539
0.655651
0.793934
0.705719
0.769496
0.824928
0.886917
0.793934
0.804663
0.823736
0.754595
0.855923
0.944734
1.021624
0.938773
0.984669
0.922680
0.994802
0.950694
1.101494
0.980496
1.214743
1.348853
1.356602
1.198649
1.241565
1.409650
1.604557
1.556873
1.654625
1.835823
2.021790
5.166531
21.029711
96.268654
208.300948
433.407426
657.917857
949.862003
1015.682817
1015.682817
1015.682817
986.070633
799.414515
548.839569
382.732749
208.318830
120.069981
49.248934
21.970868
10.747910
11.064410
14.807582
20.942688
34.171939
47.376752
67.558885
84.964633
101.946592
111.420751
112.162828
106.906891
90.351701
75.916648
55.268407
42.401552
27.686954
20.362735
14.910698
12.901425
11.782646
11.457801
11.386871
11.724830
11.868477
11.643767
11.775494
11.951923
12.217760
11.900663
12.112856
11.897683
12.110472
11.881590
11.785626
11.645555
11.627674
12.045503
11.375546
##ZVALUE=320
0.756979
0.750422
0.810623
0.672936
0.660419
0.694990
0.694990
0.764728
0.807643
0.714660
0.865459
0.643730
0.771880
0.839829
0.883937
0.864863
0.866652
0.895858
0.803471
0.988841
0.909567
0.977516
0.734925
0.884533
0.899434
0.885725
1.015663
0.952482
1.029968
1.156926
1.108646
1.210570
1.324415
1.265407
0.997782
1.242757
1.532435
1.498461
1.500845
1.765490
2.125502
2.529621
6.646514
42.940974
121.144652
328.383446
538.498759
847.359896
1015.685797
1015.685797
1015.685797
1015.685797
968.637466
679.031610
473.019481
255.236626
144.540668
61.584711
30.431747
12.388825
9.407997
10.313988
13.403893
20.313859
28.526783
46.456456
61.367750
81.084967
95.329881
106.405616
107.482672
101.226568
90.083480
70.138574
54.931641
38.905740
28.378963
20.252466
16.339421
12.989640
12.388825
11.916757
11.889935
11.735559
12.232661
12.259483
11.917949
11.953712
12.173653
12.027621
11.893511
11.901855
12.146831
11.956692
12.021661
11.922717
##ZVALUE=325
0.839829
0.639558
0.873804
0.698566
0.748634
0.643730
0.867844
0.814795
0.884533
0.916719
0.764728
0.903606
0.894666
0.878572
0.938773
0.903606
0.838637
0.911951
0.786781
0.904799
0.829697
0.911951
0.779629
0.967979
0.935793
1.061559
0.960827
1.072884
1.024604
0.933409
1.157522
1.035929
0.900626
1.113415
1.241565
1.155734
1.221895
1.519918
1.472831
1.499653
1.507998
1.696944
1.762509
1.868606
3.231764
19.561648
53.654909
144.380927
266.363025
508.341789
707.563758
943.293571
1015.766859
1015.766859
998.122692
764.244795
556.219816
326.595902
193.814635
83.426833
41.006804
15.417933
9.646416
9.240508
10.015965
13.442636
18.713474
30.067563
42.486787
61.731935
77.401996
92.582703
100.678802
100.822449
95.291734
80.711842
67.248940
51.458478
38.754940
26.281476
19.859672
14.987588
13.663769
12.447834
12.120605
11.896491
11.661649
11.884570
11.871457
12.252927
11.878610
11.852980
12.038946
11.967421
11.696815
11.475682
##ZVALUE=330
0.682473
0.713468
0.693798
0.600815
0.546575
0.658631
0.625849
0.502467
0.726581
0.720620
0.754595
0.883937
0.760555
0.634789
0.660419
0.769496
0.672936
0.724792
0.849962
0.888705
0.730753
0.677705
0.804663
0.693798
0.833869
0.765920
0.758767
0.734925
0.897646
0.916719
0.939965
0.877976
1.038909
0.978708
0.900626
0.971556
1.037717
1.085997
0.956655
1.066923
1.082420
1.244545
1.102686
1.386404
1.634955
1.843572
2.054572
7.971525
27.072430
94.507933
186.295509
381.148458
565.723777
823.143721
977.342725
1015.681624
1012.444496
842.128992
663.635731
413.458943
259.446502
117.735863
58.845878
21.846890
11.209846
8.558631
8.708835
10.344982
12.513995
19.636750
27.415752
42.603612
56.216717
75.578690
86.551905
95.202923
95.207691
89.781880
79.089999
62.661767
49.874783
35.176873
26.716590
19.640923
15.921593
13.544559
12.739897
12.081861
11.953712
11.920929
11.648536
11.475682
11.420846
11.073947
11.397600
11.678934
##ZVALUE=335
0.604987
0.612736
0.663996
0.502467
0.660419
0.692606
0.553727
0.632405
0.655651
0.750422
0.587702
0.679493
0.725985
0.805855
0.643730
0.829697
0.745654
0.795722
0.607967
0.741482
0.750422
0.771880
0.639558
0.660419
0.855923
0.736713
0.793934
0.785589
0.809431
0.877976
0.901818
0.761747
0.826716
0.863671
0.957847
1.034737
0.998974
1.020432
0.949502
0.962615
1.125932
1.160502
1.159906
1.108646
1.261830
1.254678
1.510978
1.634955
1.603961
3.723502
12.639761
51.620007
115.496516
271.744728
451.246500
716.180801
892.679691
1014.497876
1015.681624
915.383697
763.568878
515.242815
348.559618
182.133913
95.597506
33.906698
15.016794
9.363890
8.535981
9.134412
9.862781
12.940764
17.926693
28.125644
39.997697
56.564808
68.920851
81.682801
89.302659
89.608431
85.038543
72.744489
61.202645
47.587752
38.113594
26.419759
20.839572
15.446544
13.534427
12.061000
11.683702
11.059642
11.030436
11.031628
10.840893
11.097789
##ZVALUE=340
0.638962
0.757575
0.529885
0.701547
0.661612
0.622869
0.657439
0.777841
0.655651
0.770688
0.625849
0.700951
0.851750
0.659823
0.586510
0.590682
0.644922
0.720620
0.854731
0.884533
0.805855
0.926852
0.728965
0.764728
0.638962
0.557899
0.575781
0.847578
0.866652
0.868440
0.887513
0.851750
0.932813
0.893474
0.883937
1.026988
0.868440
0.974536
0.865459
0.978708
1.016855
1.028776
0.914931
1.071692
1.236796
1.206994
1.193881
1.273751
1.330972
1.575947
1.598597
2.287626
6.266832
29.120445
73.547959
191.531777
330.351591
557.350516
736.650825
923.437476
985.859036
924.597979
795.346498
577.246547
402.212739
210.599899
116.855502
49.902797
21.481514
9.773970
8.411407
8.842945
8.840561
10.072589
12.765527
18.522739
26.069880
38.733482
50.449967
66.465735
76.686740
83.895922
84.111691
79.220533
71.372986
58.508515
47.673583
34.844875
26.779771
19.810796
15.949607
12.913942
11.825562
11.067986
10.793805
10.795593
##ZVALUE=345
0.860691
0.846982
0.711679
0.761747
0.901818
0.920892
0.873804
0.781417
0.811815
0.855923
0.792742
0.953674
0.942945
0.777841
0.926852
0.786781
0.897646
1.069903
0.743866
0.751615
0.854731
1.035929
0.942945
0.863671
0.899434
0.894666
0.804663
0.996590
0.985861
0.983477
1.159906
0.949502
0.902414
0.911951
1.070499
0.968575
0.974536
0.877976
0.921488
1.055598
0.998974
1.048446
1.186728
1.199841
1.300573
1.163483
1.219511
1.259446
1.282692
1.382828
1.432896
1.664758
1.562834
1.940727
3.226995
17.293692
46.120882
125.521421
230.288506
433.854461
612.757802
841.712952
956.522822
976.137519
891.279578
669.027567
487.220883
279.484987
156.071782
62.286854
29.910803
12.084842
8.707643
8.733869
8.503795
8.773804
9.885430
12.258887
16.450882
25.080442
34.753680
48.642755
58.827996
70.107579
76.225996
78.927875
75.707436
67.005754
57.742000
45.950413
35.631657
25.945902
19.733906
14.924407
12.844801
11.575818
##ZVALUE=350
0.652671
0.784993
0.782609
0.798702
0.593662
0.750422
0.600815
0.842810
0.694990
0.587702
0.709891
0.783801
0.877976
0.766516
0.706911
0.739694
0.648499
0.801682
0.643730
0.708699
0.696778
0.716448
0.758767
0.791550
0.720620
0.802875
0.828505
0.841618
0.830889
0.909567
0.928640
0.657439
0.730753
0.830889
0.796914
0.852942
0.782609
0.859499
0.851750
0.911951
1.029968
0.934601
0.905991
0.920892
0.939965
1.034737
1.121759
0.918508
1.083612
1.139641
1.171827
1.294613
1.390576
1.387596
1.462698
1.620650
2.146959
8.646846
25.709867
81.539750
154.328942
311.432481
457.815528
658.480525
784.813762
876.238942
847.669840
699.272752
535.438657
326.755643
194.268823
86.478591
41.072965
14.049411
8.967519
7.952452
8.128881
8.083582
8.155704
9.531975
11.438727
16.017556
21.928549
32.208562
40.907860
53.800941
61.810613
69.413781
71.683526
68.923831
63.412786
53.250790
44.209957
33.658743
26.307702
19.491911
##ZVALUE=355
0.597835
0.667572
0.594854
0.499487
0.568628
0.501871
0.628829
0.698566
0.582933
0.785589
0.685453
0.656843
0.833869
0.740886
0.664592
0.647902
0.672936
0.651479
0.454783
0.606775
0.690818
0.729561
0.706911
0.748634
0.670552
0.895858
0.695586
0.715852
0.681877
0.631809
0.831485
0.777841
0.688434
0.618696
0.692606
0.700951
0.741482
0.842810
0.786781
0.569820
0.992417
0.873804
0.720620
0.886917
0.705719
0.913739
0.991821
1.034737
0.872612
1.032948
1.227856
1.040697
1.053810
1.116991
1.316667
1.209974
1.256466
1.600981
1.777411
4.579425
15.186667
57.085752
114.337802
240.867734
382.277966
600.069761
740.476847
862.739682
872.706771
755.204558
613.776445
397.808552
243.644714
104.066730
48.809648
17.407537
9.602904
7.668734
7.406473
7.548928
7.501841
7.850528
8.679628
10.619760
13.108850
19.693971
26.550889
37.020445
45.470595
56.147575
62.018633
65.464973
64.248443
57.340860
50.546527
40.391684
##ZVALUE=360
0.633597
0.785589
0.539422
0.486970
0.639558
0.583529
0.646710
0.748634
0.655651
0.721812
0.591874
0.638962
0.739694
0.654459
0.737906
0.560880
0.651479
0.620484
0.693798
0.610948
0.499487
0.755787
0.657439
0.775456
0.826716
0.703931
0.768900
0.757575
0.676513
0.714660
0.672936
0.673532
0.833869
0.699759
0.776649
0.873804
0.818968
0.810623
0.675917
0.954866
0.958443
0.729561
0.834465
0.839829
0.900626
0.808835
0.962615
1.031756
0.975728
0.956655
0.980496
1.003742
1.054406
1.307726
1.166463
1.148582
1.226664
1.352429
1.425743
1.511574
1.647472
2.457500
6.840825
32.427907
76.568723
183.773637
313.420892
713.178515
749.313831
937.314630
943.054557
746.412873
723.607540
504.152775
338.224769
162.935853
80.811977
26.286840
12.334585
7.909536
7.466674
7.472634
7.381439
7.139444
7.565618
8.122921
8.778572
11.809468
15.110970
22.392869
29.331446
40.076971
47.769547
55.782795
59.415698
59.218407
##ZVALUE=365
0.610948
0.564456
0.572801
0.553727
0.498891
0.607967
0.699759
0.720620
0.666976
0.692606
0.739694
0.773668
0.627637
0.516772
0.713468
0.675917
0.629425
0.571609
0.777841
0.596642
0.704527
0.653863
0.725985
0.648499
0.759959
0.628829
0.755787
0.713468
0.695586
0.656843
0.760555
0.829697
0.567436
0.647902
0.862479
0.808835
0.674725
0.597835
0.624657
0.791550
0.734925
0.804663
0.846982
0.693798
0.783801
0.647902
0.801682
0.869632
0.832677
0.765920
0.857711
1.066923
0.876784
0.907779
0.889897
1.106858
0.994802
1.086593
1.390576
1.319647
1.433492
1.444817
1.665950
1.715422
3.308654
16.137958
43.188930
114.170909
215.242505
407.458544
566.002727
761.125684
868.538618
896.407962
815.033913
618.940592
441.836715
246.428847
134.366751
46.860576
18.470883
7.923841
7.068515
6.698966
6.463528
6.420612
6.535649
6.493926
6.820560
8.091927
9.824634
13.426542
18.348694
26.355982
33.885837
42.852759
##ZVALUE=370
0.689626
0.664592
0.599623
0.376701
0.489950
0.497699
0.560880
0.569820
0.727773
0.661612
0.686646
0.651479
0.733733
0.470877
0.535846
0.596642
0.669956
0.559688
0.690818
0.584722
0.627637
0.794530
0.734925
0.688434
0.737906
0.671744
0.628829
0.620484
0.623465
0.652671
0.544786
0.654459
0.793934
0.610948
0.615716
0.739694
0.747442
0.815988
0.641942
0.651479
0.638962
0.670552
0.717640
0.893474
0.837445
0.861883
0.762939
0.764728
0.878572
0.721812
0.765920
0.842810
0.871420
0.889897
0.791550
0.914931
0.887513
0.934601
1.023412
1.153946
1.102686
1.024604
1.202822
1.214743
1.459718
1.706481
2.170801
8.327961
27.266741
90.627670
173.442960
338.680744
491.276979
700.000525
810.778737
855.669975
803.787708
663.359761
508.653522
301.087499
177.766681
71.714520
32.542944
10.785460
6.756783
6.189942
6.138682
6.152987
6.115437
6.133914
6.206632
6.414652
6.989837
8.573532
11.186600
16.303658
##ZVALUE=375
0.545979
0.582933
0.721812
0.596642
0.784993
0.566840
0.448823
0.760555
0.679493
0.557899
0.649691
0.569820
0.700951
0.550747
0.573993
0.567436
0.550747
0.577569
0.560880
0.563860
0.573993
0.685453
0.558496
0.665784
0.647902
0.601411
0.627637
0.607967
0.639558
0.619888
0.539422
0.587702
0.547767
0.808835
0.646710
0.664592
0.694990
0.709891
0.788569
0.634789
0.641942
0.742674
0.764728
0.704527
0.819564
0.865459
0.680685
0.750422
0.863671
0.865459
0.853539
0.669956
0.635982
0.681877
0.888705
0.901818
0.810623
0.949502
0.806451
0.830889
1.001954
0.998974
1.026988
1.119971
1.012683
1.053810
1.314878
1.328588
1.602769
4.350543
14.278889
51.697493
112.831593
255.333781
397.681594
594.835877
717.275739
795.493722
784.804821
661.432743
520.924926
323.594809
205.785632
105.100870
53.168535
17.297864
8.304715
5.837679
5.569458
5.496740
5.552769
5.671978
5.549788
5.738735
5.855560
6.381869
##ZVALUE=380
0.493526
0.457764
0.488758
0.486970
0.627637
0.658631
0.458956
0.645518
0.489950
0.473857
0.445843
0.597835
0.640750
0.494719
0.494719
0.570416
0.528693
0.499487
0.598431
0.531673
0.560880
0.557899
0.585914
0.631809
0.383854
0.532866
0.565648
0.549555
0.750422
0.638962
0.680685
0.691414
0.622869
0.630617
0.681877
0.544786
0.483990
0.613928
0.768900
0.626445
0.682473
0.663996
0.630617
0.650883
0.656843
0.714660
0.796914
0.718832
0.757575
0.573993
0.805855
0.729561
0.598431
0.751615
0.803471
0.723600
0.691414
0.769496
0.802875
0.653863
0.968575
0.723600
0.956655
0.891685
0.950694
0.978708
1.043677
1.117587
1.171827
1.284480
1.681447
2.305508
7.359982
34.464598
81.307888
196.291804
323.129892
512.286425
653.685927
773.249865
778.674483
681.479573
565.132499
401.310921
271.914601
137.427449
72.672963
26.308894
11.486411
5.878806
5.370975
5.127788
5.407929
4.865527
5.166531
5.390644
##ZVALUE=385
0.438690
0.494719
0.451803
0.521541
0.629425
0.482798
0.656843
0.630617
0.449419
0.555515
0.572801
0.521541
0.473857
0.548959
0.486970
0.521541
0.533462
0.524521
0.435710
0.667572
0.497699
0.434518
0.548959
0.690818
0.661612
0.629425
0.560880
0.438690
0.690818
0.663996
0.618696
0.634789
0.521541
0.762939
0.666976
0.474453
0.524521
0.599623
0.662804
0.624657
0.668764
0.671744
0.702739
0.544786
0.617504
0.586510
0.680685
0.689626
0.630617
0.739694
0.737906
0.749826
0.580549
0.617504
0.770688
0.742674
0.595450
0.705719
0.648499
0.788569
0.823736
0.864863
0.733733
0.907779
0.952482
0.875592
0.888705
0.960827
0.971556
1.226664
1.306534
1.395941
1.379848
1.897812
3.762841
19.467473
50.271749
128.816962
236.243010
432.395935
596.419573
773.512721
832.024813
809.075832
720.620751
533.254743
374.199748
201.464891
112.793446
46.745539
18.859506
6.615520
5.005598
4.740953
4.727840
4.810691
##ZVALUE=390
0.441670
0.477433
0.535846
0.546575
0.359416
0.601411
0.626445
0.587702
0.483990
0.501871
0.411868
0.452995
0.538826
0.393987
0.684857
0.629425
0.425577
0.498891
0.326633
0.522733
0.344515
0.401735
0.363588
0.484586
0.291467
0.692606
0.560880
0.553727
0.697970
0.473857
0.272989
0.475645
0.482798
0.490546
0.587702
0.336766
0.589490
0.565648
0.607967
0.579953
0.579953
0.525713
0.545979
0.649691
0.506639
0.544786
0.688434
0.638962
0.584722
0.672936
0.655651
0.699759
0.659823
0.752807
0.706911
0.629425
0.641942
0.586510
0.775456
0.700951
0.717640
0.751615
0.551939
0.731945
0.716448
0.839829
0.863671
0.932813
0.957847
0.968575
0.996590
1.196861
1.184940
1.256466
1.149774
1.449585
2.241731
9.985566
31.944513
97.752810
185.731649
343.335867
470.677614
626.704693
716.866851
764.063001
714.751482
585.041642
456.683636
287.217498
170.586705
71.392655
32.285452
9.207726
5.225539
4.662871
##ZVALUE=395
0.675917
0.543594
0.566840
0.564456
0.564456
0.613928
0.506639
0.587702
0.400543
0.443459
0.593662
0.503659
0.640750
0.637770
0.659823
0.610948
0.631809
0.569820
0.523925
0.563860
0.653863
0.465512
0.516772
0.562668
0.652671
0.515580
0.676513
0.660419
0.541806
0.573993
0.489950
0.644922
0.640750
0.586510
0.658631
0.704527
0.570416
0.686646
0.697970
0.537634
0.633597
0.539422
0.566840
0.471473
0.719428
0.647902
0.555515
0.653863
0.752807
0.682473
0.693798
0.814795
0.815988
0.845790
0.712872
0.684857
0.657439
0.733733
0.856519
0.773668
0.574589
0.973940
0.707507
0.782609
0.843406
0.749826
0.788569
0.871420
0.959635
1.037717
1.277924
1.136661
1.112819
1.140833
1.276731
1.185536
1.317859
1.402497
1.620650
4.947782
25.609732
63.337684
148.686767
250.300765
420.895815
554.037690
696.449876
765.220523
778.014660
717.345476
571.346879
424.503684
232.564807
125.404000
45.534968
18.702745
##ZVALUE=400
0.516772
0.515580
0.476837
0.567436
0.719428
0.617504
0.501871
0.343919
0.629425
0.616908
0.618696
0.608563
0.674725
0.603795
0.478625
0.592470
0.574589
0.527501
0.561476
0.575781
0.487566
0.565648
0.501871
0.555515
0.480413
0.591874
0.586510
0.597835
0.571609
0.521541
0.544786
0.578761
0.590682
0.718832
0.644922
0.577569
0.623465
0.687838
0.649691
0.657439
0.645518
0.539422
0.625849
0.659823
0.727773
0.704527
0.669956
0.566840
0.583529
0.619888
0.665784
0.699759
0.627637
0.626445
0.632405
0.646710
0.631809
0.640750
0.812411
0.727773
0.802875
0.698566
0.759959
0.613928
0.902414
0.706911
0.785589
0.928640
0.992417
1.030564
1.091957
1.100898
0.928640
1.150966
1.040697
1.101494
1.145601
1.264811
1.164675
1.282692
1.597404
2.727509
12.337565
34.459829
98.112822
181.776881
336.124897
464.390516
619.530678
696.115494
721.400976
673.537850
546.414852
423.172712
262.730718
165.765882
##END
