##TITLE=SH701
##FORMAT=SPECTACLE-ASCII V-1.2
##DATA TYPE=ULTRAVIOLET SPECTRUM
##SECOND TYPE=ULTRAVIOLET SPECTRUM
##DATE=01/11/18
##TIME=18:09:31
##SPECTROMETER/DATA SYSTEM=SPECTACLE
##XUNITS=NM EM
##YUNITS=ENERGY
##YFACTOR=1
##FIRSTX=220
##LASTX=410
##NPOINTS=96
##3DDATA=Equidistant
##ZUNITS=NM EX
##FIRSTZ=210
##LASTZ=400
##ZPOINTS=39
##XYDATA=(Y..Y)
##ZVALUE=210
1.871586
1.981854
1.909733
1.843572
1.788735
2.337694
2.441406
2.466440
2.426505
2.860427
2.210736
2.897978
2.680421
2.468824
3.096461
3.463626
2.367496
3.525615
3.735423
3.914833
3.869534
4.035830
4.729629
4.677773
5.281568
5.812645
5.205870
5.509853
6.264448
6.091595
6.039739
5.801916
6.962419
7.162690
7.299781
7.037520
7.688999
7.579923
7.431507
7.787943
7.815957
7.795691
8.270741
8.369684
8.076429
9.277463
8.715987
10.311604
9.687543
9.248853
10.295510
10.764599
10.514855
10.504723
10.981560
11.811852
11.689663
11.295676
11.398792
11.563897
12.049675
12.289882
11.720657
13.987422
12.734532
13.442636
15.870929
17.720461
20.891428
24.579763
29.795766
32.685995
41.470528
43.256879
47.914982
48.542619
55.106878
52.138567
49.805641
49.847960
42.769909
41.857958
37.359595
31.817555
26.264787
23.042560
18.499494
18.545985
16.806722
16.734600
14.923811
15.042424
16.831756
17.290711
17.043948
15.382767
##ZVALUE=215
3.697872
3.454685
2.912879
2.770424
2.552867
3.209710
3.213882
3.196597
3.585815
3.115535
4.094839
3.671646
3.375411
3.396869
3.609657
3.704429
3.476739
3.584623
3.733635
3.814697
3.654957
4.246831
4.235506
5.177855
5.194545
5.035996
5.247593
6.439686
6.655455
6.562471
7.226467
7.550716
7.359982
6.896853
8.002520
7.802844
7.923841
7.530451
7.382631
8.980632
8.190870
9.509921
9.186864
9.180903
10.014772
9.995699
10.765791
10.189414
11.585951
11.004806
11.131763
11.201501
11.948943
11.930466
12.160540
11.178851
13.065934
13.022423
13.433695
13.046861
12.631416
14.487505
13.290644
13.464689
13.262630
15.439987
16.242862
17.614961
19.839406
23.648739
27.949810
33.013821
37.433505
42.493939
45.780540
50.669909
49.420595
50.523877
49.362779
45.406818
42.963624
37.349463
35.254955
30.908585
27.241707
24.756789
22.265911
19.781590
17.985702
17.866492
15.945435
16.131997
16.783476
16.888976
17.302632
16.494989
##ZVALUE=220
11.759996
10.473728
11.832714
12.244582
10.962486
10.527968
8.949637
8.009672
6.368756
7.607937
8.274913
8.010864
8.763671
8.068681
8.196831
6.263852
5.338788
6.113648
4.801750
5.235672
4.917979
4.793406
4.276633
5.471706
5.925894
6.166697
5.323887
6.142855
7.184744
6.531477
6.213784
7.903576
7.416606
7.619858
8.033514
8.621812
7.936954
9.412766
9.380579
9.927750
9.344816
9.882450
9.630919
9.772778
10.432601
9.834766
11.476874
10.978580
11.214614
11.708736
12.342930
12.379885
12.326837
13.733506
12.404919
13.420582
14.526844
15.089512
13.869405
15.755892
16.008615
15.889406
15.398860
16.088486
17.239451
16.273856
16.794801
19.945502
21.560788
23.943782
29.538870
36.368966
38.017631
45.712590
46.410561
52.255988
52.544475
52.307844
51.549673
49.075484
46.916604
41.496754
37.769675
33.607483
28.254986
26.262999
23.236871
20.489693
21.651983
19.374490
18.475652
19.171834
19.803643
18.147826
19.230843
19.735694
##ZVALUE=225
20.864606
21.284819
32.091737
40.603876
49.097538
52.894950
53.460002
45.528412
39.453506
28.992891
21.361709
18.948913
19.592643
20.437837
21.727681
22.052526
18.735528
15.114546
13.702512
9.060502
7.435679
6.989837
5.700588
6.282926
6.043911
6.460547
6.574988
6.652474
7.628798
7.515550
7.709861
7.681847
8.225441
8.804798
9.392500
9.709597
10.298491
10.402799
10.853410
10.521412
11.090636
12.485981
12.346506
12.624860
12.215972
12.365580
13.137460
14.089942
14.020801
14.810562
15.042424
15.912652
16.224980
17.990470
15.583634
18.276572
19.514561
18.296838
20.015836
19.768476
18.902421
20.216703
21.194816
21.933913
22.967458
20.999908
22.784472
22.531748
26.408434
29.729605
32.906532
39.206743
40.220618
45.371652
48.852563
54.344535
53.179860
53.510666
47.326684
46.261549
43.776631
40.886998
38.729906
34.615993
32.961965
30.939579
27.500987
27.344823
24.306774
24.370551
27.412772
25.342703
25.605559
25.075674
25.070906
25.181770
##ZVALUE=230
21.399856
24.830699
42.902827
74.729919
103.909969
139.164925
163.640976
175.502896
167.948008
147.996545
108.360648
78.807473
50.141811
40.817857
40.075779
42.891502
46.199560
45.169592
39.651990
34.490824
27.236938
18.169880
13.563633
9.209514
7.738471
6.998777
7.537603
8.065701
7.051826
8.880496
8.202791
9.484887
9.194613
10.120869
10.149479
9.748936
11.922717
11.228919
12.647510
12.923479
13.860464
13.628602
13.752580
15.572906
15.259981
15.671849
16.388893
15.835762
16.275644
17.869473
18.657446
19.680858
21.231771
23.638606
22.534728
23.824573
23.795962
24.278760
24.946928
26.604533
26.027560
26.485920
28.332472
28.160810
27.444959
29.638410
30.126572
30.830503
38.292408
37.924647
41.250587
48.504472
50.080419
56.830645
59.753656
62.569976
61.954856
62.922835
61.573982
58.286786
52.444935
50.868988
48.176646
48.361421
44.851899
42.063594
40.187836
40.287971
37.593842
37.469864
38.967729
36.046505
38.428903
38.169622
35.932660
36.040545
##ZVALUE=235
9.568930
9.104609
27.665496
55.464506
113.384724
166.245699
252.446532
330.037475
387.452841
402.418971
376.575589
326.058865
252.117515
165.143609
113.165975
77.270865
69.548488
73.756576
77.346563
77.875853
76.997876
65.763593
50.651431
36.464930
25.825500
17.553568
12.795925
10.318756
9.382963
8.906722
9.543896
8.343458
9.695888
10.565519
11.459589
11.421442
11.592507
11.878610
11.757612
12.667775
13.698936
14.617443
14.200807
17.004609
15.865564
15.886426
17.805696
18.311739
20.371675
18.831491
22.806525
22.872686
23.687482
24.876595
25.771856
27.628541
29.338598
28.727651
31.112432
32.844543
32.428503
32.293797
34.444928
34.863949
37.287474
37.104487
40.106773
41.554570
46.587586
52.029490
54.474473
60.583949
68.973899
69.634914
75.784922
75.466633
79.860687
76.824427
73.656440
73.078871
72.980523
68.878531
67.724586
62.943697
63.065886
57.229996
59.253573
55.556893
54.869652
58.369637
54.159760
56.064725
56.140423
56.193471
57.756901
52.210689
##ZVALUE=240
2.026558
2.857447
5.113482
17.751455
43.102503
102.211833
184.198618
329.881907
455.994010
574.601889
693.424940
730.126500
673.988461
581.528544
423.324704
309.719443
183.023810
131.086707
103.014708
100.422502
111.120939
119.015574
120.857954
99.273920
85.983872
66.078901
53.413510
32.804608
23.364425
15.180707
12.995601
10.681748
11.316538
11.138916
11.655688
11.680722
11.583567
12.572408
13.627410
13.634562
13.322830
14.840961
15.249848
14.745593
15.679598
16.793609
16.741753
17.563701
19.354820
18.896461
19.836426
21.294951
23.059845
23.088455
25.282502
25.312901
27.919412
29.748678
32.679439
31.843781
32.828450
34.389496
37.419796
36.311746
39.454699
38.882494
44.016838
47.833920
50.279498
55.386424
58.478713
66.233873
73.258877
77.238679
80.055594
85.599422
83.658695
85.418820
84.032416
81.585646
82.089901
77.909827
75.774789
73.223710
70.925951
69.704652
68.106651
67.681670
67.631602
67.555904
69.213510
67.933798
69.350600
67.310929
67.236423
66.520572
##ZVALUE=245
2.050996
2.001524
2.256632
2.101660
3.514886
16.821623
43.467879
119.032860
222.602487
391.227603
555.403829
766.486526
893.138647
961.390734
922.254920
783.346891
642.936826
427.731872
298.918486
169.039965
121.349692
106.505752
115.559697
126.596689
134.316683
131.662488
114.252567
98.943710
75.724721
56.582689
36.667585
25.836825
17.944574
11.942983
10.707974
10.300875
10.367632
10.321736
11.060834
10.314584
10.887980
12.272000
12.558699
12.938976
13.163686
13.525486
13.332963
16.563535
16.169548
17.007589
17.223954
17.506480
18.446445
19.667745
20.380616
22.106767
21.080971
23.913980
24.003983
27.123690
27.243495
29.410720
30.513406
31.815767
34.356713
34.790635
37.345886
39.948821
43.987632
48.243999
53.192973
59.167743
60.327649
68.664551
68.388581
71.606636
71.607828
71.712732
69.596767
72.330832
70.763826
68.664551
68.800449
66.307783
66.963434
64.528584
65.440536
66.990852
65.477490
65.772533
68.829656
67.543983
63.816905
65.555573
65.457821
67.137480
##ZVALUE=250
1.922846
2.044439
1.797676
1.835823
2.264977
1.784563
3.015995
10.315776
44.336915
94.029903
233.154893
385.145545
579.109788
852.448940
1009.536982
1015.681624
1015.681624
1015.681624
904.406905
639.993548
434.437990
279.156566
148.312449
109.491944
110.781789
128.863454
137.625933
142.186880
139.895678
128.428936
109.752417
80.302954
59.300661
39.235950
25.814772
16.425848
12.539625
10.492802
11.110902
12.097955
11.376739
11.789799
11.761785
13.211966
12.437701
13.349652
13.925433
14.366508
15.311837
16.019940
16.604662
17.412901
18.272996
18.746853
19.111633
21.128654
21.142960
22.401810
23.372769
24.289489
25.061965
26.227832
26.846528
26.728511
29.499531
32.359958
32.722950
35.225749
39.476752
41.333437
47.412515
53.450465
53.699613
60.117841
61.998963
63.306689
62.471628
63.545704
63.687563
66.201687
64.416528
63.798428
64.063668
62.117577
61.269999
60.494542
61.166883
62.527657
62.230825
64.682961
62.424541
61.754584
61.784983
61.455965
61.993599
63.937902
##ZVALUE=255
1.493692
1.655817
1.543760
1.676679
2.091527
2.139807
2.185702
1.989603
2.772808
7.267594
25.234818
90.174675
180.509686
382.533669
576.982498
811.684728
1015.681624
1015.681624
1015.681624
1015.681624
1015.681624
914.001465
559.962988
365.484953
253.906846
122.820735
99.191666
112.601519
128.209591
148.598552
151.314735
145.655870
131.797791
108.665824
88.497996
60.949922
42.017698
26.471615
18.068552
13.340712
12.193918
11.763573
12.103915
12.783408
13.815761
13.885498
13.806820
14.637709
16.361475
16.065836
16.633868
19.356608
18.357635
19.684434
19.458532
19.422770
20.473599
22.319555
22.591949
24.048686
23.611784
24.429560
25.721788
26.154518
27.765632
28.171539
30.647516
32.893419
34.031868
38.058758
41.280985
44.012666
46.346784
52.666664
55.195689
55.618882
58.664680
55.827498
56.508780
57.699680
55.756569
55.871606
56.183934
57.286620
56.170821
57.127476
58.640838
57.469606
58.621764
58.460832
58.729649
60.727000
59.306622
58.726668
58.695674
58.179498
##ZVALUE=260
1.625419
1.592636
1.841784
1.865625
1.576543
1.916885
1.971722
1.658797
2.021790
2.281666
2.313852
3.423691
11.093616
53.173900
124.258995
302.738547
498.469472
816.258788
1015.681624
1015.681624
1015.681624
1015.681624
1015.681624
1015.681624
748.562813
509.050488
293.032527
178.016424
99.326968
92.381835
104.605556
130.207539
147.706866
157.887936
154.236555
138.275623
118.702650
88.079572
66.614747
43.236613
30.962825
19.887686
16.196966
14.319420
14.402866
14.828444
14.687777
15.584826
16.692877
17.838478
17.629862
19.670725
20.397902
20.903945
21.668673
22.061467
22.465587
23.645759
24.287701
24.770498
25.648475
25.185943
25.170445
26.058555
26.211739
29.136539
31.050444
31.806827
34.820437
36.249757
39.336681
41.832924
43.762922
47.668815
50.167441
51.381588
49.974918
52.509904
52.820444
52.037835
52.879453
52.950978
51.584840
53.071976
52.562952
54.363608
53.360462
53.038597
54.745674
56.738853
55.071712
54.313540
55.086613
55.844784
57.360530
55.130720
##ZVALUE=265
1.366735
1.403689
1.376867
1.481771
1.639724
1.731515
1.725554
1.810789
2.260804
2.064705
1.809597
2.041459
2.728701
2.668500
6.792545
36.157966
94.046593
255.121589
459.796786
863.950849
1015.690565
1015.690565
1015.690565
1015.690565
1015.690565
1015.690565
983.006954
701.808929
387.311578
240.071416
147.798657
90.961456
91.973543
117.462873
139.400959
158.474445
166.815519
159.235001
142.525434
114.398599
91.215968
64.816475
47.086477
31.352639
23.816824
19.133687
18.002987
17.977953
19.369721
20.943880
22.096634
22.688508
23.091435
23.146868
24.710894
25.030971
25.877953
27.078986
27.144551
27.785897
28.108954
28.758645
29.472709
30.781627
30.791759
31.702518
31.438470
34.718513
34.780502
36.727786
39.306879
41.936636
44.738650
48.029423
48.270822
50.461888
50.771832
49.941540
51.104426
49.787760
49.581528
50.371885
50.175786
49.494505
50.526857
50.328970
50.644875
51.057935
52.056909
51.533580
50.762892
52.870512
51.949620
53.033829
53.576827
54.694414
##ZVALUE=270
1.179576
1.353621
1.638532
1.404881
1.682639
1.385808
1.448989
1.657605
1.656413
1.847744
2.346635
2.013445
1.771450
2.277493
2.545714
2.498627
3.706813
14.765859
46.285987
159.393549
343.293548
630.113482
1015.682817
1015.682817
1015.682817
1015.682817
1015.682817
1015.682817
1015.682817
974.034667
652.132630
325.318575
176.433921
82.685947
72.457790
93.114972
117.146969
143.355727
160.562992
168.395638
166.980624
144.750476
125.724673
94.427466
71.776509
47.909617
37.134886
28.047562
24.689436
23.063421
23.066998
25.490522
26.548505
25.828481
27.691722
27.593970
29.663444
30.679703
30.513406
32.322407
32.716990
33.472776
33.047795
32.568574
33.502579
33.196807
35.064816
37.309527
37.798882
39.376616
42.080879
43.662786
44.723749
47.074556
48.968792
50.238967
49.154758
49.044490
48.088431
49.785972
48.005581
47.724843
48.002601
47.937632
48.729777
49.445629
48.547983
48.216581
49.223900
49.760938
49.203634
48.695803
50.537586
49.432516
51.364899
51.676631
##ZVALUE=275
1.360774
1.204610
1.360774
1.327991
1.533628
1.316667
1.517534
1.515746
1.499653
1.716614
1.567602
1.735687
1.596808
1.708865
2.066493
2.112985
2.547503
2.560616
3.039837
7.665753
29.402971
84.509850
258.354545
514.800549
983.819962
1015.691757
1015.691757
1015.691757
1015.691757
1015.691757
1015.691757
1015.691757
955.947638
476.222634
260.712504
106.114745
67.474842
70.936680
89.571476
121.442676
141.777992
161.719918
169.786811
164.578557
153.172612
121.756792
101.227760
75.899959
58.399439
42.242408
35.209656
30.173659
29.459596
29.918551
31.140447
32.427907
32.893419
33.693910
35.312772
35.455823
35.062432
34.983754
35.886765
37.338734
37.425756
38.300753
37.965775
38.213730
40.321946
41.278601
44.044852
46.476722
46.494603
47.135949
48.329830
50.839782
49.641728
50.448775
48.869848
49.132705
48.488975
47.490597
49.206614
47.243834
46.670437
47.619939
47.087669
47.160983
48.624873
48.506856
47.628880
47.814846
48.237443
47.380924
49.351454
48.040748
##ZVALUE=280
1.242757
1.223683
1.330972
1.400709
1.135468
1.351833
1.305938
1.547933
1.463890
1.481771
1.484752
1.502633
1.779795
1.651645
1.737475
2.066493
2.322793
2.129674
2.385974
2.485514
2.939701
3.955960
22.612810
68.912506
143.933892
400.002599
688.263774
1015.685797
1015.685797
1015.685797
1015.685797
1015.685797
1015.685797
1015.685797
1015.685797
744.038820
422.888994
166.883469
82.801580
55.555701
65.825582
94.431639
117.166638
143.328905
160.019994
167.740583
164.002776
146.342516
127.050877
99.798441
79.035759
59.216619
47.215819
38.427711
34.187436
33.233762
33.079982
34.101605
35.449862
35.959482
36.347508
37.751794
37.455559
39.011836
39.287806
39.428473
39.629936
40.131807
41.071773
41.599870
43.976903
46.370625
47.270656
48.987865
48.833489
49.347878
48.438907
48.778653
49.607754
47.942996
48.416853
47.941804
48.414469
47.126412
46.420693
47.190785
46.710968
47.609806
46.442747
46.990514
46.056509
45.882463
46.069622
46.237707
45.607686
46.856999
##ZVALUE=285
1.204610
1.121759
1.139641
1.298785
1.373887
1.215935
1.448989
1.324415
1.493692
1.230836
1.612902
1.447797
1.385808
1.427531
1.642704
1.865625
1.596808
1.879930
2.031922
2.253652
2.334714
2.307892
2.948642
3.227592
11.071563
39.925575
130.274892
264.582038
562.974811
897.604823
1015.681624
1015.681624
1015.681624
1015.681624
1015.681624
1015.681624
1015.681624
993.376970
655.778646
297.614932
145.057440
57.881474
46.770573
65.645576
86.602569
119.265914
137.443542
156.252980
162.431002
160.733461
150.656700
126.024485
107.293725
81.110001
64.993501
45.695901
39.357543
36.207438
33.994913
33.437610
34.702420
34.422874
35.602450
36.132932
37.028790
37.566423
38.894415
38.577914
40.136576
41.761994
43.132901
42.324662
44.743419
46.616793
48.053861
47.211647
47.027469
47.173500
46.258569
47.510862
47.061443
46.410561
46.432614
46.398640
46.075583
46.010613
45.991540
46.734810
45.630932
45.951605
45.916438
44.724941
45.281649
44.310689
44.396520
44.067502
##ZVALUE=290
1.089573
1.158714
1.034737
1.149774
1.166463
1.349449
1.304746
1.254678
1.159906
1.320839
1.210570
1.494884
1.280904
1.522899
1.532435
1.564622
1.780987
1.626611
1.871586
1.885891
1.941919
2.294779
2.456903
2.632737
2.847910
3.152490
4.817843
17.082691
84.577799
192.237496
441.289544
731.696486
1015.650630
1015.650630
1015.650630
1015.650630
1015.650630
1015.650630
1015.650630
1015.650630
907.899737
538.272858
220.905542
98.662972
41.318536
42.203665
60.131550
79.833865
107.678771
129.563808
152.071714
160.391927
158.431530
147.786736
126.743913
105.019808
77.782869
62.379837
47.518611
39.886832
35.104752
33.028722
32.852888
33.383965
34.861565
35.099983
36.389828
37.077665
39.371848
39.102435
40.509701
42.886734
43.649673
43.766499
44.198632
45.527816
45.347810
45.548677
44.836998
44.719577
44.678450
45.402646
44.576526
45.163631
45.751929
45.917630
45.173764
44.919848
45.177937
46.030879
44.383407
44.289827
43.936968
44.294596
43.940544
43.416619
##ZVALUE=295
1.296997
1.141429
1.072884
1.053810
1.267791
1.214743
1.244545
1.195669
1.247525
1.195669
1.376867
1.275539
1.238585
1.415610
1.394749
1.543760
1.486540
1.532435
1.645684
1.478791
1.595616
1.901984
2.152920
2.107620
2.301931
2.473593
2.807975
2.876520
3.502965
7.385612
29.614568
129.997730
289.564729
663.794875
993.657708
1015.684605
1015.684605
1015.684605
1015.684605
1015.684605
1015.684605
1015.684605
1015.684605
645.993948
361.586809
130.430460
57.999492
32.791495
38.323998
56.832433
75.282454
102.730989
123.744607
145.818591
150.747895
151.413679
138.522983
118.777752
99.465847
76.548457
61.769485
46.149492
39.621592
33.736825
32.797456
32.502413
34.050941
33.979416
34.668446
36.731958
38.931966
40.194988
40.522814
43.039918
43.475628
43.604970
44.741631
44.680834
43.463707
45.381784
43.939948
45.041442
46.068430
45.802593
45.314431
45.853853
45.660734
45.747757
45.300722
45.672655
45.577884
43.998957
43.979883
43.346882
42.983890
42.821765
##ZVALUE=300
1.011491
1.122952
1.152754
1.123548
1.130700
1.192689
1.209974
1.121759
1.100898
1.204610
1.068711
1.176000
1.448989
1.177788
1.478791
1.377463
1.448989
1.433492
1.407862
1.677871
1.487732
1.819730
1.768470
1.846552
1.950860
2.171993
2.095699
2.251863
2.659559
2.665520
3.333688
3.921986
19.717813
71.815848
244.457722
472.962856
950.930715
1015.681624
1015.681624
1015.681624
1015.681624
1015.681624
1015.681624
1015.681624
1015.681624
895.630717
458.085537
244.338512
87.899566
37.335753
27.414560
33.868551
51.898956
68.329573
94.826818
114.677548
135.206580
143.509507
142.365694
135.016441
116.795897
99.440813
75.656772
60.340762
46.592951
39.164424
34.425855
32.526851
33.600926
34.290552
36.701560
37.023425
39.006472
40.304661
41.700602
42.201877
43.101907
42.924881
43.496490
44.026971
44.959784
44.819713
44.680834
45.622587
46.104789
45.942664
45.901537
45.716763
45.435429
45.862794
44.281483
44.979453
44.563413
44.016838
42.598844
43.904781
##ZVALUE=305
1.099706
1.024604
1.096725
1.084805
0.916719
1.030564
1.045465
1.152754
1.129508
1.238585
1.129508
1.131892
1.286864
1.143813
1.297593
1.435876
1.354814
1.469851
1.148582
1.370907
1.440644
1.554489
1.730919
1.726747
1.710653
1.977682
2.141595
2.013445
2.231598
2.430677
2.668500
2.953410
3.025532
4.207492
7.507801
51.482916
147.915483
428.914428
768.775940
1015.681624
1015.681624
1015.681624
1015.681624
1015.681624
1015.681624
1015.681624
1015.681624
1001.705527
663.273931
307.892561
146.392584
47.003627
23.904443
25.369525
33.639669
50.737858
67.629814
92.306733
109.743476
129.812956
137.201548
137.147903
130.117536
112.910867
97.149611
74.742436
60.712695
47.110915
40.256977
37.353635
36.671758
36.413670
37.873983
39.626956
40.425658
41.620731
42.020679
42.967796
43.481588
44.611692
44.391751
44.970512
45.663714
45.903921
46.007633
46.501756
46.853423
46.525598
46.086907
46.200752
45.976639
45.679808
45.179725
45.188665
44.561625
43.725967
##ZVALUE=310
1.066923
0.977516
1.036525
0.960827
1.011491
1.154542
1.227856
1.134872
1.336932
1.194477
1.068711
1.116991
1.479983
1.269579
1.157522
1.154542
1.332760
1.377463
1.389980
1.444817
1.599789
1.652837
1.444817
1.836419
1.767874
1.845956
1.779795
1.934767
2.329946
2.210736
2.399683
2.698898
2.697706
3.167987
3.418922
4.020929
4.580617
19.947886
76.013803
271.779895
551.400781
1015.681624
1015.681624
1015.681624
1015.681624
1015.681624
1015.681624
1015.681624
1015.681624
1015.681624
969.168544
487.290025
249.781609
81.896782
33.802986
21.058917
24.300814
32.665730
44.415593
64.220428
81.612468
105.841756
120.571852
132.456422
132.671595
127.197504
115.455985
93.574524
79.160929
62.244534
52.845478
45.070648
42.703748
41.144490
40.913820
41.396618
41.452646
43.153763
42.799711
44.396520
44.829845
46.082735
46.103001
47.041774
46.435595
47.497749
47.821999
46.918988
47.361851
47.481656
46.399832
46.845675
46.658516
45.413971
45.485497
45.223832
##ZVALUE=315
1.083612
1.010895
1.010895
0.931621
1.063943
1.236796
0.971556
1.131892
1.287460
1.232624
1.250505
1.452565
1.113415
1.517534
1.330972
1.273751
1.346469
1.331568
1.368523
1.561642
1.544952
1.590848
1.512766
1.504421
1.797676
1.849532
1.740456
1.785755
2.067685
1.984835
2.040863
2.173781
2.470613
2.756715
2.843738
3.318787
3.402829
3.968477
4.688501
10.308623
40.200949
174.804926
392.117500
934.894681
1015.681624
1015.681624
1015.681624
1015.681624
1015.681624
1015.681624
1015.681624
1015.681624
1015.681624
669.692755
352.029800
125.850439
49.930811
22.405982
20.749569
25.326610
31.503439
45.074821
59.457421
80.282688
98.636746
116.819739
126.753449
130.805969
125.255585
111.606717
97.981691
78.984499
67.715645
54.608583
49.668550
44.640899
43.878555
43.120980
42.844415
44.443607
45.113564
45.471787
46.611428
46.769977
47.031641
47.356486
48.932433
48.294663
47.977567
47.586560
47.160983
47.101974
47.125816
46.508908
46.276450
46.237707
##ZVALUE=320
1.103878
1.093745
1.174808
1.016855
1.127720
1.217723
1.136661
1.117587
1.172423
1.215935
1.018643
1.290441
1.238585
1.133680
1.200438
1.167655
1.197457
1.364946
1.579523
1.503825
1.472831
1.508594
1.454949
1.711845
1.757741
1.614690
1.917481
1.869798
1.900792
1.911521
2.220869
1.997948
2.172589
2.341866
2.385974
2.699494
2.811551
3.112555
3.462434
3.697872
4.379749
5.699992
17.513633
97.788572
250.853896
657.416582
1015.681624
1015.681624
1015.681624
1015.681624
1015.681624
1015.681624
1015.681624
1015.681624
1015.681624
997.569561
568.827987
216.995478
89.989901
28.595924
20.726919
21.724701
24.663806
33.102632
41.501522
60.393810
76.235533
97.543001
112.627745
126.332641
129.331946
124.128461
114.477873
98.014474
82.757473
66.976547
57.393909
50.710440
47.532916
44.838786
45.321584
46.073794
46.178699
46.480894
47.345757
47.359467
48.414469
49.250722
47.738552
48.342943
48.439503
47.534704
47.403574
47.138929
46.480894
46.689510
##ZVALUE=325
1.021624
0.959635
0.921488
0.931621
1.150966
1.149774
1.312494
1.113415
1.213551
1.202822
0.965595
1.009703
1.211762
1.328588
1.137853
1.315475
1.198649
1.321435
1.230836
1.303554
1.261830
1.353621
1.297593
1.293421
1.532435
1.514554
1.465678
1.597404
1.617670
1.672506
1.764894
2.065897
1.973510
2.193451
2.055764
2.413988
2.362728
2.487898
2.629757
3.000498
3.080964
3.856421
3.982782
4.994869
9.177923
58.391690
164.266825
446.081758
832.274556
1015.684605
1015.684605
1015.684605
1015.684605
1015.684605
1015.684605
1015.684605
1015.684605
1015.684605
920.323730
354.246497
155.440569
44.970512
23.305416
20.836592
22.245646
26.493669
32.236576
44.991970
59.209466
80.434680
95.984936
113.072991
122.908950
126.267672
121.486783
107.249618
95.923543
79.069734
68.828464
57.156682
51.629543
48.049688
46.814680
46.485662
46.340823
47.213435
47.120452
47.675967
47.015548
47.030449
46.700835
46.006441
45.797825
46.070814
46.013594
45.717955
##ZVALUE=330
1.006722
1.037717
1.085997
1.042485
1.105666
1.065731
1.157522
1.126528
1.051426
1.070499
0.983477
1.096725
1.100898
0.976920
1.065731
0.997782
1.149774
1.183748
1.170635
1.265407
1.325607
1.107454
1.455545
1.461506
1.497865
1.369715
1.412630
1.479983
1.408458
1.383424
1.462698
1.873970
1.731515
1.937747
1.978874
1.900792
2.113581
2.147555
2.040863
2.569556
2.597570
2.803802
3.243685
3.396869
3.945827
4.455447
5.382895
23.960471
83.447695
301.348567
603.075624
1015.681624
1015.681624
1015.681624
1015.681624
1015.681624
1015.681624
1015.681624
1015.681624
1015.681624
1015.681624
707.421899
307.427645
84.984899
32.706857
21.101832
21.193624
23.072958
27.178526
35.156608
44.094920
60.028434
76.081753
96.291900
108.705759
119.022727
120.405555
115.006566
106.319785
89.927912
78.215599
64.710975
58.368444
51.285625
48.407912
46.106577
45.434833
45.493841
45.601726
45.876503
45.203567
45.352578
45.190454
44.497848
45.208931
44.958591
##ZVALUE=335
0.987649
0.989437
1.180768
1.069903
1.029968
0.962615
1.089573
1.067519
0.829697
1.070499
1.019835
1.184940
1.044869
1.075864
1.095533
1.207590
1.059771
1.066923
1.383424
1.076460
1.152754
1.238585
1.094937
1.166463
1.197457
1.309514
1.446605
1.410842
1.497865
1.466870
1.440644
1.530647
1.539588
1.545548
1.640916
1.953840
1.827478
1.924634
2.006888
2.192855
2.154708
2.419949
2.459884
2.571940
3.101826
3.370643
3.701448
4.183650
4.644990
10.897517
41.339397
182.929635
406.652689
939.165950
1015.678644
1015.678644
1015.678644
1015.678644
1015.678644
1015.678644
1015.678644
1015.678644
1015.678644
968.817472
516.580939
147.172809
49.185753
22.876859
21.349788
22.972822
25.336742
29.597878
35.479665
46.531558
58.879852
76.812506
90.473890
105.064511
113.246441
115.040541
111.397505
99.965930
89.398623
75.605512
66.742897
56.863427
51.625967
46.852827
45.664907
44.160485
43.635964
42.867661
42.602420
43.569803
42.421818
42.890906
##ZVALUE=340
1.003742
0.994802
0.912547
0.813603
0.863671
0.999570
0.854731
0.934601
0.966787
0.912547
0.860691
0.844598
0.991821
1.089573
0.901818
1.101494
0.950694
1.157522
1.153946
1.151562
1.074672
1.208782
1.133680
1.107454
1.159906
1.074672
1.177788
1.081824
1.208782
1.291633
1.140833
1.273751
1.480579
1.401901
1.519918
1.471639
1.605749
1.637936
1.765490
1.827478
1.724958
1.867414
2.001524
2.305508
2.339482
2.495646
2.526641
2.903938
3.436804
3.625751
4.134774
6.063581
19.598603
103.546977
269.539952
728.790760
1015.681624
1015.681624
1015.681624
1015.681624
1015.681624
1015.681624
1015.681624
1015.681624
1015.681624
821.455717
447.287560
175.091624
68.502426
24.404526
21.842718
22.903681
24.091601
26.676655
30.417442
36.728978
45.126677
58.390498
70.862770
88.121891
99.055767
108.048916
108.545423
105.119944
98.919868
86.618662
75.998902
62.834620
56.151748
48.585534
45.287609
42.218566
41.969419
40.657520
41.087866
41.136742
##ZVALUE=345
0.943542
0.838637
0.959635
1.095533
1.045465
1.003742
0.974536
1.133680
0.934601
0.978708
1.086593
0.996590
1.059771
1.140833
1.042485
0.979900
1.049638
0.983477
0.925660
1.094937
1.147985
1.204610
1.119971
1.140833
0.989437
1.150966
1.229644
1.216531
1.159906
1.182556
1.174808
1.446605
1.326799
1.519918
1.368523
1.432896
1.516938
1.555681
1.558661
1.692772
1.535416
1.744628
1.825690
1.877546
1.886487
2.204776
2.245903
2.651811
2.570748
2.839565
2.917647
3.450513
3.565550
4.722476
9.052753
57.609677
167.669654
468.220711
871.793032
1015.774608
1015.774608
1015.774608
1015.774608
1015.774608
1015.774608
1015.774608
1015.774608
992.718935
597.412586
230.076909
100.931525
34.689903
22.733808
22.559762
22.987723
24.222732
25.207996
29.073954
33.935905
43.662786
54.764748
69.671869
81.284642
93.633533
99.755526
102.472901
100.171566
91.433525
83.268881
72.302818
62.542558
51.866770
47.037601
41.963458
39.912462
38.817525
##ZVALUE=350
0.904799
0.959635
0.825524
0.986457
0.884533
0.806451
0.811815
1.014471
0.937581
0.962615
0.941753
1.072884
1.176000
0.814795
0.978708
1.037717
1.003742
1.096725
0.786781
0.967979
0.900626
0.998974
1.025796
1.058578
1.160502
1.008511
1.100898
1.280904
1.248717
1.120567
1.029968
1.138449
1.417994
1.349449
1.319647
1.360774
1.454949
1.459718
1.435876
1.581907
1.510978
1.504421
1.518726
1.674891
1.762509
1.752973
1.922846
2.163649
2.110600
2.333522
2.425909
2.820492
2.943873
3.358722
3.581643
4.193783
5.608797
30.034781
100.497603
336.626768
678.392649
1015.681624
1015.681624
1015.681624
1015.681624
1015.681624
1015.681624
1015.681624
1015.681624
1015.681624
810.808539
340.794921
149.425864
42.856932
23.698807
21.855831
21.488667
21.953583
22.633672
24.999976
27.872920
33.885837
40.267706
51.621795
60.856938
75.062513
83.893538
91.116428
94.585419
91.893673
87.932944
76.537728
67.541599
57.600737
51.354766
43.229461
##ZVALUE=355
0.981688
0.932813
0.917912
0.943542
0.814795
0.882745
1.026988
0.952482
1.048446
1.036525
0.982881
1.100898
1.107454
1.167655
1.061559
1.113415
1.154542
1.066923
1.036525
1.071692
1.054406
1.158714
1.288652
1.281500
1.190901
1.208782
1.177788
1.094937
1.189709
1.238585
1.347661
1.288652
1.115799
1.263618
1.353621
1.311898
1.349449
1.387596
1.384616
1.483560
1.643896
1.547933
1.682639
1.630783
1.833439
1.788735
1.859665
2.074838
2.113581
2.168417
2.397895
2.794862
2.662539
2.879500
3.137589
3.401637
3.768802
4.171729
5.085468
11.572838
87.362528
263.613462
715.709925
1015.681624
1015.681624
1015.681624
1015.681624
1015.681624
1015.681624
1015.681624
1015.681624
1015.681624
971.851945
558.566451
210.247636
85.871816
27.231574
20.832419
20.815730
21.383762
22.092462
22.997856
24.246573
26.540756
31.262636
36.455989
45.771599
54.263473
66.784620
75.694919
83.021522
86.371899
84.723830
81.105828
72.192550
65.387487
##ZVALUE=360
1.035929
0.978708
0.902414
0.957847
0.930429
0.889897
1.033545
0.995994
1.039505
1.006722
1.105666
1.091957
1.039505
1.060963
1.172423
1.084805
1.200438
1.287460
1.275539
1.273751
1.217723
1.125932
1.471639
1.400709
1.205802
1.369715
1.277924
1.337528
1.370907
1.322627
1.537800
1.518726
1.536608
1.331568
1.499653
1.493692
1.458526
1.531839
1.429915
1.649857
1.713634
1.717806
1.761913
1.864433
1.859665
1.899600
1.937747
2.095699
2.159476
2.308488
2.441406
2.687573
2.670884
2.870560
3.082752
3.265738
3.357530
3.689528
4.101992
4.743934
5.179644
8.877516
31.633973
168.315768
446.044803
1015.684009
1015.684009
1015.684009
1015.684009
1015.684009
1015.684009
1015.684009
1015.684009
1015.684009
1015.683413
606.595874
312.933922
113.716722
45.597553
21.074414
19.852519
20.104647
20.585656
21.432638
21.584630
22.948980
24.583936
28.029680
32.191873
39.452910
46.998858
58.274865
66.249967
74.282885
77.917576
78.633428
##ZVALUE=365
1.144409
1.207590
1.170635
1.206994
1.199841
1.210570
0.978708
1.113415
0.988841
1.004934
1.166463
1.151562
1.256466
1.173615
1.135468
1.214743
1.291633
1.262426
1.264811
1.260638
1.280904
1.325607
1.487732
1.355410
1.463890
1.455545
1.479983
1.455545
1.601577
1.511574
1.613498
1.636744
1.562834
1.765490
1.548529
1.758933
1.816750
1.709461
1.704693
1.888871
2.018809
1.721978
1.974702
2.001524
2.065897
2.221465
2.333522
2.168417
2.341866
2.475977
2.620816
2.742410
2.909899
3.022552
3.068447
3.432631
3.575683
3.857613
4.261732
4.660487
5.205870
6.095767
6.682873
8.286834
20.284653
176.240802
510.408878
1015.669703
1015.669703
1015.669703
1015.669703
1015.669703
1015.669703
1015.669703
1015.669703
1015.669703
1015.669703
883.747935
450.958610
152.333975
58.596730
23.800731
20.672679
20.121932
20.486712
20.693541
20.572543
21.229982
22.182465
23.220778
25.387406
29.970407
34.742951
43.015480
49.770474
59.877634
##ZVALUE=370
1.338720
1.457930
1.220703
1.283884
1.215935
1.254678
1.061559
1.233816
1.395941
1.382828
1.339912
1.526475
1.587868
1.484752
1.353621
1.411438
1.376867
1.381636
1.447797
1.475811
1.501441
1.530647
1.480579
1.471639
1.591444
1.652837
1.630783
1.530647
1.597404
1.826882
1.623631
1.760721
1.674891
1.716614
1.795888
1.843572
1.879930
1.911521
1.819730
2.069473
2.116561
2.027750
2.103448
2.126694
2.194643
2.029538
2.177954
2.333522
2.450943
2.369881
2.464652
2.738833
2.779961
2.749562
3.002882
3.262758
3.081560
3.433824
3.812909
3.986955
4.039407
4.728436
5.117655
6.091595
6.722808
7.871985
11.211634
56.538582
227.887630
902.465582
1015.650034
1015.650034
1015.650034
1015.650034
1015.650034
1015.650034
1015.650034
1015.650034
1015.650034
1015.650034
696.468949
250.906944
107.993484
35.677552
22.335649
20.143986
19.787550
19.620657
19.849539
20.071864
20.163655
20.663738
22.040606
23.686886
26.932955
31.983852
##ZVALUE=375
1.317859
1.185536
1.322627
1.380444
1.266599
1.296997
1.220703
1.166463
1.147985
1.192689
1.224875
1.251698
1.275539
1.280904
1.250505
1.339912
1.349449
1.463890
1.325607
1.442432
1.348853
1.407862
1.466870
1.423955
1.292825
1.525879
1.460910
1.477599
1.345873
1.443624
1.572967
1.504421
1.593828
1.643896
1.440644
1.663566
1.624823
1.692772
1.618862
1.579523
1.715422
1.650453
1.717806
1.778603
1.856685
1.783967
1.927614
1.878738
2.020597
2.031922
2.029538
2.216697
2.259612
2.241731
2.366900
2.497435
2.605915
2.673864
3.168583
2.969503
3.302693
3.572702
3.950596
3.967881
4.622936
5.220771
5.534887
6.826520
12.367964
31.211376
322.166681
471.822023
1015.681624
1015.681624
1015.681624
1015.681624
1015.681624
1015.681624
1015.681624
1015.681624
1015.681624
1015.681624
1011.725068
584.833026
211.877823
86.942911
26.728511
19.970536
18.560886
18.427968
18.196702
17.883778
18.261671
18.443465
18.725991
19.795895
##ZVALUE=380
0.965595
0.910759
1.013875
1.089573
0.846982
1.116991
0.964999
1.006722
0.986457
1.014471
1.018643
1.027584
1.163483
1.074672
1.176000
0.938773
1.111627
1.046658
1.069903
0.828505
1.081824
1.060963
1.189709
1.079440
1.157522
1.059771
1.211762
1.118779
1.240969
1.020432
1.119971
1.260638
1.061559
1.198649
1.197457
1.256466
1.398921
1.308918
1.366735
1.414418
1.307726
1.291633
1.323819
1.525879
1.412630
1.410842
1.583695
1.724958
1.521707
1.698732
1.699924
1.937747
1.786947
1.902580
1.992583
2.141595
2.219677
2.232790
2.250671
2.437830
2.578497
2.624989
2.683997
2.990961
3.244877
3.587604
3.892779
4.598498
5.405545
6.349683
7.370710
13.752580
59.363842
319.404602
754.164457
1015.681624
1015.681624
1015.681624
1015.681624
1015.681624
1015.681624
1015.681624
1015.681624
1015.681624
1015.681624
709.006786
352.698565
113.369823
43.514967
18.766522
16.059875
15.997887
15.747547
15.681982
15.844703
16.031861
##ZVALUE=385
0.852942
0.874996
0.861883
0.754595
0.961423
0.970960
0.908971
0.830889
1.084805
1.068711
1.006722
0.936985
0.850558
0.946522
1.051426
1.125932
0.979900
0.915527
0.959635
0.871420
0.969768
1.067519
0.870824
1.099706
0.988841
1.026988
0.905991
1.154542
1.045465
0.964999
1.100898
1.183748
1.025796
0.954866
1.173615
1.049638
1.044869
1.248717
1.198649
1.296997
1.290441
1.319647
1.353621
1.293421
1.318455
1.352429
1.428723
1.363754
1.362562
1.400709
1.398921
1.482964
1.682639
1.703501
1.600981
1.768470
1.898408
1.730919
1.922846
1.940727
2.150536
2.164841
2.232790
2.339482
2.714992
2.878904
3.115535
3.550649
3.827810
4.405975
5.152822
5.823970
6.169677
7.784963
21.801591
144.748688
419.439077
1015.681624
1015.681624
1015.681624
1015.681624
1015.681624
1015.681624
1015.681624
1015.681624
1015.681624
1015.681624
1015.681624
644.815564
246.647596
89.314580
22.347569
14.950633
14.112592
13.835430
14.027953
##ZVALUE=390
0.851750
1.022816
0.773668
0.813603
0.928640
0.956655
0.815988
1.021624
0.881553
0.931621
0.906587
0.829697
0.797510
0.817776
1.025796
0.923872
0.897646
0.933409
1.082420
1.055598
0.912547
0.984669
0.983477
0.957847
0.929832
0.979900
1.092553
1.117587
0.897646
0.866652
0.770688
0.964999
1.053810
0.896454
1.037717
1.072884
1.133680
1.131892
1.040697
1.176000
1.074672
1.276731
1.249909
1.289845
1.154542
1.394749
1.261830
1.287460
1.318455
1.340508
1.515746
1.488924
1.620650
1.540780
1.508594
1.517534
1.508594
1.815557
1.754761
1.821518
1.978874
1.958609
2.210736
2.300739
2.326965
2.654791
2.718568
3.051758
3.448725
4.075766
4.359484
4.679561
4.984736
5.218983
5.605817
6.404519
10.994673
68.529844
229.139924
762.417912
1015.681624
1015.681624
1015.681624
1015.681624
1015.681624
1015.681624
1015.681624
1015.681624
1015.681624
1015.681624
963.667631
408.455729
176.585913
41.260719
16.902685
13.552904
##ZVALUE=395
0.788569
0.720620
0.792742
0.865459
1.009703
0.994802
0.770688
0.714660
0.728965
0.839829
0.883937
0.910759
0.766516
0.994802
0.706911
0.967979
1.099706
1.028776
0.866652
0.898838
0.922680
0.978708
0.899434
0.979900
0.806451
0.892878
1.087785
0.941753
0.993609
1.051426
1.111627
1.067519
1.040697
0.979900
1.099706
1.086593
1.025796
1.049638
1.226664
1.130700
1.142621
1.227856
1.032948
1.199841
1.230836
1.409650
1.400709
1.293421
1.381636
1.303554
1.526475
1.446605
1.423955
1.590848
1.522899
1.626611
1.649857
1.559854
1.614690
1.646876
1.763701
1.897812
2.067685
2.008677
2.229810
2.374649
2.546906
2.987981
3.314614
3.573895
3.908873
4.147887
4.406571
4.242659
4.305840
4.705787
5.083680
5.814433
7.601976
44.522882
169.766545
578.907728
1002.689600
1015.681624
1015.681624
1015.681624
1015.681624
1015.681624
1015.681624
1015.681624
1015.681624
1015.681624
1015.681624
532.611609
235.301852
65.640807
##ZVALUE=400
0.806451
1.029968
0.835657
0.888705
0.763535
0.683665
0.854731
0.874996
0.853539
1.022816
0.811815
1.041889
0.878572
0.849962
0.772476
0.907779
0.906587
0.895858
0.739694
0.857711
0.878572
0.938773
0.991821
0.938773
0.808835
0.842810
1.016855
0.925660
1.064539
0.755787
0.952482
1.037717
1.040697
0.983477
0.859499
1.083612
1.044869
1.155734
1.078844
1.002550
1.114607
1.081824
1.087785
1.179576
1.396537
1.295805
1.198649
1.159906
1.238585
1.443624
1.258850
1.432896
1.350641
1.403689
1.297593
1.459718
1.489520
1.553893
1.634955
1.843572
1.646876
1.800656
1.941919
1.967549
2.007484
2.143979
2.432466
2.699494
2.998710
3.211498
3.434420
3.694892
3.560781
3.597736
3.676414
3.715754
3.987551
4.364848
4.863739
5.596876
6.377697
22.079945
90.528727
351.561904
766.040683
1015.673876
1015.673876
1015.673876
1015.673876
1015.673876
1015.673876
1015.673876
1015.673876
1015.673876
1015.673876
808.850527
##END
