##TITLE=SH752
##FORMAT=SPECTACLE-ASCII V-1.2
##DATA TYPE=ULTRAVIOLET SPECTRUM
##SECOND TYPE=ULTRAVIOLET SPECTRUM
##DATE=01/11/18
##TIME=18:28:45
##SPECTROMETER/DATA SYSTEM=SPECTACLE
##XUNITS=NM EM
##YUNITS=ENERGY
##YFACTOR=1
##FIRSTX=220
##LASTX=410
##NPOINTS=96
##3DDATA=Equidistant
##ZUNITS=NM EX
##FIRSTZ=210
##LASTZ=400
##ZPOINTS=39
##XYDATA=(Y..Y)
##ZVALUE=210
15.607476
14.432669
11.126995
10.664463
9.515882
8.728504
7.981658
7.094741
6.241798
5.038977
5.462766
4.453659
3.404617
3.546476
3.312826
3.519654
3.531575
3.945827
4.463792
4.216433
4.538894
4.514456
5.409718
5.582571
5.742908
6.744862
6.959438
7.193685
7.094741
7.775426
7.033944
8.128881
8.288622
8.355975
8.623600
9.441972
9.290576
9.246469
9.850860
8.688569
9.463429
9.776950
9.593964
9.984970
10.946989
10.834932
11.299849
12.071729
11.125803
12.580752
12.112856
12.339950
10.975599
11.797547
11.858940
12.079477
12.227893
12.331605
13.455749
11.903644
12.997985
12.115836
12.869835
14.993548
14.037490
15.039444
16.327500
17.630458
19.828677
25.130510
28.596520
34.529567
36.465526
44.422746
48.403740
47.932863
49.569607
51.796436
55.653453
52.199960
48.976541
45.922995
42.834878
35.285950
29.877424
23.094416
19.163489
16.083717
15.452504
14.072657
15.275478
17.863512
19.338727
20.959973
25.994778
29.697418
##ZVALUE=215
41.195750
41.722655
35.210848
28.735995
22.936463
17.664433
14.500618
14.389753
12.400746
11.839867
10.893941
8.945465
7.658601
6.095767
4.797578
3.690720
3.313422
3.340840
4.253983
4.706979
4.500747
4.734993
5.246997
5.136728
5.589724
5.718470
6.657839
7.108450
7.214546
7.190704
7.343888
7.248521
6.290674
7.515550
7.699728
7.972717
8.609891
7.883906
8.902550
8.664727
8.976460
9.316802
8.888841
8.378625
8.884668
9.861588
8.837581
9.892583
11.175871
10.727644
9.834766
11.489987
10.670424
10.083914
10.785460
12.761950
10.956526
10.302663
11.837482
11.203885
12.375712
11.974573
11.350513
11.719465
10.505915
12.772679
12.529492
13.918877
14.349818
18.692613
20.557642
22.774935
27.095675
30.007958
32.978654
32.988787
35.996437
35.393834
34.348965
32.122731
29.870868
25.448799
24.443865
19.700527
20.286441
14.730692
14.447570
11.476874
10.965466
10.297894
10.984540
9.187460
9.518862
11.898875
11.946559
14.459491
##ZVALUE=220
70.486665
72.619915
70.664883
65.266490
56.101680
44.821501
33.051968
28.613806
23.402572
20.552874
23.790598
23.946762
21.628737
17.284751
13.176799
9.995699
7.352829
5.780458
5.254745
3.860593
3.448725
3.252625
4.343987
4.364848
4.384518
4.409552
4.559755
4.279613
5.506873
5.016923
5.038977
5.405545
5.292892
6.296635
5.960464
6.522536
6.810427
6.896853
7.043481
6.664991
7.042885
7.160902
7.251501
7.364750
8.018613
6.990433
8.039474
7.631779
8.431673
8.688569
8.606911
7.765889
9.389520
8.257627
9.037852
9.231567
8.878708
8.028746
9.173751
8.432865
8.491874
9.376407
9.822845
9.312630
9.887815
11.107922
10.402799
10.297894
10.889769
13.046861
13.867617
17.400980
18.952489
20.728707
22.380948
24.429560
25.529861
23.715496
23.311973
23.041964
21.500587
19.288659
20.065904
16.850829
14.260411
13.624430
11.393428
10.685921
9.053946
8.422732
9.439588
8.123517
8.343458
8.249879
7.527471
7.749796
##ZVALUE=225
80.287457
83.394647
100.504756
118.768811
121.351480
113.932490
101.726651
83.117485
63.542724
47.294497
42.183995
39.224625
37.617683
37.539601
35.954714
34.353733
25.788546
20.282865
14.314651
10.378957
6.550550
4.878640
4.459620
5.048513
4.930496
5.052686
5.035996
5.129576
5.123615
5.468726
5.835891
5.335808
5.068779
7.309914
6.714463
8.023977
6.902814
7.938743
7.133484
7.077456
8.860826
7.986426
7.983446
8.285642
9.050965
7.608533
8.170605
9.297729
8.575916
9.747744
8.840561
9.802580
9.325743
10.312796
9.110570
10.246634
10.242462
9.018779
9.600520
10.084510
9.737611
10.480881
11.019707
11.388659
11.130571
10.500550
11.402965
11.588931
12.706518
13.353825
14.533997
17.631650
17.978549
21.493435
20.959973
22.933483
22.856593
22.446513
20.602942
17.335415
16.795993
16.397834
15.280843
12.972951
12.906790
9.963512
10.239482
8.297563
10.235906
9.167790
8.608699
7.689595
8.300543
8.325577
9.243488
8.826852
##ZVALUE=230
58.340430
65.157413
97.242594
149.700642
187.801719
227.152705
237.529874
222.427845
200.982690
164.511800
117.085576
85.636973
64.022541
58.991909
60.028434
63.286424
64.961910
56.348443
54.724813
41.991472
30.710697
20.063519
14.215708
8.535981
6.422997
5.629659
5.030632
5.729795
5.809665
5.826950
6.559491
6.109476
5.675554
6.008744
6.432533
7.183552
7.781982
8.476973
7.800460
7.778406
8.811951
8.161664
8.624792
8.553863
8.906722
8.730888
8.999705
9.816885
9.054542
9.050965
9.534955
9.381771
9.921789
10.176897
8.604527
10.333657
10.407567
9.834766
9.864569
10.796785
10.846853
10.869503
10.761619
11.124611
10.062456
10.112524
11.743903
12.104511
12.609959
13.569593
15.371442
17.526746
18.355846
20.472407
22.931695
21.349788
22.543669
21.614432
20.609498
19.233823
18.596649
15.594959
14.584661
14.550686
13.285875
11.111498
10.372996
10.670424
10.193586
10.321736
10.994673
10.308623
9.371638
10.013580
10.370612
9.085536
##ZVALUE=235
17.709732
19.694567
38.982630
88.942647
138.303638
212.778449
270.929933
332.271457
365.103483
346.199870
313.344002
241.815448
183.032751
127.638578
96.975565
82.610846
79.623461
87.397695
94.874501
95.807910
80.628991
70.871711
52.329898
35.261512
22.191405
17.521977
10.443926
6.822944
6.038547
6.181598
5.867481
5.936623
6.370544
6.539822
6.650686
6.700754
5.921721
6.033778
7.560849
7.264614
7.843971
8.547902
7.856488
7.004738
7.933974
7.872581
8.821487
9.857416
9.094477
9.255409
10.096431
9.642839
8.821487
9.246469
11.077523
11.020899
10.294914
11.516809
10.223985
10.374784
11.482835
12.542605
11.353493
12.112856
11.747479
11.193752
12.600422
12.840629
14.261603
15.403628
17.227530
18.325448
19.684434
23.461580
24.760962
24.666786
24.456978
23.828745
22.438765
19.582510
18.691421
17.594695
15.605688
15.051961
13.976693
11.884570
12.641549
12.660623
12.522936
11.566877
11.043549
10.274649
11.094809
11.117458
10.587573
10.465980
##ZVALUE=240
2.407432
2.495646
7.261634
18.272996
49.586892
85.656643
167.402625
254.543424
380.562544
462.075472
514.822602
510.591865
470.686555
381.151438
302.471519
197.208524
143.298507
113.241673
102.598667
110.347867
119.267702
122.090578
118.325949
110.451579
86.975694
67.927837
45.445561
33.770800
18.863678
12.575984
9.449720
7.225871
5.942583
7.421970
7.214546
7.135868
8.032918
7.198453
7.734895
6.886721
7.435679
8.177757
7.118583
6.904602
8.577704
8.528829
8.825660
8.837581
9.102821
9.855628
8.916855
8.917451
9.802580
9.315610
10.627508
11.286736
10.269880
9.751916
9.513497
10.622740
10.334849
11.681914
11.310577
11.132956
11.619925
11.391640
12.063980
14.469624
14.618635
15.027523
16.316772
19.190907
19.162893
20.101666
21.064878
20.507574
22.551417
20.098686
19.878745
18.467903
17.063618
16.039610
15.429854
13.725758
14.160872
13.145804
11.954904
11.318922
10.508895
11.418462
10.132790
9.715557
10.743737
10.438561
10.702610
11.149645
##ZVALUE=245
1.966953
1.860857
2.009869
2.301931
7.016659
22.172928
58.968663
109.705925
227.589607
327.678919
476.983786
573.740602
630.174875
653.689504
601.705909
509.747863
407.733917
281.675458
194.877982
131.358504
107.636452
105.914474
120.788813
129.510760
132.080913
130.545497
115.932822
97.364783
74.115992
52.096844
38.305521
22.669435
14.887452
8.574724
8.346438
6.594658
6.368756
6.563663
6.876588
7.107854
7.015467
7.593632
7.384419
7.580519
8.080602
7.958412
8.552670
8.770823
8.425713
9.031892
9.084940
8.556843
9.713769
10.098815
10.311604
10.474920
11.154413
11.250973
10.986924
10.255575
12.518764
10.406971
11.050701
11.917949
12.012720
11.721849
12.092590
13.276935
14.001727
15.327930
16.014576
18.422604
19.945502
20.324588
21.374822
23.125410
22.114515
19.594431
21.454692
17.650723
17.468929
15.095472
14.841557
13.522506
11.763573
11.311769
11.334419
10.966659
11.536479
10.427833
10.624528
11.014938
10.404587
10.716915
10.388494
9.509921
##ZVALUE=250
1.479983
1.776814
1.671910
1.745820
2.105832
1.866817
3.067851
10.879636
53.176880
107.225776
227.592587
353.083014
493.439436
670.381784
756.954551
801.175833
785.705447
675.091743
564.057827
389.962792
268.193483
177.601576
118.190646
100.737810
109.745860
121.801496
138.658881
144.789815
140.288472
127.398968
107.556581
79.729557
59.401989
35.035610
22.255778
12.856722
9.484887
7.438660
7.163882
6.021857
7.320642
7.353425
7.306933
8.112788
7.857680
8.123517
7.857680
8.757710
8.955598
8.711815
8.938909
8.903742
9.164810
9.037852
10.483861
9.809732
10.356903
9.659529
9.421706
10.888577
10.592937
10.060668
10.337830
10.630488
10.573864
10.920763
12.086630
11.482835
12.827516
13.407469
13.968945
16.189814
17.309785
17.602444
17.009974
18.099546
18.238425
16.640425
16.446710
15.547872
14.703870
13.403893
12.420416
11.595488
10.516644
10.302663
10.072589
9.952784
9.274483
9.210706
9.271502
8.909702
9.721518
9.051561
9.337664
9.269714
##ZVALUE=255
1.592636
1.548529
1.285672
1.559854
1.598597
1.479983
1.590848
1.924634
2.465844
4.941821
23.671985
54.326653
110.317469
231.060982
346.056819
529.741049
655.613542
781.944990
827.214718
783.032775
673.310757
534.192920
342.985988
223.215818
126.315951
93.890429
91.757774
104.305744
130.945444
142.867565
149.067640
147.385001
130.751729
104.665756
84.153414
56.101680
37.654638
20.127892
14.391541
8.142591
6.333590
6.779432
6.241798
6.300807
6.393790
7.017851
7.374883
7.881522
7.595420
8.374453
8.282661
8.447766
8.276701
8.995533
8.875728
8.621812
9.938478
8.893609
9.801984
10.072589
9.439588
9.642839
9.316802
9.941459
10.072589
9.954572
9.247661
10.623932
10.102987
11.003613
11.509657
12.954473
14.004707
13.932586
14.610887
15.347600
14.983416
13.654828
12.538433
11.948943
11.430979
10.561943
9.848475
9.109974
8.687973
8.468628
8.610487
8.579493
8.050799
8.090734
7.938743
8.046627
8.338690
7.731915
8.212924
8.175969
##ZVALUE=260
1.096725
1.364946
1.498461
1.440644
1.557469
1.294613
1.734495
1.610518
1.753569
1.738667
1.938939
2.634525
8.347631
37.645698
85.030794
198.072791
323.664546
519.709587
668.499470
848.667622
938.625932
936.535597
812.156796
665.132999
435.334444
293.645859
170.858502
111.210942
79.287887
86.923838
104.243755
132.016540
149.320960
157.769918
152.634978
136.841536
114.374757
82.344413
59.743524
38.472414
24.541616
13.827682
10.620952
7.106662
7.510781
7.130504
7.111430
7.771850
7.222891
7.673502
8.050799
8.245707
8.366704
8.858442
8.870959
8.978844
8.897781
8.856654
8.598566
9.009838
9.295940
8.712411
9.293556
9.189844
9.362698
9.487867
9.224415
9.400845
10.212660
11.123419
11.506677
11.619925
12.438893
12.840629
12.940764
13.449788
12.874603
12.524724
11.983514
11.423826
10.654926
9.885430
9.570718
8.214712
8.535981
8.612871
7.683635
8.065701
7.244945
7.552505
7.264614
7.318854
7.721782
7.402897
7.018447
6.969571
##ZVALUE=265
1.229644
1.444817
1.573563
1.622438
1.445413
1.364946
1.308918
1.467466
1.732707
1.828671
2.060533
1.797676
2.184510
2.168417
4.429817
22.323728
55.057406
147.877932
266.203880
506.365895
719.385743
929.847956
1015.782952
1015.782952
1011.416912
872.151852
628.497005
431.511998
234.739780
141.377449
89.557767
71.528554
85.328817
114.108920
134.864450
157.000422
162.588954
155.340433
140.738487
111.285448
89.212656
59.490800
40.514469
23.202896
15.000701
9.166598
8.094907
7.723570
8.077621
8.261800
8.425713
8.744597
8.326769
8.202791
8.755922
8.467436
9.010434
9.531975
9.123683
9.516478
8.819699
8.810759
9.094477
9.090900
8.900762
9.125471
9.180903
8.778572
8.988976
10.111928
10.980964
10.938644
11.709929
11.549592
12.952685
11.816621
12.039542
11.319518
10.617971
10.840893
8.724928
8.990765
8.062720
8.050799
7.897615
8.140802
7.944703
7.182956
7.781982
7.212758
7.321835
6.516576
6.782413
6.890893
7.042885
6.915927
##ZVALUE=270
1.107454
1.204610
1.101494
1.337528
1.297593
1.263618
1.149774
1.386404
1.219511
1.443624
1.621842
1.640916
1.390576
1.832843
1.744628
2.067685
2.592802
10.080934
28.594732
94.017982
191.032887
343.516469
623.311996
850.935578
1015.686989
1015.686989
1015.686989
1015.686989
818.697810
612.577796
422.517657
216.411948
122.042894
66.163540
64.173937
88.979602
111.316442
138.952732
156.271458
163.234472
155.930519
137.365460
117.059946
84.907413
62.214732
38.807988
25.470853
16.027689
11.284947
8.447766
8.210540
7.541776
8.003712
7.768869
8.356571
8.559823
8.064508
8.390546
8.390546
8.009672
7.777810
8.055568
7.940531
7.738471
7.609725
8.195639
7.747412
8.187890
8.385777
8.931756
9.564757
9.248853
10.044575
11.165738
10.345578
10.795593
10.217428
9.961724
9.597540
8.923411
7.948875
7.619858
7.591844
7.175803
6.999969
6.936789
6.453991
6.717443
6.493926
6.453991
6.187558
5.961657
6.450415
6.080866
6.462932
5.930662
##ZVALUE=275
0.799894
1.071692
1.097918
0.988841
0.955462
1.125932
1.089573
1.132488
1.101494
1.135468
1.234412
1.294613
1.245737
1.311898
1.609921
1.653433
1.590848
1.850724
2.008677
4.604459
17.897487
50.529838
147.907734
274.719596
511.378646
699.284673
925.713778
1015.681624
1015.681624
1015.681624
956.026912
717.037916
510.856509
277.645588
157.596469
73.101521
53.587556
62.537789
82.814693
112.929940
135.440826
155.955553
160.418749
153.651834
139.194727
111.279488
88.349581
60.959458
43.086410
25.453568
16.427636
11.047721
8.579493
7.621646
7.692575
7.674694
7.212758
7.622838
7.394552
7.410645
7.003546
7.362962
7.748604
7.125735
7.305741
6.865859
7.441640
7.165670
7.247925
7.785559
8.066893
8.789897
9.693503
9.558797
10.062456
9.556413
9.383559
8.619428
8.457899
8.132458
7.778406
7.835627
6.822944
6.295443
6.310940
6.482601
6.309748
6.020665
5.800724
5.752444
5.738735
5.460978
5.263686
5.518794
5.648732
5.141497
##ZVALUE=280
1.230836
1.166463
0.913739
1.046658
1.105666
1.174808
1.123548
1.052618
1.099706
1.165867
0.957847
1.083612
1.316667
1.220703
1.218915
1.374483
1.286864
1.615882
1.524687
1.702905
1.872778
2.283454
11.327863
37.374496
119.030476
220.738649
412.865877
608.757734
867.519975
1015.653610
1015.653610
1015.653610
1015.653610
827.758908
620.111823
353.724957
211.361647
94.085932
53.639412
43.998957
57.718754
86.754560
108.511448
135.952830
150.955915
155.780911
149.745941
133.984685
112.569928
83.071589
61.995983
38.514733
25.874972
15.534759
10.857582
7.698536
7.272959
7.071495
7.514954
6.886721
6.855726
7.025599
6.928444
6.870627
7.175803
6.938577
6.741881
7.029772
7.305741
7.616878
7.185936
8.092523
8.227825
8.469820
8.896589
8.603930
7.949471
8.098483
7.567406
7.097721
6.640553
6.458759
6.169677
6.080866
5.708933
6.119609
5.394816
5.249977
5.270839
5.629659
5.394816
4.903674
5.307794
5.174875
4.876852
5.277991
##ZVALUE=285
0.855923
0.881553
0.909567
1.028776
0.999570
1.184940
0.953674
0.956655
1.004934
1.024604
1.023412
1.176000
1.275539
1.199841
1.334548
1.316667
1.328588
1.267791
1.340508
1.532435
1.524687
1.692772
1.784563
2.248883
4.721880
23.704767
62.009692
163.459778
286.597013
524.776578
736.143589
999.243855
1015.681624
1015.681624
1015.681624
983.378887
772.253871
478.033423
298.225880
140.990615
72.055459
35.900474
36.846995
56.606531
76.496601
107.455850
126.391649
145.282745
151.958466
149.662495
135.598779
112.019777
89.075565
61.529875
42.521954
24.219751
16.459823
9.956956
8.088946
6.983876
6.430745
6.590486
6.416440
6.587505
6.423593
6.474853
6.607771
6.444454
6.717443
7.273555
7.172823
7.550716
7.619858
7.706881
8.173585
7.866621
7.687807
7.186532
7.316470
6.032586
6.487966
6.140471
5.752444
5.596876
5.684495
5.675554
5.290508
5.424619
5.208850
5.268455
4.846454
5.230904
5.027652
5.094409
5.025864
5.076528
##ZVALUE=290
0.982881
0.840425
0.855923
0.999570
1.036525
0.986457
0.885725
1.027584
0.910759
1.069903
1.038909
1.048446
0.976920
1.060963
1.029968
1.023412
1.103878
1.147985
1.042485
1.097918
1.457930
1.374483
1.614690
1.574755
1.799464
1.860857
2.667904
8.363724
40.059686
93.690753
160.640478
393.566489
618.351698
948.126912
1015.673876
1015.673876
1015.673876
1015.673876
944.125652
636.001825
419.778824
210.649967
106.006861
41.784644
27.212501
36.379695
49.448609
74.977875
96.590519
121.809840
137.019753
147.417784
144.384503
130.332708
112.323761
81.233978
60.147643
37.413836
26.381612
15.356541
11.004806
7.650852
6.537437
6.261468
5.902648
6.081462
6.429553
5.862713
6.231666
6.752610
6.796718
6.893873
7.149577
7.087588
7.241964
6.907582
7.242560
6.591678
6.041527
6.151795
5.526543
5.679727
5.420446
5.003810
5.319715
5.049706
5.123615
4.827976
4.730821
4.717708
4.742742
4.714727
4.611611
4.779696
4.627705
4.721880
##ZVALUE=295
0.851750
0.774860
0.812411
0.931621
0.952482
0.993609
0.789762
0.946522
1.073480
0.869632
1.160502
0.941753
0.945926
0.899434
0.885725
1.005530
0.984669
1.129508
1.093745
1.218915
1.185536
1.159906
1.424551
1.431704
1.529455
1.674891
1.736879
1.907945
2.175570
3.622770
13.263822
58.479905
135.206580
320.525765
527.986884
851.604939
1015.681624
1015.681624
1015.681624
1015.681624
1015.681624
767.630935
534.676909
279.384851
152.264833
56.549907
28.753877
23.005605
29.913783
47.685504
67.129731
92.533827
111.809969
132.675767
139.173865
134.520531
124.126673
102.976561
82.155466
56.215525
40.708780
24.207830
16.406775
9.909868
7.135868
5.619526
5.516410
5.935431
5.946755
5.931854
6.131530
6.435513
6.357431
6.690621
6.402731
6.423593
6.707907
5.851984
5.822778
5.671978
5.435944
5.309582
5.263686
4.848838
4.846454
4.766583
4.538894
4.664660
4.580617
4.775524
4.483461
4.263520
4.446507
4.322529
4.604459
4.326701
##ZVALUE=300
0.757575
0.852942
0.856519
0.800490
0.681877
0.806451
1.020432
0.775456
0.820756
0.715852
0.996590
0.878572
1.059771
0.903606
0.942945
0.985861
1.074672
0.987649
0.919700
1.067519
1.014471
1.196861
1.131892
1.239777
1.248717
1.341701
1.329780
1.629591
1.616478
1.770854
1.940727
2.279878
8.786917
31.136870
106.700659
212.289691
444.877744
678.433776
989.059806
1015.681624
1015.681624
1015.681624
1015.681624
958.358049
634.849668
410.417914
204.072595
106.741786
37.408471
19.932985
19.435883
26.515722
43.382645
59.684515
85.547566
104.285479
126.020908
130.990744
130.030513
120.071769
101.167560
81.335902
57.532787
40.609837
25.104880
16.002655
9.807944
7.048845
5.715489
5.915761
5.986691
6.300807
6.045699
5.948544
6.292462
6.010532
5.609989
5.611777
5.225539
5.298853
5.246997
5.142689
4.741549
4.627705
4.660487
4.669428
4.545450
4.256964
4.196763
4.556775
4.193783
4.192591
4.299879
4.022717
4.220605
4.093647
##ZVALUE=305
0.833869
0.781417
0.850558
0.904799
0.863671
0.935793
0.887513
0.860691
0.842810
0.858903
0.936985
0.750422
1.015663
0.908971
0.830889
0.980496
1.075864
0.845790
1.064539
1.027584
0.925660
0.994802
1.117587
1.074672
1.393557
1.275539
1.295805
1.407862
1.406670
1.484752
1.664758
1.591444
1.830459
2.126694
3.720522
21.346807
60.892701
174.322724
320.529938
605.358481
862.257481
1015.681624
1015.681624
1015.681624
1015.681624
1015.681624
823.704600
527.066588
323.404670
140.064955
68.109632
24.201870
14.889836
17.546415
25.091767
42.000413
57.862997
80.668926
99.287629
115.596652
124.876499
123.029947
114.620924
95.497966
77.268481
52.932501
37.911534
23.341775
15.492439
9.750724
7.619858
6.634593
6.056428
6.094575
6.181598
5.917549
5.688667
5.250573
5.202889
5.047917
4.671812
4.760623
4.503727
4.879832
4.498959
4.557967
4.638433
4.233718
4.501939
4.228950
4.325509
4.214644
4.128814
4.186630
4.122853
4.088879
##ZVALUE=310
0.866652
0.706911
0.882745
0.882745
0.737906
0.818968
0.838637
0.716448
0.767708
0.826716
0.839829
0.890493
0.757575
0.968575
0.952482
0.930429
0.967979
0.945926
0.975728
0.869632
0.817776
0.984669
1.113415
0.999570
1.172423
1.062751
1.249909
1.261830
1.308918
1.216531
1.250505
1.268983
1.469851
1.786947
1.740456
1.887679
2.443790
11.404753
39.327741
127.884746
248.239636
512.917638
781.419873
1015.681624
1015.681624
1015.681624
1015.681624
1015.681624
1015.681624
719.539523
474.819541
230.407715
119.580626
40.264726
17.462969
12.262464
15.536547
23.950934
34.388900
53.077936
69.608688
92.828870
105.962753
116.835833
118.139982
107.602477
95.037818
73.194504
55.544972
36.688447
24.804473
15.440583
11.298656
7.627606
6.568432
5.950928
5.214810
5.259514
5.229712
4.831553
4.615784
4.486442
4.573464
4.683733
4.469752
4.276633
4.589558
4.420877
4.418492
4.472733
4.488826
4.073977
3.990531
4.202724
4.246831
3.973842
##ZVALUE=315
0.753999
0.741482
0.802875
0.803471
0.848770
0.832677
0.877976
0.835657
0.957847
0.829697
0.746846
0.682473
0.902414
0.908971
0.893474
1.044869
0.936985
0.985861
0.994802
0.986457
0.998974
1.009703
1.024604
0.992417
0.917912
1.091957
0.964999
0.945926
1.126528
1.111627
1.239777
1.397729
1.203418
1.415610
1.643896
1.835823
1.776814
2.036691
2.200603
5.679727
22.808909
98.529458
208.486915
449.618697
711.737871
1015.681624
1015.681624
1015.681624
1015.681624
1015.681624
1015.681624
898.256898
620.671511
322.637558
172.577500
61.624646
24.578571
11.097789
10.831952
14.613867
20.713806
33.153892
46.041608
67.162514
82.731843
100.678802
108.666420
109.631419
103.571415
85.537434
71.902871
51.827431
37.673712
22.667646
15.625954
9.225607
7.197857
5.466938
5.041957
4.960895
4.339814
4.562736
4.399419
4.216433
4.159808
4.373789
3.922582
4.409552
4.492998
4.243851
4.159808
3.923774
4.039407
3.954768
4.235506
4.072785
##ZVALUE=320
0.684857
0.692606
0.781417
0.780821
0.846982
0.787973
0.668764
0.878572
0.879765
0.748634
0.792742
0.697970
0.800490
0.837445
0.746846
0.791550
0.941753
0.842810
0.850558
0.788569
0.992417
1.016855
1.149774
0.995994
0.971556
1.092553
0.976920
1.082420
0.872612
1.303554
1.340508
1.261830
1.229644
1.219511
1.404881
1.401901
1.633763
1.924634
2.016425
2.222657
2.294779
3.354549
14.192462
76.324940
186.386704
435.089469
680.872798
1005.577445
1015.678644
1015.678644
1015.678644
1015.678644
1015.678644
1015.678644
874.418616
473.785996
265.255570
107.899904
45.888424
14.349818
9.769797
10.255575
12.161732
19.318461
27.912855
44.968724
59.227943
78.498721
93.205571
103.128552
104.867816
98.331571
86.852908
67.329407
52.148700
33.492446
23.529530
14.376640
9.561777
6.638765
5.407929
4.699826
4.579425
4.318953
4.273653
4.304647
4.220605
4.280806
4.197955
4.014969
3.987551
4.158616
4.320741
4.192591
3.954768
4.082918
##ZVALUE=325
0.825524
0.798702
0.680685
0.668764
0.745654
0.736713
0.747442
0.785589
0.686646
0.762939
0.819564
0.845790
0.691414
0.733733
0.818968
0.823736
0.990629
0.915527
0.882745
0.864863
0.859499
0.964999
0.933409
1.022816
1.037717
0.940561
1.029968
1.010895
1.082420
1.071692
1.066923
1.187921
1.055598
1.241565
1.356602
1.329780
1.217723
1.560450
1.682639
1.739860
1.998544
2.042651
2.371669
2.781749
5.793571
42.776465
121.694803
332.393646
588.095784
998.475552
1015.681624
1015.681624
1015.681624
1015.681624
1015.681624
1015.681624
980.147719
586.518645
354.662538
155.236721
70.669651
20.629764
10.656714
9.094477
9.585619
12.324452
17.357469
28.271675
40.430427
58.969855
73.650479
88.814497
96.738935
96.772909
92.237592
76.605678
63.210726
45.907497
32.546520
20.188689
13.234615
8.208752
6.133914
5.197525
4.631877
4.469752
4.468560
4.337430
4.265904
4.275441
4.081726
4.134774
3.898740
4.039407
4.086494
3.978610
##ZVALUE=330
0.752807
0.740886
0.817776
0.874996
0.668764
0.746846
0.696778
0.679493
0.622869
0.705719
0.799894
0.690818
0.720620
0.752807
0.792742
0.834465
0.800490
0.712872
0.826716
0.825524
0.891685
0.784993
0.877976
0.896454
0.816584
0.873804
0.936985
0.847578
0.950694
1.053810
1.029968
1.006722
1.158714
1.002550
1.081824
1.240969
1.240969
1.134872
1.248717
1.514554
1.557469
1.639724
1.818538
1.890659
2.037883
2.441406
2.771616
11.670589
40.263534
143.292546
288.497806
614.672899
941.563845
1015.681624
1015.681624
1015.681624
1015.681624
1015.681624
1015.681624
771.376491
477.152467
210.386515
101.504922
32.850504
13.200641
8.478761
7.980466
8.912683
11.099577
17.686486
25.433898
39.719939
53.170919
70.917606
83.218813
90.111494
90.844631
84.116459
73.694587
56.351423
43.697953
28.393865
20.460486
12.831688
9.135604
6.321669
5.064607
4.481673
4.223585
4.058480
3.940463
3.950596
3.882647
4.095435
3.946424
3.878474
##ZVALUE=335
0.609756
0.829697
0.717640
0.730753
0.636578
0.696778
0.758767
0.576973
0.639558
0.767708
0.694990
0.688434
0.727773
0.839829
0.762939
0.648499
0.740886
0.726581
0.711679
0.836849
0.910759
0.806451
0.782609
0.937581
0.908971
0.946522
0.892878
0.879765
1.057982
0.871420
0.979900
0.987649
0.994802
1.044869
1.027584
0.975728
1.117587
0.990629
1.370907
1.266599
1.308918
1.289845
1.280904
1.504421
1.622438
1.785755
1.811981
2.218485
2.373457
5.596876
20.569563
85.276961
188.403726
441.793799
735.578537
1015.681624
1015.681624
1015.681624
1015.681624
1015.681624
1015.681624
954.408646
641.094446
333.276987
176.839828
60.618520
21.545887
8.700490
7.656813
7.896423
8.591413
11.551976
15.464425
25.491714
35.771728
52.211881
64.762831
77.019930
83.458424
84.973574
79.796910
66.409707
55.560470
40.354729
30.238628
19.498467
13.802648
8.640885
6.627440
5.052686
4.358888
3.971457
4.017949
3.825426
3.818870
4.019737
##ZVALUE=340
0.712872
0.777841
0.699759
0.749826
0.777841
0.570416
0.508428
0.648499
0.753999
0.731945
0.688434
0.707507
0.824928
0.802875
0.667572
0.782609
0.764728
0.655651
0.638962
0.866652
0.888705
0.733733
0.628829
0.820756
0.735521
0.797510
0.851750
0.764728
0.927448
0.973940
0.852942
0.997782
0.812411
1.001954
1.032948
1.061559
1.128912
1.052618
1.115799
1.180768
1.204610
1.350641
1.166463
1.377463
1.379848
1.698732
1.708865
1.514554
1.887679
2.049804
2.419949
3.667474
10.281801
52.297711
131.583810
342.819691
605.980754
993.027687
1015.681624
1015.681624
1015.681624
1015.681624
1015.681624
1012.947559
734.515786
362.205505
192.686915
75.073838
29.105544
10.272861
7.783771
7.685423
7.848740
8.875728
10.583997
16.392469
22.532940
34.828782
46.170950
61.751604
71.863532
78.689456
79.278946
74.676871
65.967441
52.964687
41.697621
28.350949
20.807981
13.134480
9.214878
6.002784
5.141497
4.390478
4.147887
3.968477
##ZVALUE=345
0.670552
0.686646
0.471473
0.539422
0.689626
0.486970
0.725985
0.732541
0.736713
0.858903
0.759959
0.607967
0.732541
0.762939
0.767708
0.703931
0.722408
0.837445
0.679493
0.842810
0.836849
0.865459
0.816584
0.743866
0.788569
0.827909
0.934601
0.852942
0.839829
0.715852
0.894666
0.815988
0.899434
0.768900
0.872612
1.186728
0.936985
1.188517
1.130700
1.071692
0.941753
1.015663
1.162887
1.206994
1.315475
1.266599
1.280904
1.497865
1.412630
1.696944
1.858473
2.238750
2.312660
2.763867
5.529523
33.010840
89.982748
233.191848
431.541800
848.276615
1015.675664
1015.675664
1015.675664
1015.675664
1015.675664
1015.675664
1015.675664
611.518025
329.048634
115.632415
47.479868
14.875531
9.475946
8.315444
8.179545
7.420778
7.841587
9.614825
13.246536
21.876693
30.686855
44.775605
55.422783
65.151453
71.498752
73.657632
71.153641
61.762929
52.679777
40.672421
30.280948
19.481778
13.924837
8.673668
6.537437
5.319715
##ZVALUE=350
0.839829
0.865459
0.860691
0.835657
0.745654
0.788569
0.698566
0.893474
0.805855
0.802875
0.719428
0.776649
0.833869
0.850558
0.865459
0.972748
0.793934
0.751615
0.798702
0.828505
0.875592
0.792742
0.819564
1.042485
1.040697
0.956655
0.922680
0.970960
1.031756
1.068711
0.879765
0.840425
1.054406
1.041889
1.056790
1.028776
0.959635
1.170635
1.011491
1.158714
1.133680
1.158714
1.091957
1.257658
1.273751
1.130700
1.271963
1.489520
1.507998
1.532435
1.691580
1.606941
1.848936
2.096891
2.208948
2.453923
3.349781
17.563701
55.486560
169.093013
313.799977
625.937581
926.529765
1015.777588
1015.777588
1015.777588
1015.777588
1015.777588
1015.777588
781.610608
484.022498
214.097500
91.986656
21.837950
9.963512
7.978678
7.321835
6.674528
6.288886
7.038713
8.529425
13.312697
18.773675
27.073622
36.518574
48.591495
56.897402
64.912438
67.017674
64.338446
59.301853
48.011541
39.395690
27.037859
20.223856
13.383627
##ZVALUE=355
0.997782
0.981688
0.870824
1.105666
1.012683
1.010895
1.074672
0.990629
1.161695
1.078844
0.996590
0.809431
0.895858
1.033545
0.879765
0.928640
1.117587
1.067519
1.081824
1.061559
1.091957
1.034737
1.017451
1.095533
1.090765
0.966787
1.124740
1.171827
1.142621
1.111627
1.030564
1.162887
1.221895
1.081824
1.226664
1.160502
1.316667
1.300573
1.301765
1.091957
1.264811
1.210570
1.220703
1.239777
1.362562
1.362562
1.486540
1.629591
1.488924
1.604557
1.792908
1.812577
1.881719
1.831651
1.967549
2.072453
2.151728
2.472997
2.703667
8.233786
30.855536
124.296546
253.651738
520.876050
798.772573
1015.931964
1015.931964
1015.931964
1015.931964
1015.931964
1015.931964
852.704048
563.524961
258.202553
123.842955
34.036636
11.981726
7.226467
6.646514
6.390810
5.690455
6.041527
6.193519
8.201599
10.898709
16.616583
23.037791
33.308864
41.664839
51.620603
57.826638
60.963631
59.792995
54.386854
47.830939
36.998987
##ZVALUE=360
0.664592
0.730753
0.642538
0.662804
0.672936
0.654459
0.661612
0.723600
0.597835
0.716448
0.792742
0.601411
0.701547
0.687838
0.771880
0.738502
0.821948
0.839829
0.721812
0.678897
0.701547
0.738502
0.714660
0.699759
0.811815
0.677705
0.801682
0.890493
0.880957
0.915527
0.931621
0.795722
0.889897
0.928640
0.837445
0.934601
0.849962
1.022816
0.894666
0.877976
0.911951
1.051426
0.870824
0.929832
0.902414
1.127720
1.224875
1.021624
1.162887
1.098514
1.298785
1.439452
1.310706
1.530647
1.583695
1.584888
1.863837
1.669526
1.823902
2.284646
2.403855
3.812909
12.504458
64.238906
155.821443
390.259027
666.460991
1015.681624
1015.681624
1015.681624
1015.681624
1015.681624
1015.681624
818.681717
557.976961
290.458798
159.000754
58.334470
21.422505
7.284880
6.146431
5.621910
5.258918
4.986525
5.054474
5.398989
6.302595
8.834600
12.456775
19.046664
26.482940
36.543608
43.953657
51.120520
54.686666
54.726601
##ZVALUE=365
0.692606
0.510812
0.662804
0.573993
0.759959
0.612736
0.684857
0.704527
0.786781
0.639558
0.547767
0.642538
0.688434
0.838637
0.753999
0.744462
0.750422
0.713468
0.693798
0.784993
0.736713
0.820756
0.759959
0.707507
0.806451
0.786781
0.842810
0.789762
0.732541
0.815988
0.926852
0.925660
0.813603
0.833869
0.955462
0.799894
0.827909
0.987649
1.018643
0.927448
1.087785
1.008511
0.983477
0.925660
1.031756
1.114607
1.050830
1.066923
1.003742
1.096725
1.296997
1.426935
1.224875
1.376867
1.564622
1.808405
1.621842
1.707673
1.826882
2.064705
1.986623
2.459884
2.623796
3.060699
5.619526
31.821728
94.199777
272.051692
529.466867
977.190733
1015.681624
1015.681624
1015.681624
1015.681624
1015.681624
961.667895
653.306842
340.562463
177.681446
61.536431
23.336411
7.666945
6.392598
5.842447
5.542636
5.138516
4.838705
4.769564
4.713535
5.536675
7.030964
11.078715
15.530586
23.764968
30.673742
39.536953
##ZVALUE=370
0.782609
0.571609
0.745654
0.673532
0.546575
0.590682
0.677705
0.626445
0.568628
0.612736
0.642538
0.682473
0.697970
0.748634
0.642538
0.691414
0.648499
0.605583
0.655651
0.748634
0.762939
0.842810
0.729561
0.866652
0.697970
0.791550
0.836849
0.797510
0.832677
0.807643
0.723600
0.807643
0.746846
0.854731
0.868440
0.850558
0.731945
0.869632
0.908971
0.963807
0.947714
0.880957
0.867844
0.781417
0.899434
0.900626
1.010895
1.066923
1.135468
1.055598
1.106858
1.265407
1.118779
1.038909
1.347661
1.246929
1.434684
1.458526
1.544952
1.533628
1.679659
1.776814
1.990795
2.094507
2.408624
2.812743
3.691912
14.480948
47.923923
175.244808
354.885459
721.203685
1015.681624
1015.681624
1015.681624
1015.681624
1015.681624
1015.681624
837.475657
446.804762
243.473649
92.806816
41.502714
13.247728
6.870627
5.390644
5.147457
4.702806
4.438758
4.202724
4.247427
4.191995
4.527569
6.450415
8.934736
13.451576
##ZVALUE=375
0.668764
0.592470
0.673532
0.697970
0.595450
0.793934
0.664592
0.805855
0.561476
0.616908
0.496507
0.707507
0.681877
0.576973
0.625849
0.639558
0.671744
0.712872
0.790954
0.686646
0.797510
0.633597
0.595450
0.531673
0.688434
0.696778
0.663996
0.547767
0.790954
0.734925
0.748634
0.842810
0.755787
0.824928
0.784993
0.838637
0.822544
0.725985
0.786781
0.836849
0.684857
0.940561
0.824928
0.840425
1.008511
0.920892
0.944734
0.927448
0.942945
0.790954
1.006722
1.051426
0.948906
1.046658
1.058578
0.957847
1.184940
1.101494
1.163483
1.311898
1.295805
1.251698
1.549721
1.501441
1.613498
1.696944
1.884699
2.167821
2.619624
8.068681
27.795434
103.538632
226.002932
519.975424
835.310817
1015.679836
1015.679836
1015.679836
1015.679836
1015.679836
1015.679836
631.308556
384.459496
181.892514
86.247921
24.787784
8.915663
5.263686
4.961491
4.521608
4.452467
3.977418
3.809929
3.812909
3.742576
4.321933
##ZVALUE=380
0.634789
0.757575
0.465512
0.586510
0.725985
0.727773
0.577569
0.556707
0.603795
0.627637
0.715852
0.654459
0.498891
0.630617
0.678897
0.722408
0.679493
0.789762
0.624657
0.647902
0.645518
0.676513
0.564456
0.619888
0.786781
0.580549
0.655651
0.652671
0.697970
0.698566
0.747442
0.674725
0.609756
0.765920
0.747442
0.796914
0.785589
0.794530
0.784993
0.773668
0.796914
0.753999
0.801682
0.758767
0.796914
0.663996
0.951886
0.922680
0.791550
0.919700
0.883937
0.888705
0.850558
0.948906
0.903606
1.037717
1.046658
1.161695
0.981688
1.037717
1.073480
1.174808
1.227856
1.307726
1.401901
1.424551
1.467466
1.765490
2.015829
2.366900
2.661943
4.243851
15.558600
77.050924
177.738667
417.826772
672.897696
1005.871892
1015.705466
1015.705466
1015.705466
1015.705466
1015.705466
770.030022
510.891676
246.033669
120.831728
39.473772
14.592409
5.817413
4.651546
4.143715
4.142523
3.828406
3.804564
3.483891
##ZVALUE=385
0.600815
0.588894
0.657439
0.617504
0.740886
0.582933
0.689626
0.555515
0.607967
0.549555
0.661612
0.672936
0.547767
0.717640
0.666976
0.546575
0.647902
0.699759
0.741482
0.619888
0.624657
0.803471
0.723600
0.724792
0.885725
0.770688
0.725985
0.719428
0.749826
0.692606
0.607967
0.761747
0.744462
0.640750
0.715852
0.909567
0.780821
0.726581
0.757575
0.880957
0.901818
0.727773
0.750422
0.753999
0.721812
0.745654
0.812411
0.815988
0.899434
0.969768
0.968575
0.820756
0.934601
0.856519
1.054406
0.795722
0.862479
0.950694
0.947714
1.007915
1.018643
1.130700
1.255870
1.210570
1.342893
1.421571
1.245737
1.615882
1.552701
1.699924
2.025962
2.171993
2.396703
2.747774
7.399917
41.511655
111.231804
308.010578
536.498427
918.276906
1015.745997
1015.745997
1015.745997
1015.745997
1015.745997
909.920931
621.094704
322.589874
177.339911
68.499446
26.346445
7.204413
4.800558
4.038811
3.953576
3.843904
##ZVALUE=390
0.710487
0.682473
0.516772
0.724792
0.710487
0.621676
0.548959
0.653863
0.647902
0.728965
0.702739
0.578761
0.720620
0.700951
0.690818
0.665784
0.620484
0.508428
0.728965
0.706911
0.889897
0.740886
0.703931
0.585914
0.775456
0.625849
0.650883
0.682473
0.761747
0.668764
0.673532
0.806451
0.745654
0.756979
0.798702
0.818968
0.919700
0.807643
0.674725
0.963807
0.756979
0.687838
0.897646
0.805855
0.830889
0.894666
0.959635
0.938773
0.856519
0.834465
0.866652
0.895858
1.041889
0.954866
0.844598
0.856519
0.964999
0.934601
0.912547
1.135468
1.152754
1.214743
1.061559
1.086593
1.253486
1.338720
1.438856
1.523495
1.732707
1.849532
2.053976
2.083778
2.259612
2.257824
2.431870
2.443790
4.716516
19.510984
98.566413
231.047869
534.578562
825.758576
1015.761495
1015.761495
1015.761495
1015.761495
1015.761495
1015.761495
734.063983
474.121571
231.346488
114.407539
37.233829
13.299584
5.201697
4.341602
##ZVALUE=395
0.562668
0.527501
0.699759
0.619888
0.697970
0.710487
0.629425
0.719428
0.560880
0.744462
0.551939
0.495911
0.787973
0.462532
0.490546
0.415444
0.415444
0.688434
0.560880
0.685453
0.550747
0.669956
0.611544
0.785589
0.775456
0.543594
0.581741
0.705719
0.728965
0.649691
0.735521
0.674725
0.559688
0.748634
0.808835
0.702739
0.692606
0.798702
0.821948
0.709891
0.776649
0.705719
0.729561
0.726581
0.708699
0.789762
0.884533
0.792742
0.739694
0.760555
0.844598
0.843406
0.685453
0.813603
0.898838
0.987649
0.856519
0.828505
0.938773
0.956655
1.078844
0.998974
1.001954
1.172423
0.976920
1.151562
1.068711
1.389980
1.340508
1.508594
1.796484
1.854897
1.742840
1.933575
1.930594
2.034903
2.155900
2.282858
2.944469
14.020801
53.161979
186.787844
373.311639
736.675858
1012.604833
1015.681624
1015.681624
1015.681624
1015.681624
1015.681624
1004.547477
619.370937
377.865434
167.001486
73.572993
21.943450
##ZVALUE=400
0.750422
0.593662
0.761747
0.551939
0.570416
0.619888
0.537634
0.680685
0.555515
0.635982
0.545979
0.656843
0.606775
0.517964
0.456572
0.420809
0.626445
0.585914
0.547767
0.760555
0.711679
0.810623
0.604987
0.751615
0.670552
0.588894
0.654459
0.713468
0.618696
0.577569
0.639558
0.543594
0.713468
0.798702
0.812411
0.691414
0.800490
0.835657
0.672936
0.603795
0.687838
0.777841
0.786781
0.800490
0.750422
0.794530
0.762939
0.794530
0.846982
0.896454
0.870824
0.766516
0.772476
0.853539
0.892878
0.851750
0.867844
0.980496
0.996590
1.043677
0.908971
0.981688
1.181960
1.048446
1.030564
1.246929
1.174808
1.294613
1.516938
1.668930
1.613498
1.824498
1.835823
1.807809
1.840591
1.766682
1.794696
2.029538
2.132654
2.361536
2.906919
5.816817
33.788681
96.755624
278.883576
521.816611
965.486765
1015.681624
1015.681624
1015.681624
1015.681624
1015.681624
1015.681624
888.348818
480.991602
276.365876
##END
