##TITLE=FQP00352
##FORMAT=SPECTACLE-ASCII V-1.2
##DATA TYPE=ULTRAVIOLET SPECTRUM
##SECOND TYPE=ULTRAVIOLET SPECTRUM
##DATE=01/21/18
##TIME=15:09:31
##SPECTROMETER/DATA SYSTEM=SPECTACLE
##XUNITS=NM EM
##YUNITS=ENERGY
##YFACTOR=1
##FIRSTX=220
##LASTX=410
##NPOINTS=96
##3DDATA=Equidistant
##ZUNITS=NM EX
##FIRSTZ=210
##LASTZ=400
##ZPOINTS=39
##XYDATA=(Y..Y)
##ZVALUE=210
2.490878
2.687573
2.107620
2.216697
2.213717
2.247691
2.370477
2.703667
2.781749
2.490878
3.071427
2.886653
3.113747
3.365874
3.010631
3.597736
3.528595
3.298521
3.448725
4.838705
4.431605
4.548430
4.960895
5.450845
5.570650
5.656481
6.358624
7.195473
7.932782
7.679462
8.234978
8.200407
9.071827
9.428859
9.703636
8.821487
9.644628
10.213852
9.697676
10.255575
9.815693
9.663701
9.758472
9.949803
10.457635
10.098815
9.351969
8.992553
9.291768
9.167790
9.182692
8.667707
9.656549
9.725690
9.318590
10.153651
10.179877
9.594560
9.708405
9.346604
9.532571
9.452701
10.353923
10.089874
8.881688
10.931492
10.504723
11.650920
14.200807
16.520619
20.263791
21.239519
25.452971
29.040575
34.035444
33.651590
39.587617
41.678548
42.940974
43.094754
42.664409
39.141774
36.001801
32.487512
26.703477
21.459460
15.098453
11.489987
10.139942
9.275675
9.042621
10.118484
9.058714
8.864999
9.640455
8.656979
##ZVALUE=215
6.490946
5.470514
6.550550
3.974438
4.479885
4.426837
4.360676
3.957748
5.425811
5.452633
4.804730
4.598498
3.824830
3.708601
3.515482
3.165603
3.509521
4.121661
3.585815
3.686547
4.518628
4.226565
4.495978
5.364418
5.585551
5.941987
7.729530
7.706881
8.953810
9.412766
10.444522
10.865927
12.643933
13.222694
13.471842
12.775660
12.320876
12.405515
12.493730
11.586547
11.497736
11.370778
11.020899
10.414720
10.695457
10.617971
9.881854
9.392500
9.332895
9.065866
9.527802
8.677840
9.431839
8.223653
8.396506
7.630587
7.796884
7.349849
6.546974
7.433891
7.598996
6.851554
6.522536
7.125735
7.387996
6.839633
8.365512
10.040998
9.551644
10.975599
12.022853
15.187860
16.677976
20.542741
22.328496
23.370981
24.624467
24.466515
26.675463
29.393435
27.338862
24.153590
21.515489
17.498732
14.911890
12.177825
10.240674
8.018613
7.104874
6.905794
5.449653
5.928874
5.952716
6.975532
6.551743
6.161928
##ZVALUE=220
18.462539
18.135905
20.621419
20.634532
17.898679
16.502738
11.727810
10.968447
9.915829
9.127855
9.411573
10.167956
10.663867
10.263920
8.496642
7.315874
6.306767
4.353523
3.974438
3.883839
3.833771
3.569722
4.135966
4.580617
5.207658
5.953908
7.874966
9.041429
10.813475
13.580918
14.241934
16.686916
17.983913
19.361973
18.754601
18.668771
19.174814
20.647645
19.779801
18.796921
16.853809
16.506910
16.299486
15.730858
14.793873
13.559461
12.744665
11.558533
10.396838
10.665655
11.082888
10.588765
10.645986
8.793473
7.844567
9.841919
8.169413
8.179545
8.452535
7.276535
7.903576
7.669926
7.287860
7.497668
7.849932
7.536411
8.042455
7.929802
7.387996
9.372830
9.384751
10.166764
10.533929
14.326572
14.772415
16.434789
17.599463
19.140840
17.384887
19.092560
18.109679
16.149879
15.745759
11.514425
10.268688
8.742809
7.123947
6.678700
6.740689
5.347729
6.280541
5.383492
7.118583
5.461574
6.661415
6.664991
##ZVALUE=225
31.009912
34.405589
48.662424
58.602691
62.353611
63.207746
61.481595
46.875477
36.708713
28.521419
23.187995
20.179749
21.605492
23.259521
24.465919
23.210645
19.542575
15.958548
13.791919
9.371638
6.704926
4.461408
4.068613
4.952550
6.232858
7.347465
7.947683
10.479689
13.485551
16.248822
18.224716
22.175908
22.556782
24.933815
24.935603
27.440786
25.813580
23.638606
25.307536
23.607612
21.552444
21.318793
20.534992
18.618703
18.134713
16.005635
16.068816
14.838576
14.854670
13.544559
11.925697
13.248920
11.804700
11.471510
11.720657
10.507703
11.012554
9.356737
9.604692
9.434819
9.682775
9.605885
9.302497
8.686781
7.339716
8.983612
8.979440
9.206533
9.572506
9.333491
10.080934
10.742545
12.498498
12.552738
13.095737
13.183951
14.312863
14.518499
14.887452
13.762712
13.047457
10.826588
11.406541
9.231567
9.030700
6.906986
7.983446
7.634759
6.584525
7.256866
6.861687
6.693602
7.006526
6.053448
7.014871
6.802678
##ZVALUE=230
31.490922
33.405423
59.427619
106.247663
142.772794
183.549523
204.793811
205.924511
185.394883
156.701803
105.685592
73.931813
52.351952
45.120716
43.116808
45.405626
47.001839
48.444867
43.855906
36.090612
27.171969
18.800497
12.714863
9.115934
7.636547
9.085536
9.181499
10.923743
11.383891
15.484691
17.288923
17.929673
19.095540
23.435950
23.140907
24.977922
24.522543
23.697615
23.594499
21.989942
21.562576
22.413731
20.515919
20.630956
18.866658
18.348694
16.389489
16.121864
15.409589
14.414787
16.258955
13.628602
14.132857
13.310909
13.137460
12.601614
12.106895
11.918545
13.473630
12.483597
11.820793
12.374520
11.228919
11.978745
13.157725
12.036562
11.636615
10.467768
11.889935
13.943911
14.945865
15.319586
15.526414
16.940832
17.138720
18.923879
19.174814
19.548535
17.374754
16.679764
17.093420
14.581680
14.387965
12.581944
12.627840
10.712743
11.143684
10.752678
10.470748
10.564923
10.060668
10.939837
9.186864
10.084510
11.983514
10.885596
##ZVALUE=235
13.082623
16.849637
35.455823
91.131926
154.143572
245.842934
331.393480
430.155993
480.243564
485.033989
434.785485
341.323018
249.763727
157.653689
113.984942
83.470941
74.532628
74.524879
82.396865
83.886981
80.197453
70.362687
49.500465
36.866665
25.666952
18.308759
13.859868
11.731982
11.392832
13.659000
13.918877
15.188456
15.883446
16.873479
18.188953
19.112825
18.563867
19.501448
19.131899
18.835664
19.142628
18.561482
19.584894
17.323494
18.653870
16.080737
17.755628
16.375780
14.931560
16.130805
16.100407
14.722943
16.562939
16.285777
16.292930
15.523434
13.839602
13.919473
15.034676
14.944673
15.496612
14.881492
14.340878
12.925863
12.427568
13.994575
14.256835
14.938712
15.102625
15.961528
18.029809
19.594431
19.310713
21.819472
21.914840
23.139715
23.629665
21.598935
22.939444
22.484660
22.543669
20.883679
19.568801
17.398596
16.598701
15.739799
16.188622
15.319586
15.117526
15.532970
14.674664
13.940930
13.576746
15.062690
14.018416
13.743639
##ZVALUE=240
2.281666
2.378821
10.184646
28.241873
77.321529
146.311522
275.195837
408.594608
593.514442
703.398585
785.844922
751.094818
681.566596
519.884825
378.931761
224.898458
157.637596
107.163787
96.110702
102.138519
114.051700
120.111704
117.102861
105.966926
85.832477
68.353415
50.299764
36.838651
24.547577
18.787980
15.876889
15.661716
15.619993
15.254617
17.238855
17.623901
17.803907
17.927885
18.400550
18.084645
20.566583
18.880963
19.235611
21.087527
19.142628
20.105839
20.127892
18.725991
17.300844
17.442703
16.858578
15.974641
17.886758
16.391873
17.132759
17.298460
15.867949
14.820695
15.504956
15.189648
14.279485
16.540885
14.869571
15.121698
15.469790
15.273690
17.003417
18.311739
16.751885
20.654798
21.104813
22.804737
24.524927
25.547743
28.174520
30.027628
29.513836
26.959777
28.350949
26.253462
25.617480
25.751591
24.753809
23.189783
22.549629
20.341873
19.044876
18.563867
17.917752
19.020438
17.258525
17.906427
17.647743
18.066764
17.751455
18.309951
##ZVALUE=245
2.205968
1.751781
2.491474
2.288818
4.580617
14.801621
62.406659
148.681998
341.858864
513.502955
770.206451
907.897949
994.915962
959.701538
874.220729
669.721961
505.621433
318.605900
210.837722
125.826597
106.235743
105.161667
119.014978
132.587552
136.600733
135.236979
118.238926
102.294683
77.112913
59.610605
44.291615
33.117533
24.291873
21.290779
19.733906
21.957755
22.180676
22.595525
22.161603
22.968650
20.767450
22.899508
23.860931
21.622777
20.652413
22.166967
20.297766
21.735430
19.756556
21.027923
18.276572
17.614961
18.295646
17.192960
17.234683
15.699863
15.444756
14.958978
15.913844
14.115572
15.127659
14.610887
14.411807
14.910698
15.063882
14.240742
15.277863
16.107559
17.097592
17.470717
18.145442
18.216968
21.997690
23.393631
23.905635
23.814440
24.454594
26.274920
24.977922
23.904443
24.575591
21.549463
21.958947
20.542741
21.197796
19.995570
19.135475
19.298792
18.783808
17.729998
18.412471
17.679930
19.530654
18.545985
18.332601
18.770695
##ZVALUE=250
1.729727
1.542568
1.738667
1.694560
1.859665
2.436638
2.253652
8.702874
36.686659
75.850487
182.977915
293.089747
418.748856
575.136542
663.651824
717.729926
704.220533
616.287589
508.491993
346.644521
240.941644
160.841942
105.772614
97.588897
110.550523
124.340653
141.900778
147.813559
144.389868
132.534504
115.692616
92.274547
73.863864
49.114823
39.458871
30.916929
28.840899
27.419925
26.591420
27.189851
26.109815
25.703907
26.122928
24.037957
24.325848
24.020672
21.844506
22.117496
21.592975
19.851923
18.405914
18.852949
16.695857
16.268492
16.039610
15.152693
14.178753
14.200807
12.947917
13.020635
12.540817
12.761950
12.449622
12.450814
12.361407
11.482835
11.947751
11.716485
13.045669
14.124513
13.574958
13.535619
14.955997
15.839934
16.411543
16.582608
15.838742
16.937852
16.872883
15.491843
16.019940
16.956925
15.988946
15.328526
17.482638
16.857982
16.238689
15.389919
16.460419
16.439557
16.866922
17.307997
16.926527
16.924739
16.322732
16.723871
##ZVALUE=255
1.293421
1.259446
1.371503
1.252890
1.458526
1.451969
1.572967
1.740456
1.605749
3.765821
16.027689
39.949417
82.767010
183.871984
289.584994
454.488993
574.441552
695.958734
730.914474
698.278546
600.518584
480.609536
309.375525
203.743577
117.794871
93.434453
96.972585
112.219453
141.927004
153.819919
164.128542
166.203976
157.546997
130.575895
110.965967
83.820820
67.787766
48.022866
42.670965
35.064816
34.485459
33.153892
31.149983
31.163692
29.263496
28.189421
24.307966
25.087595
22.457838
21.626949
20.466447
19.394755
19.257665
17.864704
16.063452
15.010834
15.060902
14.470816
13.964772
12.062788
12.090802
12.272596
12.000799
12.393594
11.560917
11.181831
11.102557
11.238456
11.588931
12.694597
12.837648
13.348460
12.833476
14.379621
13.599992
14.627576
13.798475
14.633536
14.133453
14.284849
14.125705
14.965534
14.183521
15.535951
14.396906
14.596581
15.087724
15.611649
14.304519
15.896559
16.656518
14.832616
15.742779
14.780760
15.198588
15.810728
##ZVALUE=260
1.201630
1.433492
1.231432
1.286864
1.334548
1.545548
1.423955
1.455545
1.803637
1.998544
1.758933
2.324581
6.353855
23.835897
56.567788
140.165687
234.907866
400.868654
540.998578
703.455806
790.413618
795.180798
704.518557
579.815507
394.428968
274.057984
166.971684
112.493634
95.730424
103.974938
124.388933
159.092546
175.875425
191.738605
184.029937
171.929002
152.412653
120.603442
97.815990
73.351860
58.459640
45.622587
40.529966
36.116838
35.358667
31.105876
30.645728
28.695464
26.802421
25.099516
24.094582
21.110773
20.688772
18.700957
17.989874
17.278790
15.245676
15.037656
13.762712
13.275743
13.710856
12.669563
12.543797
12.680888
10.908842
11.494756
11.752844
12.020469
10.991693
11.937618
12.325644
12.842417
12.038946
12.356639
13.277531
14.388561
13.202429
13.678670
13.882518
13.906956
14.289618
13.361573
13.934970
14.193654
13.252497
14.179945
13.823509
14.121532
14.418960
15.289783
14.578700
14.842749
14.713407
14.813542
14.671683
14.513731
##ZVALUE=265
1.221895
1.234412
1.375675
1.421571
1.203418
1.482964
1.232624
1.550913
1.494884
1.569986
1.716614
1.555681
2.112985
2.348423
3.775954
17.673969
41.842461
109.960437
206.495523
414.303541
588.718653
758.211017
944.807529
981.977582
887.280703
759.278536
554.528832
389.154553
226.354599
149.302483
107.761621
104.491711
121.356845
155.940652
176.692605
198.085904
204.061866
196.927786
180.623531
152.122974
125.357509
95.099807
75.040460
55.978894
47.073960
37.444830
34.530759
31.245947
29.925704
28.126836
24.496913
23.220778
22.527575
20.985603
18.960834
18.674731
17.022491
15.937686
15.731454
14.269948
14.403462
12.454987
12.759566
13.521910
12.671947
12.146831
12.384653
12.222528
12.422800
12.399554
12.612939
12.588501
13.241768
14.362931
13.966560
14.050603
14.034510
12.980700
13.326406
13.987422
13.640523
13.434887
13.845563
13.019443
13.223886
14.015436
13.646483
13.873577
13.492703
14.225841
14.666915
13.760924
13.732910
13.928413
14.021993
14.457703
##ZVALUE=270
1.229644
1.158714
1.401901
1.184940
1.386404
1.206994
1.341701
1.470447
1.361966
1.329780
1.397729
1.704693
1.814961
1.890659
1.731515
2.106428
2.861619
7.953644
23.256540
76.191425
161.504745
338.210464
679.033995
954.476595
1015.640497
1015.640497
1015.640497
1015.640497
855.310559
618.521571
413.266420
222.810507
145.432949
105.082989
105.261803
131.235719
155.021548
180.621743
195.725560
203.734636
193.827748
174.845457
151.602626
116.975904
92.314482
64.189434
50.782561
38.307905
32.472610
28.874874
24.872422
23.447871
21.975636
20.450950
19.414425
17.527938
17.904639
17.280579
15.579462
15.383959
14.838576
14.332533
13.973713
13.463497
12.968779
12.862682
12.839437
12.753606
12.479424
13.201833
13.350844
13.955832
13.818741
13.579726
14.133453
13.743639
13.435483
13.824701
13.584495
13.688803
12.369752
13.554692
12.595654
13.349652
13.773441
12.819767
13.134480
12.792945
13.243556
13.416409
13.553500
12.985468
12.944937
12.917519
13.172626
13.085604
##ZVALUE=275
0.964999
1.000762
0.942945
1.052618
1.080632
1.087785
1.168847
1.348853
1.200438
1.182556
1.302958
1.324415
1.401901
1.442432
1.366735
1.880527
1.644492
1.874566
1.835823
4.246831
13.839602
38.681626
115.882754
226.839781
449.571609
631.436706
845.375657
970.876813
1014.403701
949.229598
825.109482
603.430867
435.945988
243.996978
156.760812
93.832612
79.731941
91.774464
110.906959
139.009953
160.066485
178.002715
182.449818
175.285935
160.359740
127.747655
105.826855
77.399611
58.068633
39.214492
29.652715
23.157001
20.511746
17.857552
16.354918
15.771985
15.955567
15.049577
15.703440
14.321804
14.411807
14.136434
13.950467
14.279485
13.602972
13.486743
12.750626
13.067722
13.505816
13.099909
13.379455
13.141632
13.725758
13.562441
13.916492
13.725758
13.633966
13.688803
13.671517
13.341904
13.183951
13.004541
13.438463
13.101697
12.953877
12.779832
12.777448
12.748837
13.120770
12.638569
12.917519
12.244582
12.419820
12.153983
12.378693
12.840629
##ZVALUE=280
1.107454
0.974536
0.945926
1.059771
1.121759
0.988841
0.883937
1.162887
1.021624
0.957847
1.067519
1.256466
1.035929
1.240969
1.203418
1.301765
1.328588
1.282692
1.354814
1.699924
1.709461
2.222657
8.037686
26.855469
86.627603
164.048672
315.380692
470.630527
686.087012
814.802647
907.040834
907.233953
827.126503
635.781884
471.011996
278.548002
173.700452
88.346601
58.817863
54.017901
68.417788
94.367862
116.378665
143.692493
158.021450
163.663626
156.144500
137.637854
119.511485
88.853836
69.209933
45.423508
33.440590
22.233725
17.418861
14.640689
13.872981
14.012456
14.031529
14.007688
13.631582
14.034510
13.388991
13.798475
13.630986
14.107823
13.827682
14.666915
14.552474
14.618635
14.791489
14.508963
15.157461
15.121698
14.458895
14.438629
14.701486
14.331937
14.558434
13.569593
14.420748
13.959408
13.461709
13.377666
13.391972
12.974739
13.570786
12.739897
13.473630
12.930632
12.163520
12.445450
12.686849
12.005568
12.512803
12.091994
##ZVALUE=285
1.019835
0.906587
0.970960
0.957847
1.077652
0.806451
0.957847
0.974536
0.949502
1.125932
1.001954
1.107454
1.131892
1.040697
1.128912
1.090765
1.184940
1.271963
1.409650
1.363754
1.306534
1.772642
1.841784
1.945496
3.580451
17.854571
43.254495
116.292834
204.393864
377.687812
532.273650
743.744969
859.763026
911.244750
861.592889
711.048841
555.552840
345.632434
216.190815
107.487440
58.866739
35.707951
38.200617
58.434606
76.902509
108.031631
126.883984
146.120787
152.466893
147.676468
135.203004
112.657547
91.737509
63.772798
47.261715
29.556751
22.053719
16.857982
14.942884
14.091730
14.106631
14.772415
15.244484
15.806556
15.526414
16.309619
16.101599
16.465783
17.012954
16.586781
16.281605
16.051531
16.836524
16.457438
16.655922
16.822815
16.210675
16.327500
15.596747
15.070438
15.485883
15.149713
14.970899
14.823675
14.571548
14.305711
14.129877
13.760924
13.262630
13.529658
13.066530
12.647510
12.827516
12.034774
12.257695
12.506843
##ZVALUE=290
0.965595
0.923872
0.831485
0.722408
0.928640
0.882745
0.922680
1.098514
1.021624
1.042485
0.977516
0.999570
0.954866
0.942945
1.190901
1.097918
1.039505
1.159906
1.136661
1.137853
1.297593
1.426935
1.497865
1.698732
1.667738
1.707673
2.340674
6.050467
26.609898
63.049793
85.239410
263.590813
417.478681
644.915700
785.725713
899.134874
897.671580
777.974725
639.424920
431.993604
288.288593
146.845579
77.708960
34.072995
25.699735
36.670566
50.248504
74.823499
94.383955
123.392940
138.123631
148.121715
145.097971
129.721761
113.456845
85.952878
66.307783
45.338869
34.019947
23.330450
19.969940
17.112494
16.899705
16.738772
17.097592
17.016530
17.629862
17.340779
18.152595
18.479824
18.940568
17.963648
18.669963
18.715858
18.157959
17.993450
18.365979
16.963482
17.830729
16.877651
16.908646
16.299486
16.247630
15.123487
15.715957
14.858842
14.855862
14.314651
13.819933
13.644695
13.477802
13.604760
12.504458
12.468696
12.593865
12.431741
##ZVALUE=295
0.887513
0.829697
0.943542
0.725985
0.852942
0.834465
0.871420
0.963807
0.940561
0.841618
0.725985
0.768900
1.059771
0.928640
1.084805
0.869632
1.098514
0.937581
0.986457
1.174808
1.012683
0.908971
1.027584
1.145601
1.390576
1.329780
1.571774
1.620650
1.944900
3.031492
13.041496
36.352873
102.411509
192.810893
375.453830
535.141826
732.247829
850.934982
891.204476
838.564634
689.031482
538.625717
335.548520
210.181475
97.899437
49.127936
23.929477
21.693707
33.241510
47.494769
71.273446
91.949701
118.537545
133.194923
143.480897
141.567588
127.616525
112.870932
88.164806
69.176555
49.438477
36.746860
26.515722
22.209883
20.014644
18.640757
19.078851
19.379854
19.061565
20.196438
19.535422
19.392967
18.984675
19.711852
19.268990
18.734932
18.946528
19.106865
17.946959
17.948747
17.272830
17.388463
16.791821
16.356707
16.145706
16.129613
15.199780
14.882684
14.550686
14.563799
13.903975
13.773441
13.060570
13.004541
12.844801
12.444854
##ZVALUE=300
0.818968
0.870824
0.678897
0.692606
0.783801
0.830889
0.809431
0.787973
0.820756
0.783801
0.907779
0.912547
0.866652
0.902414
0.883937
0.925660
1.091957
1.028776
0.994802
1.056790
1.076460
1.223683
1.209974
1.179576
1.006722
1.134872
1.328588
1.388788
1.314878
1.677871
1.742840
1.910925
6.098747
19.876957
67.246556
134.621859
280.913711
436.217785
645.887852
778.533816
876.052976
873.989463
756.963491
624.892712
416.881442
274.032950
138.826966
76.356530
31.117797
18.529892
20.949841
28.561950
45.287609
62.758923
88.332891
108.304620
129.906535
137.354732
135.940909
127.892494
107.958913
90.626478
67.740679
52.393675
36.811829
28.924942
23.036599
20.363927
19.559860
19.382834
19.805431
19.365549
19.271970
18.899441
19.328594
18.736720
18.563867
18.467903
17.746687
18.394589
18.334985
17.676950
16.816854
17.320514
16.626716
15.724897
15.624762
15.071630
14.360547
14.974475
14.144778
13.457537
13.068914
12.744665
12.462735
12.916923
##ZVALUE=305
0.772476
0.794530
0.712872
0.775456
0.825524
0.724792
0.849962
0.726581
0.887513
0.787973
0.873804
0.960827
1.059771
1.003742
0.906587
0.935793
0.991821
0.956655
0.999570
1.059771
1.018643
1.093745
1.119971
1.032948
1.131892
1.061559
1.101494
1.454949
1.342893
1.051426
1.385808
1.495481
1.637936
1.873970
3.019571
10.764599
43.374896
94.971657
216.830969
344.155431
541.833639
692.709684
831.294656
861.124992
792.530775
673.016906
483.804941
338.976979
179.596543
101.134777
43.220520
22.370815
15.653968
18.896461
29.618740
42.498708
65.552592
83.976984
106.145740
122.588873
130.905509
131.000876
119.922757
106.653571
84.461570
67.227483
47.959685
36.070943
26.653409
22.452474
19.218922
18.559694
18.303990
17.910600
17.760992
17.387867
17.430782
17.122626
16.990900
16.582608
16.198754
16.834736
16.639829
16.177893
15.320778
15.674829
14.936924
14.803410
13.970733
13.659000
13.537407
12.987852
12.756586
12.535453
12.456775
12.155771
##ZVALUE=310
0.672936
0.724792
0.664592
0.653863
0.659823
0.580549
0.810623
0.788569
0.852942
0.807643
0.756979
0.806451
0.661612
0.791550
0.722408
0.790954
0.812411
0.914931
0.843406
0.789762
0.938773
0.972748
0.911951
0.929832
0.866652
1.038909
1.015663
1.055598
1.106858
1.119971
1.221895
1.308918
1.357794
1.416802
1.467466
1.553893
1.815557
6.033778
18.749833
63.357949
127.009749
267.565846
408.967733
607.975721
742.999911
843.459964
835.710764
733.581781
608.027577
406.969786
273.345709
139.961839
76.085925
30.880570
17.075539
15.118718
18.370748
27.550459
38.425922
58.550835
75.183511
99.180937
112.921000
124.292970
124.370456
115.932822
102.977753
80.852509
64.073801
46.765804
34.681559
25.471449
21.026731
17.357469
16.464591
16.266704
15.841722
15.080571
15.365481
15.344620
15.621781
15.127659
15.181899
14.940500
14.578700
14.525652
14.202595
14.088750
14.089942
13.620853
12.994409
12.408495
12.523532
12.074709
12.489557
11.543632
##ZVALUE=315
0.639558
0.718832
0.778437
0.741482
0.656843
0.797510
0.800490
0.691414
0.716448
0.671744
0.856519
0.688434
0.771880
0.576973
0.724792
0.875592
0.834465
0.915527
0.851750
0.790954
0.821948
0.892878
0.891685
0.844598
0.907779
0.832677
0.949502
0.994802
1.009703
1.039505
1.069903
0.989437
1.215935
1.260638
1.229644
1.463890
1.479983
1.493692
1.621842
3.075600
9.336472
39.680600
89.693666
204.487443
330.975652
532.413721
666.990876
798.764825
831.857920
773.357749
667.986870
483.229756
341.802835
185.880661
102.673769
42.318702
20.566583
13.150573
13.644695
17.756820
24.124980
37.957430
50.314665
70.643425
86.862445
107.165575
115.697980
114.855766
108.356476
93.215704
78.014731
58.509707
43.895841
30.136704
23.096800
18.069744
16.034842
14.376640
13.797879
13.448000
13.609529
13.600588
13.452768
13.262630
13.494492
13.055801
13.383627
12.945533
12.640953
12.531877
12.734532
12.187958
11.882782
12.067556
11.803508
11.327863
##ZVALUE=320
0.700951
0.669956
0.955462
0.760555
0.691414
0.648499
0.739694
0.748634
0.723600
0.589490
0.777841
0.630617
0.665784
0.874996
0.836849
0.631809
0.827909
0.841618
0.908971
0.824928
0.709891
0.790954
0.759959
0.914931
0.799894
0.856519
0.874996
1.012683
1.043677
1.157522
0.928640
1.078844
0.991821
1.065731
1.174808
1.092553
1.059771
1.359582
1.208782
1.351833
1.593828
1.921654
4.513860
22.399426
56.633949
149.722695
249.648690
420.565009
563.586950
733.948946
806.681514
800.840855
724.920034
562.664866
415.384769
235.942602
139.327645
62.912703
31.270981
13.304949
10.677576
11.787415
14.829636
21.299720
30.586720
47.144890
62.371492
82.288980
96.723437
107.453465
108.474493
101.513863
90.127587
70.672631
55.954456
38.118958
29.025674
20.559430
16.533732
13.471842
12.812614
12.314916
12.466908
12.187958
12.004972
11.858940
11.896491
12.056828
11.900663
11.709929
11.532903
11.294484
11.364818
11.296868
11.308789
11.149645
##ZVALUE=325
0.647902
0.707507
0.673532
0.900626
0.726581
0.770688
0.609756
0.770688
0.793934
0.792742
0.730753
0.698566
0.622869
0.520945
0.841618
0.802875
0.875592
0.826716
0.831485
0.729561
0.705719
0.809431
0.953674
0.777841
0.884533
0.790954
0.768900
0.847578
0.891685
1.045465
1.014471
1.056790
0.978708
0.956655
1.070499
1.082420
1.164675
1.026988
1.246929
1.461506
1.486540
1.529455
1.608729
1.777411
2.588630
14.204979
36.948919
97.810626
177.833438
340.674520
480.870008
662.554502
755.025744
795.658827
748.617649
597.785711
457.355976
283.322930
175.747871
79.581738
39.224625
15.358925
9.612441
9.164810
9.986758
13.347864
18.713474
29.894710
42.583942
60.621500
75.578690
90.927482
97.723603
98.976493
93.195438
80.099702
66.872835
50.491691
37.577748
25.223494
19.326806
14.645457
12.749434
11.576414
11.386871
11.143684
11.222959
11.139512
10.776520
10.937452
10.896921
10.835528
10.752678
10.667443
10.310411
10.371804
##ZVALUE=330
0.660419
0.691414
0.590682
0.692606
0.665784
0.674725
0.710487
0.753999
0.724792
0.727773
0.863671
0.762939
0.780821
0.820756
0.709891
0.731945
0.673532
0.693798
0.741482
0.864863
0.690818
0.686646
0.883937
0.946522
0.830889
0.880957
0.824928
0.925660
0.870824
0.930429
0.960827
0.991821
0.898838
1.020432
0.881553
0.902414
0.920892
0.946522
0.876784
0.960827
1.121759
1.067519
1.172423
1.379848
1.337528
1.479983
1.792908
6.179810
19.710660
65.946579
126.725435
260.103941
392.323732
580.601692
698.962808
781.963468
764.843822
653.616786
529.859662
345.034599
226.687789
108.455420
56.660771
22.400618
11.646748
8.342862
8.432865
9.244680
12.290478
19.176602
26.954412
40.831566
54.166913
73.796511
85.261464
93.554854
94.530582
87.368488
77.345967
60.778856
47.232509
33.611655
25.626421
18.717647
15.291572
12.180805
11.412501
11.084676
10.606647
10.446906
10.354519
10.265708
10.250807
10.163784
10.060668
10.080934
##ZVALUE=335
0.651479
0.612736
0.657439
0.577569
0.699759
0.640750
0.540614
0.570416
0.682473
0.559688
0.576973
0.556707
0.624657
0.654459
0.631809
0.538826
0.748634
0.766516
0.749826
0.804663
0.596642
0.685453
0.835657
0.674725
0.850558
0.712872
0.813603
0.776649
0.868440
0.792742
0.816584
0.892878
0.788569
0.934601
1.037717
1.078844
0.911951
0.836849
0.923872
0.868440
0.998974
1.091957
1.144409
1.127720
1.270771
1.316667
1.294613
1.438856
1.487732
3.094673
10.073781
40.142536
84.883571
191.282630
312.365890
500.708818
627.229810
737.434030
757.714510
683.130026
579.730868
404.213667
276.160836
147.664547
79.998970
29.732585
14.116764
8.411407
7.683635
8.387566
9.216666
12.245774
16.647577
27.268529
37.611723
54.022670
67.121983
80.179572
87.083578
88.520646
82.352757
70.829988
59.904456
46.314001
35.980940
25.123954
18.912554
14.223456
12.506843
10.887980
10.194778
9.934902
9.863973
9.845495
9.891987
9.803772
##ZVALUE=340
0.467896
0.473857
0.508428
0.462532
0.624657
0.454783
0.395775
0.359416
0.324845
0.393987
0.349879
0.485778
0.354648
0.437498
0.484586
0.478625
0.484586
0.488758
0.587702
0.613928
0.407696
0.592470
0.460744
0.559688
0.550747
0.438690
0.487566
0.482798
0.487566
0.488758
0.713468
0.662804
0.628829
0.718832
0.768900
0.712872
0.818968
0.685453
0.787973
0.798702
0.843406
0.801682
0.719428
0.741482
0.576973
0.776649
0.750422
0.907779
0.904799
1.310706
1.184940
1.708865
4.975796
23.963451
59.124827
149.194598
254.435539
420.909524
552.019477
686.759949
733.645558
702.870488
618.859529
463.756919
331.323743
175.310969
98.605752
41.061640
19.086599
8.638501
7.736683
7.908940
8.304715
9.313822
12.024641
17.579794
24.991632
37.222505
48.732758
64.905882
74.919462
81.676841
81.964731
77.444911
69.828629
56.952834
45.536757
33.121705
25.592446
18.006563
14.125705
11.283755
10.293722
9.747744
9.406805
9.194613
##ZVALUE=345
0.526905
0.588894
0.557899
0.479817
0.542998
0.523925
0.568628
0.556707
0.587702
0.630617
0.675917
0.582933
0.575781
0.586510
0.580549
0.662804
0.681877
0.766516
0.665784
0.594854
0.489950
0.679493
0.708699
0.494719
0.632405
0.687838
0.726581
0.617504
0.795722
0.723600
0.760555
0.713468
0.678897
0.816584
0.616908
0.596642
0.818968
0.758767
0.853539
0.857711
0.774860
0.876784
0.830889
0.798702
0.759959
0.896454
0.837445
0.951886
1.003742
1.059771
1.089573
1.002550
1.234412
1.422763
2.490878
13.241768
36.605597
96.696615
174.766779
323.735476
451.191664
608.865619
681.189895
704.909563
649.963021
507.229567
383.630991
230.330825
132.986903
54.529905
26.818514
10.967851
7.887483
7.759929
7.695556
7.989407
8.963943
11.436939
15.467405
24.556518
33.182502
47.385693
57.174563
68.288445
73.759556
75.898767
73.265433
65.288544
56.742430
44.184923
34.322739
23.663640
18.363595
13.468862
11.359453
10.158420
##ZVALUE=350
0.448823
0.640750
0.496507
0.440478
0.602603
0.441670
0.397563
0.392795
0.446439
0.573993
0.524521
0.504851
0.392795
0.611544
0.579953
0.582933
0.589490
0.558496
0.466704
0.556707
0.556707
0.346899
0.610948
0.594854
0.677705
0.467896
0.682473
0.530481
0.596642
0.701547
0.586510
0.520945
0.445843
0.590682
0.681877
0.585914
0.699759
0.644922
0.853539
0.479817
0.678897
0.711679
0.665784
0.626445
0.834465
0.757575
0.775456
0.852942
0.738502
0.926852
0.985861
0.810623
0.853539
1.135468
1.079440
1.296997
1.565814
6.394982
20.474792
64.444542
122.927427
250.656605
368.936658
525.383949
625.585914
688.076019
665.414929
553.357005
429.419875
260.281563
163.129568
76.668859
36.950707
13.146996
8.268952
7.165670
7.061958
7.068515
7.208586
8.350611
10.160804
15.257597
21.156669
30.346513
39.126873
51.972866
60.197711
67.759752
70.035458
67.553520
62.099695
51.316619
42.697787
30.289888
23.834705
16.881824
##ZVALUE=355
0.273585
0.397563
0.394583
0.459552
0.223517
0.482798
0.331998
0.243783
0.101924
0.250936
0.368953
0.447631
0.358820
0.432730
0.229478
0.288486
0.347495
0.321865
0.365973
0.366569
0.384450
0.354648
0.458956
0.444651
0.530481
0.443459
0.450611
0.445843
0.325441
0.527501
0.547767
0.403523
0.523925
0.470877
0.512600
0.498891
0.408888
0.385642
0.533462
0.680685
0.445843
0.454783
0.430942
0.470877
0.567436
0.618696
0.638962
0.657439
0.654459
0.703931
0.663996
0.588894
0.705719
0.699759
0.729561
1.012683
0.939965
0.867844
1.182556
3.096461
10.634661
41.884780
85.802674
183.136463
290.955901
460.284948
566.855669
648.484826
654.355884
566.195846
463.696718
314.856768
201.782584
92.432499
45.869946
16.229749
8.829832
6.845593
6.693602
6.705523
6.454587
7.073879
7.615685
9.704828
12.515783
18.449426
25.213957
36.113858
44.324994
53.646564
60.239434
63.625574
62.005520
56.923628
50.126910
39.475560
##ZVALUE=360
0.479817
0.499487
0.306964
0.431538
0.569820
0.526905
0.501871
0.459552
0.675917
0.525713
0.631809
0.634789
0.599623
0.634789
0.604987
0.687838
0.632405
0.614524
0.593662
0.578761
0.559688
0.554919
0.612736
0.643730
0.605583
0.551939
0.614524
0.590682
0.532866
0.595450
0.587702
0.760555
0.749826
0.775456
0.719428
0.808835
0.759959
0.618696
0.663996
0.767708
0.883937
0.796914
0.635982
0.649691
0.706911
0.816584
0.841618
0.771880
0.765920
0.712872
0.800490
0.835657
0.891685
1.006722
1.009703
1.113415
1.076460
1.254678
1.072884
1.355410
1.431704
1.694560
4.997849
21.253824
52.394867
130.926967
219.019651
364.345908
484.296679
607.877970
640.857816
601.419806
516.193509
358.804464
248.281956
124.769807
67.418814
26.444793
11.909604
6.814599
6.614923
6.860495
6.295443
6.249547
6.301999
7.374883
8.058548
10.843873
14.228821
21.484494
28.383732
38.982630
46.105981
54.039955
57.148933
57.517886
##ZVALUE=365
0.687838
0.497699
0.628829
0.474453
0.610948
0.553727
0.539422
0.691414
0.557899
0.504851
0.491738
0.460744
0.629425
0.602603
0.682473
0.771880
0.666976
0.596642
0.655651
0.658631
0.635982
0.634789
0.648499
0.735521
0.721812
0.626445
0.674725
0.508428
0.718832
0.722408
0.657439
0.732541
0.825524
0.848770
0.654459
0.835657
0.779629
0.726581
0.775456
0.757575
0.821948
0.851750
0.719428
0.738502
0.756979
0.799894
0.842810
0.882745
0.897646
0.828505
0.895858
1.013875
0.807643
0.938773
1.024604
1.004934
1.034737
1.050830
1.047850
0.964999
1.216531
1.218915
1.444817
1.589656
2.529621
12.296438
32.482743
87.800622
162.408948
305.908918
421.070457
544.030666
606.844425
606.063604
539.489985
401.876569
287.537575
162.597895
90.336800
34.991503
15.691519
7.357597
6.376505
5.974770
6.249547
6.091595
5.971789
6.059408
6.323457
7.407665
8.864999
13.099909
17.087460
25.081635
31.338930
40.741563
##ZVALUE=370
0.523925
0.566840
0.529885
0.437498
0.372529
0.481606
0.403523
0.576973
0.464916
0.574589
0.442863
0.473857
0.520945
0.631809
0.579953
0.625849
0.635982
0.445843
0.416636
0.508428
0.521541
0.575781
0.475645
0.588894
0.460744
0.450611
0.549555
0.618696
0.543594
0.654459
0.674725
0.572801
0.529885
0.521541
0.466704
0.466704
0.545979
0.642538
0.477433
0.492930
0.546575
0.710487
0.735521
0.607967
0.630617
0.477433
0.671744
0.708699
0.561476
0.706911
0.715852
0.662804
0.745654
0.774860
0.727773
0.706911
0.851750
0.822544
0.806451
0.813603
0.997782
0.934601
0.982881
1.121759
1.093745
1.364946
1.492500
6.123781
19.907951
63.813925
119.950771
229.626894
340.777636
490.498543
569.577813
600.309968
560.061932
446.837544
334.181786
189.989805
109.517574
44.771433
22.367835
9.394884
6.065965
5.438924
5.548596
5.630851
5.278587
5.218983
5.208850
5.631447
6.265640
8.349419
10.982752
15.598536
##ZVALUE=375
0.732541
0.578761
0.592470
0.697970
0.693798
0.482798
0.503659
0.537634
0.564456
0.690818
0.648499
0.707507
0.668764
0.735521
0.692606
0.635982
0.670552
0.665784
0.629425
0.563860
0.626445
0.511408
0.730753
0.594854
0.612736
0.668764
0.701547
0.760555
0.694990
0.658631
0.692606
0.752807
0.749826
0.715852
0.674725
0.781417
0.587702
0.632405
0.760555
0.672936
0.758767
0.633597
0.667572
0.750422
0.908971
0.753999
0.791550
0.760555
0.788569
0.753999
0.811815
0.690818
0.893474
0.871420
0.796914
0.724792
0.949502
0.797510
0.867844
0.889897
0.909567
0.952482
1.056790
1.071692
1.133680
1.029968
1.223683
1.356602
1.552701
3.482699
10.721684
38.163662
80.719590
181.910396
284.857750
432.927608
524.823666
588.654876
580.344796
489.013791
384.649634
239.460468
153.946877
76.817870
39.878488
14.218688
7.461905
5.416870
5.242825
5.045533
4.985929
4.995465
4.686713
4.937649
5.161762
5.718470
##ZVALUE=380
0.628829
0.522733
0.494719
0.644922
0.631809
0.565648
0.556707
0.674725
0.580549
0.618696
0.633597
0.622869
0.559688
0.670552
0.582933
0.615716
0.520945
0.597835
0.521541
0.657439
0.618696
0.629425
0.576973
0.747442
0.439882
0.645518
0.644922
0.676513
0.723600
0.627637
0.918508
0.793934
0.732541
0.693798
0.699759
0.723600
0.728965
0.664592
0.678897
0.780821
0.714660
0.698566
0.652671
0.703931
0.685453
0.801682
0.754595
0.626445
0.748634
0.628829
0.753999
0.800490
0.807643
0.779629
0.741482
0.740886
0.754595
0.754595
0.798702
0.833869
0.865459
0.839829
0.715852
0.891685
1.083612
1.014471
1.070499
1.005530
0.960827
1.311898
1.291633
2.132654
6.103516
26.672482
62.328577
146.057606
237.629414
375.299454
479.144454
573.740005
586.592555
519.384742
429.312587
294.759870
198.962688
101.161003
55.269599
22.700429
10.182858
5.398989
4.758835
4.510880
4.596710
4.789829
4.622936
4.562736
##ZVALUE=385
0.583529
0.659823
0.689626
0.469685
0.664592
0.551939
0.619888
0.569820
0.576973
0.385642
0.631809
0.602603
0.619888
0.591874
0.755787
0.570416
0.767708
0.725985
0.583529
0.718832
0.733733
0.621676
0.604987
0.577569
0.609756
0.550747
0.663996
0.729561
0.673532
0.745654
0.743866
0.820756
0.752807
0.764728
0.796914
0.516772
0.677705
0.620484
0.780821
0.864863
0.700951
0.611544
0.613928
0.811815
0.708699
0.636578
0.853539
0.717640
0.845790
0.804663
0.674725
0.771880
0.616908
0.686646
0.745654
0.776649
0.710487
0.765920
0.879765
0.801682
0.861883
0.788569
0.817776
0.774860
0.715852
0.652671
0.742674
0.952482
0.999570
1.069903
1.064539
1.312494
1.331568
1.474619
2.889633
14.525652
37.560463
94.416738
169.854760
305.656791
416.602492
527.779460
564.458966
546.073914
483.754873
360.260010
259.930491
143.960714
82.719922
35.655499
15.616417
5.995631
4.631877
4.337430
4.504919
4.381537
##ZVALUE=390
0.567436
0.595450
0.655651
0.561476
0.632405
0.570416
0.647902
0.473857
0.748634
0.632405
0.556707
0.643730
0.499487
0.678897
0.653863
0.537634
0.531673
0.565648
0.537634
0.568628
0.620484
0.522733
0.517964
0.529885
0.639558
0.594854
0.579953
0.511408
0.744462
0.581741
0.629425
0.563860
0.523925
0.597835
0.756979
0.731945
0.620484
0.677705
0.699759
0.733733
0.636578
0.700951
0.747442
0.730753
0.479817
0.700951
0.778437
0.782609
0.809431
0.846982
0.722408
0.670552
0.577569
0.839829
0.785589
0.607967
0.696778
0.643730
0.769496
0.948906
0.574589
0.878572
0.734925
0.811815
0.821948
0.776649
0.877976
0.909567
1.108646
0.893474
0.990629
1.008511
1.096725
1.267791
1.225471
1.287460
1.927614
7.872581
23.175478
69.469810
130.344629
252.576470
358.209014
483.861566
545.041561
569.656491
526.000857
418.974757
322.789550
198.105574
117.498636
49.465895
24.051666
8.774996
4.921556
4.102588
##ZVALUE=395
0.552535
0.567436
0.580549
0.589490
0.563860
0.650883
0.570416
0.579953
0.589490
0.627637
0.551939
0.601411
0.511408
0.432730
0.366569
0.405908
0.542998
0.507832
0.600815
0.611544
0.673532
0.451803
0.546575
0.513792
0.542998
0.656843
0.715852
0.580549
0.639558
0.819564
0.701547
0.723600
0.577569
0.678897
0.749826
0.742674
0.692606
0.525713
0.641942
0.762939
0.724792
0.696778
0.726581
0.732541
0.785589
0.737906
0.689626
0.739694
0.637770
0.672936
0.666976
0.647902
0.755787
0.644922
0.554919
0.563860
0.706911
0.751615
0.741482
0.832677
0.875592
0.816584
0.795722
0.664592
0.718832
0.852942
1.023412
0.841618
0.970960
1.046658
1.028776
0.942945
0.998974
1.134872
1.016855
1.126528
1.072884
1.253486
1.283884
4.518628
14.872551
51.325560
97.567439
187.525749
284.407735
426.502824
512.794852
573.578477
564.212799
482.905507
382.640958
241.500735
153.149962
68.145990
33.682585
12.001991
##ZVALUE=400
0.515580
0.499487
0.420809
0.622869
0.517964
0.636578
0.372529
0.531673
0.652671
0.579953
0.630617
0.557899
0.747442
0.722408
0.588894
0.485778
0.576973
0.554919
0.709891
0.555515
0.529885
0.611544
0.465512
0.519753
0.666976
0.528693
0.521541
0.639558
0.707507
0.658631
0.584722
0.699759
0.691414
0.669956
0.832677
0.671744
0.658631
0.673532
0.644922
0.740886
0.620484
0.630617
0.512600
0.676513
0.726581
0.537634
0.675917
0.705719
0.737906
0.682473
0.701547
0.711679
0.751615
0.733733
0.681877
0.694990
0.613928
0.812411
0.579953
0.757575
0.793934
0.783801
0.761747
0.794530
0.889897
0.840425
0.914931
0.960827
0.902414
0.901818
0.988841
0.941753
1.021624
0.897646
1.007915
0.973940
0.791550
1.060963
1.111627
1.016855
1.195669
2.503991
8.175969
28.779507
61.887503
140.544772
226.819515
360.699892
454.027653
535.820723
552.606583
494.861603
411.300659
276.550651
184.438825
94.729662
##END
