##TITLE=FQP00602
##FORMAT=SPECTACLE-ASCII V-1.2
##DATA TYPE=ULTRAVIOLET SPECTRUM
##SECOND TYPE=ULTRAVIOLET SPECTRUM
##DATE=01/21/18
##TIME=15:48:41
##SPECTROMETER/DATA SYSTEM=SPECTACLE
##XUNITS=NM EM
##YUNITS=ENERGY
##YFACTOR=1
##FIRSTX=220
##LASTX=410
##NPOINTS=96
##3DDATA=Equidistant
##ZUNITS=NM EX
##FIRSTZ=210
##LASTZ=400
##ZPOINTS=39
##XYDATA=(Y..Y)
##ZVALUE=210
1.829863
1.648664
1.857877
1.703501
1.417994
2.209544
1.868606
2.987981
2.171993
2.165437
2.446771
2.737641
2.765656
2.637506
2.896786
2.784729
3.681779
3.456473
3.898740
4.884601
3.868937
4.664660
4.329681
4.564524
5.591512
6.123781
5.828738
6.018877
7.153749
6.755590
7.539988
8.041859
7.093549
8.314848
8.294582
8.984804
9.354949
8.880496
8.902550
8.150935
8.827448
8.317828
8.632541
9.360909
9.383559
8.670688
8.435845
8.886456
8.731484
9.440780
10.139942
8.512735
9.190440
9.187460
8.702874
8.619428
9.142756
9.330511
9.862781
9.553432
8.798838
10.378957
10.778904
9.956956
10.034442
9.703636
11.417866
11.619925
14.361739
15.754700
19.557476
21.362901
26.144981
29.638410
34.139752
37.450790
35.991669
37.191510
36.391616
35.027862
29.327869
26.559830
22.681952
19.768476
15.411973
12.427568
10.979772
10.255575
9.951591
9.593964
9.005666
8.318424
9.299517
9.268522
9.588599
8.759499
##ZVALUE=215
7.616878
7.906556
7.317662
6.432533
5.378723
4.209876
4.595518
4.315972
3.564954
5.162954
4.926920
5.062819
4.252791
3.358722
3.299713
3.271699
3.654957
4.185438
4.576445
3.861785
5.320907
4.652739
5.209446
5.541444
5.294681
6.885529
7.089972
8.338690
8.422732
9.284616
9.315610
10.149479
11.305809
12.533665
11.451840
11.768937
11.314750
12.819767
11.956692
12.637973
11.523962
12.165904
12.159944
10.637641
12.278557
12.553930
12.794733
11.054873
11.500716
11.896491
11.009574
10.951757
11.642575
10.202527
10.368824
10.220408
10.161996
11.098981
10.495782
10.683537
10.240674
10.409951
11.027455
11.043549
10.921955
10.242462
10.574460
12.603998
14.296770
14.836788
17.813444
20.361543
23.772717
24.752617
27.418733
27.731657
29.496551
29.254556
27.352571
27.211905
23.884773
22.253990
18.979907
15.876889
13.974905
13.213754
10.743737
9.875894
9.595752
8.843541
8.480549
8.213520
8.513927
8.406639
8.601546
8.906722
##ZVALUE=220
29.489994
31.169653
32.366514
31.372905
29.474497
22.459626
18.514991
12.217760
9.210706
9.760857
10.190606
11.964440
11.626482
10.453463
10.318756
8.251667
5.541444
5.547404
4.399419
4.921556
4.821420
4.904866
4.683733
6.351471
6.125569
6.810427
7.830858
8.721948
10.173917
12.446642
11.858940
14.613867
14.212728
16.138554
16.675591
17.261505
16.834736
18.338561
18.251538
17.386675
16.508698
17.202497
15.138984
16.162992
14.602542
14.635921
14.509559
14.848709
12.928843
14.250875
13.892651
13.752580
12.848973
13.096929
12.600422
13.267994
11.594892
11.108518
11.446476
11.990666
11.018515
11.459589
11.605620
12.159944
12.215972
11.637807
11.086464
12.698770
13.335943
16.632676
18.017888
20.855665
22.232533
26.798844
28.156638
30.279756
30.809641
32.314658
30.193925
28.082728
26.171803
24.603605
21.319985
19.291639
17.395616
15.319586
12.634993
12.340546
12.049675
10.679960
10.683537
10.282993
10.352731
10.831952
10.507703
9.845495
##ZVALUE=225
63.287616
63.642859
83.999634
116.922855
119.446516
116.518736
106.542706
77.226758
54.720640
41.001439
24.987459
22.005439
22.438765
22.842884
27.271509
23.248792
20.694733
16.996861
13.300776
9.430647
6.678700
7.365942
6.398559
6.617904
6.575584
7.814765
8.078814
9.867549
12.042522
13.417602
16.601682
16.633868
19.744635
22.625923
21.106601
23.684502
24.168491
23.931861
23.534894
22.811890
22.560954
21.018982
22.107959
21.688938
20.916462
21.662712
19.415617
18.492937
17.943978
17.877817
16.693473
15.751719
15.543699
16.036630
14.737844
15.263557
13.594627
15.121698
14.178753
14.477968
14.389753
13.883710
14.514923
13.377666
13.301969
14.505982
14.416575
14.584661
15.929937
18.551946
18.742681
21.526814
24.682879
25.181770
25.847554
26.303530
26.960969
25.153756
26.220679
24.728775
23.343563
20.646453
18.745661
18.911958
16.645789
15.907884
14.111996
14.122725
13.179779
12.524724
13.006926
11.904836
12.461543
11.596680
12.567639
12.220740
##ZVALUE=230
54.604411
65.351725
102.963448
168.250799
224.088430
286.652446
287.423730
272.814631
232.746601
189.296603
119.236708
82.469583
52.067637
44.204593
46.841502
48.226714
50.804615
48.466921
41.502714
36.654472
29.644966
18.947721
13.978481
10.400414
7.817745
8.260608
8.701682
10.063648
11.404753
13.562441
15.188456
18.867850
19.788742
20.664930
22.311807
23.015738
25.126934
26.745796
25.092959
26.043653
25.369525
24.906993
23.643970
23.988485
23.882985
23.827553
22.221804
21.537542
19.926429
18.266439
19.129515
18.162727
17.980933
16.450882
16.330481
16.823411
17.046928
18.099546
16.554594
16.049743
15.574694
15.117526
16.001463
15.230775
15.875697
15.372634
15.965700
16.776919
17.847419
19.310713
21.295547
21.407604
21.686554
23.411512
25.330782
23.545623
24.411678
24.257898
24.352670
23.401976
21.932721
22.355914
21.583438
19.765496
18.650889
18.443465
17.729998
17.014742
16.023517
16.624928
17.651916
17.067790
15.979409
17.423630
17.061830
15.702844
##ZVALUE=235
17.525554
20.845532
46.132803
110.800862
181.670785
293.851495
381.865501
486.295819
510.363579
500.229597
414.546728
318.065882
201.861858
141.217709
89.566708
75.986981
70.999861
79.821944
81.584454
82.603693
80.015659
67.230463
52.943826
37.085414
27.637482
15.735626
13.557673
9.498000
10.645986
11.007786
12.772679
14.718771
14.405847
18.456578
19.415617
21.410584
20.575523
23.014545
22.083521
23.074746
26.234984
24.211407
23.875833
24.690628
23.316741
21.516681
21.835566
20.747781
19.340515
19.800663
19.548535
18.889904
17.498732
17.596483
18.501878
16.945601
17.151833
18.246770
17.888546
16.720891
16.843677
16.866922
17.524958
17.094612
19.339919
19.244552
17.594695
19.660592
19.815564
20.433664
24.577975
23.687482
23.900867
26.123524
27.570724
29.783845
28.266907
28.421879
28.671622
27.926564
27.906895
26.831627
27.641654
26.669502
26.689768
25.715828
25.278926
25.663972
25.512576
25.464892
25.665760
24.457574
24.076700
23.685694
24.312735
25.608540
##ZVALUE=240
2.258420
2.593994
7.043481
17.232895
46.528578
114.673972
212.353468
391.183496
549.218655
709.728003
816.392899
821.037889
750.755668
584.071875
451.863408
271.584988
179.344416
115.966797
101.912618
100.805759
114.531517
118.349791
117.238760
105.004907
87.670684
68.723559
50.910711
37.310719
23.989677
17.638803
15.220642
15.174747
15.039444
16.950965
17.860532
18.931627
19.506812
20.705462
21.075606
22.317767
22.789836
22.420883
22.335649
23.401976
21.482706
21.158457
21.729469
21.350980
20.813942
19.604564
18.726587
18.255711
19.061565
18.955469
18.973947
18.122792
19.238591
19.978881
18.734932
18.074512
19.501448
19.687414
19.093752
19.933581
19.370914
22.102594
21.150708
21.933913
24.327636
24.466515
26.100874
27.187467
31.001568
31.962991
33.620596
32.997727
34.242868
34.523606
32.946467
34.506917
32.597780
34.241676
35.171509
33.471584
33.229589
31.095743
31.299591
33.208728
31.891465
33.802986
31.514764
35.223961
33.229589
30.475855
29.770732
31.786561
##ZVALUE=245
1.351833
1.591444
1.747608
1.918674
3.237724
11.320710
37.575960
89.323521
238.118768
399.144888
663.771033
845.720768
994.928479
1015.944481
984.577537
796.082020
617.936850
390.326977
255.399942
140.544772
107.598901
103.755593
120.072961
129.104853
133.571625
132.355690
119.511485
100.942850
75.722933
59.592724
43.358803
29.509664
24.022460
18.231869
17.698407
17.631650
17.721653
18.542409
18.305779
19.188523
18.474460
17.715693
18.201470
18.870831
17.889738
16.722679
16.412735
16.975999
17.309785
16.773939
15.889406
15.674829
15.925765
14.622808
15.954971
14.378428
15.361905
15.445948
16.141534
15.397668
15.400648
14.854670
15.887618
16.872883
17.811656
17.519593
18.691421
18.414855
21.450520
23.164749
24.560690
25.395751
26.079416
27.096868
28.492808
30.466914
30.087829
30.462742
29.489994
30.849576
31.019449
31.938553
31.020641
31.965971
31.863451
30.576587
30.646920
31.023622
32.165647
32.047629
31.595826
32.882690
32.382607
30.339956
31.262636
29.830933
##ZVALUE=250
0.707507
1.271963
1.030564
1.008511
1.666546
1.372695
1.910925
6.014705
29.034615
67.141652
184.266567
332.174897
503.661633
743.374825
900.821686
988.857746
951.929688
819.412470
658.738613
429.604650
279.527903
181.132555
112.103820
97.673535
111.833811
125.293732
140.997767
143.703818
142.032504
129.571557
114.620924
88.571906
69.266558
46.985745
33.998489
24.213791
21.967888
18.781424
18.123984
19.592643
19.751787
19.087791
19.736886
18.116832
18.140674
18.161535
17.981529
16.791821
15.772581
16.183853
15.517473
15.773773
15.561581
15.583634
15.473962
13.817549
14.965534
13.988614
14.361739
13.926625
14.588833
15.324950
16.387701
14.848709
15.905499
17.283559
16.222000
17.833710
17.749667
19.990802
20.688772
20.868778
21.511912
22.726655
24.365783
26.167631
26.211739
25.643706
26.821494
27.790666
27.269721
27.077794
26.459694
29.013753
28.440952
28.425455
29.751658
28.575659
28.590560
30.106902
30.341744
28.541684
29.657483
30.706525
29.484630
30.214787
##ZVALUE=255
0.862479
1.077652
1.222491
1.026988
0.995994
1.025796
1.414418
1.503825
1.902580
3.246665
16.624928
41.574836
96.246600
222.782493
367.803574
588.373542
740.970969
869.655013
900.356770
821.849704
691.325665
534.221530
329.278708
208.594799
116.377473
93.694925
96.500516
109.843612
136.392713
151.868463
159.136653
159.149766
148.618817
122.387409
101.592541
72.386861
56.137443
39.282441
30.471683
26.358962
25.505424
24.624467
25.033951
22.928715
23.270845
21.436810
21.981597
20.542741
20.041466
19.218922
19.413829
17.780662
18.176436
17.001629
16.726851
16.709566
16.194582
15.850663
15.136600
16.237497
15.694499
16.334653
15.900731
15.426874
16.268492
17.150640
17.239451
18.320680
17.667413
18.957853
21.808743
21.560788
22.666454
23.793578
25.101900
26.039481
25.282502
26.378632
25.665760
26.645660
27.149916
27.410984
28.137565
28.323531
27.026534
26.322603
27.454495
28.399825
29.452443
27.541518
28.469563
27.826428
29.021502
27.665496
28.556585
27.952790
##ZVALUE=260
0.936985
1.101494
1.080632
1.057982
1.021624
0.926852
0.997782
1.044869
1.160502
1.073480
1.504421
2.904534
17.173886
36.050677
94.126463
259.944797
443.969965
657.631755
949.170589
1015.943885
1015.943885
1015.943885
903.131962
698.330998
449.574590
299.433470
170.796514
113.200545
89.100599
96.480846
123.920441
146.430731
164.462924
175.777674
173.396468
157.265663
137.648582
106.345415
83.939433
62.925816
49.794912
38.706660
32.726526
30.532479
28.807521
28.369427
26.405454
25.546551
24.554729
25.209785
22.589564
22.486448
21.740794
20.571947
19.585490
19.340515
18.516779
18.235445
17.452836
17.196536
16.958714
15.869737
17.364621
16.467571
16.351938
16.728640
17.198920
17.255545
18.006563
19.079447
18.814802
20.407438
22.063851
21.222830
22.845864
23.916960
23.543835
24.441481
25.064945
25.503635
24.777651
26.400685
25.760531
25.044680
24.617910
24.736524
25.117993
26.111603
25.672913
27.738810
26.014447
26.041865
27.101636
26.385784
26.435852
26.626587
##ZVALUE=265
0.852942
0.864863
0.939965
0.806451
0.857711
0.840425
0.998974
0.865459
1.105666
1.123548
1.632571
1.573563
1.764894
1.570582
4.072785
23.495555
59.585571
158.978701
285.757780
544.655919
761.087537
958.133936
1015.948653
1015.948653
1001.832485
840.405822
605.269670
418.413877
236.347914
149.135590
102.423429
90.467930
104.670525
137.505531
161.840916
183.910728
189.953446
183.095932
169.097781
138.151646
116.062760
87.595582
68.223476
49.997568
39.764643
33.787489
30.853748
29.723644
27.252436
26.120543
25.010705
24.927855
22.181869
22.455454
21.327734
20.775795
18.987656
18.715858
17.561913
17.913580
17.793775
17.270446
17.225742
16.776919
15.228987
16.250610
16.578436
16.258955
16.998649
17.390847
17.914772
18.599629
19.280910
20.748973
20.173788
21.008849
21.245480
22.332668
21.702647
22.071600
22.160411
23.125410
23.258924
24.607778
23.398995
24.540424
24.128556
24.612546
24.790764
25.018454
25.504827
25.013685
25.212765
25.622845
24.708509
25.442839
##ZVALUE=270
0.681877
0.630617
0.576973
0.728965
0.306964
0.599623
0.564456
0.759959
0.637770
0.701547
0.744462
0.780821
1.030564
0.978708
1.052618
1.212955
1.580715
7.577538
22.721887
73.816776
148.050785
268.933773
493.847728
679.226518
891.335011
976.659656
966.552496
881.299973
681.746006
517.461896
386.073589
200.506449
123.962760
84.607601
87.789893
114.273429
138.742924
166.884661
182.771683
191.669464
182.569623
167.014599
146.534443
113.867521
91.942549
64.285994
49.352646
37.543774
32.505989
27.844906
26.880503
24.380684
23.240447
22.215843
21.249652
19.515753
19.021630
18.631816
17.853975
17.246604
16.508698
16.305447
15.785694
15.336871
15.919805
15.763640
15.582442
16.985536
17.105937
16.445518
17.581582
17.615557
17.835498
18.944740
19.195676
19.098520
20.413995
20.231605
20.995736
21.565557
21.072626
21.916628
21.673441
22.185445
22.149682
22.633672
22.618771
23.766756
23.168921
22.878647
23.224950
23.801923
23.490787
23.026466
23.542643
24.167895
##ZVALUE=275
0.675917
0.514984
0.737906
0.602603
0.522733
0.673532
0.653863
0.658631
0.539422
0.566840
0.696778
0.800490
0.640750
0.785589
0.808835
0.924468
1.136661
1.280904
1.442432
3.038645
11.737943
46.713948
103.542805
225.975513
364.314914
556.561947
683.928728
802.483559
840.025544
791.356564
698.784590
520.433784
379.277468
219.912529
140.444636
84.008574
70.267916
84.678531
104.255676
134.023428
155.539513
175.713897
182.984471
173.622966
157.526731
128.908753
104.866624
77.480674
60.081482
42.146444
32.804608
25.611520
23.211837
21.185875
19.379854
18.959641
17.884970
17.249584
16.133785
16.508698
15.969872
15.389919
15.618801
15.491843
15.196800
15.758872
14.942884
16.225576
15.841722
15.862584
17.018914
17.561913
17.884970
18.350482
19.065738
18.877983
19.516945
20.173788
19.640923
20.110607
21.144748
21.882653
20.935535
21.363497
21.547675
22.291541
22.436976
22.776723
22.664666
21.908879
21.899939
22.310615
22.411942
21.996498
22.688508
22.470951
##ZVALUE=280
0.448823
0.489950
0.275970
0.649691
0.549555
0.625849
0.685453
0.413656
0.619888
0.838637
0.535846
0.755787
0.666976
0.787973
0.975728
0.906587
0.967979
0.917912
1.110435
1.225471
1.360774
2.023578
9.008646
31.225681
100.874901
186.197758
335.226655
482.734442
675.261021
781.750679
790.254474
843.348503
765.141845
593.535900
448.328853
267.220736
165.097713
87.080002
59.854984
56.847930
69.776773
95.434785
122.429729
148.392916
163.077712
166.625977
160.530806
142.221451
124.114752
93.580484
71.755648
49.706697
35.937428
25.927424
20.774603
17.137527
15.600920
15.557408
15.450716
14.809966
14.862418
14.868975
15.169978
15.022755
14.712811
15.601516
15.748739
15.468597
16.126633
16.783476
17.314553
17.137527
17.398596
18.487573
18.644929
18.649697
19.546747
20.091534
20.115972
20.291805
20.119548
22.001863
22.344589
20.926595
21.809936
21.107793
21.415949
21.870732
22.479892
21.920800
21.453500
21.668673
21.846890
21.959543
22.417903
21.930933
##ZVALUE=285
0.343919
0.342727
0.480413
0.612736
0.390410
0.373721
0.561476
0.543594
0.600815
0.385642
0.554919
0.257492
0.629425
0.664592
0.803471
0.641942
0.813603
0.753999
0.839829
1.030564
0.936985
1.143813
1.199841
1.240969
4.501939
15.559793
58.384538
121.123791
255.489945
396.711826
548.902750
733.152628
832.237601
866.716504
816.231966
668.528676
529.362559
336.134434
214.887857
107.328892
62.701702
38.656592
41.269660
60.946941
82.058907
111.755729
131.602883
149.857998
154.915452
149.917603
138.349533
113.408566
93.548894
65.164566
47.265887
30.186772
22.329688
16.744733
14.523864
13.019443
13.478994
13.448596
13.798475
14.395714
14.158487
14.709830
14.616847
15.143752
15.688539
16.491413
16.361475
17.554760
17.396808
18.279552
18.650889
18.894672
19.307733
19.917488
19.723773
20.637512
20.798445
21.076798
21.185875
21.669865
21.102428
21.762848
21.932721
21.371841
21.442771
21.164417
21.844506
21.465421
20.719767
20.983815
20.948648
21.349788
##ZVALUE=290
0.547767
0.389814
0.386834
0.368953
0.401735
0.535846
0.453591
0.504851
0.447631
0.691414
0.572801
0.611544
0.470877
0.551939
0.548959
0.450611
0.634789
0.740886
0.646710
0.787973
0.589490
0.903606
1.082420
0.884533
1.076460
1.058578
1.941919
6.009936
28.370619
70.129633
164.483786
285.601616
434.930921
650.421977
772.210956
861.811638
847.162008
738.057494
606.604815
414.540768
277.907848
143.992901
79.989433
34.926534
27.347803
37.030578
51.430464
74.878931
96.119642
122.931600
137.152672
148.183703
145.517588
129.940510
112.357736
84.082484
64.579844
41.662455
30.468702
20.981431
16.380548
13.659596
12.773871
13.505816
13.584495
13.890862
14.578700
14.554858
15.331507
16.365647
16.706586
17.354488
17.609596
17.600656
18.186569
19.104481
20.026565
19.611716
20.022988
20.715594
20.765662
21.307468
21.533966
21.545887
21.689534
21.529794
22.019744
21.493435
21.584630
22.083521
21.353960
21.531582
21.532774
21.197796
21.064878
21.242499
##ZVALUE=295
0.169873
0.064969
0.214577
0.250936
0.333786
0.330806
0.357628
0.454783
0.453591
0.428557
0.360608
0.343919
0.413656
0.361800
0.459552
0.673532
0.544786
0.443459
0.543594
0.499487
0.622869
0.599623
0.652671
0.788569
0.829697
0.757575
0.986457
0.960827
1.310706
2.250671
12.556911
35.401583
102.263689
190.551877
363.628864
506.260991
692.376494
792.420506
834.625959
788.158774
656.220913
516.230464
323.282480
205.560923
96.014738
49.063563
23.611784
21.314621
31.174421
45.944452
69.294572
90.113878
114.522576
128.776431
140.041709
137.962699
122.533441
105.940700
83.571672
63.622594
43.156743
31.216741
20.873547
16.331673
14.086962
13.339520
13.396740
14.071465
14.559627
15.413761
15.944839
16.638637
17.690659
17.341971
18.719435
18.783808
19.291639
20.001531
19.923449
20.076632
20.611882
20.934939
21.232963
20.825863
21.943450
21.603703
21.588802
21.835566
21.848679
22.007823
21.521449
21.503568
20.384789
21.092892
20.479560
21.014810
##ZVALUE=300
0.215769
0.336766
0.285506
0.283718
0.361800
0.377893
0.287890
0.350475
0.402927
0.497699
0.295639
0.408888
0.490546
0.401735
0.477433
0.296831
0.483990
0.477433
0.530481
0.536442
0.548959
0.372529
0.536442
0.788569
0.609756
0.823736
0.655651
0.778437
0.879765
0.941753
1.285672
1.394749
5.311966
18.983483
64.152479
128.224492
267.352462
403.155684
594.525933
712.462664
806.444883
808.859468
709.483027
591.284633
400.883555
266.627669
137.986541
75.111985
30.047894
17.755628
18.495917
27.260780
42.319894
58.526993
84.361434
103.710890
123.178959
131.333470
129.982829
120.950937
101.670623
83.769560
60.681701
45.690536
30.184984
22.668839
17.533898
15.343428
15.056729
15.176535
16.016960
16.131997
17.289519
17.602444
18.072724
18.501878
19.491911
19.348860
20.472407
20.846725
20.881891
21.618605
21.362901
21.704435
22.123456
21.890998
22.069812
21.694899
22.782683
21.729469
21.385550
22.074580
21.163821
21.293759
21.144748
21.301508
##ZVALUE=305
0.293851
0.363588
0.295639
0.300407
0.534654
0.419617
0.428557
0.301600
0.230670
0.255704
0.410676
0.449419
0.376701
0.247955
0.304580
0.386834
0.527501
0.463724
0.385642
0.434518
0.403523
0.485778
0.443459
0.561476
0.637770
0.622869
0.552535
0.769496
0.899434
0.884533
0.760555
0.874996
0.980496
1.051426
2.865791
10.786653
42.691827
92.191696
209.036469
326.045752
512.290001
647.818446
778.152943
814.355612
752.859712
648.905635
475.015640
334.885716
179.191828
101.183653
41.995645
20.655990
13.043880
16.281605
26.264787
37.409663
60.534477
77.748895
100.967884
115.570426
125.914812
126.159787
113.893747
100.825429
78.758001
62.088966
43.162704
32.646656
23.018718
18.373728
16.772747
16.405582
16.805530
17.558932
18.572807
19.195676
19.096732
20.219684
20.585656
21.647811
21.823645
21.560788
21.938682
22.186637
22.765994
22.668839
22.383928
22.545457
22.868514
22.167563
22.231936
22.336841
22.276640
22.037625
21.538734
21.859407
##ZVALUE=310
0.388622
0.209808
0.290871
0.218749
0.393987
0.511408
0.244975
0.204444
0.412464
0.402927
0.322461
0.300407
0.226498
0.397563
0.183582
0.349879
0.247955
0.372529
0.418425
0.379682
0.434518
0.420809
0.368953
0.568628
0.441670
0.509620
0.617504
0.531673
0.562668
0.651479
0.587702
0.623465
0.725985
0.794530
0.913739
1.096725
1.242757
5.566478
18.509626
62.656999
121.930838
257.543921
387.160778
574.737787
701.299906
797.402859
795.477629
705.884695
590.815544
400.943756
269.704461
140.736699
75.814724
29.048920
14.723539
11.571646
14.743805
23.310781
33.517480
53.483844
69.450736
93.599558
107.013583
119.261742
121.460557
111.342669
100.823641
79.008937
63.132644
45.296550
34.092665
25.180578
21.276474
19.161701
18.715858
19.043684
19.671917
20.069480
20.453930
21.231771
21.488667
22.112727
22.187829
22.715926
23.497939
23.411512
23.508668
22.848845
23.661852
22.982955
22.829771
22.815466
22.331476
22.013783
21.927953
21.969676
##ZVALUE=315
0.283718
0.210404
0.152588
0.229478
0.229478
0.229478
0.329614
0.240803
0.163913
0.272989
0.410676
0.378489
0.331998
0.401735
0.424981
0.541806
0.463724
0.436902
0.452995
0.344515
0.396967
0.461936
0.209808
0.341535
0.318885
0.389814
0.476837
0.449419
0.532866
0.481606
0.684857
0.755787
0.653863
0.651479
0.619888
0.804663
0.827909
0.942945
1.098514
2.092719
11.535883
33.259988
95.168948
175.402761
336.681604
479.325652
646.857023
748.556852
804.314017
766.466856
636.206865
505.479574
325.137973
206.259489
99.168420
49.100518
16.098619
10.208488
10.678768
13.753772
22.318959
31.942725
49.338937
65.930486
87.392926
102.033615
114.104748
114.158988
106.719732
94.796419
75.885653
61.575770
44.954419
35.655499
26.792884
22.957921
20.968914
20.220876
20.673871
21.227598
21.883845
22.369623
22.263527
22.538900
22.872686
23.063421
23.271441
23.737550
23.534894
23.937821
23.502707
23.223758
22.563934
22.800565
22.391677
22.243857
##ZVALUE=320
0.243783
0.211596
0.024438
0.169873
0.425577
0.135899
0.187755
0.287890
0.120997
0.217557
0.356436
0.289679
0.286698
0.330806
0.384450
0.277758
0.274777
0.297427
0.200868
0.253916
0.329614
0.426769
0.464916
0.449419
0.432730
0.450611
0.345707
0.526905
0.434518
0.433922
0.569820
0.583529
0.544786
0.506639
0.633597
0.660419
0.643730
0.692606
0.719428
0.972748
0.979900
1.542568
4.105568
21.965504
55.899620
144.478679
239.989758
402.954817
541.350842
707.608461
784.090757
793.294907
730.971694
575.559735
429.215431
245.437622
143.607855
63.575506
29.784441
11.852980
9.706616
11.123419
13.885498
21.433830
30.165911
47.702789
62.563419
82.384944
96.495748
108.901858
111.660957
104.786754
94.758868
76.559782
61.675906
45.445561
36.424994
28.209686
24.768710
22.684932
21.891594
22.550821
22.580624
22.692680
23.535490
23.734570
23.153424
23.738742
23.235679
23.370981
23.630857
23.135543
23.379922
23.043752
22.671819
22.821426
##ZVALUE=325
0.219941
0.290871
0.225902
0.175834
0.236630
0.306964
0.173450
0.389814
0.135899
0.375509
0.243783
0.322461
0.279546
0.411868
0.293851
0.131726
0.518560
0.235438
0.298619
0.312924
0.232458
0.321865
0.331998
0.391603
0.215769
0.483990
0.502467
0.399947
0.489950
0.539422
0.369549
0.381470
0.446439
0.568628
0.562668
0.629425
0.519753
0.536442
0.647902
0.712872
0.775456
0.929832
1.037717
1.074672
2.165437
13.640523
35.634637
98.184943
174.868703
329.357982
467.524529
640.941858
743.802786
801.628828
764.133930
625.190735
482.710600
295.886993
182.928443
84.979534
41.759610
15.603900
10.029674
9.310842
10.947585
15.341640
20.205975
32.001734
44.785738
64.869523
79.091787
96.204877
103.683472
105.197430
100.344419
87.015629
75.012445
57.124496
46.004653
35.365820
29.215813
24.837852
23.889542
23.215413
22.596717
22.823811
23.524761
23.617744
23.436546
23.144484
23.444891
23.093820
23.002625
22.759438
22.594929
23.217797
##ZVALUE=330
0.235438
-0.091791
0.032783
0.225902
0.278950
0.411868
0.219941
0.291467
0.120997
0.276566
0.204444
0.243783
0.287890
0.166893
0.128746
0.173450
0.110865
0.156760
0.196695
0.399947
0.365973
0.134706
0.323653
0.322461
0.160933
0.336766
0.410676
0.309944
0.399947
0.388622
0.438690
0.395775
0.467896
0.559688
0.452995
0.568628
0.571609
0.467896
0.601411
0.724792
0.711679
0.895858
0.922680
0.918508
0.996590
0.934601
1.387596
5.847812
19.115806
64.180493
126.112700
253.620744
380.160809
567.153692
693.189502
788.140893
784.090757
685.518980
559.486747
368.796587
239.176750
113.672614
58.344603
23.406744
12.508631
9.760857
10.401607
12.068748
14.494658
22.456646
30.762553
45.309663
58.716536
78.438520
89.876652
99.949837
100.331903
94.990730
85.805655
70.085526
57.731867
43.794513
35.868883
29.992461
26.321411
24.027824
23.134947
22.762418
22.994876
23.024678
22.703409
22.326708
22.669435
22.845864
22.316575
22.024512
##ZVALUE=335
0.232458
0.212789
0.175834
0.168681
0.189543
0.146627
0.155568
0.212789
0.295639
0.145435
0.158548
0.050664
0.136495
0.183582
0.200868
0.247955
0.150800
0.381470
0.262856
0.423789
0.270605
0.384450
0.221729
0.244975
0.298619
0.209808
0.224710
0.180602
0.455976
0.307560
0.300407
0.547767
0.310540
0.436902
0.390410
0.299811
0.599623
0.500679
0.450611
0.506639
0.622869
0.522733
0.486970
0.700951
0.634789
0.693798
0.822544
0.907779
1.103878
2.726912
10.055900
39.423704
84.878802
187.682509
305.907726
498.937964
634.717941
765.865445
805.484653
744.313598
637.151599
444.925427
306.066871
158.942938
84.375739
31.670928
15.501976
10.258555
10.425448
11.200905
12.311935
15.982985
21.296740
31.494498
43.164492
60.387850
73.373914
87.370872
93.833804
96.398592
91.926455
79.277754
69.734454
56.693554
46.754479
36.241412
30.087829
25.572777
24.193525
22.962689
21.802783
21.716952
21.720529
21.798611
21.569729
21.784902
##ZVALUE=340
0.207424
0.203848
0.164509
0.137687
0.182986
0.119805
0.094771
0.236630
0.224710
0.193715
0.175834
0.173450
0.142455
0.043511
0.251532
0.260472
0.337958
0.310540
0.261664
0.236630
0.228882
0.298619
0.030994
0.202656
0.233650
0.232458
0.293851
0.210404
0.213981
0.233650
0.239611
0.261664
0.346899
0.441670
0.437498
0.437498
0.469685
0.539422
0.612736
0.567436
0.562668
0.517964
0.536442
0.374913
0.596642
0.601411
0.757575
0.616908
0.844598
0.848770
0.773668
1.547933
4.805923
23.961663
57.530999
143.989921
246.137977
418.351889
564.029813
736.135840
806.510448
790.046453
704.393983
523.215532
368.684530
190.902948
105.617642
45.158863
20.947456
10.852814
10.407567
11.565685
11.775494
13.605952
16.291738
23.343563
30.085444
43.208599
55.951476
72.255731
82.622766
90.631843
91.287494
85.615516
79.206824
67.060590
55.598617
44.103861
36.274791
29.227734
25.530457
22.419691
21.866560
21.147728
20.880699
20.680428
##ZVALUE=345
0.075698
0.097752
0.126958
0.079870
0.180602
0.253916
0.151992
0.081658
0.085831
0.239611
0.261664
0.280738
0.175834
0.158548
0.058413
0.346899
0.050664
0.125766
0.258684
0.090599
0.264645
0.152588
0.276566
0.086427
0.188947
0.253916
0.299811
0.295639
0.401735
0.300407
0.262856
0.468493
0.387430
0.363588
0.326633
0.440478
0.365973
0.424981
0.521541
0.411868
0.305772
0.421405
0.313520
0.594854
0.460744
0.597835
0.549555
0.574589
0.532866
0.688434
0.718832
0.868440
0.825524
0.959635
2.332926
13.176799
36.749840
97.411871
180.177689
360.651612
536.015630
783.404708
924.679637
984.284878
918.501019
698.492527
508.776903
287.470818
155.429840
60.388446
29.132962
13.537407
10.778904
11.144876
11.318922
12.299418
13.341904
16.652942
21.020770
38.676858
40.333867
53.832531
64.163804
75.754523
82.023740
84.138513
81.585646
74.123740
65.152645
53.091645
44.346452
34.706593
28.458834
23.661852
22.126436
20.329952
##ZVALUE=350
0.268817
0.263453
0.174642
0.337958
0.133514
0.178814
0.101924
0.105500
0.090599
0.099540
0.160933
0.310540
0.188947
0.360608
0.221729
0.355840
0.240803
0.246763
0.041723
0.171661
0.278950
0.209808
0.172853
0.258684
0.381470
0.261664
0.300407
0.365973
0.447631
0.322461
0.311732
0.289679
0.409484
0.421405
0.372529
0.364780
0.323653
0.358820
0.282526
0.413656
0.428557
0.249743
0.197887
0.370741
0.486970
0.540614
0.365973
0.546575
0.626445
0.481606
0.740886
0.753999
0.872612
0.791550
0.842810
1.076460
1.467466
6.653666
20.591617
65.412521
129.890442
287.658572
452.051759
696.683526
872.324705
1006.400585
984.217525
813.530684
611.576438
348.824859
204.940438
88.718534
41.973591
16.220808
11.260509
10.657907
10.537505
11.375546
11.817813
13.276935
15.996695
21.541715
27.321577
36.987662
45.835972
59.162974
67.445636
75.971484
77.646971
76.261759
70.708990
60.048699
51.460862
40.345788
33.115745
27.060509
##ZVALUE=355
0.204444
0.099540
0.075698
0.169873
0.142455
0.052452
0.212789
0.359416
0.363588
0.241995
0.283718
0.295639
0.366569
0.382662
0.229478
0.347495
0.235438
0.146627
0.339746
0.314713
0.191927
0.304580
0.376701
0.123978
0.128746
0.379682
0.419617
0.200868
0.066757
0.322461
0.173450
0.304580
0.347495
0.442863
0.356436
0.273585
0.178814
0.380874
0.348687
0.250936
0.393987
0.359416
0.483990
0.305772
0.388622
0.390410
0.356436
0.453591
0.421405
0.570416
0.601411
0.651479
0.532866
0.745654
0.770688
0.883937
0.894666
1.028776
1.127720
3.199577
11.542439
43.282509
92.037916
212.266445
351.565480
590.208769
772.652030
935.126543
953.319669
831.364989
663.584471
425.494909
263.046622
111.331940
53.563714
19.960999
11.692643
10.096431
10.019541
10.502934
10.698438
11.778474
12.796521
15.167594
18.302798
24.459958
31.078458
41.611791
50.154924
60.260892
66.412687
70.693493
70.012808
65.092444
58.431625
48.170686
##ZVALUE=360
0.124574
0.267625
0.165701
0.313520
0.095963
0.236630
0.253916
0.210404
0.257492
0.142455
0.295639
0.226498
0.212789
0.204444
0.093579
0.437498
0.208616
0.169873
0.234842
0.111461
0.203848
0.250936
0.435710
0.387430
0.137687
0.155568
0.333786
0.392795
0.327826
0.252724
0.143647
0.219941
0.383854
0.180602
0.451803
0.500679
0.451803
0.361800
0.490546
0.325441
0.272989
0.413656
0.328422
0.471473
0.500679
0.482798
0.595450
0.456572
0.460744
0.511408
0.424981
0.582933
0.462532
0.608563
0.641942
0.702739
0.649691
0.840425
0.945926
1.097918
1.192689
1.796484
5.262494
22.685528
55.879951
153.395534
280.893445
503.400564
697.878003
898.604989
951.164961
877.090693
729.698539
486.804843
318.048596
153.004527
78.186989
30.252934
14.860630
9.656549
9.338856
9.424686
9.918809
10.423660
10.608435
11.548996
12.992620
16.023517
19.751787
26.749969
34.107566
44.745803
52.154660
60.178638
63.582659
63.999891
##ZVALUE=365
0.166893
0.257492
0.158548
0.147820
0.109673
0.262856
0.247955
0.219941
0.130534
0.132918
0.209808
0.192523
0.124574
0.222921
0.101924
0.345707
0.214577
0.365973
0.217557
0.361800
0.290871
0.362992
0.269413
0.159740
0.296831
0.204444
0.226498
0.309944
0.308752
0.302792
0.321865
0.253916
0.419617
0.206828
0.360608
0.253916
0.171661
0.370741
0.316501
0.429749
0.375509
0.382662
0.361800
0.217557
0.299811
0.325441
0.328422
0.403523
0.404716
0.520945
0.411868
0.412464
0.585914
0.675917
0.671744
0.544786
0.777841
0.687838
0.828505
0.761747
1.041889
1.023412
1.066923
1.354814
2.514720
11.858940
33.350587
101.083517
202.836990
394.668579
568.208694
761.587024
850.997567
832.913518
723.147988
520.982742
367.241502
200.117826
109.245777
41.709542
19.057989
9.224415
8.493662
8.598566
8.684993
9.275675
9.249449
9.857416
10.163784
11.636615
13.394952
17.763972
22.314787
29.515624
36.705732
46.084523
##ZVALUE=370
0.159740
0.119805
0.181794
0.098944
0.054836
0.208616
0.186563
0.163913
0.214577
0.092983
0.204444
0.283718
0.255704
0.237823
0.237823
0.219941
0.188947
0.276566
0.098944
0.298619
0.212789
0.056624
-0.033975
0.435710
0.145435
0.200868
0.282526
0.189543
0.259876
0.136495
0.189543
0.194907
0.193715
0.138879
0.345707
0.289679
0.263453
0.247955
0.331998
0.457764
0.290871
0.282526
0.248551
0.279546
0.378489
0.399947
0.435710
0.319481
0.253916
0.384450
0.362992
0.420809
0.564456
0.564456
0.359416
0.441670
0.352859
0.411868
0.578761
0.499487
0.558496
0.703931
0.655651
0.629425
0.967979
0.960827
1.572967
6.341934
20.348430
69.288611
140.013695
284.429789
414.745808
575.467944
646.554828
656.722784
596.272945
457.718968
343.242884
195.450783
113.682747
47.137737
23.824573
11.038780
8.187890
7.823706
7.747412
8.024573
7.840991
8.335710
8.800626
9.264946
10.022521
12.233853
14.722943
20.492673
##ZVALUE=375
0.001788
0.187755
0.126958
0.176430
0.101924
0.215769
0.207424
-0.011921
0.140667
0.234842
0.172853
0.059605
0.214577
0.140667
0.226498
0.256896
0.249743
0.096560
0.191927
0.266433
0.243783
0.199676
0.161529
0.153780
0.265837
0.257492
0.235438
0.226498
0.132918
0.173450
0.093579
0.196695
0.322461
0.144839
0.332594
0.211596
0.189543
0.270605
0.183582
0.283718
0.159740
0.288486
0.234842
0.306964
0.342727
0.344515
0.238419
0.211596
0.234842
0.343919
0.237823
0.314713
0.398755
0.210404
0.332594
0.204444
0.423789
0.399947
0.236630
0.366569
0.411868
0.557899
0.510812
0.598431
0.686646
0.630617
0.645518
0.871420
1.191497
3.263950
10.902882
39.306879
86.469650
204.561949
325.051546
493.100882
593.154430
648.311973
622.461438
511.548519
396.560431
246.004462
158.499479
80.836415
42.646527
15.745759
8.893609
6.852746
7.337928
7.329583
7.327795
7.561445
7.773638
8.074641
8.627772
9.177923
##ZVALUE=380
0.082850
0.095963
0.051856
-0.005960
0.034571
0.161529
0.047684
0.230670
0.235438
0.246763
0.163913
0.259876
0.088811
0.064969
0.093579
0.141859
0.029802
0.127554
0.274777
0.178814
0.077486
0.027418
0.155568
0.174642
0.103712
0.257492
0.186563
0.123978
0.323653
0.195503
0.323653
0.168681
0.294447
0.097752
0.206828
0.290871
0.153780
0.087619
0.228882
0.185966
0.159740
0.346899
0.275970
0.265837
0.193715
0.180602
0.322461
0.385642
0.323653
0.299811
0.350475
0.269413
0.146627
0.346899
0.157952
0.210404
0.372529
0.312924
0.301600
0.248551
0.493526
0.468493
0.406504
0.503659
0.428557
0.441670
0.635982
0.577569
0.694990
0.815988
1.068711
1.919866
5.858541
27.227998
62.609911
151.759982
248.533487
394.235849
504.316688
599.895716
611.829758
538.268685
442.695618
302.754641
205.857754
103.688836
55.950880
21.951795
11.124611
6.675720
6.451607
6.571412
6.929636
6.826520
6.592870
7.424951
##ZVALUE=385
0.096560
0.023842
0.017881
0.040531
0.051856
0.048876
0.053644
0.061989
0.157952
0.125766
0.233650
0.014901
-0.051856
-0.032783
0.239611
0.108480
0.068545
0.087619
0.192523
0.135899
0.229478
0.131726
0.092983
0.094771
0.225902
0.069737
0.219941
0.019670
-0.009537
0.193715
0.173450
0.145435
-0.006557
0.212789
0.170469
0.243783
0.270605
0.209808
0.375509
0.220537
0.226498
0.304580
0.203848
0.235438
0.083447
0.201464
0.140667
0.185966
0.297427
0.185966
0.163913
0.194907
0.297427
0.069737
0.226498
0.346899
0.363588
0.448823
0.386834
0.352859
0.335574
0.250936
0.106692
0.429749
0.327826
0.392795
0.220537
0.381470
0.482798
0.608563
0.756979
0.667572
0.675917
1.060963
2.773404
15.137792
38.868785
99.030733
174.057484
307.745934
411.776900
520.990491
555.568933
540.155768
481.172800
362.808704
262.717605
147.904754
86.452961
37.584901
16.856790
6.922483
5.737543
5.878806
5.852580
6.185770
##ZVALUE=390
0.235438
0.039935
-0.053644
-0.036955
0.110865
0.051856
0.090599
0.216961
-0.019670
-0.162721
0.062585
0.039935
0.147820
0.122786
0.224710
0.142455
0.175834
0.127554
0.087619
0.087619
0.064969
-0.011921
0.194907
0.278950
0.152588
0.226498
0.051856
0.179410
0.284910
0.033975
0.144839
0.005960
0.296831
0.093579
0.272989
0.082850
0.186563
0.222921
0.321865
0.214577
0.211596
0.194907
0.245571
0.187755
0.128746
0.208616
0.296831
0.128746
0.217557
0.231862
0.166893
0.200868
0.212789
0.230670
0.176430
0.190735
0.287890
0.282526
0.323653
0.080466
0.323653
0.318885
0.278950
0.201464
0.335574
0.315905
0.411868
0.380874
0.559688
0.552535
0.597835
0.488758
0.578761
0.739694
0.838637
0.785589
1.431704
7.868409
23.836493
71.669817
134.868622
257.326961
360.047817
478.922725
538.240671
559.279919
522.502661
422.084928
329.661965
204.660892
122.854710
51.689744
25.291443
9.853840
6.014705
5.375743
##ZVALUE=395
0.096560
-0.005960
0.000596
0.046492
0.095963
0.031590
0.196695
0.100732
-0.020862
0.060797
0.045896
0.069737
0.004768
0.075698
0.105500
0.029802
0.117421
0.117421
0.138879
0.222921
0.084639
0.172853
0.231862
0.108480
0.167489
0.066757
0.060797
0.141859
0.128746
0.038743
0.026822
0.179410
0.235438
0.108480
0.232458
0.163913
0.193715
0.202656
0.212789
0.187755
0.088811
0.128746
0.194907
0.239611
0.328422
0.126958
0.208616
0.184774
0.138879
0.088811
0.232458
0.164509
0.182986
0.298619
0.265837
0.132918
0.332594
0.155568
0.030994
0.228882
0.332594
0.177622
0.161529
0.357628
0.258684
0.370741
0.299811
0.489950
0.367761
0.494719
0.531673
0.586510
0.743866
0.579953
0.610948
0.579953
0.763535
0.640750
0.938773
4.509687
15.703440
54.382682
102.774501
195.185542
290.262699
427.547693
511.787534
568.419695
559.675694
483.253598
387.824774
246.848464
157.051682
70.121884
35.589933
13.072491
##ZVALUE=400
0.058413
0.119805
0.107884
0.098944
0.090599
0.135899
-0.020862
0.039935
0.077486
0.011921
0.077486
0.121593
-0.005960
0.132918
0.090599
0.107884
0.122786
0.039935
0.152588
0.072718
-0.129938
0.125766
0.240803
0.091791
0.027418
0.112653
0.019670
0.203848
0.071526
0.178814
0.307560
0.135899
0.102520
0.264645
0.147820
0.136495
0.239611
0.297427
0.290871
0.113845
0.104904
0.160933
0.139475
0.200868
0.230670
0.100732
0.130534
0.278950
0.335574
0.124574
0.196695
0.182986
0.053644
0.194907
0.310540
0.052452
0.267625
0.245571
0.295639
0.168681
0.154972
0.323653
0.328422
0.281930
0.277758
0.197887
0.289679
0.435710
0.366569
0.552535
0.498891
0.533462
0.424981
0.515580
0.605583
0.552535
0.505447
0.533462
0.642538
0.759959
0.769496
1.991987
8.369684
32.218695
68.656802
151.653886
240.402818
372.645855
460.919738
540.598631
557.395816
500.404835
420.885682
298.046470
202.155709
104.704499
##END
