##TITLE=FQP00301
##FORMAT=SPECTACLE-ASCII V-1.2
##DATA TYPE=ULTRAVIOLET SPECTRUM
##SECOND TYPE=ULTRAVIOLET SPECTRUM
##DATE=01/21/18
##TIME=15:21:44
##SPECTROMETER/DATA SYSTEM=SPECTACLE
##XUNITS=NM EM
##YUNITS=ENERGY
##YFACTOR=1
##FIRSTX=220
##LASTX=410
##NPOINTS=96
##3DDATA=Equidistant
##ZUNITS=NM EX
##FIRSTZ=210
##LASTZ=400
##ZPOINTS=39
##XYDATA=(Y..Y)
##ZVALUE=210
2.608895
2.204776
2.400875
1.934767
2.349615
2.589822
2.965927
2.447963
2.704859
2.861619
3.126860
3.073812
3.522635
2.827644
3.208518
3.583431
3.720522
4.031658
4.682541
5.026460
4.778504
5.122423
5.498528
4.958510
5.686879
5.876422
6.050467
6.195903
6.976724
7.550716
7.536411
6.989837
7.692575
7.047653
7.507801
6.819963
7.807612
7.812977
8.373857
7.505417
7.914901
8.063912
7.947683
7.898808
7.675886
8.801818
8.385777
8.071661
8.104444
8.878708
9.214878
7.759929
9.389520
8.039474
9.382963
8.353591
8.705854
9.836555
9.204745
9.525418
9.923577
8.496642
8.777976
9.183884
9.589791
10.442734
10.146499
12.214780
13.073683
13.892651
17.924905
20.583868
21.751523
25.826693
28.402805
28.013587
28.537512
28.363466
28.519630
27.723908
26.838779
22.644997
19.870996
17.695427
15.037656
14.505982
10.610819
10.151863
9.526610
8.938909
9.035468
7.419586
8.990765
9.957552
8.138418
8.473992
##ZVALUE=215
10.020733
9.058714
8.017421
7.317662
5.179644
5.090833
4.773736
4.743934
5.647540
5.519986
4.800558
5.831718
4.844666
4.331470
4.688501
4.373789
4.054904
4.516840
4.795790
5.176663
5.588531
5.756617
6.056428
5.554557
6.581545
7.445812
7.860661
8.477569
8.358955
7.871985
8.921623
8.694530
8.420944
9.432435
9.581447
10.217428
10.935664
9.904504
9.252429
10.757446
9.786487
10.607839
11.035800
11.163950
9.801984
10.671616
10.006428
10.027885
9.599924
9.067655
9.931922
9.588599
9.759665
9.839535
10.503531
10.806918
11.859536
10.774732
10.280609
10.834932
11.381507
9.988546
9.931922
10.232925
11.668801
12.371540
12.579560
12.978911
16.223788
17.365813
18.803477
22.384524
24.823546
30.078888
32.310486
34.544468
35.884976
35.152435
36.960840
35.292506
33.973455
32.980442
28.031468
23.666620
21.488667
16.976595
13.875961
11.873841
10.821819
10.215640
9.920597
9.098649
9.064674
9.641647
10.523796
9.678602
##ZVALUE=220
36.830902
38.423538
44.180751
42.252541
36.510825
28.124452
18.930435
14.314651
11.634827
10.780692
10.991693
12.091994
10.945797
10.890961
10.545850
8.352995
8.015633
7.070899
5.780458
5.360842
5.943775
6.516576
6.330609
7.175803
7.614493
7.944703
9.755492
10.211468
10.503531
11.764765
13.041496
12.571812
13.377666
15.032887
15.502572
15.131831
15.229583
13.673902
15.961528
13.823509
12.883544
13.474822
14.252663
13.517737
13.649464
12.976527
12.760758
11.751652
12.912750
12.774467
12.604594
11.604428
12.676716
11.586547
11.475682
10.445714
11.373758
12.483597
11.274815
12.144446
11.095405
11.472702
11.756420
11.994839
13.229847
12.747645
13.684630
14.648438
15.603900
18.274784
19.841790
23.157597
25.897622
30.305982
32.182932
33.570528
34.611821
35.017729
36.645532
36.789775
35.614967
32.958984
28.839707
23.850799
20.956993
18.886924
14.838576
13.104677
12.159944
12.037754
10.557771
10.676980
11.479855
11.471510
10.829568
10.245442
##ZVALUE=225
77.090859
82.743764
108.200908
137.987733
153.456926
146.274567
127.446651
94.421506
67.536831
46.308637
27.997494
22.821426
24.419427
26.072860
27.307868
25.293827
21.042824
17.691851
15.422702
10.595918
8.474588
7.705688
7.472634
8.682609
9.736419
9.762645
11.755824
12.042522
13.758540
15.234947
17.116666
18.606782
19.222498
19.673705
21.263957
19.665956
19.780993
19.986629
18.251538
19.302964
17.652512
17.501712
17.614961
16.222000
17.800927
15.385747
14.754534
15.305877
14.370680
13.499856
14.320612
13.611913
12.696981
14.493465
13.237596
11.584759
13.468862
12.415648
11.935830
13.172626
12.661815
12.145638
13.237000
13.117790
14.088750
14.361739
13.898611
14.953613
16.031861
18.826723
20.725727
24.023652
28.471947
29.956698
30.180812
31.649470
30.475855
29.353499
26.541948
27.808547
27.952790
24.030805
21.720529
20.024776
19.419789
16.921759
14.280677
14.933944
13.454556
13.412833
14.904737
14.113784
14.145970
13.399720
14.780760
12.712479
##ZVALUE=230
71.904659
76.053739
124.761462
208.885670
270.216465
332.127810
352.242589
331.639647
287.929773
195.973516
137.430429
81.414580
57.464838
44.677854
45.459867
49.767494
50.839782
49.888492
43.532848
39.225817
28.609633
21.540523
14.011860
11.300445
8.714795
10.062456
10.759830
12.788773
14.848709
16.059875
17.394423
18.849969
22.394657
20.429492
21.645427
22.027493
20.018816
21.982789
21.072626
22.066832
20.678639
19.891858
18.651485
18.675923
17.341971
18.564463
16.082525
15.738606
16.305447
15.776753
14.991760
15.011430
13.777614
14.767647
14.304519
13.522506
14.495850
15.079975
14.145970
14.973879
13.824701
15.198588
16.134977
15.381575
15.186667
16.523600
16.906857
19.277930
19.582510
21.898746
23.582578
26.555657
29.134750
31.254888
32.245517
35.091639
30.514598
29.370785
32.397509
28.882623
29.165745
26.747584
23.870468
24.095774
22.477508
22.038817
21.557808
19.704700
19.341707
19.092560
20.159483
18.219948
21.397471
18.954873
19.855499
18.342733
##ZVALUE=235
17.627478
20.840764
47.818422
116.369724
196.097493
321.308970
417.694449
533.650517
579.641461
578.413606
513.255596
413.361788
272.422433
189.304948
120.847821
88.127851
78.322887
81.827641
88.343620
86.370707
84.023476
70.019960
55.133700
39.847493
27.660728
19.041896
15.218854
13.886690
13.700724
14.197826
15.729666
17.164946
18.555522
18.241405
17.639995
19.570589
19.485950
19.005537
20.546913
18.075705
19.636750
17.906427
18.237829
17.382503
17.361641
16.844869
16.550422
16.959906
16.938448
15.304685
16.660690
15.675426
16.959906
17.989874
15.800595
16.473532
17.302632
16.300678
16.345978
16.861558
16.987920
17.376542
18.157959
17.503500
19.614697
20.849705
22.186637
22.929907
23.567677
27.368665
29.606819
32.541752
35.331845
35.816431
39.519668
36.988854
40.547848
37.746429
37.930608
35.568476
34.717917
33.716559
31.483769
30.928850
30.913949
29.042959
31.201839
28.455853
29.658675
29.182434
26.629567
27.898550
28.388500
26.951432
27.708411
27.361512
##ZVALUE=240
2.320409
2.452731
8.968711
24.733543
70.685744
142.975450
281.092525
427.069664
622.977018
739.402771
790.627599
766.656995
669.215918
499.877930
377.455950
224.262476
156.485438
111.719966
99.133849
106.526613
114.936829
122.606754
116.374493
106.951594
85.489750
70.865750
50.451756
38.021803
24.996996
17.240644
14.692545
13.719797
13.799667
13.222694
14.227629
13.637543
13.564825
15.838742
14.974475
15.580654
14.933944
15.417933
15.557408
15.228987
13.503432
13.463497
14.616847
14.589429
14.321804
14.570951
13.958812
15.222430
14.650822
14.589429
14.343858
14.733672
14.820695
15.362501
14.360547
15.239716
16.660690
15.916824
18.282533
19.337535
19.464493
20.400882
20.233989
19.882917
23.195744
25.161505
27.815700
29.384494
30.532479
33.285618
34.345984
35.095811
35.962462
38.339496
35.484433
34.667850
36.428571
33.618808
33.200979
35.234690
33.117533
33.574700
35.057664
35.389662
34.020543
33.862591
33.035874
33.227801
34.115911
33.616424
33.851862
31.868815
##ZVALUE=245
1.796484
1.950860
2.219677
2.367496
4.465580
21.864772
52.352548
140.401721
249.270797
381.512642
579.554439
701.208711
810.581446
803.071856
733.680725
624.306798
449.312925
329.180956
199.223757
134.085417
108.949542
105.978847
119.009614
134.743452
137.049556
132.905841
119.586587
97.384453
78.957677
57.151914
40.824413
27.352571
20.038486
15.652776
14.523864
14.101863
14.822483
14.360547
14.638901
13.579726
14.813542
15.680790
14.329553
14.835596
14.254451
13.949871
14.558434
13.747811
13.890862
13.334751
14.514923
13.502836
14.107823
14.175773
13.545752
13.431907
12.155771
13.268590
13.801455
14.514923
14.220476
15.275478
15.927553
15.457869
16.220808
18.092990
18.214583
18.850565
21.273494
23.258924
23.814440
25.715828
30.651689
31.588674
31.542778
33.764839
33.201575
32.688975
32.781959
34.731627
34.940839
34.199953
32.754540
36.310554
31.870604
32.147765
34.306645
32.954812
34.505725
33.321977
33.405423
32.801628
33.656955
33.715963
35.859942
33.857822
##ZVALUE=250
1.694560
1.962781
1.939535
1.800656
2.153516
2.057552
3.342628
9.595752
40.868521
98.305941
278.029442
478.995442
718.794465
1002.088785
1015.638709
1015.638709
1015.638709
997.053981
801.762938
504.259467
319.696665
203.117728
116.836429
102.862716
112.437606
131.414533
144.074559
146.539807
143.430829
132.043958
117.132664
87.961555
67.274570
45.216680
30.923486
21.668673
17.731786
16.483665
16.494989
15.639663
16.304851
15.536547
16.863942
14.792681
16.552806
14.433861
15.363693
14.776587
14.341474
13.895631
13.550520
14.461875
13.353825
12.520552
13.168454
13.564825
13.158917
12.577772
13.125539
13.534427
12.351871
13.985634
13.149977
15.019774
14.408827
16.566515
15.969872
18.045902
18.226504
21.288991
22.615790
23.788810
25.654435
27.211905
29.600859
31.444430
31.103492
30.530691
33.570528
33.019781
30.693412
31.147599
32.013655
31.569600
33.215880
30.768514
30.772686
33.550858
31.813979
31.574965
32.018423
34.973621
33.371449
32.850504
34.194589
33.576488
##ZVALUE=255
1.474619
1.541972
1.547933
1.743436
1.701713
2.015829
1.831651
1.936555
2.351403
4.588962
27.497411
68.526864
155.516863
345.680714
519.651771
790.848732
968.782902
1015.586853
1015.586853
1015.586853
891.005993
689.051747
424.981713
275.119543
148.291588
103.045702
98.514557
111.089945
136.165619
151.377916
155.491829
151.885748
141.374469
114.477873
91.587901
65.541863
48.773885
32.569766
23.964643
19.825697
16.957521
16.447902
16.737580
16.348958
15.247464
14.978647
14.864802
14.586449
14.143586
13.167858
14.225841
12.779832
12.758970
13.344884
11.759996
11.827946
11.819601
12.136698
12.895465
11.418462
12.348890
12.802482
12.219548
12.077689
12.988448
14.085770
13.919473
15.617609
16.400814
16.840696
17.593503
19.828677
19.415617
20.780563
22.701621
25.242567
25.587678
26.269555
27.688742
26.795864
27.015805
28.602481
28.030872
27.791858
28.679967
28.135777
28.436780
28.695464
27.677417
29.545426
31.076670
30.090809
27.927756
31.290650
30.123591
31.178594
##ZVALUE=260
1.276731
1.494884
1.496673
1.459718
1.545548
1.565814
1.316667
1.581907
1.610518
1.727939
1.863837
2.968907
6.986856
26.915669
64.959526
168.913603
290.430784
507.965684
696.327686
928.526521
1015.638709
1015.638709
915.644765
737.949014
482.233763
328.224897
184.328556
115.175843
82.955956
90.836883
108.725429
136.298537
154.478550
168.249607
163.185000
143.259764
124.017000
95.493793
73.776841
48.267841
34.116507
24.844408
20.233989
17.436743
16.228557
15.102625
15.846491
15.003681
14.431477
14.365911
14.420748
12.769699
12.821555
12.770891
12.588501
11.903644
12.195706
11.375546
12.017488
10.954738
11.781454
11.106730
11.299849
11.818409
12.151599
12.792945
12.881756
13.631582
14.624000
14.980435
17.042756
17.926693
18.539429
19.489527
20.313859
20.753741
21.580458
21.650791
23.214817
23.446679
23.800731
23.600459
25.495887
25.448799
26.233792
26.205778
25.830865
26.298761
26.369691
27.124882
26.614666
26.950836
27.570724
27.294755
28.266907
28.729439
##ZVALUE=265
1.337528
1.357794
1.467466
1.300573
1.634955
1.429915
1.491904
1.430511
1.773834
1.556873
1.556873
1.894832
1.884699
2.377629
3.995895
16.530752
41.850805
112.250447
215.938687
443.081856
643.279552
834.115744
1004.659534
1015.766859
895.566940
749.329925
539.183617
376.656651
213.906765
131.063461
91.137886
77.106953
90.493560
122.299790
145.187974
168.185830
170.879960
164.186954
148.245692
119.961500
96.767545
69.356561
50.745606
33.352971
25.879741
19.249916
17.715693
15.139580
14.842749
14.919639
13.144612
13.376474
13.563633
12.332797
11.955500
12.199879
12.511611
11.429787
11.575818
11.042953
12.294650
10.999441
11.732578
11.686683
11.836886
12.585521
12.367964
13.387799
13.863444
15.043616
15.341640
16.284585
16.834736
18.402934
18.797517
20.163655
19.997954
20.259619
20.211935
21.526814
22.523999
22.657514
23.788810
23.325682
23.828745
24.053454
25.212765
25.230646
25.337934
25.821924
26.153922
26.095510
26.313663
26.160479
27.539730
26.401877
##ZVALUE=270
1.102686
1.242757
1.152754
1.108646
1.007915
1.119971
1.321435
1.073480
1.115799
1.399517
1.300573
1.480579
1.145601
1.607537
1.657605
1.942515
2.382994
7.434487
20.874739
70.830584
143.727660
258.495808
472.743511
642.171502
831.704736
907.796621
892.254710
808.827877
629.949570
479.564667
339.145660
183.665752
113.608837
72.384477
71.362853
96.528530
120.514631
147.346854
164.596438
173.071623
166.922808
145.802498
126.531720
95.672607
71.786642
44.981837
34.773946
22.698641
18.713474
15.347600
14.076829
13.691783
13.443828
12.918711
12.326837
12.780428
12.127757
12.347698
12.204647
11.874437
11.764765
12.305975
12.131929
11.680722
12.121797
12.593865
13.731718
13.325810
13.828874
14.466643
14.908910
16.473532
16.944408
17.440915
18.402934
18.324852
18.959641
20.328760
19.618869
21.045804
20.899773
21.193624
22.900701
22.446513
23.649931
23.680925
23.576617
23.384690
23.687482
24.783611
24.198890
24.443865
23.914576
24.922490
25.289655
25.961995
##ZVALUE=275
1.073480
0.831485
0.895858
1.169443
1.096725
1.063943
1.115799
1.099706
1.196861
1.221895
1.184940
1.280904
1.214743
1.279712
1.517534
1.495481
1.791716
1.700521
2.012849
3.263950
11.697412
47.812462
100.581646
234.490633
387.030840
611.293912
759.089589
903.161764
942.639709
895.648003
752.314925
599.532723
393.411517
247.561932
123.720765
76.712966
56.556463
65.373778
94.867945
116.800666
138.802528
161.167979
168.573856
161.214471
147.637725
117.198825
95.774531
67.998767
48.916936
34.998655
21.887422
17.081499
14.354587
12.750626
12.140870
11.729598
12.179613
12.212992
12.194514
11.824965
12.336969
11.859536
12.101531
12.344718
12.737513
13.435483
12.863874
13.720989
14.381409
14.746785
16.438961
16.301870
17.533898
18.527508
18.444657
19.394755
19.573569
20.371675
20.708442
20.914674
21.215677
21.544695
22.489429
22.181869
21.632910
22.784472
22.823811
23.076534
23.224950
23.725629
23.599863
23.562908
23.309588
23.700595
24.008751
24.084449
##ZVALUE=280
1.149774
0.859499
0.991821
1.027584
0.899434
0.917912
1.008511
1.146793
1.066923
0.978708
1.278520
1.070499
1.143813
1.237988
1.066923
1.413822
1.503825
1.382828
1.596808
1.695752
1.756549
2.158880
7.163882
32.091737
75.117946
181.344748
307.184458
468.446016
688.284636
839.198828
944.854617
941.442847
823.505521
666.396022
442.257524
294.203758
151.747465
85.969567
47.789812
44.776797
63.502789
83.784461
114.658475
134.368539
153.380632
158.993602
153.741837
139.838457
111.204982
88.499784
62.528849
43.896437
28.626919
20.581484
14.801621
12.752414
11.536479
12.036562
11.594892
11.154413
11.809468
12.256503
12.394786
12.522936
13.112426
13.667941
14.381409
14.453530
14.652610
15.385747
16.261935
16.441941
17.105937
17.346740
18.530488
18.933415
19.400716
20.624995
20.585656
21.167994
21.001697
21.486878
21.426678
22.016764
21.890998
22.420883
21.973848
22.539496
23.160577
23.078918
22.201538
23.200512
22.461414
21.908879
23.383498
22.969842
##ZVALUE=285
1.118779
0.964999
0.826716
0.967979
0.922680
1.013875
1.038909
1.047850
0.937581
1.062751
1.025796
1.181960
1.252890
1.100898
1.054406
1.249909
1.158714
1.126528
1.497865
1.217723
1.498461
1.492500
1.672506
2.024770
3.825426
17.151833
43.190718
115.321875
208.779573
386.422873
547.448993
758.345723
872.935653
929.198861
878.471732
724.429488
569.334626
350.917578
220.100880
106.552839
58.960915
35.225749
37.509799
56.526661
76.533556
105.585456
127.851963
144.819617
150.425434
146.670938
134.634972
111.829638
89.557767
63.156486
44.603944
27.012825
20.018816
13.787746
11.773705
11.468530
11.438727
11.740923
11.741519
12.296438
12.477636
13.450980
13.841987
14.438629
15.389919
15.501976
16.288757
17.621517
17.864704
18.180609
18.442869
18.629432
19.187927
20.123720
20.007491
20.600557
21.291971
21.487474
21.976829
22.635460
21.909475
23.528934
22.263527
21.870732
22.754669
22.859573
22.659898
22.715926
22.374988
22.378564
22.433996
22.822618
##ZVALUE=290
0.860691
0.912547
0.860691
0.907779
1.077652
1.052618
0.757575
1.097918
0.927448
0.934601
1.079440
0.903606
1.065731
1.063943
1.143813
1.078844
0.998974
1.297593
1.242757
1.216531
1.309514
1.268983
1.584888
1.473427
1.750588
1.918674
2.269745
5.629659
25.168657
63.098669
128.964782
285.179019
458.340645
706.010461
860.038996
983.271003
973.351598
846.935511
693.284869
457.941890
299.009681
148.919821
78.432560
35.646558
26.137829
36.369562
49.296618
73.282719
94.207525
119.834542
136.086941
144.680738
143.924952
128.834844
111.770630
81.333518
63.669682
41.843653
30.014515
19.958615
14.759898
12.785792
12.129545
12.072921
12.338758
13.295412
13.321638
13.739467
14.741421
15.907884
17.012954
17.569661
18.000603
18.618703
19.273758
19.381642
19.704700
20.289421
20.133853
21.376610
21.230578
22.166967
22.219419
22.030473
21.303892
22.827983
22.431612
22.430420
22.585988
22.228956
22.933483
22.657514
22.375584
22.614598
22.887588
22.159815
##ZVALUE=295
1.054406
0.897646
0.934601
0.903606
0.990629
0.826716
0.945926
0.734925
0.950694
1.184940
1.046658
0.865459
1.081824
1.049638
1.067519
1.088977
1.140833
1.162887
1.062751
1.232624
1.284480
1.201630
1.229644
1.268983
1.366735
1.539588
1.633763
1.660585
2.005696
3.189445
10.324717
43.725967
98.181963
231.843591
379.560590
613.646507
775.732994
929.822922
965.476036
880.850554
753.541589
532.740951
374.773741
198.976994
109.802485
42.991638
23.793578
21.762848
29.789805
47.439933
65.353513
91.787577
109.949708
129.801631
140.049458
135.581493
124.683976
103.661418
84.881783
60.213804
44.472814
28.053522
21.687746
15.726686
14.039874
13.100505
13.160706
14.610887
14.839768
15.710592
15.863776
17.382503
17.541647
19.159913
18.896461
19.528866
20.280480
19.809604
20.726919
21.145940
22.159815
21.896958
22.509694
22.954941
22.744536
22.676587
22.986531
23.122430
22.566915
22.749901
23.291707
22.670627
22.927523
22.017956
22.534728
22.794604
##ZVALUE=300
0.742674
0.850558
0.825524
0.836849
0.811815
0.728965
0.889897
0.776649
0.842810
0.861883
0.977516
0.958443
0.960827
0.947714
0.843406
1.003742
1.051426
1.093745
0.915527
0.823736
0.945926
1.082420
1.104474
1.298785
1.214743
1.413822
1.365542
1.515746
1.581907
1.577735
1.672506
1.955628
5.477667
19.679666
69.837570
142.065883
301.632881
468.595624
696.597695
836.902857
936.774015
929.525495
808.611512
664.973855
439.924002
284.546614
142.092705
74.254870
28.945804
17.366409
18.957853
26.378632
42.872429
59.332848
83.865523
103.067756
123.324990
131.495595
129.609704
121.493936
103.150606
84.468722
59.751868
45.288801
31.009912
23.551583
17.783642
15.922785
14.408827
15.633702
15.616417
16.908646
17.803907
17.955899
18.994808
18.765926
20.204782
20.444989
21.552444
21.419525
22.188425
22.710562
22.800565
23.307800
23.557544
23.777485
23.044944
23.105741
23.094416
23.251772
23.497939
23.257732
22.648573
22.773743
22.886992
22.702813
##ZVALUE=305
0.821948
0.861883
0.838637
0.758767
0.787973
0.922680
0.641942
0.960827
0.663996
0.872612
1.035929
0.857711
0.801682
0.879765
0.843406
0.817776
0.936985
0.980496
0.927448
0.820756
0.935793
1.072884
0.999570
1.028776
1.109838
1.095533
0.945926
1.138449
1.361966
1.293421
1.370907
1.599789
1.695752
1.882911
3.488660
11.274815
46.058893
102.230906
234.405398
371.782780
584.949851
733.955503
883.636475
919.241905
840.396881
717.082024
513.943434
358.593464
185.867548
102.603436
41.998625
20.761490
14.199615
16.812682
26.158690
38.556457
60.646534
78.088641
101.519823
115.500689
126.367807
127.107501
115.963817
101.983547
78.554749
63.276887
43.842793
32.633543
23.031831
18.975735
17.130971
17.475486
17.805696
18.437505
19.352436
19.656420
20.687580
20.269752
21.895766
22.087693
22.655725
23.395419
23.235679
23.690462
23.780465
23.698807
24.112463
24.345517
23.851991
24.061799
23.705959
23.726821
23.415685
22.773743
23.151636
23.233891
##ZVALUE=310
0.811815
0.773668
0.711679
0.681877
0.785589
0.819564
0.558496
0.819564
0.669956
0.826716
0.840425
0.619888
0.790954
0.786781
0.791550
0.720620
0.865459
0.969768
0.896454
0.976920
0.866652
0.915527
0.910759
0.995994
0.942945
1.230836
1.007915
1.252890
1.210570
1.082420
1.009703
1.445413
1.406670
1.562834
1.508594
1.722574
1.900792
6.301403
19.809604
69.367886
139.961839
291.579962
444.486737
660.805702
794.170499
897.342563
891.724825
776.942968
638.037920
435.560942
291.939974
145.757794
76.534748
28.937459
14.446974
11.937618
15.838742
24.291873
34.093857
54.112673
70.614815
95.326900
109.008551
119.582415
121.346712
112.523437
100.240707
78.974962
63.095689
44.824481
35.197735
26.438832
22.447705
20.092726
20.277500
19.887686
20.687580
21.583438
21.755695
22.025704
22.818446
23.601651
23.499727
24.796724
24.210811
24.923682
24.663806
24.463534
24.623871
24.375916
24.634600
23.914576
24.085641
23.838878
23.716688
23.085475
##ZVALUE=315
0.697970
0.801682
0.811815
0.597835
0.773668
0.648499
0.549555
0.812411
0.918508
0.752807
0.760555
0.851750
0.651479
0.902414
0.711679
0.832677
1.081824
0.899434
0.697970
0.882745
0.886917
0.882745
0.835657
0.959635
1.199841
1.000762
0.974536
1.046658
1.043677
1.354814
1.149774
1.203418
1.198649
1.273751
1.247525
1.257658
1.472831
1.489520
1.831651
2.983809
10.636449
50.275922
116.126537
267.789960
417.830944
650.478601
795.987844
919.200778
937.681794
863.487720
746.721625
545.701981
391.121507
212.247968
116.930604
44.789910
20.054579
11.064410
11.564493
15.608668
21.602511
35.609603
49.337745
70.158839
86.359978
105.332732
114.704967
115.742683
110.927820
93.484521
80.732703
60.378909
47.389865
34.269691
28.899908
24.305582
22.574663
21.087527
21.770597
22.371411
22.600889
23.743510
23.747683
24.487972
24.258494
24.904609
24.478436
24.892688
25.438666
24.660826
25.156736
24.608970
24.622679
24.263859
24.192929
23.649931
##ZVALUE=320
0.790954
0.714660
0.851750
0.725985
0.650883
0.728965
0.892878
0.633597
0.616908
0.717640
0.788569
0.848770
0.656843
0.807643
0.934601
0.769496
0.756979
0.786781
0.871420
0.765920
0.814795
0.960827
0.872612
0.864863
0.983477
0.982881
1.016855
0.891685
1.027584
0.975728
1.119971
0.886917
1.082420
1.205802
1.242757
1.241565
1.263618
1.581907
1.462698
1.755953
1.766682
2.194643
5.201697
30.304790
80.479980
209.895968
341.942906
544.844866
706.990957
870.419741
930.153728
906.629562
808.630586
624.146461
460.922718
258.819461
149.374604
64.742565
30.853748
13.131499
10.290742
11.594892
14.568567
21.939874
30.911565
47.492981
63.295960
84.990859
98.010898
109.476447
110.948682
105.284452
96.254945
77.527761
62.720776
46.019554
37.179589
29.178858
25.297999
23.926497
23.027658
23.492575
24.196506
25.051832
24.920702
24.503469
25.256872
24.508834
24.655461
24.945736
24.133921
24.545789
24.163723
24.075508
24.252534
24.572611
##ZVALUE=325
0.645518
0.650883
0.788569
0.699759
0.716448
0.679493
0.787973
0.716448
0.702739
0.801682
0.789762
0.702739
0.797510
0.871420
0.728965
0.747442
0.655651
0.653863
0.857711
0.829697
0.807643
0.809431
0.864863
0.830889
0.782609
0.892878
0.892878
0.927448
0.900626
0.953674
0.980496
0.880957
1.066923
1.023412
1.163483
1.074672
1.142621
1.176596
1.302958
1.492500
1.414418
1.559854
1.648664
1.774430
3.129840
21.243691
56.763887
152.223706
263.841748
463.398695
626.562834
801.721811
887.082815
907.606483
842.841864
670.030713
508.395433
305.071473
190.308690
88.411570
45.164824
17.639995
11.215806
10.736585
11.983514
16.435981
21.519661
32.705665
45.532584
66.400766
79.948902
96.122622
104.831457
106.391907
100.976825
88.051558
75.204968
59.282780
47.121644
36.321878
30.514598
26.324987
24.993420
23.981929
23.845434
24.034977
24.839640
24.493933
24.736524
24.078488
24.050474
24.264455
23.801923
23.995638
23.747683
23.600459
##ZVALUE=330
0.573993
0.720620
0.704527
0.572801
0.667572
0.742674
0.755787
0.685453
0.780821
0.670552
0.533462
0.419617
0.692606
0.751615
0.752807
0.726581
0.721812
0.765920
0.876784
0.828505
0.776649
0.856519
0.818968
0.829697
0.868440
0.890493
0.783801
0.951886
1.073480
0.999570
0.825524
0.879765
0.968575
1.151562
0.981688
1.074672
1.112819
1.109838
1.084805
1.102686
1.118779
1.258850
1.407862
1.514554
1.505613
1.652837
1.863837
7.677674
25.896430
86.491704
163.864493
320.052505
461.731553
658.566952
777.667761
860.633850
837.903619
718.097687
577.005744
368.330479
237.005949
110.332966
57.609677
23.732781
12.734532
10.469556
10.889769
12.748837
15.611649
23.384690
31.824708
46.182871
59.113503
79.692602
91.449618
101.158619
102.086663
96.689463
86.991787
70.496798
58.471560
44.903755
37.222505
30.679703
27.770996
25.187731
24.168491
23.708940
23.992658
23.654699
23.774505
23.620725
23.830533
23.523569
23.159981
23.767948
##ZVALUE=335
0.636578
0.533462
0.643730
0.696778
0.639558
0.672936
0.768900
0.598431
0.731945
0.662804
0.592470
0.614524
0.758767
0.741482
0.720620
0.739694
0.616908
0.845790
0.760555
0.792742
0.771880
0.711679
0.673532
0.847578
0.833869
0.742674
0.788569
0.785589
0.645518
0.784993
0.947714
0.884533
0.906587
0.908971
0.966787
0.998974
0.869632
1.064539
0.969768
1.118779
1.032948
1.151562
1.159906
1.112819
1.242757
1.302958
1.538992
1.383424
1.621842
3.402829
10.517836
42.010546
89.604855
204.331875
331.654549
532.298684
672.703981
791.724920
814.746022
732.241869
615.116954
419.178009
281.608701
146.528482
77.392459
29.910803
16.104579
11.136532
10.939837
12.141466
13.276935
17.280579
21.856427
33.077598
43.771863
60.719848
74.473619
88.612437
95.752478
97.389817
92.419982
80.181956
69.451928
57.689548
47.303438
37.447810
31.300783
26.817918
24.553537
23.311973
23.283958
23.192763
22.435784
22.713542
22.529960
22.863746
##ZVALUE=340
0.714660
0.503659
0.618696
0.748634
0.641942
0.645518
0.636578
0.750422
0.712872
0.626445
0.723600
0.694990
0.494719
0.592470
0.691414
0.563860
0.769496
0.694990
0.632405
0.589490
0.642538
0.735521
0.731945
0.739694
0.781417
0.785589
0.784993
0.792742
0.862479
0.809431
0.741482
0.770688
0.714660
0.714660
0.950694
0.773668
0.824928
0.751615
0.826716
0.866652
0.930429
0.937581
1.019835
0.901818
1.105666
1.173615
1.298785
1.392961
1.257658
1.471639
1.403689
2.144575
5.631447
28.000474
66.770911
163.310766
274.395943
450.374484
583.592653
717.784762
758.885741
711.778998
617.784858
454.247594
320.619941
168.465972
95.628500
42.637587
20.730495
11.552572
11.111498
11.528730
12.231469
13.955832
16.959906
23.827553
30.725002
43.943524
56.245923
72.557926
82.679987
91.362000
91.766715
87.609887
79.449415
67.691803
57.159662
44.995546
38.090944
30.682683
26.918650
23.805499
22.287965
22.327900
21.517873
21.656752
##ZVALUE=345
0.536442
0.492930
0.621676
0.574589
0.482798
0.546575
0.513792
0.616908
0.500679
0.562668
0.633597
0.584722
0.579953
0.724792
0.616908
0.714660
0.630617
0.562668
0.846982
0.623465
0.659823
0.562668
0.514984
0.586510
0.644922
0.653863
0.814795
0.658631
0.796914
0.773668
0.768900
0.515580
0.696778
0.785589
0.787973
0.856519
0.714660
0.795722
0.929832
0.814795
0.782609
0.784993
0.932813
0.874996
0.885725
0.879765
0.852942
1.040697
1.008511
1.207590
1.149774
1.264811
1.312494
1.374483
2.746582
14.567971
40.795803
108.059645
194.431543
356.182456
491.854548
651.386976
720.984936
725.199580
656.914711
499.449968
372.333527
220.598578
127.530694
53.492785
27.381778
13.610721
11.034608
11.522770
11.686683
12.698770
13.621449
17.055869
21.509528
30.761957
40.259957
54.116845
65.478683
75.778961
82.542896
85.085630
82.415938
74.621439
66.282749
54.603815
45.277476
34.352541
29.550791
24.610758
23.065805
21.260977
##ZVALUE=350
0.689626
0.808835
0.574589
0.536442
0.624657
0.666976
0.603795
0.614524
0.705719
0.621676
0.615716
0.618696
0.626445
0.627637
0.660419
0.586510
0.619888
0.698566
0.754595
0.685453
0.742674
0.699759
0.785589
0.755787
0.698566
0.740886
0.711679
0.814795
0.709891
0.655651
0.675917
0.755787
0.812411
0.994802
0.829697
0.827909
0.988841
0.907779
0.896454
0.671744
0.834465
0.780821
0.872612
0.930429
0.923872
0.890493
0.909567
0.955462
0.919700
1.052618
0.917912
0.964999
1.158714
1.068711
1.380444
1.477599
1.863837
7.997751
24.100542
73.922873
143.036842
287.280679
415.557623
577.110648
673.568845
719.092488
676.784515
555.722713
428.609848
259.359479
161.109567
77.988505
39.405823
16.168952
11.242628
11.070967
10.864735
11.621714
12.281537
13.743639
16.356707
22.420883
27.853847
36.943555
45.950413
59.067607
68.461895
76.516867
78.480840
76.574683
71.466565
61.172843
51.739812
41.156411
33.995509
27.419925
##ZVALUE=355
0.653863
0.726581
0.627637
0.692606
0.546575
0.600815
0.545979
0.707507
0.623465
0.630617
0.740886
0.747442
0.577569
0.593662
0.579953
0.533462
0.615716
0.808835
0.697970
0.687838
0.607967
0.661612
0.690818
0.832677
0.799894
0.772476
0.691414
0.609756
0.731945
0.598431
0.597835
0.728965
0.834465
0.723600
0.748634
0.925660
0.751615
0.844598
0.830889
0.832677
0.947714
0.945926
0.856519
0.883937
0.885725
0.980496
0.925660
0.823736
0.962615
1.037717
0.967979
1.123548
0.973940
1.006722
0.979900
1.085997
1.285672
1.582503
1.347661
3.932714
13.451576
51.563978
106.249452
225.507617
354.402661
540.649891
652.290583
716.010928
696.454644
583.366752
465.494990
307.485461
196.461678
90.555549
45.575500
18.366575
11.316538
10.161996
10.509491
10.746717
11.313558
11.841655
13.239980
15.927553
18.967986
24.955869
31.844974
43.042898
51.698685
62.050819
67.723989
71.745515
71.024895
65.974593
58.394670
49.232841
##ZVALUE=360
0.657439
0.675917
0.512600
0.660419
0.761747
0.578761
0.559688
0.605583
0.609756
0.590682
0.659823
0.728965
0.694990
0.769496
0.581741
0.693798
0.629425
0.728965
0.751615
0.753999
0.621676
0.615716
0.640750
0.666976
0.595450
0.714660
0.735521
0.695586
0.571609
0.683665
0.681877
0.607967
0.603795
0.827909
0.842810
0.863671
0.646710
0.875592
0.785589
0.693798
0.843406
0.815988
0.900626
0.941753
0.784993
0.936985
0.925660
0.992417
1.035929
0.945926
0.811815
0.875592
0.935793
0.983477
1.158714
1.020432
1.265407
1.088977
1.428723
1.324415
1.475811
2.061725
7.661581
24.366975
76.830983
144.561529
280.213952
411.440730
581.654906
658.357739
681.182742
631.166697
492.985845
373.330712
229.636431
139.617920
61.870813
30.098557
13.287663
9.809732
9.810925
9.967685
10.554790
10.793805
11.174679
12.050867
13.791919
16.077757
21.745563
27.231574
35.995841
44.182539
54.678917
60.240626
64.832568
65.061450
##ZVALUE=365
0.690818
0.642538
0.638962
0.677705
0.577569
0.550747
0.646710
0.568628
0.511408
0.702739
0.580549
0.717640
0.660419
0.437498
0.593662
0.700951
0.688434
0.633597
0.655651
0.681877
0.709891
0.635982
0.708699
0.683665
0.649691
0.654459
0.805855
0.517964
0.744462
0.807643
0.748634
0.722408
0.833869
0.686646
0.761747
0.730753
0.748634
0.618696
0.716448
0.776649
0.681877
0.806451
0.778437
0.761747
0.857711
0.928640
0.661612
1.042485
0.746846
0.781417
0.864863
0.932813
0.859499
0.877976
0.921488
0.927448
1.028776
1.084805
1.083612
1.097918
1.240969
1.246929
1.441836
1.648664
2.769828
13.478994
37.906766
105.556846
188.822746
338.842869
462.988615
597.721934
651.682019
633.810759
554.041862
402.893424
286.462903
160.246491
89.206696
35.966635
18.306971
9.707808
9.304881
9.366870
9.513497
9.873509
10.122657
10.323524
11.058450
12.130737
13.998747
18.368959
23.087859
30.713677
37.623644
46.959519
##ZVALUE=370
0.668764
0.658631
0.569820
0.559688
0.623465
0.587702
0.647902
0.696778
0.542998
0.688434
0.691414
0.604987
0.633597
0.695586
0.634789
0.705719
0.590682
0.684857
0.602603
0.904799
0.697970
0.713468
0.749826
0.690818
0.630617
0.690818
0.699759
0.621676
0.797510
0.622869
0.752807
0.796914
0.753999
0.676513
0.963807
0.872612
0.592470
0.769496
0.709891
0.804663
0.673532
0.772476
0.758767
0.828505
0.731945
0.764728
0.801682
0.690818
0.722408
0.732541
0.823736
0.779629
0.819564
0.987649
0.982881
0.862479
1.038909
0.893474
1.032948
1.014471
0.947714
1.141429
1.111627
1.406670
1.352429
1.445413
2.016425
7.613897
24.402738
78.283548
146.215558
278.670788
410.831571
589.293838
670.707822
689.535737
626.692772
485.109687
355.109572
192.960501
108.979940
45.782924
23.759604
11.615753
8.724928
8.503795
8.554459
8.657575
9.018779
9.438992
9.610653
10.082722
11.002421
13.120770
16.017556
20.985603
##ZVALUE=375
0.719428
0.706911
0.686646
0.716448
0.630617
0.602603
0.727773
0.653863
0.775456
0.627637
0.506639
0.735521
0.720620
0.641942
0.713468
0.715852
0.766516
0.599623
0.605583
0.769496
0.720620
0.685453
0.607967
0.686646
0.616908
0.774860
0.755787
0.627637
0.626445
0.719428
0.634789
0.746846
0.717640
0.914931
0.720620
0.640750
0.769496
0.662804
0.677705
0.696778
0.724792
0.719428
0.720620
0.767708
0.651479
0.750422
0.842810
0.747442
0.853539
0.782609
0.757575
0.986457
0.854731
0.898838
0.785589
0.947714
0.889897
0.846982
0.841618
0.916719
0.886917
1.031756
1.056790
0.854731
1.114607
1.296997
1.172423
1.491904
1.511574
3.944635
13.304949
46.584606
100.521445
219.727755
339.618921
506.325960
600.941777
650.166869
624.984503
506.793857
391.267538
236.611962
151.558518
77.204704
41.214824
16.264915
9.480715
7.803440
7.675886
7.817745
8.306503
8.488894
8.705854
8.753538
9.246469
10.156631
##ZVALUE=380
0.598431
0.631809
0.667572
0.657439
0.649691
0.471473
0.533462
0.479817
0.564456
0.649691
0.699759
0.532866
0.739694
0.703931
0.707507
0.674725
0.558496
0.697970
0.714660
0.595450
0.745654
0.615716
0.746846
0.629425
0.614524
0.708699
0.720620
0.702739
0.603795
0.748634
0.786781
0.609756
0.607967
0.675917
0.602603
0.700951
0.720620
0.715852
0.650883
0.564456
0.768900
0.608563
0.651479
0.730753
0.654459
0.784993
0.646710
0.868440
0.769496
0.766516
0.883937
0.731945
0.731945
0.938773
0.639558
0.769496
1.005530
0.823736
0.706911
0.791550
0.848770
0.949502
0.988841
0.946522
0.845790
1.159906
1.031756
1.023412
1.248717
1.417994
1.531839
2.287626
6.958842
32.280684
75.155497
193.089843
315.333605
481.795669
592.756867
673.135519
666.646957
564.219952
453.027487
308.145881
206.208825
104.178786
54.292679
21.742582
11.661649
7.439852
7.128716
7.065535
7.417798
7.425547
7.612705
8.214712
##ZVALUE=385
0.436902
0.497699
0.478625
0.323653
0.586510
0.389814
0.430942
0.518560
0.581741
0.494719
0.467896
0.442863
0.426769
0.430942
0.496507
0.496507
0.494719
0.430942
0.519753
0.293851
0.431538
0.579953
0.519753
0.398755
0.679493
0.698566
0.592470
0.528693
0.477433
0.572801
0.501871
0.488758
0.644922
0.615716
0.610948
0.510812
0.598431
0.569820
0.547767
0.692606
0.614524
0.575781
0.638962
0.662804
0.597835
0.615716
0.611544
0.600815
0.636578
0.514984
0.548959
0.619888
0.654459
0.536442
0.533462
0.631809
0.741482
0.789762
0.608563
0.594854
0.664592
0.536442
0.742674
0.669956
0.837445
0.851750
0.915527
1.003742
0.932813
1.023412
1.194477
1.159906
1.324415
1.666546
3.922582
19.552708
49.118996
124.763846
219.753981
386.488438
505.932570
622.000694
642.392635
596.655607
513.107777
370.563865
260.836482
140.751004
80.731511
35.024881
16.606450
7.601976
6.572604
6.441474
6.560683
6.763935
##ZVALUE=390
0.567436
0.603795
0.557899
0.572801
0.604987
0.707507
0.518560
0.526905
0.635982
0.565648
0.548959
0.620484
0.688434
0.529885
0.569820
0.707507
0.693798
0.768900
0.567436
0.596642
0.509620
0.683665
0.571609
0.476837
0.535846
0.549555
0.694990
0.769496
0.709891
0.742674
0.572801
0.671744
0.722408
0.533462
0.666976
0.604987
0.710487
0.687838
0.657439
0.665784
0.729561
0.694990
0.665784
0.646710
0.753999
0.643730
0.808835
0.675917
0.569820
0.726581
0.733733
0.747442
0.807643
0.665784
0.799894
0.795722
0.779629
0.709891
0.711679
0.704527
0.746846
0.823736
0.763535
0.677705
0.861883
0.815988
0.789762
0.807643
0.874996
1.190901
1.054406
1.260638
1.232624
1.062751
1.323819
1.649857
2.434850
12.137890
32.465458
93.159676
170.775652
318.176746
436.211824
568.550825
628.594756
632.017851
570.645928
441.440940
331.614614
196.932554
114.184618
47.681928
24.514794
10.223985
6.886721
6.209612
##ZVALUE=395
0.712872
0.624657
0.587702
0.492930
0.633597
0.472665
0.519753
0.460744
0.522733
0.483990
0.440478
0.554919
0.449419
0.618696
0.533462
0.582933
0.664592
0.654459
0.730753
0.564456
0.562668
0.725985
0.485778
0.505447
0.586510
0.551939
0.743866
0.585914
0.541806
0.649691
0.717640
0.613928
0.724792
0.593662
0.724792
0.633597
0.632405
0.752807
0.712872
0.701547
0.791550
0.586510
0.685453
0.577569
0.565648
0.619888
0.711679
0.634789
0.849962
0.635982
0.682473
0.736713
0.714660
0.849962
0.728965
0.653863
0.852942
0.711679
0.674725
0.667572
0.691414
0.676513
0.649691
0.738502
0.764728
0.653863
0.828505
0.844598
0.998974
1.012683
0.956655
1.170635
1.336932
1.075864
1.197457
1.070499
1.198649
1.323819
1.333952
6.322861
21.118522
67.971945
128.000975
243.392587
359.466672
520.575643
608.567595
658.069849
628.611445
520.664454
403.159857
246.550441
151.858926
66.422820
33.231974
13.068914
##ZVALUE=400
0.500679
0.574589
0.520945
0.423789
0.530481
0.595450
0.638962
0.725985
0.638962
0.591874
0.667572
0.657439
0.581741
0.648499
0.589490
0.704527
0.526905
0.470877
0.482798
0.593662
0.546575
0.515580
0.642538
0.639558
0.527501
0.531673
0.607967
0.555515
0.593662
0.749826
0.667572
0.646710
0.723600
0.642538
0.690818
0.588894
0.821948
0.771880
0.632405
0.576973
0.752807
0.677705
0.573993
0.630617
0.592470
0.548959
0.717640
0.694990
0.629425
0.708699
0.641942
0.618696
0.625849
0.664592
0.671744
0.741482
0.637770
0.684857
0.729561
0.728965
0.747442
0.649691
0.677705
0.950694
0.925660
0.762939
0.880957
0.989437
0.991821
1.058578
1.021624
0.928640
0.966787
1.079440
1.167655
0.991821
1.100898
1.154542
1.150966
1.246929
1.530647
3.168583
10.879636
40.603876
82.682967
176.849961
276.579857
429.548621
526.678562
609.401464
614.784956
537.714958
439.165831
297.371745
195.238590
97.730756
##END
