##TITLE=FQP00302
##FORMAT=SPECTACLE-ASCII V-1.2
##DATA TYPE=ULTRAVIOLET SPECTRUM
##SECOND TYPE=ULTRAVIOLET SPECTRUM
##DATE=01/21/18
##TIME=15:32:10
##SPECTROMETER/DATA SYSTEM=SPECTACLE
##XUNITS=NM EM
##YUNITS=ENERGY
##YFACTOR=1
##FIRSTX=220
##LASTX=410
##NPOINTS=96
##3DDATA=Equidistant
##ZUNITS=NM EX
##FIRSTZ=210
##LASTZ=400
##ZPOINTS=39
##XYDATA=(Y..Y)
##ZVALUE=210
1.430511
1.415610
1.576543
1.306534
1.306534
1.386404
1.545548
1.565814
1.828671
1.656413
1.275539
1.493692
1.519918
1.610518
1.491904
1.743436
1.668930
1.762509
1.695752
1.859665
1.725554
1.967549
2.327561
2.344847
2.811551
2.519488
2.592802
3.368855
3.115535
3.662705
3.408790
4.194975
3.591776
3.599524
3.909469
4.095435
4.876852
3.976822
3.540516
3.678799
3.701448
4.478693
3.875494
3.644824
3.927946
3.781915
3.595948
3.676414
4.073977
3.582835
3.498793
3.420711
3.632903
3.610849
3.486872
3.316998
3.185868
2.758503
3.906488
2.970695
4.003644
3.119707
3.710985
3.393888
3.752708
4.243851
4.213452
3.546476
4.026890
4.844666
4.679561
6.910563
6.412864
6.666780
7.156730
8.355975
8.294582
7.976890
7.453561
6.673932
6.355643
5.759597
4.708767
4.830956
4.062653
3.947616
3.753901
2.743602
3.467798
2.968907
3.041625
3.290772
3.831983
3.146529
4.051924
3.553629
##ZVALUE=215
3.464818
3.304482
3.529787
2.833605
3.437996
2.413988
2.946854
3.480911
4.235506
3.609657
3.491640
2.776980
2.841949
2.331734
2.712607
1.979470
1.766682
2.070665
2.136827
2.164841
2.125502
2.400875
2.136827
2.678633
2.805591
2.962947
3.301501
3.409982
3.879666
4.384518
5.317926
5.771518
6.277561
6.467700
6.875992
6.304979
6.488562
6.940961
6.296635
5.610585
5.667806
5.339980
5.537868
5.860925
5.346537
4.634857
5.024672
4.728436
4.344583
4.433990
4.787445
3.935695
4.193783
4.638433
4.411936
4.667640
4.392862
4.101992
4.415512
4.382730
4.074574
3.713965
3.522635
3.565550
3.998876
4.241467
4.289746
3.883839
4.414916
4.859567
4.980564
6.139874
6.745458
6.947517
7.126927
7.476807
8.470416
7.443428
7.223487
6.252527
6.589890
4.844666
5.625486
4.988909
3.601909
3.912449
4.108548
3.312826
3.473759
3.726482
3.187656
3.167987
2.918839
3.542900
4.019737
4.020929
##ZVALUE=220
11.689663
11.868477
11.837482
13.804436
14.190674
10.629892
9.403825
8.421540
7.391572
7.312894
8.248687
8.317828
8.129478
7.674694
6.892681
5.321503
3.728867
3.143549
2.363920
2.615452
1.972914
2.386570
2.271533
2.974868
2.910495
3.729463
5.155802
5.434752
6.239414
6.934404
8.262992
8.151531
9.550452
9.732842
11.212826
9.525418
10.840893
10.448694
10.315776
10.744929
10.590553
9.449720
9.523630
8.357763
8.778572
7.562637
7.261634
7.076859
6.917715
6.667972
5.929470
5.494952
5.783439
6.105900
5.515814
5.564690
5.328655
5.587935
5.233884
5.447865
4.900694
4.973412
4.886985
5.055666
5.039573
4.823804
5.472898
5.277991
5.045533
5.982518
6.606579
6.314516
8.361936
8.071661
8.955598
9.153485
8.226633
9.692907
8.203983
8.990765
7.773638
6.564856
7.121563
6.217957
5.595684
6.041527
4.819632
4.770756
4.956722
5.131960
4.852414
4.491806
5.143881
5.185604
4.401803
4.661679
##ZVALUE=225
19.997954
20.133853
31.857491
39.895773
42.871833
45.524836
42.856932
37.248731
27.859807
23.183823
20.844936
17.226934
19.642711
19.125938
22.222996
20.528436
17.377734
14.812946
10.430813
7.568598
4.669428
4.374981
3.019571
3.121495
3.569722
3.588796
5.490780
5.976558
8.338690
9.021759
8.869767
10.270476
11.650920
12.422800
12.542605
15.928745
14.671683
14.856458
14.147758
13.024807
12.999773
12.982488
12.759566
10.826588
11.174679
10.818839
11.211634
9.228587
9.876490
10.079741
9.108782
8.162856
8.361936
8.738637
6.526709
7.052422
7.040501
7.319450
6.756783
6.764531
6.929636
7.428527
7.331967
6.746650
6.666780
6.441474
6.894469
6.675720
7.646680
7.900000
8.423924
9.658933
9.938478
10.535717
11.685491
10.187626
10.274649
10.672808
10.240674
10.075569
9.177923
8.995533
8.135438
8.885860
9.073615
8.772612
8.041859
8.412600
9.443760
8.485913
7.327795
7.432699
8.235574
8.206964
7.075667
6.965995
##ZVALUE=230
18.536448
20.211935
36.976933
59.686899
78.294873
107.973814
121.184587
125.336647
117.039680
94.723701
75.000525
52.564740
39.381981
36.801696
38.680434
44.091940
43.163896
41.837692
37.172437
33.752918
22.992492
17.016530
10.948777
6.154776
4.686713
5.186796
5.594492
6.128550
6.646514
8.633733
9.748936
10.938644
11.773705
12.085438
12.721419
14.683604
13.968945
14.432669
13.204813
12.543797
13.706684
12.734532
12.758970
12.023449
12.523532
11.371970
9.983778
10.330677
9.583831
9.707808
9.911656
10.112524
8.546710
8.724928
8.768439
8.539557
8.617640
9.270906
9.143949
9.197593
9.573698
8.400679
9.210706
9.788871
8.642673
8.560419
10.288954
10.512471
11.397600
12.251735
10.770559
12.993813
13.468862
13.985634
14.909506
13.646483
15.404820
14.164448
15.670657
14.230609
14.900565
13.455749
15.739799
14.443994
12.827516
13.233423
14.077425
12.747645
11.926889
12.072921
12.915730
13.431907
13.023615
12.755990
13.438463
12.593865
##ZVALUE=235
7.890463
8.958578
17.108917
42.630434
72.104931
123.837590
163.834691
223.347545
249.712467
261.457562
243.415833
197.460651
140.986443
109.376907
78.175664
62.821507
63.120723
69.327950
76.088905
77.046752
73.307753
57.820678
46.788454
32.967925
22.547841
13.075471
9.309649
7.823706
7.245541
8.480549
6.850958
8.628964
9.545684
11.786819
9.514689
10.203719
11.192560
9.742975
11.121631
11.026859
10.211468
10.366440
10.960698
11.698604
10.219812
10.005832
9.402633
9.457469
9.739995
8.341670
9.568930
9.565949
9.183884
9.489655
9.280443
10.602474
10.282993
10.573864
9.603500
9.884834
9.349585
10.259748
12.211800
11.714697
12.106895
10.356903
13.720989
12.535453
13.072491
15.617609
14.843941
16.954541
17.218590
18.724799
19.410849
20.442605
20.673871
20.597577
21.697879
20.764470
20.695925
21.546483
22.212863
19.908547
20.028949
20.030737
21.614432
20.840764
21.905899
18.937588
20.951629
19.709468
21.209717
20.964742
21.256804
20.077825
##ZVALUE=240
1.264811
1.744628
4.156828
11.579990
32.732487
58.218837
125.482678
185.008645
290.029645
368.340611
425.274968
437.161922
410.888791
336.312652
272.007585
176.690817
127.291679
96.695423
87.576509
96.287727
107.878447
115.178823
108.464956
97.905993
80.131888
62.687993
43.925643
31.857491
19.328594
14.027953
10.282993
8.094907
9.026527
10.665655
10.206699
11.077523
10.597706
10.596514
10.122657
11.074543
10.136962
11.491776
11.695623
11.603832
10.531545
10.336637
11.014938
10.179877
10.775924
10.462999
10.230541
9.791851
10.494590
10.181665
10.921955
9.360909
10.153651
10.021925
10.106564
11.778474
11.118650
12.550950
13.035536
12.539625
14.552474
14.269948
15.261769
15.848875
16.330481
17.640591
20.086765
23.076534
23.357868
23.891926
24.793744
26.994944
25.151968
26.043653
27.931929
26.596785
27.306676
28.337836
26.974678
27.460456
28.995872
27.188659
30.372739
28.984547
29.852986
28.711557
28.907657
26.446581
29.375553
27.021766
26.695728
26.943684
##ZVALUE=245
1.247525
1.080632
1.358986
1.448989
2.713799
10.337830
24.486780
67.168474
124.431849
201.424956
330.576897
436.222553
531.048775
559.879541
535.279512
476.256609
359.049439
273.014903
241.965652
127.955675
103.706717
102.575421
112.631917
129.553676
129.646659
129.491687
115.673542
93.968511
77.210665
53.793788
39.312840
25.635958
18.860698
13.788939
11.879802
12.292862
11.556745
11.918545
12.150407
11.758804
12.195706
11.428595
11.862516
11.754632
11.075735
12.223721
11.622906
11.117458
11.297464
11.058450
10.481477
10.975599
10.274649
11.165738
11.071563
11.138916
10.894537
11.631846
11.757612
11.563897
12.870431
12.365580
12.736917
12.837648
13.993979
14.569759
15.227795
16.428828
17.235875
18.031597
17.921925
22.200942
21.387935
23.514628
24.645925
26.150942
25.356412
26.070476
27.786493
27.107596
27.148724
28.353930
29.473901
30.748844
30.126572
29.809475
31.926632
28.826594
29.149652
30.271411
31.443834
29.380918
31.073689
30.126572
30.339956
31.108856
##ZVALUE=250
1.038909
0.757575
1.049638
1.157522
1.400709
1.164675
1.871586
5.222559
23.577809
50.865412
123.863816
211.162567
310.807824
465.535522
560.352802
646.162629
638.521910
574.504733
498.070717
347.299576
241.301656
160.816908
102.378726
94.141960
110.756755
125.910640
140.005946
145.776868
142.846704
129.440427
114.830732
87.667704
64.153671
44.043660
32.054782
21.201968
17.217994
17.026663
14.859438
15.281439
14.601946
16.125441
15.157461
14.657974
13.970733
14.027953
13.088584
14.778972
13.832450
13.269782
13.178587
13.244748
12.500882
11.893511
11.840463
11.502504
10.686517
10.809898
11.047721
10.968447
10.637641
11.279583
11.874437
12.895465
12.932420
13.952851
14.147758
14.595985
16.125441
17.052889
18.586516
19.512773
19.153953
22.389889
22.010803
24.908781
23.331642
25.382638
24.851561
24.986863
26.535988
27.673841
27.006865
27.626753
26.594996
26.952624
27.865767
29.202700
28.544664
28.234720
28.420687
29.048920
27.805567
30.330420
29.450655
29.013753
##ZVALUE=255
1.082420
0.939965
0.991821
0.969768
1.086593
1.253486
1.105666
1.062751
1.604557
3.569722
16.416907
37.114620
79.605579
178.478956
279.114842
447.735786
560.194850
691.244602
729.655027
703.772902
611.438751
484.280586
309.228897
200.974941
118.635893
92.105865
94.289780
108.981729
136.820674
152.843595
162.726641
153.727531
145.588517
117.485523
96.199512
68.390965
50.401688
36.854744
27.667880
22.978783
21.342635
19.286871
19.766688
18.850565
19.340515
18.528700
17.272830
16.943812
16.812682
16.043782
13.943911
14.738441
14.512539
12.366772
13.673902
13.021827
11.802912
12.116432
11.876822
12.503862
12.869835
12.877584
11.893511
13.159513
12.768507
12.742877
14.218688
14.882684
15.437603
15.773773
16.992688
16.736984
18.369555
19.389987
20.989776
21.588802
22.723675
22.220612
23.189783
22.699833
23.609996
24.673939
24.934411
25.045872
26.709437
25.896430
26.757717
25.168657
26.657581
26.394725
27.321577
26.712418
26.850700
27.604699
27.046800
28.105974
##ZVALUE=260
0.733733
0.643730
0.622869
0.639558
0.767708
0.950694
0.735521
1.099706
0.808835
0.899434
1.360774
1.884699
5.890727
24.783611
55.676699
137.224793
227.542520
395.412445
528.331995
706.498623
784.378648
800.378919
710.811615
590.787530
395.465493
269.786716
160.885453
108.876824
86.825490
95.794797
117.791891
146.825910
163.631439
175.684690
171.544552
152.897835
132.781863
101.248622
80.386996
55.984855
44.570565
31.982660
27.369857
24.605989
24.645925
21.771789
21.205544
20.272732
19.992590
19.130707
17.349720
18.568635
17.594695
15.244484
15.842915
14.221668
14.484525
14.490485
12.818575
13.158917
13.415813
12.708902
12.727976
12.487769
13.150573
13.742447
13.279915
13.973713
15.216470
14.731884
16.316772
18.056631
17.432570
17.945766
19.571781
20.203590
20.419955
20.400882
21.355748
21.928549
22.744536
22.601485
23.642778
25.015473
23.353696
24.899840
24.574995
24.885535
24.595857
25.547743
25.253892
27.020574
26.428699
26.501417
26.476979
27.057528
##ZVALUE=265
0.558496
0.910759
0.687838
0.859499
0.703931
0.614524
0.622869
0.786781
0.969768
1.120567
1.133680
1.343489
1.080632
1.644492
3.209710
16.463995
41.107535
102.463961
183.932781
356.547832
507.012606
656.633973
814.541578
854.845643
790.863037
685.617924
510.934591
369.234681
210.638642
136.560798
96.914768
90.135932
102.867484
136.199594
158.857703
178.258419
185.726881
176.502466
159.553885
132.343769
108.932853
79.123974
61.325431
45.148730
35.195947
28.222799
26.405454
24.540424
22.908449
21.553636
20.535588
19.556880
18.834472
17.305613
17.117858
16.040802
14.939904
14.803410
14.191866
13.231635
13.124943
13.374686
13.288856
13.151765
12.394786
13.534427
13.889670
13.936758
14.433861
14.994740
15.185475
15.127659
16.311407
18.039942
18.587708
18.781424
18.028617
18.271804
19.325614
20.509958
20.857453
22.112727
21.556616
23.177862
22.431612
23.470521
23.370981
23.293495
23.658872
24.068952
24.051666
24.817586
23.998618
24.936795
25.728941
25.625825
##ZVALUE=270
0.384450
0.631809
0.812411
0.500679
0.835657
0.872612
0.826716
0.849962
0.943542
0.935793
0.819564
0.820756
0.915527
1.293421
1.172423
1.288652
1.822710
6.995797
22.123456
71.575642
141.786933
255.869627
463.540554
629.597902
823.091865
883.257985
872.100592
795.890689
628.255606
476.527810
334.401727
187.571645
122.484565
84.054470
86.892843
112.053752
137.778521
164.257884
178.378820
184.457898
179.202557
160.173774
137.122869
104.468465
81.463456
57.311654
43.571591
31.505823
26.688576
22.145510
21.282434
19.982457
18.819571
18.157959
16.407967
16.339421
15.934706
15.647411
14.596581
13.675690
13.216734
13.452768
13.404489
12.689829
13.465881
12.936592
13.231635
13.189912
14.446974
14.268756
14.164448
16.127825
16.697645
16.457438
17.874837
18.300414
18.754601
18.548965
19.790530
19.013882
19.992590
21.139979
21.490455
21.161437
21.609664
22.163987
21.880865
22.964478
22.735000
22.421479
22.304654
23.499727
22.549629
23.434758
23.756623
24.275780
##ZVALUE=275
0.591874
0.611544
0.449419
0.561476
0.753999
0.612736
0.491738
0.455976
0.516772
0.577569
0.892878
0.815988
0.829697
0.633597
0.979900
1.020432
0.860691
1.094937
1.400709
3.329515
12.927651
48.977733
106.591582
207.005739
404.013395
558.811426
744.990706
862.382650
916.076899
873.012543
731.526613
589.712858
382.000804
249.005556
131.276846
87.050796
69.656968
79.558492
107.306838
128.268600
155.999660
168.771744
175.108910
170.696974
149.360895
129.602551
96.613765
76.619983
52.106977
37.899613
26.102662
21.752715
17.827749
16.860962
15.247464
14.867783
14.272928
14.324784
13.709664
13.366938
12.989640
12.856722
12.689829
12.633801
13.032556
13.329983
13.163686
13.473630
14.191866
14.006495
15.750527
15.779734
15.933514
16.992688
17.569661
17.840862
17.864704
18.276572
18.754601
19.679666
19.522905
20.125508
20.617843
20.116568
20.767450
20.479560
21.519661
21.727681
20.762682
22.860765
22.258759
21.727681
22.005439
21.950603
21.695495
22.324920
##ZVALUE=280
0.434518
0.411868
0.457764
0.424981
0.486970
0.425577
0.644922
0.642538
0.649691
0.576973
0.553727
0.632405
0.589490
0.727773
0.671744
0.689626
0.995994
0.651479
0.807643
1.203418
1.230836
1.720786
7.909536
28.045774
88.904500
161.486864
310.686827
466.668606
683.813691
818.507671
902.330875
911.311507
827.800035
631.570816
471.505523
276.174545
169.836879
84.589720
55.092573
52.670836
67.270994
94.849467
115.211606
142.393708
156.467557
160.475969
155.547857
138.784647
119.553804
88.273883
67.797899
44.692755
31.375885
20.820498
16.290545
13.305545
12.305975
11.793971
12.276769
11.909604
11.873841
12.065768
12.734532
12.452602
12.431741
13.050437
13.314486
13.478994
13.839602
14.641881
14.687777
15.301704
16.438961
16.566515
17.718673
17.479658
17.777681
18.922687
18.963814
19.612908
19.107461
20.694733
19.832850
20.613670
20.243526
20.320415
19.719601
21.145940
20.631552
21.100640
20.836592
20.835996
21.697879
21.189451
21.239519
22.047758
##ZVALUE=285
0.492930
0.415444
0.459552
0.502467
0.456572
0.583529
0.383854
0.335574
0.385642
0.381470
0.379682
0.487566
0.462532
0.630617
0.667572
0.692606
0.518560
0.771880
0.616908
0.810623
0.769496
1.013875
1.326799
1.469851
4.027486
14.619827
46.209693
101.376772
224.491954
358.770490
554.384589
717.808604
849.422812
912.316442
872.970819
717.936754
563.838482
352.491736
222.026706
106.947422
59.670806
37.353635
39.882660
59.612989
81.203580
108.845830
127.244592
146.045685
152.122974
147.701502
133.917928
109.795928
88.939667
61.774850
43.752789
27.023554
19.030571
13.485551
12.036562
10.759830
10.489821
10.935664
11.221766
11.811852
12.203455
12.402534
12.950897
13.106465
14.507771
14.827847
14.771819
15.841722
17.134547
16.906857
17.214417
17.927885
17.959476
18.546581
18.725991
19.128919
19.614697
20.139813
20.173788
20.531416
20.286441
20.319819
20.890832
20.618439
21.172762
20.854473
21.652579
20.417571
20.718575
20.708442
21.120906
20.995736
##ZVALUE=290
0.356436
0.400543
0.398755
0.350475
0.400543
0.237823
0.510812
0.388622
0.476837
0.425577
0.580549
0.535846
0.590682
0.556707
0.528693
0.327826
0.607967
0.545979
0.630617
0.674725
0.848770
0.793934
0.925660
0.919700
1.086593
1.148582
1.858473
5.675554
26.055574
62.532425
124.309659
265.596509
417.432785
645.720959
791.267753
909.712911
906.665921
790.096521
646.376014
432.999730
288.175941
146.791935
78.474879
35.131574
25.980473
36.075711
50.683618
73.453784
95.269680
121.957660
136.922598
144.661665
142.371655
126.289725
109.471679
81.152916
61.993599
40.311813
29.367805
18.620491
14.111996
11.694431
11.046529
11.541843
11.336803
11.970997
12.327433
13.597608
13.711452
15.141964
15.020967
15.733838
16.624928
17.500520
17.432570
18.080473
18.570423
18.734932
19.629598
19.361973
20.183921
20.175576
20.300746
20.346642
20.048618
20.595789
20.665526
20.346642
20.907521
20.492673
20.812750
20.544529
20.065904
21.169782
20.528436
20.132661
##ZVALUE=295
0.299811
0.368953
0.293851
0.347495
0.428557
0.261664
0.185966
0.186563
0.576973
0.383854
0.395775
0.472665
0.302792
0.406504
0.516772
0.535846
0.442863
0.549555
0.531673
0.620484
0.621676
0.714660
0.619888
0.834465
1.002550
0.974536
0.964999
1.088977
1.490712
2.414584
9.178519
38.720965
87.986588
209.553838
348.053575
567.897558
718.969703
866.519809
904.694796
831.344724
717.629790
514.086485
355.730653
189.873576
104.814768
40.591955
24.281740
21.218657
30.246973
47.975779
65.183640
92.574954
111.832619
129.396915
137.216449
132.470727
122.183561
101.470947
82.224607
56.787729
42.344928
26.809573
19.867420
14.466643
13.264418
12.582541
12.599826
13.021827
13.778806
14.491677
15.267730
15.793443
16.626716
17.066598
17.616749
18.075705
18.552542
19.149780
18.633604
19.542575
19.574761
20.874739
20.564795
20.597577
20.979643
20.781755
21.178722
21.112561
21.767616
20.943880
21.366477
20.529628
21.133423
20.752549
20.837784
20.929575
##ZVALUE=300
0.297427
0.343919
0.378489
0.328422
0.427961
0.302792
0.283718
0.334978
0.407696
0.487566
0.324845
0.295639
0.205636
0.439882
0.499487
0.413656
0.520945
0.489950
0.425577
0.404716
0.663996
0.559688
0.689626
0.789762
0.710487
0.838637
0.730753
0.935793
0.960827
1.036525
1.178980
1.430511
5.877614
20.096898
66.770911
133.351684
280.874968
432.624817
645.939708
778.438449
880.999565
878.775716
762.929916
633.444786
418.783426
273.218751
138.448477
74.931979
29.745698
17.528534
18.529892
26.047826
42.981505
58.492422
83.545446
102.892518
123.024583
129.864812
128.678679
119.499564
100.240707
82.861781
59.657693
44.298768
28.965473
21.336675
16.396642
14.297962
14.857650
14.344454
15.313625
16.019940
16.147494
17.256737
17.582774
18.580556
19.111633
19.001961
19.560456
20.469427
21.018982
21.047592
21.492839
21.761656
21.038651
21.602511
21.920800
21.290779
21.854639
21.439791
21.593571
21.244884
21.117926
20.723939
20.908713
21.435618
##ZVALUE=305
0.268817
0.454783
0.279546
0.284910
0.312924
0.215769
0.284910
0.292659
0.382662
0.347495
0.357628
0.397563
0.432730
0.333786
0.262856
0.360608
0.348687
0.462532
0.389814
0.349879
0.316501
0.585914
0.553727
0.679493
0.606775
0.749826
0.740886
0.722408
0.784993
0.786781
0.935793
0.976920
1.075864
1.402497
2.447963
27.587414
38.100481
156.508684
214.434862
383.229852
527.921915
719.117522
826.612711
871.599913
817.351937
656.389594
507.843494
314.743519
197.837949
93.899965
46.995878
22.359490
13.016462
15.779734
26.040673
38.644671
59.864521
78.279972
99.851489
112.956762
125.974417
123.008490
112.164617
98.926425
77.729821
60.088634
40.742755
31.614900
21.899939
18.216968
16.395450
16.607642
16.981959
16.862750
18.126965
18.315911
19.310713
19.453764
20.145774
20.958781
21.194816
21.116734
21.411777
21.591783
22.410750
22.305846
22.508502
21.885633
22.131801
22.460818
21.415949
21.914840
21.270514
21.494627
22.032857
21.313429
##ZVALUE=310
0.170469
0.411868
0.286698
0.336766
0.205636
0.278950
0.162721
0.361800
0.235438
0.297427
0.246763
0.302792
0.240803
0.226498
0.333786
0.378489
0.348687
0.414848
0.404716
0.455976
0.510812
0.438690
0.491738
0.518560
0.571609
0.650883
0.724792
0.596642
0.656843
0.650883
0.756979
0.582933
0.935793
1.070499
0.951886
1.222491
1.478791
5.556941
18.438697
63.226819
125.431418
267.308950
418.205857
630.159974
761.768818
854.855776
846.403837
739.336610
612.175465
412.057638
273.435712
138.277411
74.678659
28.329492
14.035702
11.627674
14.806986
23.403764
34.570694
54.804683
70.751905
93.634725
107.033849
119.204521
120.095611
111.604929
97.266436
78.469515
61.736703
42.667985
33.216476
25.077462
20.755529
18.654466
18.713474
18.654466
19.538999
19.854903
20.815730
20.558834
21.676421
21.592975
22.247434
22.697449
22.681952
22.752881
23.247600
23.401976
22.996664
22.869706
23.111701
22.580624
22.275448
21.672845
21.867752
22.054911
##ZVALUE=315
0.179410
0.221729
0.142455
0.137687
0.189543
0.053644
0.197887
0.063777
0.218749
0.040531
0.084639
0.132918
0.217557
0.402927
0.253916
0.122786
0.383854
0.237823
0.311732
0.063777
0.424981
0.279546
0.185966
0.266433
0.401735
0.292659
0.436902
0.503659
0.397563
0.518560
0.577569
0.478625
0.724792
0.583529
0.806451
0.689626
0.790954
0.877976
1.198649
2.050996
11.953712
34.173727
98.694563
184.018612
355.116725
510.986447
695.874691
800.567865
848.075747
798.975825
650.724769
507.836938
321.380496
199.680924
92.000961
45.957565
16.003847
10.199547
10.646582
13.842583
22.340417
32.794476
50.523877
66.525936
88.078976
101.252794
113.402605
114.004612
105.545521
92.892647
73.670745
59.894919
44.337511
35.138726
25.860667
22.769570
20.689964
20.167828
20.820498
20.710826
21.710992
22.144914
22.491813
22.608638
23.401976
23.084879
23.187995
23.487806
22.999644
23.198724
23.320913
23.011565
22.529960
21.993518
22.518635
22.105575
##ZVALUE=320
0.211596
0.198483
0.266433
0.227690
0.181794
0.209808
0.236630
0.213981
0.228882
0.263453
0.303984
0.246763
0.281930
0.258684
0.283718
0.350475
0.307560
0.327826
0.361800
0.500679
0.329614
0.286698
0.394583
0.397563
0.351667
0.501871
0.451803
0.627637
0.369549
0.464916
0.571609
0.620484
0.648499
0.652671
0.600815
0.481606
0.731945
0.842810
0.861883
0.932813
1.094937
1.188517
5.223751
18.237829
63.527822
128.003955
262.389779
401.124954
602.466464
730.620623
824.108720
824.945569
719.778538
592.599511
400.270820
259.122849
122.960806
65.997839
26.298761
13.688803
9.521842
10.268688
14.424920
19.928813
32.450557
45.663714
65.406561
80.556870
99.564791
108.335614
110.102892
105.080605
91.473460
77.452660
59.197545
47.009587
35.479665
28.948784
23.913980
22.691488
22.039413
21.933913
22.362471
22.619963
22.942424
22.771955
23.222566
23.302436
22.927523
23.352504
22.957921
22.920966
22.840500
22.486448
22.462606
22.676587
##ZVALUE=325
0.275970
0.293851
0.296831
0.171661
0.302792
0.239611
0.156760
0.250936
0.163913
0.279546
0.249743
0.399947
0.325441
0.374913
0.209808
0.458956
0.431538
0.316501
0.208616
0.354648
0.505447
0.325441
0.465512
0.286698
0.446439
0.364780
0.484586
0.469685
0.517964
0.557899
0.531673
0.483990
0.543594
0.585914
0.571609
0.719428
0.698566
0.490546
0.687838
0.852942
0.713468
1.040697
1.012683
1.176596
2.399683
14.465451
37.684441
97.969770
179.719925
345.627666
490.439534
671.983957
771.355033
815.608501
764.638782
611.976981
469.116569
288.872719
177.750587
79.804659
40.461421
15.481710
10.179877
9.859800
11.272430
15.445948
21.136999
33.106804
46.034455
65.735579
80.096722
95.677972
104.236603
104.954839
99.971890
86.196661
73.282719
56.610703
45.621991
34.597516
28.428435
24.920702
23.962855
23.194551
23.139715
22.720695
23.008585
23.435950
23.257732
23.068786
22.913814
23.419857
23.341775
23.266673
22.803545
22.831559
##ZVALUE=330
0.372529
0.541806
0.304580
0.457764
0.315905
0.278950
0.308752
0.316501
0.225902
0.279546
0.413656
0.487566
0.306964
0.388622
0.376701
0.404716
0.389814
0.480413
0.407696
0.554919
0.492930
0.309944
0.485778
0.403523
0.582933
0.616908
0.633597
0.527501
0.636578
0.657439
0.528693
0.493526
0.518560
0.604987
0.738502
0.664592
0.741482
0.743866
0.779629
0.742674
0.788569
0.810623
0.992417
0.889897
1.077652
1.135468
1.400709
6.211996
19.846559
65.860748
129.333735
262.519717
394.510627
580.197573
701.989532
789.240003
770.518780
663.545728
539.724827
349.895954
230.252743
110.461712
57.667494
22.958517
12.557507
9.864569
10.540485
12.366772
15.236735
23.055673
31.689405
46.587586
59.567690
79.476833
91.339946
99.386573
100.206733
94.176531
85.007548
69.208741
56.699514
43.593645
36.530495
29.749870
26.808977
24.191737
23.648739
22.948980
23.020506
22.803545
23.012757
22.302866
22.739768
22.489429
22.204518
22.228956
##ZVALUE=335
0.167489
0.117421
0.151992
0.393987
0.324845
0.311732
0.139475
0.234842
0.098944
0.201464
0.141859
0.184774
0.233650
0.204444
0.205636
0.342727
0.237823
0.178814
0.193715
0.266433
0.360608
0.207424
0.136495
0.361800
0.307560
0.208616
0.367761
0.186563
0.393987
0.308752
0.429749
0.306964
0.404716
0.423789
0.212789
0.509620
0.343919
0.628829
0.489950
0.568628
0.586510
0.572801
0.678897
0.546575
0.644922
0.657439
0.839829
0.990629
0.985861
2.761483
10.227561
39.742589
85.139871
190.543532
312.982798
505.833626
637.827516
748.517513
770.147443
696.419477
589.401722
406.232476
279.854536
148.054957
80.382824
30.516982
15.393496
10.293722
10.114908
11.023879
12.740493
16.198754
21.420717
32.512546
43.384433
60.779452
73.105693
88.020563
94.203949
96.334815
91.060996
78.747869
68.179965
56.615472
46.648979
36.200881
30.029416
25.713444
24.219751
23.009777
21.699667
22.151470
22.110939
21.382570
21.498799
21.816492
##ZVALUE=340
0.189543
0.247955
0.256896
0.159740
0.230670
0.183582
0.246763
0.136495
0.293851
0.372529
0.325441
0.102520
0.256896
0.257492
0.251532
0.393987
0.214577
0.106692
0.344515
0.283718
0.321865
0.269413
0.347495
0.343919
0.235438
0.383854
0.302792
0.288486
0.360608
0.369549
0.480413
0.470877
0.455976
0.488758
0.364780
0.363588
0.413656
0.349879
0.539422
0.504851
0.549555
0.493526
0.591874
0.604987
0.571609
0.744462
0.727773
0.854731
0.933409
0.963807
0.823736
1.716614
5.017519
24.289489
59.618950
148.743987
252.965689
422.449708
556.362867
695.864558
746.197701
714.322925
628.218651
469.534993
333.526731
176.923871
99.540949
43.269992
20.354986
11.350513
10.627508
11.330843
11.586547
13.814569
16.773939
23.823977
31.317472
44.105649
56.265593
72.175860
82.542896
90.544820
91.627836
86.061954
78.416467
65.549612
54.920912
43.200850
35.903454
28.947592
25.438666
22.470951
21.824837
20.694733
21.148920
21.114945
##ZVALUE=345
0.189543
0.146627
0.014901
0.132918
0.146627
0.254512
0.131726
0.167489
0.179410
0.134706
0.206828
0.205636
0.145435
0.236630
0.183582
0.190735
0.212789
0.192523
0.201464
0.099540
0.264645
0.214577
0.171661
0.306964
0.306964
0.199676
0.254512
0.349879
0.191927
0.145435
0.198483
0.287890
0.315905
0.360608
0.302792
0.396967
0.321865
0.478625
0.471473
0.425577
0.324845
0.490546
0.481606
0.558496
0.569820
0.531673
0.549555
0.703931
0.573993
0.644922
0.699759
0.769496
0.772476
1.088977
2.318621
13.483763
37.348866
99.453926
178.325772
333.151817
462.391973
624.880791
701.906681
719.041824
661.084652
513.543487
386.919975
233.737826
135.095716
57.727695
28.928518
13.300776
10.637641
11.146665
11.200905
12.091994
13.635755
16.553998
20.696521
30.912757
39.658546
55.359602
65.543652
75.844526
82.092881
84.674954
82.201958
73.504448
65.068603
52.674413
43.307543
33.816695
27.971864
23.844838
21.581650
20.337701
##ZVALUE=350
0.181794
0.063777
0.141859
0.123978
0.128746
0.231862
0.123978
0.029802
0.023842
0.263453
0.166893
-0.063777
-0.063777
0.131726
0.002980
0.392795
0.188947
0.282526
0.155568
0.137687
0.301600
0.160933
0.066757
0.048876
0.235438
0.118613
0.169873
0.216961
0.315905
0.261664
0.242591
0.252724
0.294447
0.308752
0.312924
0.386834
0.283718
0.327826
0.149608
0.300407
0.148416
0.341535
0.244975
0.269413
0.467896
0.383854
0.449419
0.508428
0.412464
0.559688
0.502467
0.623465
0.633597
0.694990
0.757575
0.876784
1.265407
7.130504
21.594763
65.066814
125.163794
255.749822
377.104878
537.296534
642.575622
706.142783
674.134493
562.801957
437.034965
264.453888
161.823630
73.519945
36.090612
14.490485
10.946989
10.169744
10.506511
11.102557
11.693835
13.298988
15.637875
21.806955
27.414560
36.841631
45.783520
58.889985
67.574978
75.101852
77.064633
75.474977
69.798827
59.262514
50.579906
39.472580
33.238530
26.428699
##ZVALUE=355
0.039935
0.033975
0.072718
0.074506
-0.001788
0.012517
0.040531
0.000596
-0.011921
0.069737
-0.044703
0.126958
0.169873
0.098944
0.094771
0.210404
0.169873
0.050664
0.129938
0.065565
0.155568
0.116825
0.229478
0.232458
0.195503
0.107884
0.127554
0.136495
0.172853
0.106692
0.203848
0.164509
0.223517
0.264645
0.141859
0.313520
0.338554
0.197887
0.293851
0.282526
0.169873
0.289679
0.222921
0.334978
0.266433
0.336766
0.326633
0.395775
0.247955
0.443459
0.475645
0.568628
0.377893
0.619888
0.509620
0.750422
0.664592
0.814795
0.936985
3.217459
11.327863
42.258501
88.543892
187.531710
296.784639
471.802950
583.878756
671.312809
673.869848
582.076907
476.219654
317.107439
206.180811
94.864964
48.436522
18.669963
11.194944
9.715557
9.874701
10.265708
10.904670
11.645555
12.910962
15.023947
17.942786
24.431944
31.246543
42.621493
50.936937
61.696768
67.062974
70.708990
69.108605
62.540770
56.316853
46.582818
##ZVALUE=360
-0.006557
-0.057817
0.080466
0.019670
-0.012517
-0.012517
0.138879
0.089407
0.024438
0.012517
-0.003576
0.013709
-0.005960
0.009537
0.071526
0.060797
0.097752
-0.010729
0.037551
0.040531
0.057817
-0.018477
0.005960
0.169873
0.020862
0.085831
0.046492
0.051856
0.106692
-0.005960
0.043511
0.082850
0.093579
0.241995
-0.046492
0.094771
0.213981
0.256896
0.297427
0.176430
0.187755
0.303984
0.197887
0.248551
0.162721
0.135899
0.230670
0.354648
0.227690
0.331998
0.251532
0.393987
0.374913
0.329614
0.303984
0.427961
0.542998
0.497699
0.538826
0.733733
0.766516
1.382828
4.722476
22.376776
53.749681
135.682821
225.421786
372.864008
498.048663
622.358918
654.561520
615.247488
526.403785
365.259647
246.780515
123.589635
67.104697
28.411746
14.018416
9.343624
9.212494
9.396672
9.829998
9.954572
10.582805
11.713505
12.985468
15.803576
19.784570
26.640892
34.124851
45.179725
52.020550
60.416460
63.254833
63.607693
##ZVALUE=365
0.094771
0.003576
0.164509
0.246763
0.072718
0.282526
0.204444
0.095963
0.124574
0.084639
0.199676
0.190735
0.117421
0.171661
-0.039935
0.031590
0.090599
0.217557
0.103712
0.220537
-0.003576
0.267625
0.223517
0.214577
0.247955
0.101924
0.209808
0.215769
0.212789
0.132918
0.335574
0.146627
0.288486
0.235438
0.346899
0.268817
0.151992
0.282526
0.321865
0.085831
0.254512
0.280738
0.404716
0.323653
0.316501
0.203848
0.402927
0.246763
0.348687
0.325441
0.383854
0.528693
0.472665
0.356436
0.539422
0.501871
0.459552
0.477433
0.363588
0.696778
0.749826
0.674725
1.021624
1.006722
2.138615
12.320876
33.131838
92.477798
167.684555
304.803848
424.429774
561.202765
624.275804
618.754625
550.198555
410.168767
294.154882
166.228414
94.666481
38.113594
18.448830
9.461641
8.638501
8.754730
8.843541
9.279847
9.513497
9.780526
10.334849
11.841655
13.797879
18.063784
22.565722
30.066967
37.232637
46.465993
##ZVALUE=370
0.154972
0.150800
0.146627
0.061989
0.067949
0.161529
0.191927
0.147820
0.247955
0.122786
0.080466
0.055432
0.255704
0.249743
0.254512
0.017881
0.204444
0.140667
0.189543
0.211596
0.114441
0.138879
0.294447
0.275970
0.312924
0.292659
0.269413
0.340939
0.135899
0.166893
0.251532
0.091791
0.246763
0.399947
0.243783
0.322461
0.339746
0.132918
0.202656
0.141859
0.197887
0.341535
0.141859
0.314713
0.305772
0.340939
0.410676
0.357628
0.333786
0.334978
0.425577
0.394583
0.366569
0.335574
0.377893
0.437498
0.487566
0.545979
0.511408
0.554919
0.512600
0.613928
0.724792
0.728965
0.911951
0.990629
1.351833
6.554723
20.512938
66.357851
123.754740
240.409970
355.844498
509.272814
591.072440
620.025992
574.135780
459.894538
344.093442
196.667910
114.240646
47.783852
24.063587
11.092424
8.273721
7.641912
7.963777
8.020997
8.246899
8.568764
8.731484
9.622574
10.516644
12.474656
15.653968
20.621419
##ZVALUE=375
0.155568
0.005960
0.275970
0.194907
0.160933
0.152588
0.143647
0.043511
0.097752
0.190735
0.337958
0.023842
0.217557
0.176430
0.083447
0.113845
0.208616
0.168681
0.141859
0.152588
0.168681
0.132918
0.026822
0.115633
0.139475
0.262856
0.194907
0.239611
0.310540
0.205636
0.217557
0.194907
0.278950
0.310540
0.102520
0.111461
0.299811
0.178814
0.348687
0.220537
0.193715
0.281930
0.162721
0.213981
0.213981
0.272989
0.270605
0.330806
0.401735
0.276566
0.380874
0.339746
0.262856
0.343919
0.388622
0.375509
0.323653
0.471473
0.331998
0.603795
0.534654
0.527501
0.473857
0.391603
0.553727
0.482798
0.647902
0.792742
1.108646
3.353953
11.152625
38.922429
82.561970
186.607838
293.240547
448.752642
543.908477
608.027577
599.694848
503.941774
395.324826
246.664882
158.474445
81.042647
42.948723
16.017556
8.877516
7.149577
7.116795
7.209778
7.570982
7.483959
7.736683
8.273721
8.931756
9.323955
##ZVALUE=380
0.067949
0.180602
0.077486
0.041723
0.096560
0.187755
0.201464
0.141859
0.150800
0.207424
0.031590
0.063777
0.087619
0.069737
0.307560
0.111461
0.191927
0.125766
0.059605
0.002980
0.064969
0.053644
0.101924
0.134706
0.333786
0.237823
0.322461
0.085831
0.293851
0.124574
0.204444
0.134706
0.177622
0.173450
0.287890
0.249743
0.411868
0.350475
0.328422
0.325441
0.214577
0.051856
0.348687
0.266433
0.056624
0.247955
0.228882
0.452995
0.263453
0.210404
0.236630
0.313520
0.279546
0.330806
0.349879
0.137687
0.101924
0.445843
0.406504
0.382662
0.478625
0.244975
0.373721
0.376701
0.573993
0.613928
0.590682
0.544786
0.630617
0.748634
0.939965
1.408458
8.038878
23.523569
66.346526
125.926733
247.372985
366.668701
513.358712
584.766865
599.751472
548.918843
436.093807
328.961611
196.072459
118.788481
51.144958
25.475621
10.047555
7.030964
6.559491
6.458759
6.714463
6.745458
7.044673
7.487535
##ZVALUE=385
0.129938
0.159740
0.125766
0.022650
0.200868
0.124574
0.160933
0.275970
0.162721
0.133514
0.083447
0.317693
0.110865
0.256896
0.049472
0.153780
0.075698
0.082850
0.036955
0.276566
0.022650
0.103712
0.078678
0.149608
0.081658
0.153780
0.195503
0.072718
0.178814
0.198483
0.224710
0.238419
0.227690
0.048876
0.255704
0.254512
0.127554
0.233650
0.229478
0.256896
0.341535
0.306964
0.286698
0.152588
0.201464
0.101924
0.079870
0.260472
0.061989
0.253916
0.334978
0.138879
0.382662
0.278950
0.232458
0.308752
0.276566
0.261664
0.219941
0.347495
0.376701
0.317693
0.400543
0.184774
0.414848
0.286698
0.230670
0.524521
0.427961
0.729561
0.668764
0.809431
0.998974
1.046658
2.862811
15.192628
39.101839
99.153519
177.940726
320.506692
436.573625
552.429557
589.923859
568.850636
502.795577
373.445749
268.366933
148.382783
85.645914
37.292838
17.328858
7.186532
5.995631
5.949736
6.032586
6.310940
##ZVALUE=390
0.025630
0.007749
0.169873
0.192523
-0.008941
0.135899
0.234842
0.145435
0.192523
0.192523
0.117421
0.239611
0.102520
0.136495
0.122786
0.110865
0.181794
0.134706
-0.012517
0.195503
0.152588
0.240803
0.050664
0.028610
0.243783
0.176430
0.255704
0.226498
0.131726
0.190735
0.203848
0.198483
0.068545
0.105500
0.245571
0.184774
0.245571
0.100732
0.178814
0.227690
0.199676
0.288486
0.354648
0.410676
0.287890
0.273585
0.300407
0.244975
0.279546
0.255704
0.202656
0.467896
0.320673
0.334978
0.454783
0.330806
0.151992
0.327826
0.298619
0.195503
0.138879
0.233650
0.297427
0.390410
0.360608
0.497699
0.438690
0.546575
0.465512
0.586510
0.581741
0.704527
0.720620
0.784993
0.817776
0.796914
1.562834
8.119941
24.647713
76.487660
142.380595
270.102024
374.938846
491.610765
560.610890
582.555532
541.003942
431.512594
330.102444
203.683972
120.928884
51.718950
25.681853
10.029674
6.012917
5.577803
##ZVALUE=395
0.114441
0.124574
0.072718
0.080466
0.066757
0.148416
0.005960
0.171661
0.154972
0.127554
0.102520
0.033975
-0.025630
0.096560
0.045896
0.222921
0.110865
0.116825
0.159740
0.200868
0.194907
0.024438
0.116825
0.003576
0.067949
0.203848
0.272989
0.068545
0.165701
0.154972
0.163913
0.179410
0.052452
0.144839
0.233650
0.177622
0.155568
0.281930
0.233650
0.363588
0.056624
0.251532
0.231862
0.191927
0.214577
0.269413
0.201464
0.355840
0.359416
0.396967
0.273585
0.333786
0.187755
0.124574
0.240803
0.135899
0.348687
0.079870
0.190735
0.426769
0.301600
0.147820
0.264645
0.182986
0.380874
0.275970
0.435710
0.317693
0.487566
0.477433
0.462532
0.654459
0.601411
0.395775
0.691414
0.744462
0.638962
0.707507
0.903606
4.285574
16.193986
54.176450
103.216767
198.318958
296.111703
439.575911
531.592965
589.109659
578.048825
494.341850
391.745567
246.019959
155.013800
69.649816
34.772754
12.961626
##ZVALUE=400
0.128746
-0.055432
0.113845
-0.049472
0.040531
0.157952
0.050664
-0.000596
0.161529
0.090599
0.138879
0.197887
0.201464
0.078678
0.033975
0.142455
0.130534
-0.028610
0.045896
0.109673
0.046492
0.026822
0.135899
-0.052452
0.164509
0.120997
0.112653
0.217557
0.161529
0.170469
0.302792
0.270605
0.138879
0.205636
0.259876
0.256896
0.206828
-0.011921
0.126958
0.086427
0.116825
0.116825
0.088811
0.236630
0.264645
0.160933
0.395775
0.234842
0.250936
0.209808
0.188947
0.145435
0.202656
0.189543
0.185966
0.188947
0.145435
0.274777
0.223517
0.258684
0.292659
0.300407
0.275970
0.324845
0.248551
0.329614
0.378489
0.335574
0.354648
0.392795
0.594854
0.442863
0.482798
0.546575
0.619888
0.623465
0.500679
0.622869
0.574589
0.761747
0.726581
2.283454
8.415580
30.304790
65.037608
145.350695
236.184001
374.128819
472.582579
557.800531
573.268533
512.560010
427.283645
297.830701
198.499560
102.223754
##END
