##TITLE=FQP00652
##FORMAT=SPECTACLE-ASCII V-1.2
##DATA TYPE=ULTRAVIOLET SPECTRUM
##SECOND TYPE=ULTRAVIOLET SPECTRUM
##DATE=01/21/18
##TIME=16:07:48
##SPECTROMETER/DATA SYSTEM=SPECTACLE
##XUNITS=NM EM
##YUNITS=ENERGY
##YFACTOR=1
##FIRSTX=220
##LASTX=410
##NPOINTS=96
##3DDATA=Equidistant
##ZUNITS=NM EX
##FIRSTZ=210
##LASTZ=400
##ZPOINTS=39
##XYDATA=(Y..Y)
##ZVALUE=210
1.530647
2.099872
2.310872
2.152920
1.793504
1.869798
1.718998
1.946688
2.132654
1.876950
2.605915
2.374649
2.091527
2.440810
2.582669
2.754927
2.555847
2.492666
3.141761
2.960563
3.435612
3.227592
3.715754
4.044771
4.654527
4.488826
4.691482
4.466772
5.912781
5.861521
5.976558
5.601645
6.556511
6.417632
7.129908
6.915927
7.172823
6.944537
7.144809
6.269813
6.085634
6.678700
6.935596
6.654859
7.093549
6.273985
6.304979
6.247759
6.277561
6.765723
6.081462
6.469488
6.671548
6.039739
6.629825
6.819963
5.893707
6.572604
5.042553
6.238818
5.759597
6.194711
5.528927
6.525517
5.778670
6.330609
6.932616
7.299781
9.237528
10.399818
13.662577
14.468431
15.900731
17.201900
20.872951
19.129515
18.907785
19.056797
16.313791
15.485883
14.434457
13.469458
11.178851
9.099841
7.091761
7.081628
7.166862
5.703568
5.357862
5.774498
5.815625
4.900694
5.591512
5.723834
6.308556
6.145835
##ZVALUE=215
5.742908
5.144477
4.935861
4.453659
4.494786
3.900528
3.532767
3.993511
4.585981
4.000664
4.311800
4.022717
3.371835
3.429651
3.289580
2.866983
3.039837
3.542900
3.218651
2.977848
3.743768
3.664494
3.291965
3.643632
4.408956
5.045533
5.507469
5.809665
6.860495
7.541776
9.091496
9.723902
9.684563
9.003878
9.437799
9.318590
10.279417
10.064840
11.022687
10.026693
8.625984
8.299947
9.373426
8.153915
8.484721
8.539557
8.125901
8.051991
7.802844
7.766485
8.003712
6.582737
6.120801
6.864667
6.664991
6.529689
6.954670
5.339980
6.253719
6.014705
5.828738
5.587935
5.557537
5.826950
6.014705
6.563663
6.651878
6.879568
7.444620
7.965565
9.278655
9.842515
11.757612
13.040900
13.626814
15.624762
16.381741
15.236735
14.416575
14.249682
11.736751
11.680722
9.561777
6.684661
6.756783
5.420446
5.053878
5.429983
5.202889
4.866719
4.944801
4.436970
4.396439
5.048513
4.301667
5.128980
##ZVALUE=220
19.131899
19.317865
20.415783
23.792982
19.930601
15.834570
13.220906
9.966493
8.729696
8.120537
9.205937
10.102987
10.677576
8.782744
7.821918
6.958842
5.157590
3.876686
3.460646
3.061891
3.263950
3.240705
3.299713
4.332662
4.921556
5.317926
5.916953
8.053780
8.047819
9.778738
13.022423
14.466643
15.395880
15.007854
15.834570
16.632676
16.452670
16.098619
15.354753
15.876889
16.133785
15.096664
13.499856
13.468862
12.351871
11.401772
9.944439
10.668635
9.650588
7.843971
8.111596
7.021427
7.751584
7.216930
6.379485
5.922914
6.458759
6.656647
5.667806
5.773902
5.231500
6.205440
5.684495
5.243421
5.725622
5.596876
5.299449
5.647540
5.884767
6.080866
6.439686
6.649494
7.884502
9.227991
9.589791
9.621978
10.156631
11.881590
10.601878
9.586811
8.678436
8.355975
7.755756
6.432533
6.036758
4.689693
4.568696
3.745556
4.609823
4.040599
4.553795
4.393458
4.620552
4.649758
4.162788
4.388690
##ZVALUE=225
25.051832
26.931763
33.989549
47.640800
51.385760
53.653717
52.422881
41.656494
30.538440
24.526715
20.602942
19.326806
19.198656
24.412870
23.266673
23.075938
20.518899
16.146898
10.886788
7.565618
5.309582
3.507733
3.401637
3.789663
3.676414
5.367994
6.232858
8.966923
11.642575
11.932850
14.406443
17.866492
17.548800
20.531416
20.259619
21.446943
20.722747
20.202994
20.350814
18.611550
16.224980
18.121600
15.929937
14.271736
14.776587
12.859702
13.069510
11.833906
11.554956
10.791421
9.168983
10.299683
9.042621
8.334517
8.654594
7.859468
7.781982
7.418990
6.992817
7.422566
6.285906
7.103682
6.996989
7.096529
7.219911
6.472468
7.231832
6.319880
7.327795
7.725954
7.575750
8.988976
8.827448
8.997917
9.830594
10.036826
10.823607
9.921789
10.686517
9.514689
8.963943
8.532405
8.186698
7.165670
7.368922
7.190704
7.097721
5.654693
6.224513
5.948544
6.361604
5.263686
6.031990
6.169677
5.469918
5.669594
##ZVALUE=230
21.029711
23.362637
43.763518
61.840415
92.210770
115.528703
133.660436
135.649443
128.063560
104.696751
72.117448
55.653453
46.394467
41.930676
41.484833
47.434568
49.323440
48.807859
43.065548
35.658479
25.366545
20.715594
12.955666
9.474754
6.233454
7.048845
7.208586
8.843541
10.761619
12.259483
14.076829
16.897917
18.266439
19.796491
20.129681
21.107793
21.137595
19.602776
20.226836
18.702745
19.166470
19.673705
17.297864
16.434789
16.693473
15.282631
15.499592
13.290644
13.223886
12.391806
12.549758
12.477636
11.351705
11.981726
11.208653
10.125637
9.588599
11.394620
11.675954
10.412931
11.430979
9.579659
11.029840
11.183619
11.428595
10.312796
10.007620
11.924505
11.716485
11.730790
12.190938
14.129877
15.196800
15.742779
15.964508
17.133951
17.316937
17.453432
17.647743
17.975569
16.800761
14.506578
14.722943
13.799667
12.991428
11.692643
10.982752
12.489557
12.338758
11.619925
11.611581
11.480451
11.393428
11.202693
10.683537
11.277795
##ZVALUE=235
7.334948
8.566976
23.134947
47.720671
105.078816
170.579553
275.232792
363.268852
463.911891
491.635799
459.254980
387.699008
304.213762
185.742974
124.693513
81.566572
72.953701
81.152916
81.881881
81.757903
77.278614
69.885850
50.867796
37.311912
23.860931
17.509460
11.851788
10.450482
11.114478
11.970997
11.981726
13.177991
14.124513
13.971925
16.996861
15.908480
16.065836
16.721487
17.060637
16.382933
17.072558
14.835596
15.325546
16.779900
16.159415
14.792681
14.424920
15.173554
14.664531
13.689995
14.158487
14.275908
13.846755
15.635490
14.729500
14.336705
13.412833
14.503598
14.806986
14.294982
14.913678
14.595985
15.252829
15.523434
15.362501
16.273856
16.763806
18.001795
19.444823
21.059513
21.035671
25.693774
25.904775
28.259754
30.048490
30.825734
32.721758
33.226609
30.240417
30.320883
28.995872
26.703477
26.184916
26.224852
22.247434
20.648837
19.625425
18.452406
17.618537
17.104745
15.777946
18.154979
17.271638
17.887950
16.178489
17.481446
##ZVALUE=240
1.460910
1.918674
4.589558
16.571879
40.817857
103.862882
181.015730
338.507891
476.167798
595.730543
709.856749
694.235563
613.565445
511.076450
367.399454
255.964994
148.010850
110.599995
96.101761
103.404522
112.625957
118.541718
115.907788
102.673769
86.626410
61.545968
49.550533
33.378601
25.474429
17.345548
13.690591
14.025569
13.931990
13.996959
16.270876
13.868809
14.256835
15.634894
15.839934
15.529990
17.205477
15.767813
16.201735
16.497970
17.437935
16.546845
15.549660
15.488863
15.071630
16.119480
14.945865
14.413595
15.121698
14.735460
14.187694
13.579726
14.139414
14.223456
15.174747
15.205741
14.300942
16.009808
17.062426
15.707612
16.696453
17.026663
17.379522
18.059611
20.722747
20.697713
21.977425
25.789738
26.984811
29.059649
29.415488
30.033588
30.324459
33.135414
33.470988
33.213496
32.533407
30.254722
28.774738
27.233958
25.874972
23.566484
21.930933
22.480488
21.733642
20.506978
21.084547
20.484924
20.455718
20.363927
20.560622
20.234585
##ZVALUE=245
1.472831
1.338720
1.225471
1.049638
3.044605
9.843707
37.833452
88.376403
228.003860
370.039940
595.763922
755.789876
879.768729
928.032994
890.715718
730.270743
583.803654
393.357873
267.280936
150.305629
112.042427
99.817514
116.611719
129.378438
136.425495
131.370425
117.398500
97.528696
74.156523
58.665872
40.832758
29.342771
21.807551
17.519593
16.207695
16.021729
14.918447
17.345548
18.203855
17.979741
17.520785
17.119646
18.218756
17.274618
18.478632
17.609596
17.075539
17.000437
15.665889
16.477704
15.090704
15.084743
14.827847
15.650988
14.778972
14.179945
13.526678
14.041662
14.187694
13.680458
14.130473
13.738871
13.420582
14.503598
14.904737
15.041828
16.626716
16.487837
16.332865
19.589663
20.688772
21.885633
24.759769
23.758411
26.151538
26.330948
28.086901
27.587414
29.888749
27.976632
27.585626
25.491714
23.885965
24.163723
22.055507
21.777749
19.985437
21.914840
20.919442
19.900799
20.359755
19.667745
18.640757
20.835996
20.499825
20.137429
##ZVALUE=250
0.984669
1.258850
1.067519
1.278520
1.184940
1.412630
1.655817
6.695986
21.592975
71.363449
159.865618
293.916464
509.353876
666.501522
807.171464
858.480930
814.507604
712.784529
537.421703
393.631458
227.755904
150.564909
99.382997
94.588995
109.462738
121.118426
138.192773
145.991445
138.662457
129.090548
112.099648
86.933970
65.035820
47.448874
34.912825
26.082993
22.634864
20.434856
21.105409
20.402670
20.176768
20.897985
20.373464
18.307567
19.129515
18.069744
17.526746
16.773939
17.443895
15.608668
15.147924
14.628768
14.171600
14.022589
12.800694
12.945533
11.733770
11.699796
11.173487
11.167526
12.285709
11.051893
11.716485
12.105703
10.205507
12.020469
13.098717
12.713671
14.086962
14.437437
14.653802
17.593503
17.288923
16.469955
17.655492
18.810630
19.263625
19.496679
20.328760
18.912554
18.782616
19.197464
18.500686
18.096566
16.405582
17.366409
17.477870
17.835498
17.305613
16.842484
17.990470
17.699599
18.190742
16.915798
17.742515
16.603470
##ZVALUE=255
0.928640
0.894666
1.086593
1.095533
0.991821
1.000762
1.396537
1.154542
1.299977
2.933741
18.266439
49.777627
102.284551
218.825936
327.545404
488.867760
583.838820
669.674873
676.560998
615.623593
522.325635
417.299867
268.025994
174.701810
104.193687
86.763501
92.535615
109.183788
135.242939
151.898861
159.885883
157.063603
145.860910
122.160912
101.112723
72.856545
58.048964
40.650964
31.914711
27.291775
25.452971
24.573803
22.874475
22.041798
22.498965
21.110773
20.910501
18.322468
17.202497
17.288923
16.427636
15.344620
14.211535
13.943911
13.374686
12.091994
12.809634
11.657476
11.777878
11.093616
11.031628
10.555983
10.489821
10.235906
9.961724
10.145903
10.862947
10.983944
11.115670
11.683702
11.854768
12.178421
13.385415
13.706684
14.137626
15.219450
13.890862
15.740991
14.606714
14.509559
15.745759
15.551448
13.884902
14.594793
14.941692
14.745593
15.319586
16.257763
15.599728
14.610887
15.415549
16.111732
16.472936
16.156435
14.742613
16.269684
##ZVALUE=260
0.463724
0.646710
0.592470
0.403523
0.735521
0.779629
0.573993
0.568628
1.089573
0.856519
0.949502
1.698732
7.142425
34.808517
77.454448
170.030594
263.527632
405.778885
517.840981
632.631779
693.768859
684.211850
603.185892
495.270491
335.725546
237.537622
144.408941
100.664496
87.483525
96.791983
125.382543
146.324635
168.561935
179.519653
179.546475
158.913732
138.632655
107.865930
85.654855
63.575506
49.839616
37.672520
31.843781
28.866529
27.347803
26.306510
23.582578
22.374988
21.609664
19.843578
17.842650
17.728806
16.691685
14.828444
14.399886
12.694597
12.192726
11.018515
11.232495
11.432767
10.806918
10.560751
10.452867
10.382533
10.469556
9.802580
10.475516
10.153651
9.978414
10.601878
11.143684
11.425614
11.467934
12.395978
12.432933
13.128519
13.390779
13.100505
13.516545
13.462901
14.342666
13.027787
14.418960
14.095902
13.162494
13.432503
14.671683
14.394522
14.595985
14.643669
14.249682
13.867617
14.868975
14.369488
15.264750
14.864802
##ZVALUE=265
0.560880
0.661612
0.498891
0.801682
0.659823
0.756979
0.783801
0.813603
0.927448
0.962615
0.906587
1.066923
0.987649
1.237988
4.106760
23.796558
55.264831
125.677586
211.782455
372.827649
503.715873
620.970726
731.140971
749.914646
687.489510
598.491430
447.508693
326.025486
196.376443
132.972598
97.736716
91.598630
108.439922
142.136812
166.271925
186.057687
192.638636
184.634924
167.192817
139.383674
117.072463
83.411932
65.032840
46.183467
38.726926
30.964613
27.381778
25.468469
24.889708
21.875501
20.935535
18.584728
17.617941
17.349720
15.857816
14.890432
13.981462
11.925697
11.476874
12.082458
10.902882
11.168718
10.491610
10.844469
10.356903
10.808706
10.285974
10.348558
9.998679
10.487437
10.717511
11.065602
11.064410
12.915730
12.064576
12.009740
13.000965
12.577772
12.438893
12.659431
12.795925
13.217926
12.920499
14.127493
12.829900
12.906790
13.770461
13.202429
13.734698
13.450980
13.567805
13.973713
14.285445
13.795495
13.782978
14.564991
##ZVALUE=270
0.370741
0.491738
0.230670
0.353456
0.348687
0.519753
0.689626
0.424981
0.618696
0.594854
0.678897
0.677705
0.771880
0.739694
0.892878
1.063943
1.297593
7.240772
22.639632
71.925521
138.712525
240.110755
429.950953
574.918985
745.683908
809.965730
810.694695
729.295611
569.675565
437.474847
274.622440
180.182457
120.808482
87.863803
93.804002
118.986964
142.147541
169.175863
183.226466
188.605785
183.215737
161.533952
138.876438
107.368827
85.275769
58.425665
43.032765
31.891465
26.955605
23.565888
20.515919
18.284917
17.974973
15.979409
15.886426
15.087724
13.939738
13.015866
12.807846
11.593699
12.256503
11.097789
10.044575
10.019541
10.378957
10.222793
9.739995
9.412766
10.365844
10.779500
10.635853
10.895729
10.974407
11.675954
11.115670
12.011528
11.823773
11.919737
12.104511
11.853576
11.894703
12.773871
12.390614
12.611747
12.302995
12.358427
11.762977
12.916923
12.283921
13.204813
12.869835
12.672544
12.861490
12.467504
13.161898
12.651682
##ZVALUE=275
0.506639
0.454783
0.444651
0.417829
0.493526
0.566840
0.442863
0.490546
0.742674
0.860691
0.649691
0.480413
0.703931
0.935793
0.981688
0.963807
0.886917
1.012683
1.130700
2.926588
11.045933
32.755733
96.884966
183.517933
354.458690
499.548912
676.324964
781.329870
838.861465
801.115036
700.897574
524.134636
376.250744
212.892890
135.663748
81.290603
70.156455
83.861947
103.545785
133.302808
151.640773
172.749758
172.284842
168.209672
152.225494
120.389462
98.873973
72.654486
54.133534
35.679936
25.442839
19.218922
16.648769
14.629960
13.591647
13.520718
13.060570
12.296438
11.897683
11.427999
11.669993
10.800958
11.093616
11.035800
10.347962
10.430813
10.928512
10.822415
10.327697
10.729432
11.158586
11.107922
11.661649
11.635423
11.559725
11.609793
12.070537
12.113452
12.501478
12.461543
12.790561
11.930466
12.598634
12.726784
11.971593
11.870861
12.158751
11.819601
12.612939
12.345910
12.003779
13.012886
12.605786
12.326837
12.275577
12.551546
##ZVALUE=280
0.472665
0.447631
0.436902
0.325441
0.378489
0.446439
0.452995
0.468493
0.566840
0.582933
0.436902
0.410676
0.728965
0.489950
0.626445
0.744462
0.742674
0.833869
0.827909
0.833869
1.290441
1.520514
7.151961
23.995638
75.714588
138.543844
268.966556
400.090814
582.664013
702.787638
781.876445
793.345571
721.898675
552.281737
415.707827
243.743658
151.052475
77.721477
52.538514
50.878525
64.417720
91.635585
112.279654
140.112638
153.287649
161.431432
153.808594
137.555599
116.268992
86.186528
66.004992
42.526722
31.086802
19.478798
14.411807
12.555718
10.829568
10.893941
10.491610
10.380745
10.834932
10.092854
10.629892
11.047721
10.496974
11.013746
10.805726
10.566711
11.257529
10.635853
11.421442
11.376739
11.686683
11.747479
11.923909
12.099743
11.903644
11.703968
11.845827
11.640787
11.732578
12.391806
11.866689
12.509823
12.035966
12.339950
12.333989
12.640953
12.199879
11.892915
11.728406
12.086630
11.361837
11.810660
11.396408
11.184812
##ZVALUE=285
0.415444
0.284910
0.262856
0.514984
0.237823
0.310540
0.265837
0.416636
0.574589
0.399947
0.357628
0.583529
0.698566
0.557899
0.616908
0.721812
0.649691
0.719428
0.627637
0.634789
0.827909
0.791550
0.841618
0.945926
3.349781
11.217594
41.286945
86.028576
187.033415
298.830867
429.767966
606.030822
711.946487
764.169693
725.035667
601.213574
475.258827
305.138826
190.824866
93.015432
53.769946
32.826662
35.508871
55.173635
74.779987
106.727481
125.446916
143.409967
151.636004
145.700574
132.985711
109.557509
88.008642
61.460733
43.684840
26.767850
19.063950
13.292432
11.089444
10.392666
10.572672
10.530949
10.419488
10.853410
10.951757
11.605620
11.386871
11.765957
11.750460
11.598468
11.946559
12.179613
12.345910
12.598634
12.272000
12.837648
12.467504
12.744665
12.258887
12.478828
13.074875
13.114810
12.435913
12.919903
12.965798
12.737513
12.571812
12.676716
12.585521
12.878776
12.388825
11.832714
11.691451
11.579990
11.816621
11.691451
##ZVALUE=290
0.231862
0.369549
0.248551
0.476837
0.355840
0.358820
0.325441
0.278950
0.426769
0.464916
0.392795
0.378489
0.607967
0.364780
0.561476
0.400543
0.588894
0.550747
0.491738
0.587702
0.682473
0.482798
0.805855
0.786781
0.892878
1.110435
1.574755
4.660487
22.502542
53.736567
106.959939
230.811834
356.500745
539.662838
656.211972
753.918886
752.398968
662.299991
543.633699
371.397734
247.769952
128.114820
70.934892
32.694936
24.726987
35.735965
49.645901
72.617531
93.301535
119.230747
135.497451
145.984888
141.724944
127.424598
110.163689
82.574487
62.350631
41.714907
30.100942
19.297600
15.201569
11.870861
11.753440
11.230707
12.043715
11.844635
11.810660
12.263656
12.403727
12.814999
13.080835
13.694763
13.918877
13.635755
13.219714
13.409853
13.330579
13.493896
13.799667
13.622642
13.270974
13.538599
13.585687
12.968779
13.446808
13.244748
12.844801
12.986660
12.116432
12.745857
12.233853
12.105703
12.241602
12.232661
11.368990
11.764765
##ZVALUE=295
0.288486
0.212789
0.432730
0.274777
0.334978
0.306964
0.351667
0.403523
0.495911
0.485778
0.442863
0.416636
0.357628
0.393987
0.410676
0.469685
0.490546
0.239611
0.527501
0.399947
0.614524
0.566840
0.725985
0.564456
0.597835
0.916719
0.800490
1.035929
1.161695
2.170801
11.295676
32.360554
73.781610
178.892612
290.492773
468.978882
590.725541
714.875460
750.830770
700.132847
607.858896
438.306928
305.676460
162.338614
91.984868
38.444996
22.467971
21.117926
28.844476
47.681928
65.337420
91.188550
111.452937
130.991936
136.879683
134.890676
124.819875
104.160905
86.048841
60.539842
45.446754
29.615760
21.805763
15.781522
14.280677
12.454987
12.722611
13.128519
13.321638
13.649464
13.626814
14.397502
14.367700
14.257431
14.006495
14.485717
14.771819
14.324784
14.340878
14.023781
13.463497
14.236569
13.954639
14.018416
13.881922
13.292432
13.540983
13.358593
12.662411
12.699962
12.749434
12.351871
12.496710
12.602806
12.306571
11.797547
##ZVALUE=300
0.086427
0.244975
0.134706
0.372529
0.241995
0.207424
0.286698
0.312924
0.346899
0.359416
0.322461
0.516772
0.383854
0.397563
0.320673
0.451803
0.264645
0.451803
0.417829
0.518560
0.403523
0.570416
0.689626
0.607967
0.654459
0.794530
0.884533
0.829697
1.003742
0.957847
1.102686
1.200438
3.273487
19.343495
48.984885
127.759576
217.419863
381.691456
509.705544
654.539466
719.558597
719.750524
649.453998
502.420664
374.525785
216.717720
130.793452
59.439540
31.076670
16.875863
18.162727
27.460456
39.315820
62.259436
82.312822
108.228922
120.462775
131.513476
133.056641
120.329857
106.098652
83.456635
65.097809
44.686794
32.417774
21.976829
17.721653
14.435649
14.121532
13.778806
13.777614
14.368892
14.658570
14.422536
14.304519
14.745593
14.774799
14.980435
14.687777
14.576912
14.989972
15.409589
14.673471
14.543533
14.358759
14.296770
13.745427
13.102889
13.275743
13.024807
12.867451
12.829900
12.338758
12.550950
12.062788
11.688471
##ZVALUE=305
0.350475
0.347495
0.343919
0.192523
0.193715
0.051856
0.291467
0.119805
0.086427
0.262856
0.248551
0.371933
0.313520
0.361800
0.418425
0.373721
0.439882
0.254512
0.323653
0.376701
0.415444
0.286698
0.214577
0.363588
0.523925
0.375509
0.708699
0.618696
0.610948
0.762939
0.805855
0.873804
1.105666
1.006722
2.607703
9.229779
37.137866
81.666708
186.186433
291.287899
457.309484
576.027632
690.552592
726.636648
670.058727
571.419597
414.480567
300.841928
163.867474
92.491508
37.614703
19.824505
13.941526
17.180443
27.461648
39.298534
61.075687
79.474449
101.712942
115.212798
125.327706
126.573443
116.959810
103.520751
80.055594
63.146949
42.900443
32.544732
22.028685
17.465949
15.633702
14.825463
14.236569
14.374852
14.488697
14.866590
14.589429
14.712811
14.633536
14.561415
14.860630
14.754534
14.835596
14.452934
14.456511
14.215708
14.229417
13.692975
14.230609
13.183951
13.012886
12.786984
12.836456
12.339950
11.960864
12.411475
##ZVALUE=310
0.209808
0.103712
0.250936
0.306964
0.198483
0.118613
0.319481
0.344515
0.186563
0.420809
0.261664
0.190735
0.240803
0.254512
0.338554
0.447631
0.525713
0.351667
0.428557
0.439882
0.421405
0.415444
0.454783
0.468493
0.444651
0.573993
0.382662
0.645518
0.579953
0.714660
0.767708
0.378489
0.678897
0.715852
0.900626
0.913739
1.318455
4.914403
16.937852
55.935979
110.417604
230.324864
347.802639
513.298512
627.810955
710.483789
704.571605
618.230700
515.356660
351.700783
236.797929
121.497512
67.788959
27.147532
14.924407
12.574792
16.297698
24.807453
34.797788
55.242777
72.083473
94.226599
109.009743
119.854808
120.416880
110.636950
98.547935
79.297423
61.854720
42.235851
31.544566
22.982955
18.154979
15.001893
14.542937
14.239550
14.231801
14.316440
14.435649
14.499426
14.642477
14.086962
14.245510
14.359951
14.107823
13.981462
14.193654
13.776422
13.279915
13.363957
13.124943
12.946725
12.138486
12.206435
12.274981
12.460947
##ZVALUE=315
0.235438
0.225902
0.157952
0.179410
0.182986
0.283718
0.243783
0.214577
0.422597
0.318885
0.395775
0.306964
0.353456
0.139475
0.206828
0.508428
0.345707
0.128746
0.186563
0.304580
0.349879
0.214577
0.159740
0.417829
0.514984
0.399947
0.286698
0.290871
0.391603
0.415444
0.504851
0.596642
0.739694
0.531673
0.855923
0.803471
0.836849
0.880957
1.013875
2.345443
10.051727
38.568974
82.897544
182.517767
288.298726
453.279018
562.813878
669.749975
698.703527
652.589798
569.517016
412.658453
296.094418
161.124468
91.798902
37.678480
18.155575
11.230707
11.872649
15.834570
21.928549
35.321712
47.676563
67.838430
85.490942
103.805661
112.439990
112.047791
107.323527
91.511607
76.577663
56.542754
42.264462
28.185844
22.980571
17.683506
15.337467
14.134645
13.939738
13.657808
13.522506
13.851523
13.785958
13.806820
13.351440
13.164878
13.545752
13.748407
13.514757
12.741685
12.796521
13.336539
12.972951
12.344718
11.698604
12.407899
##ZVALUE=320
0.265837
0.179410
0.223517
0.241995
0.362992
0.190735
0.084639
0.235438
0.113845
0.241995
0.443459
0.301600
0.235438
0.234842
0.317693
0.412464
0.391603
0.372529
0.522733
0.314713
0.499487
0.555515
0.200868
0.432730
0.362992
0.360608
0.447631
0.250936
0.388622
0.390410
0.493526
0.686646
0.437498
0.549555
0.615716
0.686646
0.583529
0.735521
0.857711
0.639558
0.948906
1.263618
4.984736
25.634766
59.326887
142.377615
227.849483
368.191600
480.476618
613.318682
678.855777
672.509670
612.237453
475.344658
352.340937
201.009512
119.386911
54.183602
27.105808
12.215972
9.737611
10.805726
13.509989
20.288825
28.818846
46.039820
60.404539
79.214573
93.039870
105.525851
106.173754
100.390911
90.290904
71.063638
56.009889
40.075779
30.304790
20.818710
16.887784
14.297962
13.330579
13.533831
13.203621
12.956858
12.863874
13.139844
13.086796
13.187528
13.050437
13.247728
12.374520
12.389421
12.536645
12.182593
12.067556
11.775494
##ZVALUE=325
0.083447
0.257492
0.240803
0.201464
0.134706
0.484586
0.209808
0.300407
0.425577
0.342727
0.361800
0.370741
0.411868
0.248551
0.324845
0.271797
0.253916
0.352859
0.443459
0.349879
0.365973
0.342727
0.341535
0.354648
0.510812
0.345707
0.446439
0.425577
0.563860
0.461936
0.381470
0.487566
0.603795
0.342727
0.557899
0.512600
0.680685
0.727773
0.689626
0.680685
0.721812
0.811815
0.924468
1.011491
2.549887
18.203855
43.825507
103.179812
176.209807
314.575434
426.881909
562.777519
638.388991
667.077899
627.928972
506.715775
392.453671
245.706439
153.345466
70.250630
35.797954
13.795495
9.344816
8.799434
9.593964
13.488531
18.460751
29.003620
41.085482
60.879588
75.273514
90.140700
98.694563
99.464655
93.895793
80.502629
67.509413
50.053000
38.505793
26.604533
20.372868
15.531778
14.022589
13.154745
12.354851
12.508631
12.573600
12.544990
12.147427
11.971593
12.390614
11.894703
11.860728
11.690855
11.588931
11.647940
##ZVALUE=330
0.268817
0.311732
0.217557
0.344515
0.416636
0.168681
0.236630
0.194907
0.319481
0.154972
0.124574
0.147820
0.127554
0.300407
0.260472
0.386834
0.350475
0.307560
0.433922
0.361800
0.249743
0.241995
0.151992
0.351667
0.330806
0.355840
0.407696
0.425577
0.458956
0.445843
0.387430
0.421405
0.535846
0.544786
0.500679
0.721812
0.663996
0.617504
0.664592
0.697970
0.698566
0.758767
0.805855
0.763535
0.715852
1.002550
1.218915
7.504821
25.530457
76.125860
133.176446
248.112679
351.741910
494.464636
583.799481
648.190975
637.359619
546.963811
445.559621
293.632746
194.783807
93.475580
49.460530
19.912720
10.237694
8.080602
8.134842
9.404421
11.959672
18.546581
26.257634
40.108562
53.395629
72.771907
83.698630
92.897415
93.690753
87.831616
78.248978
61.646700
48.842430
34.585595
26.477575
19.989610
16.225576
13.808608
12.802482
11.853576
11.829734
11.881590
11.630654
11.512637
11.235476
11.561513
11.544824
11.254549
##ZVALUE=335
0.174642
0.118613
0.246763
0.055432
0.213981
0.143647
0.154972
0.222921
0.225902
0.180602
0.257492
0.167489
0.285506
0.256896
0.249743
0.361800
0.268817
0.118613
0.261664
0.230670
0.319481
0.126958
0.173450
0.274777
0.308752
0.333786
0.261664
0.382662
0.320673
0.459552
0.315905
0.371933
0.442863
0.492930
0.409484
0.616908
0.447631
0.317693
0.510812
0.546575
0.481606
0.572801
0.626445
0.806451
0.549555
0.538826
0.834465
0.826716
1.900792
2.989769
27.143955
46.523809
108.356476
180.411935
378.119946
423.616767
542.230606
607.853532
630.290508
591.576695
475.984812
361.573696
218.306780
122.198462
69.622993
12.815595
12.189746
7.837415
7.691979
8.029938
8.987784
12.242794
16.959906
30.179620
38.190484
52.343607
65.236688
79.790950
87.499619
87.668896
81.548691
73.438883
59.650540
48.700571
35.618544
27.224422
19.547939
16.152859
13.176799
12.137890
11.643767
11.183619
11.223555
10.706782
11.081696
11.009574
##ZVALUE=340
0.092983
0.178814
0.146627
0.224710
0.220537
0.159740
-0.082850
0.132918
0.020862
0.012517
0.110865
0.019670
0.165701
0.191927
0.157952
0.047684
0.116825
0.150800
0.164509
0.169873
0.294447
0.173450
0.087619
0.237823
0.085831
0.173450
0.309944
0.107884
0.217557
0.241995
0.356436
0.216961
0.340939
0.304580
0.177622
0.331998
0.356436
0.349879
0.249743
0.385642
0.225902
0.380874
0.422597
0.410676
0.431538
0.556707
0.324845
0.364780
0.638962
0.619888
0.868440
1.259446
5.229712
28.772950
66.720843
149.720907
238.316655
372.032523
469.715595
573.267937
610.430837
582.022667
514.196754
387.011766
279.034972
149.902701
85.121989
36.693811
16.559958
8.359551
7.491708
7.655621
8.017421
9.306669
11.772513
17.962456
24.510622
37.509799
48.272610
65.096617
74.637532
81.951618
82.424879
77.689886
70.243478
57.685971
46.761632
34.119487
26.828647
19.207597
15.372634
12.625456
11.664629
10.748506
10.160804
10.459423
##ZVALUE=345
0.115633
0.128746
0.102520
0.082850
0.109673
0.220537
0.170469
0.126958
0.294447
0.092983
0.189543
0.179410
0.110865
0.179410
0.164509
0.180602
0.105500
0.210404
0.135899
0.124574
0.107884
0.100732
0.212789
0.229478
0.297427
0.256896
0.135899
0.220537
0.287890
0.124574
0.238419
0.271797
0.181794
0.242591
0.278950
0.230670
0.167489
0.346899
0.431538
0.391603
0.220537
0.343919
0.381470
0.280738
0.238419
0.472665
0.482798
0.468493
0.452995
0.681877
0.629425
0.701547
0.739694
1.040697
2.261996
16.525984
44.835806
105.360746
176.169872
301.206708
398.152471
516.642928
574.994683
586.889982
542.394519
422.070622
317.775011
194.462538
113.213658
46.979785
23.136735
10.281801
7.857680
7.470846
7.609725
8.008480
8.883476
11.364818
15.054941
24.429560
33.165812
47.612786
57.252645
67.687631
73.733926
75.971484
73.602796
65.405965
57.390928
45.393705
35.178661
25.138855
19.289851
14.514923
12.771487
11.083484
##ZVALUE=350
0.026822
0.131726
0.238419
0.149608
0.400543
0.179410
0.138879
0.226498
0.165701
0.214577
0.123978
0.053644
0.250936
0.079870
0.167489
0.138879
0.123978
0.068545
0.160933
0.074506
0.038743
0.000596
0.233650
0.166893
0.040531
0.052452
0.105500
0.278950
0.282526
0.221729
0.173450
0.250936
0.026822
0.218749
0.179410
0.253916
0.233650
0.215769
0.250936
0.320673
0.348687
0.326633
0.260472
0.236630
0.330806
0.379682
0.365973
0.361800
0.378489
0.614524
0.511408
0.667572
0.583529
0.663996
0.461936
0.741482
1.070499
5.636811
17.586946
55.070519
104.756951
211.808681
308.651924
433.252454
515.147448
564.971566
546.936989
458.473563
360.944867
221.572518
136.125684
62.681437
30.582547
11.505485
7.861853
7.103682
7.133484
7.211566
7.572770
8.686781
10.399818
15.437603
21.388531
30.010939
38.879514
51.380992
60.212612
68.177581
70.374608
68.328977
63.071847
52.479506
43.046474
31.550527
24.555922
18.071532
##ZVALUE=355
0.049472
0.109673
0.117421
0.058413
0.083447
0.113845
0.085831
0.130534
0.147820
0.127554
0.195503
0.095963
0.140667
0.262856
0.263453
0.202656
0.178814
0.038743
0.168681
0.022650
0.171661
0.185966
0.213981
0.067949
0.131726
0.202656
0.226498
0.137687
0.136495
0.282526
0.291467
0.300407
0.233650
0.231862
0.250936
0.256896
0.368953
0.254512
0.210404
0.220537
0.180602
0.386834
0.295639
0.206828
0.244975
0.330806
0.300407
0.409484
0.467896
0.234842
0.539422
0.382662
0.529885
0.364780
0.614524
0.655651
0.686646
0.689626
0.586510
2.339482
9.166598
35.324693
73.947906
155.488849
245.214701
380.744934
468.625426
534.835458
539.292693
470.000505
387.265682
262.939930
169.868469
79.414845
40.138960
14.585853
8.444786
6.655455
6.914735
6.319880
6.684661
7.247925
8.175969
9.712577
12.856722
18.696785
25.803447
36.257505
44.167638
54.225922
60.051680
63.710809
62.017441
56.248903
49.175620
40.126443
##ZVALUE=360
0.078678
0.166893
0.160933
0.220537
0.156760
0.083447
0.063777
-0.019670
0.051856
0.138879
0.168681
0.176430
0.117421
-0.025630
0.061989
0.195503
-0.037551
0.150800
0.216961
0.348687
0.158548
0.327826
0.139475
0.238419
0.279546
0.214577
0.180602
0.298619
0.112653
0.239611
0.210404
0.208616
0.140667
0.140667
0.111461
0.127554
0.300407
0.395775
0.382662
0.331998
0.255704
0.436902
0.252724
0.257492
0.276566
0.372529
0.351667
0.386834
0.367761
0.277758
0.321865
0.300407
0.418425
0.307560
0.322461
0.302792
0.575781
0.483990
0.639558
0.677705
0.649691
1.108646
3.995895
18.563867
45.658946
113.097429
186.342597
304.377675
402.225852
498.135686
525.089502
492.251515
424.115658
296.199918
202.130675
101.413727
55.840611
22.343993
10.877848
6.760955
6.613731
6.440878
6.280541
6.316900
6.455779
7.085800
8.451939
10.810494
14.571548
21.582842
28.503537
38.942695
46.456456
53.776503
56.613684
57.001710
##ZVALUE=365
0.044703
-0.023842
0.142455
0.117421
0.069737
0.152588
0.216961
0.106692
0.049472
0.103712
0.160933
0.136495
0.190735
0.251532
0.173450
0.195503
0.001788
0.223517
0.378489
0.054836
0.151992
0.018477
0.032783
0.051856
0.172853
0.107884
0.313520
0.141859
0.198483
0.229478
0.279546
0.331998
0.215769
0.327826
0.274777
0.150800
0.171661
0.453591
0.114441
0.294447
0.265837
0.166893
0.191927
0.209808
0.218749
0.176430
0.283718
0.073910
0.291467
0.230670
0.372529
0.215769
0.385642
0.416636
0.394583
0.259876
0.344515
0.358820
0.371933
0.511408
0.450611
0.632405
0.695586
0.868440
1.641512
9.655952
27.591586
75.894594
138.633847
248.376727
344.985723
448.773503
499.379635
496.318936
444.065928
332.213640
240.370631
136.487484
76.962709
30.631423
13.935566
6.678700
6.037951
5.878806
5.876422
5.747676
5.815625
5.943775
6.426573
7.452965
9.031892
13.235807
17.457604
25.323629
32.031536
40.294528
##ZVALUE=370
0.013709
0.033975
0.086427
0.101924
0.132918
0.220537
-0.000596
0.099540
0.147820
0.139475
0.118613
0.166893
0.045896
0.266433
0.021458
0.134706
0.170469
-0.004768
0.180602
0.158548
0.068545
0.128746
0.113845
-0.033975
0.144839
0.140667
0.217557
0.376701
0.163913
0.234842
0.234842
0.238419
0.103712
0.163913
0.164509
0.156760
0.100732
0.175834
0.094771
0.163913
0.215769
0.211596
0.186563
0.178814
0.339746
0.309944
0.270605
0.242591
0.249743
0.312924
0.295639
0.431538
0.268817
0.406504
0.345707
0.345707
0.326633
0.293851
0.291467
0.359416
0.371933
0.427961
0.444651
0.647902
0.620484
0.706911
1.055598
4.956722
16.792417
54.277778
102.959871
195.804834
286.243558
405.402780
468.309522
487.960577
454.638004
366.080999
276.306868
159.207582
92.346668
38.197637
19.210577
8.442998
5.920529
5.489588
5.264878
5.288720
5.424619
5.193949
5.210638
5.608797
6.302595
8.051991
11.153817
15.882850
##ZVALUE=375
0.041723
0.176430
0.006557
0.089407
0.220537
0.087619
-0.002980
0.006557
0.024438
-0.034571
0.043511
0.249743
0.200868
0.129938
0.050664
0.048876
0.097752
0.204444
0.193715
0.000000
0.043511
0.117421
0.091791
0.142455
-0.011921
0.286698
0.071526
0.159740
0.239611
0.449419
0.451803
0.132918
0.107884
0.013709
0.158548
0.072718
0.264645
0.291467
0.225902
0.347495
0.056624
0.226498
0.336766
0.253916
0.221729
0.012517
0.198483
0.332594
0.129938
0.190735
0.178814
0.126958
0.328422
0.286698
0.270605
0.342727
0.190735
0.244975
0.356436
0.237823
0.450611
0.386834
0.427961
0.448823
0.425577
0.535846
0.544786
0.734925
0.749826
2.516508
8.764863
32.004714
68.223476
152.171850
237.649679
355.579853
428.770781
479.611754
473.397970
399.497747
316.851735
198.096633
128.272772
65.952539
34.490824
12.676716
6.642938
4.972816
5.029440
4.766583
4.769564
4.847646
4.804730
4.914999
5.090833
5.876422
##ZVALUE=380
0.149608
0.019670
0.181794
0.034571
0.009537
-0.027418
0.060797
0.084639
0.133514
0.070930
0.071526
0.171661
0.222921
0.087619
0.037551
-0.003576
0.098944
0.183582
0.240803
0.145435
0.105500
0.196695
0.057817
0.051856
0.069737
0.207424
0.048876
-0.056624
0.077486
0.121593
0.065565
0.097752
0.063777
0.173450
0.193715
0.091791
0.197887
0.116825
0.125766
0.239611
0.145435
0.065565
0.082850
0.130534
0.087619
0.165701
0.168681
0.336766
0.053644
0.073910
0.059605
0.104904
0.145435
0.165701
0.192523
0.243783
0.316501
0.245571
0.304580
0.254512
0.307560
0.234842
0.322461
0.246763
0.487566
0.259876
0.342727
0.459552
0.482798
0.628829
0.698566
1.271963
4.729629
22.585988
51.755905
121.960640
197.500587
308.368802
392.069817
467.047691
474.974513
421.279669
351.638794
250.244737
170.999765
87.083578
46.242476
17.574430
8.572936
5.320907
4.489422
4.387498
4.259944
4.409552
4.382730
4.655719
##ZVALUE=385
0.054836
0.077486
0.114441
0.025630
-0.026822
0.080466
0.086427
-0.046492
-0.010729
0.089407
0.053644
0.042915
0.133514
0.098944
0.111461
0.214577
0.230670
0.224710
0.060797
0.147820
0.179410
0.133514
0.073910
0.154972
0.159740
0.030994
-0.028610
0.100732
0.224710
0.115633
0.175834
0.225902
0.099540
0.282526
0.191927
0.091791
0.137687
0.003576
0.170469
0.125766
0.080466
0.096560
0.207424
0.193715
0.164509
0.160933
0.089407
0.187755
0.146627
0.051856
0.116825
0.063777
0.163913
0.239611
0.105500
0.300407
0.243783
0.164509
0.327826
0.350475
0.137687
0.138879
0.198483
0.261664
0.261664
0.341535
0.428557
0.402927
0.438690
0.637770
0.541806
0.596642
0.721812
0.935793
2.133846
12.379885
32.060742
81.280470
143.671632
257.554650
343.823433
431.078672
460.680723
444.915891
396.550894
297.789574
213.779807
119.880438
69.970489
30.085444
13.544559
5.311966
4.335642
3.950000
4.085898
4.104972
##ZVALUE=390
0.094771
0.128746
0.157952
0.114441
-0.018477
-0.024438
0.043511
0.021458
0.006557
0.143647
0.180602
0.134706
0.176430
0.038743
0.126958
0.220537
0.057817
0.133514
0.156760
0.050664
0.102520
0.106692
0.072718
0.201464
0.229478
0.165701
0.351667
0.192523
0.226498
0.053644
0.099540
0.140667
0.037551
0.188947
0.124574
0.233650
0.058413
0.059605
0.140667
0.167489
0.228882
0.082850
0.208616
0.169873
0.131726
0.068545
0.224710
0.226498
0.246763
0.249743
0.207424
0.265837
0.259876
0.222921
0.162721
0.241995
0.225902
0.332594
0.315905
0.158548
0.217557
0.179410
0.176430
0.291467
0.323653
0.278950
0.188947
0.374913
0.444651
0.522733
0.562668
0.499487
0.648499
0.579953
0.667572
0.668764
1.068711
6.392598
19.558668
59.636831
112.151504
212.427974
296.090841
397.402644
446.173549
460.547805
428.177714
350.757837
270.186663
161.394477
95.628500
41.493773
19.907951
7.516742
4.435778
3.642440
##ZVALUE=395
0.135899
0.038743
0.049472
-0.077486
0.104904
0.039935
0.177622
0.062585
0.203848
0.086427
0.273585
0.189543
0.006557
0.110865
0.163913
0.289679
0.207424
0.040531
-0.107884
0.174642
0.153780
0.114441
0.028610
-0.046492
0.013709
0.197887
0.060797
0.067949
0.186563
0.165701
0.117421
0.268817
0.223517
0.139475
0.181794
0.285506
0.276566
0.276566
0.080466
0.069737
0.259876
0.245571
0.009537
0.122786
0.238419
0.189543
0.249743
0.205636
0.144839
0.138879
0.263453
0.205636
0.162721
0.105500
0.329614
0.180602
0.335574
0.232458
0.077486
0.090599
0.253916
0.265837
0.238419
0.264645
0.362992
0.296831
0.368953
0.305772
0.307560
0.405908
0.644922
0.475645
0.630617
0.590682
0.422597
0.459552
0.522733
0.522733
0.632405
2.468824
14.988780
37.266612
88.031888
148.564577
251.090527
334.582925
425.441861
460.889935
450.306535
398.871899
300.680995
214.712620
116.768479
64.624548
25.304556
11.970997
##ZVALUE=400
0.102520
0.020862
0.109673
0.122786
0.049472
0.065565
-0.044703
-0.051856
0.061989
-0.051856
0.151992
0.080466
0.064969
0.049472
0.069737
0.042915
0.000000
0.090599
-0.236630
0.033975
0.004768
0.031590
-0.005960
0.130534
0.101924
0.084639
0.001788
0.160933
0.202656
0.250936
0.114441
0.294447
0.236630
0.014901
0.191927
0.171661
0.284910
0.165701
0.270605
0.344515
0.056624
0.172853
0.182986
0.325441
0.258684
0.302792
0.237823
0.172853
0.118613
0.061989
0.047684
0.280738
0.275970
0.144839
0.076890
0.048876
0.151992
0.112653
0.216961
0.071526
0.135899
0.228882
0.269413
0.206828
0.168681
0.344515
0.369549
0.280738
0.363588
0.395775
0.427961
0.341535
0.355840
0.595450
0.483990
0.249743
0.522733
0.513792
0.617504
0.619888
0.695586
1.753569
6.711483
26.552677
56.334734
124.054551
194.197893
292.931795
369.253755
440.082550
451.395512
403.485894
339.567661
237.333775
160.676837
83.338618
##END
