##TITLE=QP00351
##FORMAT=SPECTACLE-ASCII V-1.2
##DATA TYPE=ULTRAVIOLET SPECTRUM
##SECOND TYPE=ULTRAVIOLET SPECTRUM
##DATE=01/21/18
##TIME=14:53:32
##SPECTROMETER/DATA SYSTEM=SPECTACLE
##XUNITS=NM EM
##YUNITS=ENERGY
##YFACTOR=1
##FIRSTX=220
##LASTX=410
##NPOINTS=96
##3DDATA=Equidistant
##ZUNITS=NM EX
##FIRSTZ=210
##LASTZ=400
##ZPOINTS=39
##XYDATA=(Y..Y)
##ZVALUE=210
2.238750
2.710819
2.239943
2.230406
2.319813
2.964735
2.738833
3.105998
2.617836
3.059506
2.818704
2.680421
3.210902
2.925992
3.508925
3.914833
3.399849
4.291534
4.270673
4.228950
3.988743
4.250407
4.755855
5.191565
4.669428
5.731583
4.938841
5.882978
6.254911
6.047487
5.696416
6.867647
6.316900
6.529689
6.111860
6.474853
6.479621
7.210970
7.513762
8.054972
7.259846
7.336736
8.185506
6.963611
6.971955
7.876754
8.022785
8.548498
8.354783
7.876754
7.251501
7.986426
8.228421
9.157658
9.378791
9.655952
8.936524
8.241534
10.379553
9.986758
9.604692
8.868575
10.652542
10.247827
9.697676
10.473728
10.731816
12.987852
15.319586
16.337633
18.499494
22.172928
26.452541
30.024648
31.361580
34.426451
36.044717
35.730600
35.266876
31.723976
29.963851
27.678609
24.392605
22.169948
18.182993
14.374852
13.490915
12.296438
10.214448
9.611845
9.498000
10.308623
9.658933
9.755492
11.124611
9.706616
##ZVALUE=215
9.799600
8.392930
7.435679
8.760691
5.521774
4.914999
4.193783
4.764795
5.231500
4.505515
5.357862
5.051494
5.047917
4.348755
4.576445
4.357696
4.385710
4.231930
4.214644
5.359650
5.335808
6.590486
5.664825
6.717443
6.268620
6.782413
7.545948
7.045865
7.935762
7.138848
7.622838
7.746816
8.560419
8.623600
8.040667
9.078979
8.937716
7.900596
8.440614
8.536577
9.548664
9.205937
9.856820
10.242462
10.029674
9.970665
9.461641
9.911656
10.560751
11.975765
11.969805
11.025667
12.122989
11.266470
12.606978
11.797547
11.797547
11.530519
13.785958
12.747645
13.784766
12.304783
14.020801
12.066960
13.441443
13.379455
15.585423
16.137958
17.741919
21.300912
23.764968
32.208562
36.258698
43.227673
46.440959
53.780675
53.630471
55.342913
56.326985
55.162907
52.859783
46.671629
43.394566
35.756826
30.417442
25.466681
20.262599
16.277432
14.394522
13.350844
13.491511
13.395548
11.772513
12.960434
11.211634
12.850761
##ZVALUE=220
33.809543
34.265518
39.377809
39.451718
40.942430
33.271909
24.958849
17.286539
14.659762
10.515451
12.312531
12.132525
12.270808
11.735559
10.123849
8.886456
8.672476
5.870461
6.619692
6.104708
6.801486
7.135868
8.011460
7.341504
8.724928
7.778406
8.679628
9.466410
9.416938
10.551810
9.870529
10.454655
10.562539
10.344982
10.954738
11.754632
11.198521
11.453629
12.537837
11.999607
10.804534
11.940598
12.178421
12.392998
13.194680
12.929440
14.020801
12.905598
12.524724
14.405847
13.859868
14.239550
13.901591
14.564991
13.825893
15.557408
14.724731
13.880730
15.320778
13.902783
15.850663
15.095472
14.942884
14.837980
15.546679
16.731620
16.002655
17.863512
21.104813
22.660494
26.922822
32.238960
40.542483
43.676496
49.358606
53.647757
59.018731
62.216520
60.732961
61.415434
59.257746
55.171847
50.408840
41.223764
38.526654
25.950670
23.912787
17.828941
16.980767
14.854670
15.333891
13.836622
14.220476
12.861490
13.277531
15.457869
##ZVALUE=225
54.332614
56.820512
77.202916
105.563998
115.080476
120.523572
109.636784
86.111426
64.861774
46.838522
29.782653
23.910999
24.925470
26.067495
24.694800
26.876926
22.566915
20.367503
16.582608
11.396408
9.265542
8.242726
8.487701
8.449554
8.145571
8.561611
8.078814
8.802414
8.769631
9.392500
8.850694
9.670854
10.747910
11.657476
10.309815
11.812449
10.407567
10.891557
10.896921
10.953546
10.679960
10.776520
10.501742
11.569858
12.292862
11.218786
11.627674
12.417436
10.970831
14.300942
13.470650
12.711883
12.875795
11.761785
12.392998
12.069941
12.544990
12.299418
12.719631
12.902617
12.024641
14.008880
12.959838
13.230443
13.778806
13.463497
15.272498
16.411543
18.971562
18.470883
23.533702
26.488900
30.379891
34.427643
35.209656
37.073493
39.441586
39.542913
39.600730
40.813684
37.351847
31.408668
28.615594
25.472641
21.413565
17.086864
14.691949
13.562441
13.733506
11.872649
13.535619
11.452436
12.038946
10.680556
12.251735
12.178421
##ZVALUE=230
50.705671
53.447485
87.410808
148.344636
202.692747
260.279775
276.118517
274.008512
245.209932
212.543607
153.094530
119.356513
81.321001
59.195757
46.146512
51.845908
52.864552
49.747825
43.902993
40.079951
30.343533
21.029711
16.876459
11.886954
9.553432
10.069609
9.030700
9.972453
9.765625
9.698868
11.513829
11.030436
10.436773
11.233687
12.268424
12.466908
9.452701
11.060834
11.699796
11.608601
11.510849
11.858940
11.141896
11.323690
12.286901
13.177991
13.016462
12.683868
13.817549
13.335943
12.814999
13.633966
13.919473
12.997985
14.135838
14.204979
14.417768
14.796853
12.632608
13.871789
13.897419
16.307831
14.863610
15.798807
16.129613
16.749501
16.600490
18.177629
18.174648
20.377636
23.632646
27.914643
30.074716
34.914613
39.528608
40.633678
41.400790
40.216446
40.190816
39.225817
32.341480
32.331944
32.325983
25.641918
22.927523
18.510818
19.616485
15.880466
17.082691
15.264750
16.501546
15.489459
14.490485
15.803576
14.176965
14.263988
##ZVALUE=235
19.249916
22.341609
53.296685
133.847594
232.585669
398.264527
554.773808
751.698017
850.403905
874.050856
778.426528
633.245707
426.029563
295.449495
169.977546
105.981827
78.360438
78.839660
86.609721
89.280605
83.608627
68.671703
58.778524
39.696693
30.216575
19.648671
16.129613
12.498498
13.405681
13.503432
11.607409
13.432503
13.042688
12.642741
12.967587
13.065934
11.856556
12.358427
14.309883
13.189912
13.822913
12.979507
14.101863
14.859438
13.099909
13.105869
15.270710
13.559461
13.503432
14.167428
14.765859
15.116930
14.731884
14.967918
14.906526
15.478730
16.054511
15.255809
15.468597
15.348792
16.390681
17.694831
16.741753
16.860962
19.173622
18.810630
19.378662
22.203922
25.150776
27.295947
28.841496
34.666657
39.087534
41.509867
46.732426
47.540665
45.333505
48.223734
44.661760
43.266416
41.088462
38.080812
31.643510
26.051998
26.863813
22.554994
23.136735
20.285845
19.848943
20.800829
21.532774
19.441843
18.635988
19.935966
20.028949
20.352602
##ZVALUE=240
3.244877
3.922582
14.829636
44.909716
121.028423
218.186975
402.939916
594.484806
874.568820
1013.685465
1015.638709
1015.638709
1015.638709
841.902494
658.579469
419.123769
286.749005
162.189603
117.572546
110.974908
121.902823
124.041438
121.206641
110.478997
87.627769
73.855519
52.109957
37.306547
25.101900
19.700527
14.169812
13.379455
13.082623
13.081431
12.602806
14.508963
13.136864
11.937618
12.603998
12.548566
12.646914
12.414455
12.832880
12.754798
13.873577
12.818575
12.431741
12.587905
14.292598
14.380813
14.659762
15.551448
13.751984
13.586879
13.359785
14.205575
13.845563
14.325976
16.054511
15.148520
16.367435
15.241504
15.215874
15.287995
17.758608
16.671419
16.901493
17.630458
19.651651
23.611784
25.931001
27.361512
30.522943
32.744408
35.877824
35.371780
35.088658
34.708977
32.796860
29.883981
30.774474
27.848482
26.840568
22.865534
23.140907
22.777915
20.503998
20.503998
19.318461
19.138455
18.893480
18.569827
18.242598
17.829537
17.865896
19.247532
##ZVALUE=245
2.431870
2.020597
2.378821
2.693534
3.492832
14.893413
35.552979
110.937953
233.010650
419.238806
736.239552
984.186530
1015.638709
1015.638709
1015.638709
913.375616
613.918900
418.489575
269.167423
150.447488
113.054514
104.941726
119.964480
131.718516
135.507584
134.605765
119.201541
95.211864
75.331926
55.439472
39.096475
24.721622
16.813874
11.194944
10.367632
10.083914
9.642839
9.860992
8.747578
8.981824
9.406805
8.158684
8.692741
9.335876
8.220673
7.841587
9.158850
7.918477
8.516908
8.881688
8.791685
9.304881
8.946657
8.764863
9.893775
8.612871
9.655952
10.040998
9.634495
10.221601
10.060668
10.360479
10.737777
11.229515
11.612773
12.759566
11.483431
15.112758
15.168786
17.463565
17.794967
19.239783
21.187663
22.386909
22.495985
24.002790
23.585558
21.235943
22.445917
21.995902
21.103621
19.285679
18.561482
19.686818
19.985437
18.582940
17.680526
17.627478
16.193986
18.142462
17.035604
17.065406
17.339587
18.010736
17.571449
16.204715
##ZVALUE=250
1.721978
1.585484
1.599789
1.786947
1.948476
2.094507
3.533959
21.834970
61.600804
150.952935
265.988708
482.973456
650.355816
858.509541
963.554978
1009.425521
969.088674
800.271034
644.098520
414.714813
278.213620
184.872746
113.330483
98.009706
111.773610
122.846961
141.683817
145.329833
138.501525
128.864646
104.184747
85.026622
62.068701
38.974881
24.926662
14.696717
10.988712
9.244680
8.344650
8.224845
7.961988
8.334517
8.048415
7.607937
8.228421
7.851720
7.842779
8.774996
7.825494
7.723570
7.631779
7.944703
9.124875
8.645654
8.538961
9.506941
9.158850
9.949803
9.473562
10.580420
9.221435
10.554790
10.718703
10.585785
11.049509
11.118650
12.762547
13.344884
13.874769
16.269684
17.880797
19.061565
20.986795
23.673773
25.184751
25.868416
26.684999
24.964809
23.105741
23.034811
21.712780
21.130443
19.509792
21.047592
19.085407
18.345714
18.204451
17.619729
17.513633
18.694997
18.025637
18.401742
18.208623
17.377734
17.399788
15.986562
##ZVALUE=255
1.501441
1.560450
1.519918
1.736879
2.078414
1.804829
2.268553
2.085567
2.885461
8.409619
55.697560
140.975714
325.667858
499.063730
733.940005
921.772718
1015.638709
1015.638709
1015.638709
964.459777
804.969668
581.117868
420.311689
241.222978
159.112811
102.267861
96.455812
110.950470
125.558972
144.262910
152.033567
147.215724
134.749413
107.928514
83.694458
55.737495
41.354895
22.695661
15.535951
9.574890
7.476807
7.287860
7.321835
7.218719
7.178783
7.320642
6.993413
7.691979
7.388592
7.796884
7.301569
7.440448
6.699562
7.551908
7.251501
7.955432
7.645488
7.745624
7.914901
7.941723
9.057522
8.771420
8.571744
8.274913
9.151697
9.859800
9.101629
10.779500
10.769963
12.952685
12.859702
13.851523
14.917850
16.512871
17.612576
17.682910
17.888546
17.228723
16.558766
16.040802
15.979409
15.379786
14.501810
15.162826
15.473962
14.454722
14.733672
13.922453
15.234947
15.195608
14.656782
14.219880
14.270544
14.590621
14.599562
14.358759
##ZVALUE=260
1.367927
1.290441
1.482964
1.512766
1.552701
1.341701
1.388788
1.624823
1.531839
1.736879
1.588464
2.770424
7.707477
29.407740
63.141584
155.997872
258.582830
445.125699
595.747828
802.184939
904.805660
926.934481
866.456032
733.903646
500.180721
349.771976
200.491548
125.016570
83.000660
85.936785
109.668970
128.351450
149.332881
154.083967
152.482986
136.579871
109.606981
86.967945
55.519938
39.252639
22.169948
14.753938
9.180903
7.248521
6.590486
6.378889
6.116629
6.356835
6.438494
6.344914
6.873608
6.693602
6.661415
5.890727
7.078648
6.579757
7.022619
6.807446
6.626844
6.831884
6.720424
7.456541
7.810593
7.564425
8.557439
8.313656
8.604527
8.470416
9.034872
9.936690
11.577606
11.957884
11.983514
13.256669
13.981462
14.289618
14.003515
13.545752
14.174581
12.919903
13.743639
12.651682
13.243556
12.916923
14.137626
13.368726
12.986660
13.293624
13.605952
13.475418
12.872815
14.112592
14.584661
14.104843
14.865994
14.317632
##ZVALUE=265
1.324415
1.261830
1.248717
1.357794
1.240969
1.266599
1.566410
1.472831
1.275539
1.473427
1.900792
1.665950
2.006888
2.215505
3.886819
18.005967
44.615865
117.138624
213.175416
417.459011
608.115792
788.905621
1000.929475
1015.638709
1002.509594
887.768865
671.446919
490.228534
272.943974
163.224936
98.073483
71.975589
83.708763
113.692880
133.634806
155.810714
161.280632
150.033832
134.329796
107.793808
84.257722
57.134628
40.259957
21.919608
13.698936
8.053780
7.186532
6.453991
6.270409
6.265640
6.648898
6.589890
6.872416
6.636977
7.223487
6.678700
7.122755
6.982684
7.068515
7.111430
7.190704
7.453561
6.724000
7.535815
7.025599
8.004904
8.164644
8.359551
8.608699
9.220839
9.867549
10.976791
11.959672
12.700558
13.135672
13.084412
12.724996
12.856722
12.705922
12.810826
12.016892
12.354851
11.805892
11.565685
12.838840
11.780858
12.037754
12.225509
12.993813
11.852980
11.986494
12.306571
12.709498
12.699962
12.955666
12.619495
##ZVALUE=270
1.220703
1.132488
1.185536
1.304746
1.286864
1.265407
1.194477
1.327991
1.315475
1.387596
1.272559
1.510978
1.501441
1.488924
1.559854
1.839995
2.059937
8.482933
25.869608
83.497763
171.576738
309.347510
567.209721
782.908797
1006.541848
1015.638709
1015.638709
996.780992
775.633454
579.964519
398.241878
207.293630
118.819475
66.894889
63.392520
87.584853
109.935999
138.404965
154.360533
162.223577
154.412985
135.154724
111.646652
82.369447
59.668422
35.498738
23.215413
14.129877
9.716749
7.382631
6.789565
6.451607
6.662607
6.571412
6.753802
6.747842
6.717443
6.836653
6.948709
7.179976
6.714463
7.176995
7.289648
7.034540
6.656647
7.129908
7.451773
7.835627
8.688569
8.913875
9.473562
10.459423
10.869503
11.826754
11.601448
12.204647
11.696815
11.954904
12.079477
11.046529
11.001825
11.501908
11.306405
11.257529
11.300445
10.957718
11.464953
12.402534
11.876822
11.536479
11.203885
11.844635
11.868477
12.299418
12.120605
11.901855
##ZVALUE=275
1.166463
1.174808
1.051426
1.238585
1.267791
1.228452
1.238585
1.337528
1.247525
1.296997
1.425743
1.329780
1.174808
1.464486
1.448989
1.662970
1.902580
2.034903
1.952648
4.196763
14.662743
42.314529
128.786564
251.387954
500.657558
696.996450
937.773585
1015.638709
1015.638709
1015.638709
958.817005
702.247024
493.630767
260.942578
147.702694
69.337487
51.750541
59.930682
81.435442
111.332536
130.620599
150.726438
158.197880
151.491761
135.034919
109.296441
83.166957
57.638884
40.882826
23.498535
14.663935
9.223819
6.992817
6.120801
5.895495
5.931854
5.894899
6.247759
6.233454
6.376505
6.731749
6.315708
6.829500
6.984472
6.467700
6.970763
7.384419
7.066727
8.077621
8.863807
9.234548
9.525418
10.262728
10.453463
11.009574
12.036562
11.973977
11.205673
10.687709
10.897517
10.608435
11.012554
11.283755
10.416508
10.359883
10.799766
10.260940
11.101961
10.415912
10.674596
11.121631
10.671616
11.276603
11.074543
11.391640
11.790991
##ZVALUE=280
1.095533
1.077652
1.245737
1.009703
1.137853
1.139641
1.064539
1.287460
1.185536
1.271963
1.216531
1.349449
1.345873
1.530647
1.224875
1.462698
1.456738
1.770854
1.783967
1.866817
2.092719
2.407432
10.884404
33.815503
111.427903
210.629702
409.814715
613.875985
895.189643
1015.638709
1015.638709
1015.638709
1015.638709
796.315074
580.476522
327.356458
193.583965
87.308884
50.785542
43.530464
55.429935
81.138611
104.647875
131.695867
147.420764
153.702497
146.838427
131.128430
109.924674
80.607533
60.901642
36.832690
25.269985
14.760494
9.666681
6.615520
6.393790
5.921721
6.405711
6.227493
6.152987
6.274581
6.603599
6.970763
6.619692
7.561445
6.818771
7.351637
7.665753
8.355975
8.781552
8.865595
9.480715
9.800792
10.326505
10.595918
10.241866
10.092854
10.403991
10.031462
9.831786
9.803772
10.035634
9.797812
9.993911
10.225773
10.166764
10.346770
10.531545
10.731816
10.377765
10.565519
9.825826
10.014772
10.335445
10.834932
##ZVALUE=285
0.999570
0.958443
1.000762
1.025796
1.044869
1.187921
0.997782
1.110435
1.036525
0.997782
1.095533
1.161695
1.161695
1.330972
1.164675
1.388788
1.395941
1.635551
1.502633
1.399517
1.648664
1.631975
1.958609
2.232790
4.805923
15.392900
54.510832
117.396712
265.481472
439.808965
637.238622
908.137560
1015.655994
1015.655994
1015.655994
918.961763
725.882649
453.622937
283.684731
132.993460
67.093968
34.761429
35.627484
54.347515
73.479414
105.178952
123.424530
142.384768
148.237944
142.992735
131.880641
108.526945
86.191893
58.798790
41.530728
23.750663
15.516877
9.508729
7.404685
6.495714
6.613731
6.334782
6.425977
6.631613
6.770492
7.319450
7.021427
7.622838
7.724762
7.940531
8.617640
8.769631
8.905530
9.611845
9.575486
9.683967
9.506941
9.455681
9.056926
9.518862
9.689927
10.206699
9.749532
9.322762
9.653568
9.275675
9.565949
10.035634
9.942651
9.680986
9.470582
9.680986
10.247827
9.486675
10.249615
9.838939
##ZVALUE=290
0.987649
1.006722
1.077652
0.893474
0.916719
0.970960
0.735521
0.968575
0.858903
1.135468
0.977516
0.991821
1.147985
1.250505
1.223683
1.078844
1.099706
1.192689
1.048446
1.384616
1.400709
1.288652
1.705885
1.520514
1.759529
1.839995
2.446771
6.884933
30.315518
73.882937
149.415731
318.840742
501.352549
779.065490
948.242545
1015.638709
1015.638709
988.314748
832.868814
570.696592
383.681655
189.242959
97.731948
25.210977
26.134849
48.278570
50.042868
80.719590
95.212460
134.719610
140.798688
143.873692
135.066509
129.344463
91.618896
80.692768
60.587525
25.511980
24.361610
11.822581
10.277629
7.067919
6.509423
6.274581
6.663799
6.616712
6.924868
7.178783
7.686615
7.973909
8.137822
8.406639
8.541942
8.873940
9.097457
9.274483
9.306669
8.924603
9.040833
9.343624
9.125471
8.877516
8.972883
8.730888
9.486675
9.368658
9.327531
9.487867
9.389520
9.202957
9.741783
9.005666
8.795857
9.313822
9.422898
9.597540
##ZVALUE=295
0.961423
1.016855
0.998974
0.928640
0.884533
1.036525
1.050830
0.877976
0.959635
0.943542
0.920892
0.837445
1.156926
1.064539
1.140833
1.005530
0.988841
1.135468
1.234412
1.193881
1.282692
1.301765
1.381636
1.483560
1.651645
1.629591
1.777411
1.647472
2.001524
3.868937
12.583733
53.473711
117.499828
263.641477
427.335501
683.727860
874.397755
1015.638709
1015.638709
1015.638709
920.903683
671.585798
473.345518
252.248645
137.134790
49.688816
26.016831
21.202564
29.042959
47.086477
65.000653
91.378689
111.383796
130.888820
136.405826
132.697821
122.531652
101.658702
80.834627
55.946708
40.772557
24.119616
16.360879
10.682940
8.537769
7.048845
7.150769
7.193685
7.159710
7.648468
7.844567
8.593798
8.717775
8.830428
8.871555
9.402633
9.061694
9.239912
9.424686
9.037852
8.960962
9.187460
9.331703
8.901954
9.616613
9.220839
8.966923
9.236932
9.077787
8.960962
8.999705
9.094477
8.973479
9.130836
9.113550
8.927584
##ZVALUE=300
0.910759
0.776649
1.101494
0.769496
1.034737
0.840425
0.824928
0.963807
1.071692
0.853539
0.919700
0.874996
1.102686
0.910759
0.903606
1.057982
1.027584
1.152754
1.051426
1.049638
1.060963
1.016855
1.263618
1.281500
1.326799
1.351833
1.425743
1.575947
1.766682
1.728535
1.965761
2.273917
5.056858
29.012561
73.825717
190.997720
327.162743
576.370955
777.011514
996.030569
1015.638709
1015.638709
1015.638709
808.467865
605.562925
339.560509
205.045938
90.782642
40.472746
17.938614
17.395616
27.927756
40.336847
61.700940
81.925988
106.403828
121.167898
130.181909
129.519701
116.672516
101.972818
77.997446
59.415698
38.910508
26.430488
16.256571
11.293888
8.720756
7.343888
7.920861
7.900596
8.069873
8.731484
8.800626
9.006858
8.913875
9.495616
9.125471
9.391904
9.503961
9.188652
9.322762
9.019971
8.784533
9.173751
9.279847
9.094477
9.222627
9.325743
8.547902
9.194613
9.355545
9.000897
8.861423
9.160638
8.818507
##ZVALUE=305
0.730753
0.753999
0.860691
0.888705
0.858903
0.819564
0.822544
0.764728
0.845790
1.021624
0.853539
0.751615
0.829697
1.038909
1.151562
0.973940
1.010895
0.963807
1.083612
1.005530
0.974536
1.110435
1.064539
1.296997
1.325607
1.150966
1.372695
1.290441
1.457930
1.398921
1.512766
1.705885
1.807809
2.270937
3.329515
19.396544
55.200458
155.578852
278.365612
502.222776
697.971582
941.611528
1015.633941
1015.633941
1015.633941
923.559666
749.127865
491.220951
310.531855
139.386654
65.546632
22.169948
14.011860
17.481446
24.906993
41.301847
57.509542
80.164671
97.882748
116.525888
123.175979
122.293830
113.819838
94.561577
77.442527
53.785443
38.744807
25.192499
17.122626
11.946559
9.819865
8.692741
8.421540
9.167790
8.718967
9.120703
9.052753
8.880496
8.836985
9.352565
8.997917
9.017587
9.516478
9.455681
9.619594
9.532571
9.320974
9.049773
9.071827
8.526444
9.432435
8.943677
9.293556
9.154677
8.834600
8.854866
##ZVALUE=310
0.733733
0.831485
0.782609
0.902414
0.905991
0.970960
0.951886
0.892878
0.926852
0.981688
0.844598
0.842810
0.964999
0.855923
1.005530
0.768900
0.920892
1.049638
1.130700
0.975728
0.992417
0.928640
1.005530
1.263618
1.011491
1.085997
1.092553
1.144409
1.313686
1.417994
1.458526
1.416802
1.504421
1.511574
1.549721
1.996756
2.379417
8.107424
28.328896
99.153519
197.999477
402.846932
599.106550
864.537954
1015.637517
1015.637517
1015.637517
1015.637517
917.493701
641.225576
438.411832
222.913623
116.808414
39.719939
16.247630
12.023449
15.267730
23.612976
33.905506
53.297877
69.484711
92.907548
106.449723
117.017627
117.346644
107.985735
94.825625
74.961782
57.349801
37.395954
26.947856
17.876625
13.070703
10.599494
9.558797
9.049773
8.915663
9.272695
9.020567
8.879900
9.018779
9.247661
9.191632
9.531975
9.369850
9.866953
9.448528
9.337664
8.892417
9.253621
8.998513
9.389520
9.017587
8.853674
8.790493
8.985996
##ZVALUE=315
0.684857
0.660419
0.695586
0.649691
0.694990
0.702739
0.787973
0.714660
0.632405
0.768900
0.728965
0.633597
0.577569
0.824928
0.708699
0.634789
0.819564
0.848770
0.695586
0.975728
0.920892
0.973940
0.968575
1.014471
0.768900
0.944734
1.089573
1.096725
0.903606
0.874996
0.866652
1.126528
1.273751
1.324415
1.371503
1.436472
1.433492
1.777411
1.811981
3.817677
12.931824
54.951906
123.404860
282.428861
457.738638
724.242926
896.517634
1015.498638
1015.498638
1015.498638
955.512524
740.324855
554.413795
317.552686
180.237889
66.781640
25.829673
10.890961
10.491610
14.492869
20.348430
33.467412
46.704412
66.597462
83.998442
101.271868
109.852552
110.166669
103.052855
87.671876
72.826743
53.600669
39.830804
24.961829
18.285513
12.794733
10.354519
9.756684
8.866787
9.072423
9.098649
8.964539
9.171963
9.134412
9.152889
9.264946
9.759665
9.404421
9.292960
9.052753
8.894801
9.245872
8.870959
8.841753
8.862615
8.888841
##ZVALUE=320
0.677705
0.760555
0.747442
0.757575
0.809431
0.774860
0.792742
0.760555
0.767708
0.648499
0.836849
0.860691
0.780821
0.872612
0.811815
0.888705
0.863671
0.848770
0.901818
1.004934
0.909567
1.014471
0.886917
0.938773
0.829697
0.910759
0.945926
1.103878
1.075864
0.932813
1.072884
1.089573
1.211762
1.198649
1.251698
1.123548
1.582503
1.479983
1.564622
1.658797
1.851916
2.318621
5.865693
31.039715
79.783797
210.090876
348.471999
580.289960
771.981478
982.834697
1015.634537
1015.634537
951.770544
763.641596
590.964556
371.384621
238.698721
115.967989
53.537488
15.267730
9.334683
10.273457
12.515783
19.653440
28.367639
45.182705
60.078502
79.791546
94.464421
104.624629
104.582906
99.192858
88.034868
69.037676
52.639842
36.387444
26.158690
17.512441
13.542771
10.953546
9.621978
9.705424
9.250641
9.388924
9.363890
9.405613
9.512901
9.096861
9.031892
9.048581
8.873940
9.146929
9.245872
9.038448
8.820891
8.979440
##ZVALUE=325
0.830889
0.761747
0.728965
0.827909
0.805855
0.813603
0.725985
0.727773
0.742674
0.797510
0.721812
0.838637
0.735521
0.750422
0.859499
0.895858
0.855923
0.812411
0.851750
0.776649
0.936985
1.006722
0.901818
0.932813
1.135468
1.031756
1.012683
0.998974
0.893474
0.964999
1.074672
1.089573
1.178980
1.134872
1.127720
1.193881
1.251698
1.382828
1.388788
1.431704
1.472831
1.668930
1.660585
1.911521
3.368855
19.104481
49.668550
133.892894
241.177678
452.413559
634.963512
864.585638
987.146497
1015.638709
975.482464
781.479478
594.692826
365.412831
232.427716
112.752914
56.214929
18.767715
9.761453
8.745790
9.684563
12.586713
17.730594
28.730631
41.493773
61.146617
74.984431
90.774894
97.201467
100.066662
93.216896
79.064965
65.539479
47.853589
35.900474
23.475885
17.570853
12.424588
10.644794
9.950995
9.898543
9.512901
9.326935
9.245872
9.177923
8.868575
9.075999
8.882880
9.160638
8.770823
9.156466
8.846521
##ZVALUE=330
0.822544
0.746846
0.661612
0.696778
0.709891
0.788569
0.689626
0.747442
0.692606
0.862479
0.781417
0.797510
0.807643
0.867844
0.868440
0.859499
0.821948
0.838637
0.855923
0.896454
0.681877
0.813603
0.889897
0.844598
0.920892
1.113415
0.836849
1.042485
0.941753
0.959635
0.996590
1.018643
1.061559
0.929832
1.093745
1.087785
1.147985
1.173615
1.207590
1.101494
1.138449
1.274943
1.362562
1.492500
1.634955
1.799464
2.232790
8.832812
27.569532
89.971423
173.288584
355.145931
524.547696
769.324899
921.452641
1015.640497
1005.106568
870.756507
712.059736
463.507771
308.280587
146.924853
75.350404
29.951930
13.262630
8.235574
8.419752
9.579659
12.092590
18.762946
26.857853
41.975975
54.593682
73.335767
84.507465
91.682673
93.549490
85.693002
76.846480
60.812831
47.014952
32.378435
24.228692
17.153621
13.458729
11.246800
9.904504
9.324551
9.375811
8.833408
9.127855
8.427501
8.807778
8.534789
8.615851
8.608699
##ZVALUE=335
0.838637
0.782609
0.808835
0.845790
0.850558
0.903606
0.780821
0.938773
0.887513
0.822544
0.786781
0.756979
0.959635
0.848770
0.710487
0.878572
0.671744
0.762939
0.937581
0.741482
1.030564
0.930429
1.030564
1.081824
0.951886
0.969768
0.894666
0.740886
0.953674
0.935793
0.941753
0.947714
0.959635
1.187921
0.932813
1.173615
1.036525
1.264811
1.072884
1.230836
1.273751
1.327991
1.295805
1.509786
1.544952
1.611710
1.606941
1.633763
1.984835
4.235506
14.533997
58.482885
123.260617
270.742774
436.334610
685.277581
858.439803
1005.236506
1015.727520
950.302482
809.413791
560.578704
377.376676
197.655559
104.165673
36.202669
16.220808
8.742809
8.109808
8.492470
9.646416
12.692809
17.159581
27.455688
38.081408
54.834485
67.236423
79.847574
86.190701
87.303519
81.912875
69.913864
59.260726
45.482516
35.046935
24.421811
18.595457
13.210773
11.283755
9.975433
9.174943
8.824468
8.561611
8.692741
8.514524
8.595586
##ZVALUE=340
0.736713
0.753999
0.879765
0.788569
0.798702
0.873804
0.824928
0.887513
0.808835
0.990629
0.971556
0.855923
0.909567
0.815988
1.021624
0.950694
0.988841
0.920892
0.841618
0.974536
0.961423
0.743866
0.917912
0.859499
0.935793
0.963807
0.933409
0.852942
0.921488
0.986457
0.875592
1.242757
1.002550
1.084805
0.979900
1.070499
0.984669
1.032948
1.138449
1.084805
1.150966
1.217723
1.306534
1.160502
1.247525
1.368523
1.414418
1.445413
1.634955
1.629591
1.994967
2.478957
6.989837
34.378767
85.654855
213.190913
356.083512
582.149029
756.577849
941.517949
1007.172465
965.592861
854.568481
648.526549
466.485620
247.961879
138.580799
57.712793
24.013519
9.871721
8.398890
8.577704
8.700490
9.859800
11.982918
17.972589
24.722815
37.451982
48.741698
64.249635
73.881745
81.291795
81.651807
75.960755
68.340898
55.234432
44.976473
32.532811
24.884939
17.220974
13.396740
10.606647
9.520650
8.675456
8.901954
8.653998
##ZVALUE=345
0.710487
0.750422
0.682473
0.768900
0.680685
0.780821
0.693798
0.884533
0.724792
0.656843
0.761747
0.703931
0.652671
0.607967
0.814795
0.752807
0.850558
0.769496
0.858903
0.738502
0.736713
0.818968
0.715852
0.813603
0.777841
0.815988
0.720620
0.797510
0.841618
0.907779
0.775456
0.842810
0.964999
1.009703
0.971556
0.834465
1.036525
1.148582
0.961423
1.034737
1.043677
1.261830
1.146793
1.165867
1.167655
1.196861
1.114607
1.405478
1.260638
1.377463
1.551509
1.570582
1.753569
2.033710
3.589988
19.368529
59.149861
202.964544
389.308929
728.428960
984.039903
1015.634537
1015.634537
1015.634537
1015.634537
779.091716
577.100515
340.454578
196.608901
79.650879
36.638975
13.071895
9.134412
8.440614
8.450747
8.237958
8.638501
11.595488
15.251637
24.016500
33.704638
47.519803
57.240725
67.451596
73.728561
76.612830
72.484612
64.742565
55.117607
43.115616
33.453703
23.601651
17.897487
12.547970
10.681748
9.177923
##ZVALUE=350
0.909567
0.994802
0.883937
0.966787
0.793934
0.783801
0.740886
0.782609
0.795722
0.669956
0.711679
0.902414
0.785589
0.856519
0.885725
0.920892
0.829697
0.868440
0.731945
0.776649
0.836849
1.003742
0.915527
0.828505
0.831485
0.982881
0.845790
0.883937
0.893474
0.839829
0.911951
1.082420
0.961423
0.962615
0.898838
0.869632
0.987649
1.047850
1.075864
0.991821
0.864863
1.034737
1.002550
1.157522
1.117587
1.050830
1.068711
1.204610
1.193881
1.277924
1.397729
1.205802
1.513958
1.513958
1.597404
1.929998
2.657771
7.895827
37.242770
87.110996
215.967894
367.314816
621.230602
808.974504
993.763804
1015.735865
991.301537
862.273574
605.538487
418.602824
227.813721
123.605728
43.914914
18.162727
9.311438
7.881522
7.416606
7.405877
7.797480
8.577704
10.934472
14.465451
21.903515
29.268861
40.437579
50.402880
62.233806
67.667961
69.449544
68.090558
60.493946
52.349567
40.061474
31.657815
22.504926
17.549992
##ZVALUE=355
0.601411
0.702739
0.752807
0.723600
0.687838
0.594854
0.847578
0.716448
0.609756
0.774860
0.627637
0.709891
0.663996
0.740886
0.835657
0.787973
0.827909
0.916719
0.698566
0.829697
0.727773
0.694990
0.717640
0.677705
0.707507
0.929832
0.871420
0.725985
0.864863
0.865459
0.975728
0.758767
0.808835
0.736713
0.894666
0.879765
0.796914
0.969768
0.816584
0.956655
0.866652
1.029968
0.927448
0.974536
1.052618
1.081824
1.140833
1.133680
1.200438
1.155734
1.335740
1.218915
1.267791
1.217723
1.339912
1.578927
1.629591
1.537800
2.028942
5.444884
19.700527
75.333714
155.023932
321.200490
500.763655
761.137009
926.152468
1015.638709
1015.638709
890.370011
725.535750
486.998558
315.013528
146.046877
72.001815
22.806525
10.281801
7.501841
7.368922
7.118583
7.151961
7.428527
7.982850
10.115504
12.732744
18.682480
25.603771
36.005974
43.863654
54.123998
60.030818
63.436627
62.609911
56.021810
49.404502
39.153695
##ZVALUE=360
0.728965
0.719428
0.818968
0.606775
0.743866
0.661612
0.841618
0.748634
0.505447
0.639558
0.754595
0.696778
0.904799
0.763535
0.736713
0.588894
0.742674
0.888705
0.817776
0.676513
0.613928
0.704527
0.729561
0.777841
0.742674
0.819564
0.708699
0.796914
0.804663
0.890493
0.808835
0.886917
0.926852
0.918508
0.871420
0.882745
0.904799
0.893474
0.776649
1.023412
0.903606
1.009703
0.954866
0.851750
1.145601
1.137853
1.128912
0.857711
1.077652
1.195669
1.147985
1.354814
1.111627
1.378655
1.069903
1.325607
1.447797
1.475811
1.652837
1.787543
1.843572
3.092885
9.199977
42.320490
101.161599
247.889757
412.274003
670.624971
877.099037
1015.638709
1015.638709
984.625816
817.133784
545.912981
362.634659
179.268718
96.430779
37.486553
15.435815
7.620454
7.251501
6.737709
6.703734
6.478429
6.817579
7.110834
8.103848
10.978580
14.608502
21.056533
27.997494
38.329959
45.614839
53.722858
57.109594
57.099462
##ZVALUE=365
0.642538
0.747442
0.700951
0.728965
0.699759
0.792742
0.736713
0.686646
0.589490
0.549555
0.584722
0.662804
0.687838
0.759959
0.701547
0.690818
0.771880
0.696778
0.892878
0.908971
0.714660
0.740886
0.709891
0.812411
0.837445
0.719428
0.765920
0.816584
0.888705
0.766516
0.794530
0.875592
0.871420
0.791550
0.858903
0.815988
0.849962
0.959635
0.857711
0.811815
0.878572
0.980496
1.051426
1.056790
0.829697
0.938773
0.891685
1.053810
1.068711
1.048446
1.115799
1.246929
1.260638
1.176000
1.061559
1.242757
1.258850
1.408458
1.464486
1.742840
1.718998
1.866817
2.179742
2.115965
5.089641
19.177794
81.116557
174.796581
388.404727
604.242682
882.242918
1015.638709
1015.638709
1015.638709
901.568532
691.944957
415.783525
249.830484
109.427571
53.485632
19.131899
9.513497
6.983876
6.531477
6.245971
6.420612
6.157756
6.223917
6.716847
7.349849
10.086894
12.999773
18.869638
25.306940
34.752488
41.794777
##ZVALUE=370
0.757575
0.736713
0.821948
0.769496
0.664592
0.751615
0.649691
0.744462
0.697970
0.612736
0.742674
0.736713
0.871420
0.685453
0.724792
0.807643
0.887513
0.721812
0.842810
0.737906
0.728965
0.733733
0.888705
0.738502
0.853539
0.927448
0.749826
0.756979
0.754595
0.693798
0.764728
0.873804
1.016855
0.800490
0.897646
0.891685
0.863671
0.892878
0.914931
1.004934
0.883937
0.815988
0.894666
0.820756
0.729561
0.909567
1.091957
0.867844
1.209974
1.070499
1.080632
1.189709
1.121759
1.097918
1.147985
1.132488
1.113415
1.189709
1.272559
1.468658
1.423955
1.714826
1.663566
1.807809
1.992583
2.349615
3.115535
12.525916
46.314001
162.966847
306.992531
592.334867
876.646638
1015.631557
1015.631557
1015.631557
1015.631557
838.965774
584.464669
305.176973
166.738629
64.945817
30.651689
12.187958
7.465482
6.480813
6.359816
6.323457
6.299615
6.631613
6.665587
7.313490
8.459687
10.647774
13.439655
18.420815
##ZVALUE=375
0.731945
0.685453
0.556707
0.668764
0.619888
0.727773
0.754595
0.746846
0.685453
0.609756
0.616908
0.765920
0.875592
0.647902
0.596642
0.683665
0.587702
0.618696
0.705719
0.855923
0.740886
0.621676
0.844598
0.660419
0.632405
0.751615
0.864863
0.770688
0.728965
0.711679
0.812411
0.737906
0.586510
0.632405
0.798702
0.786781
0.810623
0.647902
0.875592
0.825524
0.976920
0.832677
0.944734
0.935793
0.838637
0.939965
0.902414
1.081824
1.127720
0.939965
0.886917
0.748634
0.979900
0.822544
0.994802
1.073480
1.147985
1.101494
1.192689
1.142621
1.315475
1.292825
1.374483
1.420975
1.601577
1.835823
1.750588
2.107620
2.507567
7.287860
23.560524
92.188716
208.714008
498.209596
790.114999
1015.549898
1015.549898
1015.549898
1015.549898
1015.549898
795.278549
439.999700
261.051655
120.718479
59.381723
20.037889
9.605885
6.801486
6.668568
6.684661
6.884933
7.546544
7.543564
8.147955
8.632541
9.495616
##ZVALUE=380
0.735521
0.703931
0.731945
0.685453
0.589490
0.762939
0.695586
0.655651
0.844598
0.831485
0.736713
0.716448
0.498891
0.697970
0.712872
0.765920
0.637770
0.827909
0.766516
0.752807
0.754595
0.774860
0.814795
0.862479
0.933409
0.824928
0.694990
0.645518
0.723600
0.695586
0.759959
0.680685
0.775456
0.862479
0.812411
0.871420
0.810623
0.875592
0.820756
0.826716
0.742674
0.780821
0.928640
0.898838
0.891685
0.892878
0.890493
0.925660
0.973940
0.892878
0.917912
1.014471
1.030564
1.039505
1.151562
0.962615
1.068711
1.234412
1.120567
1.292825
1.314878
1.199841
1.400709
1.252890
1.458526
1.523495
1.556873
1.870990
2.012849
2.259612
2.702475
4.640818
16.041398
71.299672
170.766711
421.505570
704.181790
1015.638709
1015.638709
1015.638709
1015.638709
1015.638709
977.832079
616.357923
387.987494
177.542567
88.330507
30.406713
13.797879
7.703900
7.196665
7.654428
7.732511
8.244514
8.398890
8.927584
##ZVALUE=385
0.699759
0.565648
0.577569
0.645518
0.765920
0.622869
0.654459
0.828505
0.847578
0.806451
0.562668
0.577569
0.699759
0.719428
0.638962
0.445843
0.589490
0.603795
0.749826
0.791550
0.713468
0.802875
0.675917
0.834465
0.859499
0.704527
0.897646
0.674725
0.778437
0.619888
0.882745
0.918508
0.698566
0.843406
0.859499
0.771880
0.783801
0.717640
0.753999
0.691414
0.938773
0.942945
0.772476
0.834465
0.757575
0.756979
0.667572
1.035929
0.911951
0.947714
0.766516
0.873804
0.866652
0.982881
0.952482
0.920892
0.957847
1.049638
1.050830
1.194477
0.978708
1.035929
1.277924
1.279712
1.406670
1.347661
1.420975
1.512766
1.498461
1.845956
2.007484
2.279878
2.359748
2.903938
7.810593
43.816566
107.865930
271.517634
490.980744
898.780823
1015.638709
1015.638709
1015.638709
1015.638709
1015.638709
902.714729
596.936941
292.860866
155.834556
61.547756
26.847720
9.801984
8.165836
8.187890
8.415580
8.863807
##ZVALUE=390
0.700951
0.716448
0.534654
0.734925
0.824928
0.826716
0.700951
0.694990
0.678897
0.717640
0.720620
0.846982
0.683665
0.693798
0.771880
0.638962
0.660419
0.886917
0.863671
0.739694
0.642538
0.747442
0.601411
0.801682
0.937581
0.737906
0.615716
0.608563
0.755787
0.762939
0.858903
0.704527
0.565648
0.737906
0.770688
0.766516
0.827909
0.870824
0.741482
0.913739
0.871420
0.843406
0.829697
0.805855
0.852942
0.712872
0.847578
0.820756
0.809431
0.814795
0.826716
0.795722
0.939965
1.096725
0.887513
0.883937
0.994802
0.902414
1.016855
1.034737
1.125932
1.067519
1.062751
1.138449
1.141429
1.360774
1.150966
1.510978
1.692772
1.831651
1.905560
1.867414
1.943707
2.224445
2.264977
2.362728
4.324913
27.527809
81.329942
232.299566
426.640511
801.048875
1015.638709
1015.638709
1015.638709
1015.638709
1015.638709
1015.638709
818.936825
474.402905
265.986919
109.939575
51.166415
17.777681
10.131598
8.647442
##ZVALUE=395
0.603795
0.588894
0.632405
0.639558
0.639558
0.635982
0.604987
0.758767
0.714660
0.599623
0.669956
0.659823
0.711679
0.704527
0.757575
0.666976
0.778437
0.709891
0.747442
0.719428
0.742674
0.652671
0.702739
0.741482
0.672936
0.809431
0.674725
0.661612
0.716448
0.805855
0.671744
0.675917
0.730753
0.643730
0.664592
0.781417
0.769496
0.862479
0.749826
0.839829
0.735521
0.850558
0.866652
0.682473
0.773668
0.672936
0.788569
0.863671
0.889897
0.780821
0.774860
0.938773
0.878572
0.948906
1.005530
0.882745
0.774860
0.882745
1.042485
0.945926
0.891685
1.035929
1.083612
1.084805
1.053810
1.186728
1.223683
1.269579
1.415610
1.495481
1.656413
1.644492
1.668930
1.741648
1.675487
1.728535
1.844764
1.993775
2.588630
13.389587
52.886605
176.271796
321.490765
600.020885
878.718495
1015.638709
1015.638709
1015.638709
1015.638709
1015.638709
908.599496
516.800880
299.605727
121.014714
57.484508
21.568537
##ZVALUE=400
0.658631
0.744462
0.430942
0.562668
0.685453
0.659823
0.746846
0.548959
0.607967
0.676513
0.712872
0.719428
0.574589
0.473857
0.562668
0.678897
0.558496
0.541806
0.613928
0.724792
0.747442
0.694990
0.744462
0.661612
0.652671
0.630617
0.673532
0.729561
0.740886
0.757575
0.737906
0.552535
0.754595
0.776649
0.760555
0.906587
0.817776
0.892878
0.883937
0.848770
0.797510
0.884533
0.728965
0.603795
0.889897
0.851750
0.778437
0.903606
0.868440
0.944734
0.722408
0.895858
0.832677
0.679493
0.864863
0.870824
0.843406
0.987649
0.927448
0.884533
1.035929
1.021624
0.891685
1.091957
0.975728
1.041889
1.269579
1.265407
1.173615
1.391768
1.452565
1.606941
1.404881
1.656413
1.589656
1.534820
1.405478
1.637936
1.714826
1.829863
2.159476
4.648566
17.982721
84.554553
198.849440
440.930724
708.179474
1015.638709
1015.638709
1015.638709
1015.638709
1015.638709
1006.101966
678.154826
422.900915
196.093917
##END
