##TITLE=QP00302
##FORMAT=SPECTACLE-ASCII V-1.2
##DATA TYPE=ULTRAVIOLET SPECTRUM
##SECOND TYPE=ULTRAVIOLET SPECTRUM
##DATE=01/21/18
##TIME=15:18:46
##SPECTROMETER/DATA SYSTEM=SPECTACLE
##XUNITS=NM EM
##YUNITS=ENERGY
##YFACTOR=1
##FIRSTX=220
##LASTX=410
##NPOINTS=96
##3DDATA=Equidistant
##ZUNITS=NM EX
##FIRSTZ=210
##LASTZ=400
##ZPOINTS=39
##XYDATA=(Y..Y)
##ZVALUE=210
2.020597
2.036691
2.241731
1.782775
2.410412
2.939701
2.789497
2.564788
2.468824
2.855659
2.068877
2.495646
2.474785
2.713799
2.877712
2.673864
3.134608
3.203750
2.959967
4.060864
3.671646
3.768802
4.055500
4.338622
3.671646
3.768802
4.098415
4.526973
5.096793
4.725456
5.555749
4.964471
5.278587
4.708767
4.410744
5.087852
5.030632
6.048679
5.059838
5.413890
6.213784
5.989671
5.305409
6.163716
5.935431
6.125569
6.255507
6.630421
6.485581
5.750656
6.073713
7.294416
6.592870
6.692410
6.711483
6.518960
6.195903
7.049441
6.439686
6.946921
7.186532
7.835627
8.351803
7.091761
7.367730
8.772612
8.770823
10.011792
10.646582
11.882782
14.761686
16.053915
18.044710
22.003651
22.396445
25.127530
23.622513
23.927689
23.572445
21.253824
22.074580
18.987656
16.812682
14.560819
11.882782
9.785891
8.664727
8.395910
8.376837
7.659793
7.187724
8.195639
7.501841
8.604527
6.441474
8.905530
##ZVALUE=215
5.303621
6.413460
5.414486
4.633665
4.152656
3.791451
4.313588
4.638433
4.761815
4.027486
4.398823
3.854632
3.959537
3.434420
3.688931
3.187656
3.445745
3.245473
3.700852
3.207922
3.782511
3.928542
4.077554
4.575849
4.250407
4.711747
4.556775
4.625916
5.199909
4.334450
4.349947
4.595518
5.065799
5.431771
5.266666
5.281568
5.478859
5.469918
5.054474
5.784631
5.027652
5.437732
5.412698
6.832480
5.771518
6.634593
6.167889
6.485581
6.089807
6.463528
7.063746
7.400513
6.848574
7.426739
6.223917
6.133914
7.103682
7.340908
6.965995
6.724000
6.892681
7.235408
7.402897
7.232428
8.022785
7.651448
7.974505
9.299517
10.539889
12.331605
12.491941
14.511943
16.959906
20.120740
20.624995
21.976829
23.298860
21.908879
22.586584
21.779537
20.376444
17.507672
15.154481
12.674928
12.220740
11.188984
10.034442
7.871985
7.268786
7.359982
8.012652
7.247925
7.238984
7.408857
7.827878
7.687807
##ZVALUE=220
20.368695
20.584464
22.190809
21.600723
22.133589
15.740991
13.360977
10.765791
9.148717
8.786917
9.912848
10.483861
10.407567
9.324551
9.559989
7.308722
5.156994
4.855990
3.625751
3.262758
3.921986
3.553629
3.784895
3.707409
4.237890
5.117655
4.663467
4.801750
4.690886
4.691482
5.605817
5.717874
5.949736
5.816817
5.680919
6.011724
6.115437
5.221963
6.763935
6.930828
7.239580
6.029606
7.290840
6.979704
6.643534
7.220507
7.019639
6.373525
7.578731
6.548762
7.529855
7.361770
7.659793
7.682443
7.415414
8.593798
7.524490
8.910894
8.569956
8.735657
9.259582
8.444786
9.371638
8.680820
9.589791
9.183884
9.169579
10.954738
12.050867
13.329983
12.813807
18.366575
19.467473
22.755861
25.115609
24.509430
26.122928
24.661422
24.073720
24.709702
21.214485
20.687580
17.460585
15.668869
14.089942
12.969971
10.931492
11.065602
9.740591
11.022687
9.009838
11.051893
10.241866
9.465814
10.125637
9.393692
##ZVALUE=225
43.398738
47.502518
61.977506
85.968971
96.812844
102.025867
97.584724
82.222819
67.956448
53.186417
32.933950
24.900436
23.958683
24.452806
25.058985
23.943782
20.592809
17.255545
13.822913
9.583831
6.843805
5.734563
5.072951
5.215406
5.684495
5.513430
6.928444
6.400943
6.796718
6.853938
6.701946
7.577538
7.547736
7.455945
8.163452
7.785559
7.981658
7.895827
8.699894
7.791519
8.294582
8.626580
9.416938
8.592606
9.021759
8.914471
9.094477
9.394884
10.367632
10.131598
9.710789
11.228919
9.284616
9.872913
9.682775
10.314584
11.502504
12.078881
10.789633
12.042522
12.550950
11.884570
11.870861
11.479855
12.961626
13.562441
13.174415
15.034676
15.493631
17.758608
20.388961
25.800467
27.371645
31.995773
31.719804
32.683611
32.921433
32.687783
31.863451
28.265715
25.881529
22.309422
21.522641
19.615889
17.881989
16.529560
15.559793
15.724897
13.593435
14.043450
13.576746
14.755726
14.699697
13.372898
13.745427
13.578534
##ZVALUE=230
47.588944
50.168633
95.596910
140.151978
194.404721
258.300900
279.134512
273.791552
241.788626
181.507468
128.744841
76.104999
54.536462
44.370890
42.953491
50.480962
51.843524
51.407814
42.887926
36.669970
28.627515
20.772815
13.966560
10.125637
7.839799
7.964969
8.429885
8.233786
7.970929
8.585453
8.196831
8.619428
7.881522
9.268522
9.095669
8.575916
10.260940
9.933710
9.701848
9.276867
9.747744
10.116696
9.812713
8.824468
10.145903
10.085702
10.759830
9.591579
10.014772
10.384917
10.562539
10.937452
11.324883
11.742711
11.093616
10.793805
11.782646
11.582971
12.305975
12.529492
12.495518
13.142824
13.008714
12.734532
13.706684
14.338493
14.977455
16.315579
17.111897
19.228458
20.276904
23.650527
24.949908
28.514862
28.470755
30.769706
30.451417
29.733777
28.808713
27.940869
27.964711
25.599599
24.966598
21.556616
20.396709
19.159913
18.506646
18.022656
17.666817
18.541813
18.068552
16.755462
17.667413
18.375516
16.886592
18.390417
##ZVALUE=235
14.236569
16.487837
35.066605
82.795620
136.607885
218.841434
283.409953
385.834575
426.265597
438.545942
407.523513
347.602963
254.556537
188.222528
125.253797
90.301633
75.690746
80.035925
86.613894
86.360574
83.393455
67.006946
55.997968
39.582849
27.703643
16.027689
13.477802
8.660555
7.975698
7.734895
9.375811
7.605553
9.030700
7.911921
8.287430
8.412600
8.931756
8.875728
9.217858
8.667707
8.365512
9.658933
9.999871
10.025501
9.105802
10.445714
11.090636
9.772778
9.955764
10.118484
9.887815
10.613799
9.624958
11.415482
12.069941
11.747479
11.754632
13.187528
13.552904
13.951659
13.610721
15.291572
15.218854
15.633702
16.605854
17.222762
18.113852
19.177794
21.104813
22.619963
26.643872
29.621720
32.710433
35.216808
36.115646
34.316778
37.103891
38.011670
34.578443
35.284758
33.290982
31.459928
30.560493
30.513406
29.393435
28.534532
27.739406
27.539730
27.170777
27.530789
27.450919
26.699901
25.734901
25.886893
26.467443
26.561618
##ZVALUE=240
2.048612
2.276897
5.418658
14.721751
36.346912
98.450780
187.694430
364.709496
518.231988
703.173876
836.384892
847.908854
802.601576
650.215745
502.853990
321.291685
220.414996
139.690638
111.176968
109.114647
116.113424
120.342970
117.030740
106.289983
87.221861
72.404742
51.853657
36.471486
22.719502
17.087460
11.217594
10.363460
10.901690
11.246800
9.788871
10.125637
10.196567
10.470748
9.817481
9.487867
8.990765
10.076761
8.406639
9.690523
9.706616
10.047555
9.704828
10.660887
9.584427
10.203719
10.839701
10.670424
11.353493
11.822581
11.573434
11.891723
12.000799
13.577938
13.425946
14.521480
15.768409
15.494823
16.300678
16.343594
16.741753
18.206835
20.126700
21.812916
22.832751
24.891496
28.145909
30.514598
33.977628
36.017895
35.992861
38.874745
38.258433
36.202669
37.616491
36.612749
34.822822
34.727454
37.206411
32.306910
32.499433
32.665730
32.828450
32.505989
33.499599
31.501651
31.412840
31.485558
31.976700
32.064915
32.272935
32.733679
##ZVALUE=245
1.637936
1.509786
2.182722
2.029538
4.189610
10.273457
32.257438
70.904493
176.828504
289.348960
460.634828
593.296885
698.002577
763.929486
741.796494
627.454519
518.523455
351.618528
248.876810
151.775479
117.779970
109.690428
121.133924
128.956437
137.599707
127.880573
118.870735
101.052523
75.029731
54.796934
34.835935
25.605559
17.054677
12.055635
10.478497
9.752512
8.838773
8.806586
8.449554
8.550882
8.151531
9.283423
9.371638
8.846521
7.970929
8.773804
7.921457
8.872747
8.645654
8.140802
9.308457
9.479523
9.426475
8.836985
8.613467
9.617805
10.033846
10.690689
11.748672
11.091828
10.827780
12.876987
13.583899
13.898611
16.326904
16.253591
18.045902
17.848611
20.273924
22.135973
24.951696
27.031898
28.590560
30.715466
31.395555
33.462644
32.018423
33.043623
33.170581
33.730865
33.395886
31.328797
32.088757
31.589866
31.495690
33.793449
32.682419
31.893849
31.587481
31.238794
30.131936
31.070709
31.315684
32.273531
31.389594
31.496882
##ZVALUE=250
1.714826
1.677871
1.838803
1.626611
1.823902
1.756549
2.391934
8.510947
22.604465
67.701936
137.603879
248.141885
436.908603
601.196885
817.419887
952.127576
1015.638709
984.995961
830.454826
639.330745
398.241878
254.837871
140.513778
109.832883
112.589598
129.723549
140.467882
145.784616
139.603615
126.476884
108.343959
79.811811
59.877634
37.930608
24.719834
14.958978
10.300875
9.269714
8.249879
7.874966
8.589625
8.289814
8.203983
7.602572
8.337498
7.827878
7.703900
7.465482
7.365942
7.631779
8.046627
7.999539
8.092523
8.087754
8.259416
8.575916
9.621978
9.108782
9.544492
10.034442
9.789467
11.048913
11.567473
12.280941
13.411641
13.346672
14.641881
15.694499
16.970634
19.874573
20.575523
23.249984
23.539662
27.502775
28.102994
29.053688
28.998852
29.075742
29.934645
30.216575
29.702783
28.673410
30.602813
29.175878
28.985739
30.928850
28.659701
30.222535
31.061769
28.909445
29.537678
30.178428
29.648542
31.103492
28.976798
28.846860
##ZVALUE=255
1.476407
1.595616
1.353621
1.645684
1.761913
1.720786
1.993775
1.887679
2.179742
4.575849
15.122890
61.388612
136.332512
293.509960
457.958579
652.408600
897.684693
1011.155844
1015.638709
1012.050509
851.491690
671.280026
406.316519
260.170698
162.535906
101.940632
93.006492
114.051700
130.570531
146.507621
151.772499
148.279667
133.998990
110.552907
86.273551
58.024526
41.118860
23.489594
15.313625
10.303855
8.717775
7.975698
7.547736
7.660985
7.214546
7.534623
7.191896
7.557869
7.142425
7.562637
6.839633
7.563829
7.203817
7.815957
7.314682
7.921457
7.841587
9.106994
8.586645
8.630753
9.632707
10.110736
10.303855
10.850430
10.902882
11.694431
12.950897
13.866425
15.524626
15.891790
19.612908
21.156669
21.409988
24.937987
25.533438
25.545955
25.364757
26.489496
26.374459
27.523637
26.705861
27.366877
27.565956
26.645660
27.120709
26.747584
26.293993
28.014779
27.691722
27.950406
27.516484
27.324557
27.242899
27.837753
29.656887
28.887987
##ZVALUE=260
1.396537
1.243949
1.509786
1.418591
1.509786
1.451969
1.563430
1.756549
1.777411
2.051592
1.932979
2.772808
7.170439
33.086538
84.105730
211.983919
347.006917
578.648448
760.828853
963.105559
1015.642881
1015.642881
926.214457
760.871768
512.003899
346.882939
200.332999
127.276778
85.289478
86.425543
105.517507
131.745934
149.435997
160.341859
151.619911
132.953525
116.851926
82.478523
63.909888
37.640929
24.404526
13.991594
10.231733
7.611513
6.464720
6.472468
6.737709
7.329583
6.775856
6.315708
6.222725
6.976724
6.654859
6.745458
7.178783
7.198453
6.745458
7.008910
7.838607
8.017421
8.061528
8.826852
9.477735
9.570718
9.415746
10.686517
11.323690
12.079477
12.488961
13.392568
15.171766
17.386675
17.923713
18.709898
20.419955
19.989610
21.855831
21.712780
21.997690
22.130609
22.551417
23.918748
23.672581
24.085641
24.090409
24.560690
24.282932
24.304986
25.777817
26.017427
25.287867
25.355816
25.815964
27.098656
25.496483
26.793480
##ZVALUE=265
1.333952
1.242757
1.133680
1.237988
1.591444
1.500845
1.422763
1.458526
1.589656
1.630783
1.851916
1.880527
1.956820
2.119541
3.949404
19.120574
48.191547
125.692487
231.717825
443.003774
632.921457
817.565918
1003.176570
1015.642881
989.229679
868.125558
650.646687
474.246740
270.006657
164.083838
101.325512
73.212981
82.962513
111.729503
134.118795
156.510472
159.537792
148.893595
134.192705
106.920600
84.749460
57.417750
38.569570
21.462440
13.523698
9.153485
7.274747
6.672740
6.667972
6.436706
6.210804
6.309748
6.040931
6.445646
7.114410
7.069707
6.426573
7.454753
7.656813
7.945895
7.688999
8.765459
8.498430
9.036660
10.169744
9.887815
10.475516
11.742711
11.920929
13.377666
14.159679
15.048981
15.564561
17.314553
18.096566
19.316673
19.773841
19.709468
20.224452
21.732450
21.456480
21.705627
22.149682
22.575855
22.965670
23.157001
24.009943
23.045540
23.403764
23.577809
23.179650
24.172664
24.499893
24.222732
24.602413
25.429726
##ZVALUE=270
1.067519
0.956655
1.151562
1.287460
1.068711
1.146793
1.442432
1.397729
1.360774
1.253486
1.337528
1.171827
1.550913
1.640916
1.781583
2.103448
2.198815
8.026958
25.756955
83.843470
171.404481
306.560993
554.942489
749.868751
970.644951
1015.612483
1015.612483
981.771946
788.848996
618.799925
451.442003
249.411464
146.494508
76.850653
65.761805
86.039901
108.834505
136.933923
148.668885
159.760714
154.084563
134.376884
114.351511
82.448721
58.705807
36.465526
24.323463
13.905764
10.515451
7.159710
6.938577
6.567836
6.686449
6.792545
6.691813
7.188916
7.391572
7.885695
7.755756
8.186698
8.749962
7.772446
8.909702
8.967519
9.833574
10.226965
10.518432
12.047887
12.084842
13.539791
14.362931
14.670491
15.913844
17.107725
17.933846
18.905997
18.534660
19.036531
18.990636
20.065904
20.320415
20.235777
21.163821
21.069646
22.181869
21.342635
21.843910
22.905469
22.212863
22.731423
23.103952
22.591949
22.559762
23.542643
23.341775
23.127794
##ZVALUE=275
1.010895
1.054406
1.151562
0.963807
1.218915
1.075864
1.203418
1.278520
1.111627
1.352429
1.214743
1.347661
1.643896
1.461506
1.449585
1.563430
1.605749
1.874566
1.996756
4.318953
14.988780
44.396520
135.431886
252.568722
493.697524
685.109496
911.308527
1015.646458
1015.646458
1015.646458
992.683768
759.380460
557.796955
306.944847
178.951621
84.296465
56.598783
61.836839
81.295967
110.473633
132.505894
150.421858
155.399442
151.878595
136.355758
108.219981
86.660981
58.225989
41.811466
24.116635
15.683770
10.071993
8.034706
6.907582
7.352829
7.975698
7.814765
7.330775
8.190870
8.567572
8.829832
8.797646
9.460449
9.606481
10.092854
10.780692
10.650754
11.497736
12.705922
13.013482
14.920831
14.882684
15.956759
16.693473
17.714500
18.001795
18.947721
18.992424
19.061565
19.147992
19.670725
20.414591
19.774437
20.098686
20.071864
21.886826
20.844936
20.682812
22.201538
21.443963
21.750927
21.512508
21.570921
22.338629
22.007823
21.960735
##ZVALUE=280
0.987649
0.877976
1.146793
1.051426
1.090765
1.140833
1.283884
0.933409
1.044869
1.183748
1.089573
1.227856
1.294613
1.269579
1.482964
1.559854
1.406670
1.546741
1.477599
2.082586
2.166629
2.371669
9.863973
33.263564
105.142593
198.526978
378.869772
562.767982
816.046000
981.960893
1015.638709
1015.638709
1005.570889
784.629583
590.875745
344.759822
208.417773
93.951821
52.844882
43.643713
55.445433
84.074736
106.164813
134.638548
146.210790
153.812766
146.094561
130.751729
110.875964
80.437660
62.375665
38.064718
25.868416
15.517473
10.561943
8.334517
7.259846
7.691979
7.900596
8.499622
8.645654
8.975863
10.047555
9.657741
10.071993
11.444688
11.788607
11.596680
12.855530
13.081431
14.315844
15.177727
15.646815
16.152859
16.963482
17.179847
17.924905
17.960668
18.257499
18.769503
19.294620
19.261837
20.573735
20.180941
20.396709
20.465851
20.907521
20.755529
20.968914
21.475554
21.447539
20.135641
20.583868
20.716786
20.988584
20.582676
##ZVALUE=285
0.999570
0.900626
1.025796
0.948906
1.035929
1.041889
1.070499
0.964999
1.137853
1.078844
1.248717
1.069903
1.188517
1.248717
1.332760
1.310706
1.243949
1.324415
1.402497
1.420975
1.674891
1.826882
1.731515
2.149940
4.810691
16.280413
56.928992
119.319558
262.988806
430.426002
623.632669
887.019634
1015.641689
1015.641689
1015.641689
902.182460
709.531903
446.192622
281.457901
134.327412
71.150661
34.888983
35.799742
54.485798
74.305534
105.261803
123.527646
141.828656
147.543550
143.436790
132.310987
108.096600
88.104606
60.194731
42.753816
25.251508
16.938448
11.429787
9.765625
8.561611
8.696914
8.971691
10.043979
9.851456
10.353923
10.943413
11.464953
12.508631
13.289452
13.777614
14.085770
14.821887
15.404820
16.309619
17.398596
17.652512
18.288493
18.038750
18.660426
19.527674
18.996000
19.473433
19.652843
19.364953
19.934773
19.950867
20.392537
20.002723
20.292997
19.503832
20.334721
19.834638
20.567775
20.331740
20.253658
19.952655
##ZVALUE=290
1.055598
0.890493
0.919700
0.848770
1.009703
1.104474
0.788569
1.021624
0.983477
1.019835
1.015663
0.982881
0.994802
1.048446
1.086593
1.069903
1.182556
1.290441
1.169443
1.303554
1.602769
1.248717
1.615882
1.702905
1.920462
1.909733
2.538562
7.341504
33.113956
80.697536
158.777833
337.498784
529.552698
799.588561
979.923010
1015.647650
1015.647650
996.276736
830.350518
567.204952
379.817486
189.649463
99.662542
40.566921
26.930571
34.785867
49.411654
72.688460
92.045665
121.530890
134.541988
145.044923
141.978860
126.969814
108.630657
80.226660
60.841441
39.993525
27.408600
17.772913
13.131499
10.403991
10.008812
10.470748
10.084510
11.455417
11.603832
12.324452
12.900829
13.656616
14.592409
15.643835
16.327500
17.085671
17.429590
17.337799
18.372536
18.507838
18.163919
19.018650
18.925667
20.078421
19.149780
19.179583
19.353628
19.434690
20.445585
20.771623
20.395517
20.047426
20.039678
20.265579
19.515753
20.769835
19.603968
19.947886
##ZVALUE=295
0.877976
0.831485
0.746846
0.810623
1.002550
0.877976
0.917912
0.891685
0.885725
0.756979
0.844598
0.845790
0.963807
0.980496
0.992417
1.055598
1.102686
1.115799
1.098514
1.105666
1.306534
1.400709
1.440644
1.497865
1.784563
1.606941
1.880527
1.849532
1.983643
3.667474
14.366508
66.424608
149.563551
326.690674
511.727929
776.891708
951.678753
1015.628576
1015.628576
1015.628576
917.015672
663.962960
465.418696
250.446796
136.448741
50.455928
26.808977
22.434592
29.229522
46.888590
65.171719
91.092587
110.465884
129.798651
137.835741
135.766864
124.154687
102.749467
84.043741
58.387518
42.451620
26.304722
19.138455
14.081597
11.988878
11.888742
12.350678
12.634993
12.930632
13.634562
14.405847
15.705824
15.584826
16.797781
17.342567
17.602444
18.216968
18.356442
18.696785
19.150972
19.382834
19.640923
19.663572
19.715428
19.494891
19.691586
20.453930
20.243526
20.703673
20.469427
20.092726
20.371675
20.243526
20.051599
19.604564
19.441843
##ZVALUE=300
1.012683
0.850558
0.976920
0.848770
0.812411
0.833869
0.838637
0.937581
0.898838
0.951886
0.954866
0.872612
0.924468
1.009703
0.843406
0.921488
1.046658
1.137853
1.037717
1.135468
1.212955
1.178980
1.118779
1.210570
1.281500
1.401901
1.551509
1.715422
1.668930
1.731515
1.896620
2.134442
5.380511
30.698776
75.372458
192.688704
325.276852
573.957562
770.917535
983.916521
1015.638709
1015.638709
1000.161767
781.811476
592.713952
339.594483
204.078555
89.345574
42.521954
17.613769
17.849803
27.067661
40.089488
61.893463
81.670880
108.302832
122.875571
131.209493
131.492615
118.824840
103.581548
79.229474
62.319636
43.001771
30.592680
20.816922
16.522408
13.961792
13.788939
13.998747
15.018582
15.819669
16.248822
16.825795
17.658472
17.613769
18.448830
18.969774
19.091964
19.139647
19.698739
20.494461
20.685792
21.349788
21.201968
21.208525
20.901561
21.044612
21.068454
20.436645
19.911528
20.084977
19.924641
20.073652
19.667745
19.915700
##ZVALUE=305
0.764728
0.620484
0.811815
0.885725
0.810623
0.842810
0.686646
0.857711
0.898838
0.876784
0.849962
0.852942
0.954866
0.973940
0.741482
1.018643
1.028776
0.824928
0.882745
1.004934
0.886917
0.988841
1.127720
1.269579
1.222491
1.160502
1.349449
1.157522
1.300573
1.393557
1.483560
1.788735
1.703501
2.141595
3.290772
19.623637
53.504705
151.197910
273.495913
504.846573
704.728961
956.816673
1015.594602
1015.594602
1015.594602
915.022492
737.333894
487.363935
313.218832
145.823956
71.362853
24.375916
14.518499
17.554760
24.910569
42.397976
58.696866
81.084967
99.223852
118.775964
124.857426
124.395490
115.111470
98.798871
81.930757
58.482885
44.270754
30.131936
22.830963
17.793775
16.448498
16.101599
16.272664
17.184615
18.130541
18.018484
18.836856
18.913746
19.737482
20.501614
19.996762
21.248460
21.213889
21.333694
21.246672
21.392703
21.333694
21.516681
21.367669
21.492839
20.596981
21.021962
20.601749
20.750761
20.514727
20.197630
##ZVALUE=310
0.719428
0.618696
0.776649
0.879765
0.990629
1.051426
0.797510
0.896454
0.946522
1.016855
0.806451
0.939965
1.079440
0.944734
0.756979
0.998974
1.004934
0.990629
0.924468
0.947714
0.977516
0.895858
0.917912
1.158714
1.110435
1.060963
1.159906
1.314878
1.305938
1.368523
1.312494
1.413822
1.520514
1.576543
1.803637
1.888871
2.356768
8.952618
29.147863
96.356869
188.767910
380.981565
571.873784
839.069486
1001.200676
1015.638709
1015.638709
1015.638709
907.490849
639.210939
445.986986
235.377550
127.119422
45.493841
18.861890
12.440681
15.787482
24.618506
34.303665
53.491592
71.043968
94.296932
108.556747
119.378567
120.519996
112.600923
99.328756
78.157783
61.693788
44.538975
34.202933
25.173426
21.396875
19.083619
18.987656
18.685460
19.146800
19.099712
20.026565
19.880533
20.010471
21.306872
21.709800
21.647811
22.429824
21.985769
22.355914
21.728873
22.061467
22.139549
21.819472
21.879673
21.070838
20.914674
21.257997
21.232963
##ZVALUE=315
0.806451
0.780821
0.771880
0.839829
0.942945
0.873804
0.766516
0.747442
0.953674
0.872612
0.811815
0.945926
0.978708
0.817776
0.956655
0.822544
0.707507
0.854731
0.814795
0.907779
0.971556
0.929832
1.125932
0.818968
1.001954
1.203418
1.129508
1.036525
1.203418
1.207590
1.300573
1.242757
1.200438
1.502633
1.412630
1.463890
1.919866
1.798868
1.971722
4.408956
16.901493
69.727898
147.099495
316.577554
504.203439
784.520507
960.439444
1015.635729
1015.635729
1015.635729
984.862447
734.493732
532.249808
289.765000
160.440803
59.219003
24.672747
11.901855
11.700988
15.895963
21.729469
35.539865
49.020648
69.717765
86.382627
104.981661
113.288760
113.724470
108.408928
92.572570
79.809427
60.640574
48.802495
34.270883
27.290583
22.352934
20.770431
20.089746
20.247698
20.698905
21.239519
21.954775
21.736622
21.977425
22.428632
22.371411
22.396445
22.634864
22.385716
22.352934
22.100806
22.301674
21.635890
21.839738
21.912456
21.439791
##ZVALUE=320
0.781417
1.026988
0.954866
0.809431
0.756979
0.602603
0.783801
0.707507
0.808835
0.621676
0.809431
0.796914
0.867844
0.812411
0.948906
0.822544
0.936985
1.084805
0.768900
0.846982
0.909567
1.111627
1.016855
0.940561
0.970960
1.080632
1.042485
1.089573
1.084805
1.063943
1.301765
1.209974
1.288652
1.298785
1.259446
1.243949
1.452565
1.529455
1.643896
1.773834
1.955628
2.517700
6.915927
35.071969
95.313787
258.029699
434.795618
719.037652
936.099887
1015.640497
1015.640497
1015.640497
1015.640497
873.739719
652.933717
371.856689
221.094489
99.099874
45.122504
15.242696
10.892749
12.031794
15.166998
22.129416
31.237602
48.564672
64.164996
83.790421
97.716451
109.161735
110.734701
104.979873
94.003677
76.280832
61.077476
45.113564
36.223531
28.126836
24.591684
22.336841
21.798611
21.768808
21.639466
22.173524
22.310615
22.831559
22.485852
22.778511
22.463799
22.547841
22.461414
22.293925
21.783710
21.767616
21.285415
21.366477
##ZVALUE=325
0.695586
0.827909
0.898838
0.667572
0.789762
0.854731
0.764728
0.713468
0.749826
0.901818
0.764728
0.928640
0.936985
0.788569
0.633597
0.761747
0.990629
0.884533
0.713468
0.787973
1.008511
0.911951
0.966787
0.961423
0.862479
0.983477
0.909567
1.053810
1.169443
1.118779
1.027584
1.064539
1.159906
1.325607
1.161695
1.256466
1.256466
1.493692
1.544952
1.400709
1.582503
1.771450
1.820922
2.207756
3.624558
24.694800
68.174601
179.891586
323.913693
590.996742
806.712508
1015.642881
1015.642881
1015.642881
1015.642881
928.742886
713.006854
444.898009
274.983644
123.687983
61.170459
20.956993
12.261868
10.718703
12.274981
16.522408
22.024512
32.765865
45.827627
66.536665
80.061555
95.667839
103.642941
106.329918
101.424456
86.822510
74.187517
57.670474
46.015978
34.721494
29.018521
24.250746
23.251772
22.663474
22.534728
22.741556
22.601485
22.344589
22.670627
22.409558
21.848679
22.256970
22.049546
21.582842
21.639466
21.519661
##ZVALUE=330
0.894666
0.781417
0.833869
0.793934
0.877976
0.771880
0.817776
0.757575
0.766516
0.746846
0.915527
0.768900
0.679493
0.836849
0.822544
0.759959
0.966787
1.034737
0.842810
0.992417
0.837445
0.906587
0.821948
0.894666
0.936985
1.016855
0.947714
0.891685
1.056790
1.083612
1.085997
0.939965
1.064539
1.064539
1.075864
1.158714
1.179576
1.100898
1.239777
1.445413
1.336932
1.480579
1.564622
1.681447
1.783967
1.917481
2.534986
10.622740
35.290718
122.799873
239.704847
467.971563
686.074495
974.539518
1015.681028
1015.681028
1015.681028
1000.273824
807.154775
528.500676
340.951681
162.152648
84.136724
31.004548
14.434457
11.276603
11.058450
13.054609
15.844703
23.227930
31.658411
46.330690
60.122609
79.248548
90.399981
101.286769
101.770759
95.603466
86.737871
70.085526
58.009624
43.855906
35.573840
29.088855
26.052594
23.504496
22.486448
22.410750
22.214651
22.144914
21.599531
22.061467
21.550655
21.495819
22.001863
21.038651
##ZVALUE=335
0.748634
0.736713
0.768900
0.695586
0.715852
0.772476
0.830889
0.715852
0.773668
0.715852
0.781417
0.702739
0.723600
0.803471
0.923872
0.836849
0.737906
0.944734
0.844598
0.907779
0.807643
0.940561
0.816584
0.812411
0.754595
0.855923
0.765920
1.003742
0.842810
0.857711
1.074672
0.959635
1.067519
0.992417
0.931621
1.012683
1.085997
1.102686
1.084805
1.367927
1.329780
1.331568
1.193881
1.608729
1.492500
1.798868
1.749992
2.025962
2.191663
5.022883
17.968416
71.130991
155.658722
355.482697
574.323535
911.696553
1015.638709
1015.638709
1015.638709
1015.638709
963.404775
647.962689
432.915688
230.753422
122.482777
45.024753
19.861460
11.487603
11.465549
12.285709
13.515949
16.818643
22.442937
33.452511
43.946505
61.655641
74.586868
87.136626
94.733834
95.701814
91.014504
79.866648
68.979859
54.962635
44.721961
35.226941
30.345917
25.697947
23.409724
21.912456
21.529794
20.876527
21.219850
20.802617
20.802617
20.849705
##ZVALUE=340
0.790954
0.826716
0.688434
0.691414
0.670552
0.720620
0.672936
0.664592
0.810623
0.676513
0.644922
0.719428
0.752807
0.903606
0.810623
0.753999
0.824928
0.801682
0.680685
0.841618
0.863671
0.769496
0.723600
0.932813
0.815988
0.851750
0.830889
0.800490
0.987649
0.869632
1.014471
0.886917
0.924468
0.974536
0.895858
1.176000
1.152754
0.949502
1.124740
1.031756
1.174808
1.281500
1.272559
1.226664
1.247525
1.344681
1.481771
1.699924
1.610518
1.847744
2.044439
3.049970
10.520816
51.513910
127.194524
305.388570
509.575605
826.278925
1015.638709
1015.638709
1015.638709
1015.638709
1015.638709
801.064968
557.250977
286.451578
159.128904
65.263510
28.516650
12.879968
12.230873
12.541413
12.982488
14.670491
17.578602
23.762584
31.324625
44.338703
55.881739
72.818995
84.051490
91.060996
91.818571
86.497664
78.919530
66.273808
56.630969
42.946935
36.422610
28.951764
25.135875
22.161603
20.573735
20.241737
20.173788
20.175576
##ZVALUE=345
0.561476
0.633597
0.637770
0.795722
0.850558
0.750422
0.594854
0.897646
0.797510
0.683665
0.691414
0.792742
0.771880
0.859499
0.754595
0.794530
0.652671
0.623465
0.801682
0.830889
0.722408
0.860691
0.815988
0.864863
0.770688
0.947714
0.805855
0.856519
0.941753
0.795722
0.857711
0.953674
0.945926
0.976920
0.864863
0.752807
1.005530
0.913739
1.010895
1.198649
1.160502
0.994802
1.219511
1.159906
1.296997
1.258850
1.376867
1.290441
1.424551
1.619458
1.544952
1.671910
2.040863
2.276897
4.618764
29.796958
82.604885
218.566656
392.934680
710.657835
969.789624
1015.638709
1015.638709
1015.638709
1015.638709
929.089785
678.318739
394.596457
222.070813
89.070797
42.458773
17.479658
12.479424
12.499690
12.585521
13.277531
14.590621
17.382503
21.487474
30.568838
39.671659
54.427981
65.127611
76.735616
82.938671
84.192753
81.757903
74.072480
65.841675
53.534508
43.547750
33.509731
28.434992
24.005771
21.752715
20.126700
##ZVALUE=350
0.643730
0.680685
0.590682
0.612736
0.828505
0.828505
0.682473
0.773668
0.760555
0.693798
0.793934
0.756979
0.667572
0.752807
0.772476
0.836849
0.768900
0.631809
0.730753
0.814795
0.776649
0.791550
0.892878
0.719428
0.874996
0.915527
0.876784
0.956655
0.802875
0.824928
0.810623
0.898838
0.909567
0.993609
1.022816
0.980496
1.082420
0.995994
0.984669
0.982881
1.101494
0.958443
1.139641
1.178980
1.170635
1.077652
1.241565
1.362562
1.482964
1.509786
1.605749
1.732707
1.786947
1.903772
1.973510
2.205968
3.015995
16.800761
52.361488
164.141655
319.417715
656.916499
962.917805
1015.638709
1015.638709
1015.638709
1015.638709
1015.638709
902.668834
512.459874
299.015641
126.077533
58.518648
20.504594
13.239980
11.999607
11.835694
12.381673
12.640953
14.227629
16.412735
22.065639
28.037429
37.094951
46.282411
59.484839
68.058968
75.838566
77.516437
75.812936
70.504546
59.992671
50.838590
39.563775
33.107996
26.459694
##ZVALUE=355
0.799894
0.815988
0.739694
0.774860
0.722408
0.852942
0.845790
0.644922
0.743866
0.661612
0.887513
0.927448
0.825524
0.736713
0.773668
0.784993
0.730753
0.765920
0.791550
0.768900
0.848770
0.895858
0.939965
0.967979
1.015663
1.016855
0.842810
0.814795
0.914931
0.881553
0.822544
0.836849
0.805855
0.904799
0.895858
1.033545
0.981688
1.049638
1.005530
1.040697
1.081824
0.934601
1.057982
1.098514
1.228452
1.289845
1.125932
1.170635
1.316667
1.415610
1.352429
1.698732
1.474619
1.576543
1.664758
1.775622
2.033710
2.198815
2.391934
7.097721
26.817918
104.399920
219.118595
478.397012
768.284798
1015.638709
1015.638709
1015.638709
1015.638709
1015.638709
1015.638709
703.997612
430.013537
182.785988
86.778998
28.531551
14.549494
11.615753
11.607409
11.628866
12.151599
12.358427
13.665557
16.119480
19.133687
25.489926
32.340884
42.204857
51.502585
61.888695
67.400932
70.629716
69.639683
64.621568
57.696700
47.562718
##ZVALUE=360
0.709891
0.795722
0.784993
0.785589
0.758767
0.621676
0.728965
0.838637
0.789762
0.754595
0.694990
0.775456
1.093745
0.763535
0.795722
0.898838
0.894666
0.861883
0.895858
0.701547
0.863671
0.883937
0.738502
0.868440
0.722408
0.830889
0.944734
1.006722
0.971556
0.856519
0.968575
0.958443
0.944734
0.891685
1.049638
0.863671
0.847578
1.031756
0.899434
0.917912
1.006722
0.999570
0.921488
1.126528
1.148582
1.160502
1.204610
0.982881
1.364946
1.165867
1.362562
1.441836
1.320839
1.561642
1.389980
1.558661
1.564622
1.698732
1.753569
2.166629
2.258420
3.557801
12.197495
57.448745
134.442449
323.313475
551.189780
922.614932
1015.638709
1015.638709
1015.638709
1015.638709
1015.638709
747.184753
492.325425
239.958763
125.586987
47.461987
20.106435
11.079907
10.750890
10.785460
11.178851
11.297464
11.543632
12.308955
13.474822
16.768575
20.696521
27.487874
35.038590
45.620799
51.911473
59.981942
63.504577
64.050555
##ZVALUE=365
0.566840
0.500679
0.556707
0.583529
0.473857
0.564456
0.541806
0.671744
0.677705
0.712872
0.767708
0.693798
0.878572
0.751615
0.622869
0.627637
0.615716
0.628829
0.721812
0.637770
0.688434
0.651479
0.840425
0.781417
0.881553
0.818968
1.018643
0.774860
0.724792
0.938773
0.840425
0.736713
0.732541
0.962615
0.780821
0.874996
0.836849
0.785589
0.854731
1.026988
0.978708
0.867844
0.936985
0.974536
1.063943
0.960827
1.017451
0.965595
0.980496
1.128912
1.158714
1.047850
1.202822
1.249909
1.267791
1.190901
1.378655
1.531839
1.535416
1.706481
1.660585
2.200603
2.150536
2.681613
4.957914
26.967525
72.819591
204.046965
398.664474
782.454610
1015.510559
1015.510559
1015.510559
1015.510559
1015.510559
941.230655
651.556849
349.969864
188.867450
66.717863
27.428865
11.342764
9.905696
9.701848
9.933710
10.064840
9.957552
10.546446
10.812879
11.812449
13.827682
18.226504
22.248626
30.294657
37.258863
46.948791
##ZVALUE=370
0.708699
0.869632
0.727773
0.622869
0.753999
0.793934
0.612736
0.694990
0.745654
0.813603
0.705719
0.783801
0.814795
0.656843
0.713468
0.755787
0.859499
0.847578
0.760555
0.898838
0.777841
0.831485
0.854731
0.803471
0.826716
0.760555
0.849962
0.978708
0.875592
0.647902
0.685453
0.749826
0.818968
0.988841
1.001954
1.053810
0.971556
0.867844
0.882745
0.833869
0.698566
1.019835
0.893474
0.852942
0.852942
1.000762
0.950694
0.928640
1.124740
1.028776
1.084805
1.164675
1.198649
1.213551
1.166463
1.318455
1.353621
1.360774
1.285672
1.448989
1.643896
1.717806
1.929998
1.890659
2.140999
2.337694
3.779531
13.566613
69.914460
158.559680
369.135737
600.464940
968.039036
1015.638709
1015.638709
1015.638709
1015.638709
1015.638709
708.001852
451.975465
215.351582
107.995868
38.862824
17.947555
9.810925
8.991957
9.305477
9.200573
9.265542
9.652972
9.769797
9.951591
11.439919
12.930632
15.958548
19.676685
##ZVALUE=375
0.726581
0.653863
0.710487
0.700951
0.889897
0.817776
0.690818
0.679493
0.701547
0.825524
0.626445
0.689626
0.617504
0.719428
0.752807
0.699759
0.716448
0.775456
0.793934
0.755787
0.827909
0.758767
0.787973
0.997782
0.745654
0.773668
0.659823
0.774860
0.872612
0.790954
0.832677
0.759959
0.865459
0.930429
0.796914
0.890493
0.713468
0.796914
0.894666
0.780821
0.797510
0.969768
0.995994
0.918508
0.868440
1.076460
0.872612
0.968575
0.822544
1.005530
0.984669
1.019835
0.978708
0.942945
1.116991
1.012683
1.252890
1.133680
1.352429
1.194477
1.345873
1.428723
1.392961
1.505613
1.613498
1.560450
1.940727
2.114773
2.538562
6.188750
34.324527
85.622668
208.789706
379.659534
717.704892
993.145704
1015.638709
1015.638709
1015.638709
1015.638709
878.874660
590.092540
312.709808
168.955922
66.233873
29.569864
11.134744
8.490682
8.472800
8.188486
8.347631
8.153915
8.402467
8.707643
9.147525
9.757876
##ZVALUE=380
0.630617
0.640750
0.633597
0.698566
0.698566
0.828505
0.645518
0.765920
0.645518
0.850558
0.729561
0.716448
0.614524
0.622869
0.860691
0.648499
0.474453
0.759959
0.666976
0.899434
0.773668
0.778437
0.861883
0.846982
0.894666
0.705719
0.803471
0.928640
0.787973
0.835657
0.828505
0.723600
0.724792
0.667572
0.897646
0.877976
0.749826
0.863671
0.643730
0.793934
0.777841
0.970960
0.841618
1.030564
0.739694
0.693798
0.912547
0.801682
0.848770
0.925660
0.939965
0.999570
0.908971
0.894666
0.993609
0.972748
1.034737
1.105666
1.002550
1.106858
1.238585
1.192689
1.347661
1.262426
1.260638
1.339912
1.393557
1.718998
1.703501
2.007484
2.229810
3.786683
15.062690
71.494579
158.061981
353.046656
564.165711
881.404877
1015.638709
1015.638709
1015.638709
1015.638709
986.851454
666.679740
438.044667
209.450722
107.372403
38.825870
17.402768
8.366704
7.604957
7.517934
7.462502
7.655621
7.808805
7.963777
##ZVALUE=385
0.648499
0.803471
0.683665
0.670552
0.615716
0.639558
0.665784
0.640750
0.658631
0.613928
0.657439
0.661612
0.516772
0.637770
0.732541
0.742674
0.745654
0.762939
0.803471
0.675917
0.792742
0.702739
0.730753
0.738502
0.669956
0.625849
0.777841
0.738502
0.619888
0.544786
0.741482
0.658631
0.844598
0.688434
0.755787
0.766516
0.608563
0.785589
0.820756
0.818968
0.849962
0.945926
0.897646
0.725985
0.845790
0.655651
0.593662
0.859499
0.809431
0.741482
0.873804
0.811815
0.954866
1.056790
1.011491
1.048446
0.922680
0.924468
0.840425
0.896454
0.975728
0.943542
1.097918
1.031756
1.202822
1.046658
1.137853
1.324415
1.463890
1.614690
1.763701
1.989603
2.184510
2.367496
6.218553
38.235784
99.373460
245.115757
423.080921
718.008876
937.948823
1015.638709
1015.638709
1015.638709
996.690989
739.954710
526.419878
286.026001
163.851976
68.990588
29.418468
9.576678
6.987453
6.789565
6.709695
6.933808
##ZVALUE=390
0.624657
0.566840
0.537634
0.699759
0.512600
0.677705
0.709891
0.642538
0.694990
0.613928
0.725985
0.593662
0.589490
0.624657
0.562668
0.608563
0.579953
0.693798
0.703931
0.653863
0.732541
0.550747
0.515580
0.622869
0.684857
0.617504
0.668764
0.736713
0.709891
0.735521
0.829697
0.643730
0.634789
0.679493
0.665784
0.756979
0.692606
0.628829
0.721812
0.832677
0.847578
0.780821
0.861883
0.803471
0.759959
0.818968
0.902414
0.784993
0.843406
0.743866
0.784993
0.874996
0.841618
0.678897
0.773668
0.837445
0.864863
0.869632
0.867844
0.868440
0.921488
1.119971
0.911951
1.145601
1.235604
1.071692
1.052618
1.237988
1.414418
1.426935
1.532435
1.612902
1.732707
1.918674
1.903772
2.097487
3.102422
19.371510
68.001747
214.035511
391.023755
678.765774
895.849466
1015.638709
1015.638709
1015.638709
1015.638709
852.824450
654.811859
403.719544
235.242844
94.775558
44.014454
14.300942
7.448792
6.452799
##ZVALUE=395
0.660419
0.703931
0.673532
0.661612
0.535846
0.554919
0.629425
0.502467
0.615716
0.705719
0.585914
0.780821
0.739694
0.637770
0.695586
0.596642
0.585914
0.734925
0.595450
0.715852
0.631809
0.769496
0.765920
0.753999
0.738502
0.652671
0.566840
0.644922
0.668764
0.659823
0.729561
0.709891
0.662804
0.562668
0.668764
0.702739
0.703931
0.769496
0.834465
0.742674
0.624657
0.682473
0.778437
0.899434
0.672936
0.550747
0.755787
0.862479
0.813603
0.860691
0.671744
0.844598
0.753999
0.626445
0.759959
0.811815
0.841618
0.745654
0.790954
0.773668
0.858903
1.120567
0.899434
1.021624
0.966787
1.183748
1.125932
1.182556
1.219511
1.334548
1.418591
1.490712
1.505613
1.610518
1.447797
1.613498
1.620650
1.752973
2.304912
9.910464
39.767623
147.374868
283.668637
531.458855
745.425820
1001.625657
1015.635729
1015.635729
1015.635729
1007.128954
825.582743
512.674451
326.719880
151.737928
71.800947
23.188591
##ZVALUE=400
0.633597
0.633597
0.682473
0.699759
0.684857
0.541806
0.708699
0.582933
0.585914
0.676513
0.590682
0.622869
0.643730
0.688434
0.675917
0.674725
0.626445
0.548959
0.588894
0.639558
0.638962
0.780821
0.775456
0.646710
0.557899
0.810623
0.604987
0.787973
0.800490
0.666976
0.615716
0.637770
0.788569
0.697970
0.752807
0.599623
0.749826
0.826716
0.724792
0.685453
0.685453
0.888705
0.587702
0.755787
0.697970
0.818968
0.758767
0.793934
0.906587
0.868440
0.905991
0.927448
0.737906
0.666976
0.961423
0.955462
0.821948
0.943542
0.806451
0.907779
0.872612
0.847578
0.941753
1.025796
0.860691
1.061559
1.123548
1.213551
1.300573
1.393557
1.392961
1.561642
1.615882
1.426935
1.460910
1.399517
1.619458
1.621842
1.734495
1.797676
2.150536
5.899668
21.871924
86.829662
190.717578
412.660837
630.413890
914.073586
1015.635729
1015.635729
1015.635729
1015.635729
903.493762
601.390004
401.429534
201.493502
##END
